#Strain and Orientation Refinement from experimental file: /home/micha/LaueProjects/DepthEffects/testZrO2_193.cor
#File created at Wed Jun 28 14:29:53 2023 with indexingSpotsSet.py
#Number of indexed spots: 530
#Element
#ZrO2
#grainIndex
#G_0
#Mean Deviation(pixel): 0.114
##spot_index intensity h k l 2theta Chi Xexp Yexp Energy GrainIndex PixDev
8.000000 52.990000 4.000000 1.000000 -3.000000 73.954234 -50.547713 2282.866863 1428.151036 9.446168 0.000000 0.354711
14.000000 47.478000 2.000000 1.000000 -2.000000 56.638871 -39.551088 1863.841523 1860.047514 7.030864 0.000000 0.293662
15.000000 50.656000 7.000000 3.000000 -6.000000 66.254608 -41.514355 1927.705568 1573.323749 19.766094 0.000000 0.241331
16.000000 51.883000 8.000000 3.000000 -6.000000 74.439211 -43.374427 1991.891316 1353.327203 19.296070 0.000000 0.216576
17.000000 51.810000 3.000000 1.000000 -2.000000 81.402055 -45.135610 2056.401203 1171.688288 6.440230 0.000000 0.207045
18.000000 50.918000 10.000000 3.000000 -6.000000 87.340196 -46.802512 2121.237692 1014.044426 19.656778 0.000000 0.210816
19.000000 49.540000 11.000000 3.000000 -6.000000 92.426047 -48.379902 2186.403267 872.344406 20.201666 0.000000 0.227840
20.000000 47.897000 4.000000 1.000000 -2.000000 96.804770 -49.872595 2251.900443 741.724118 6.964447 0.000000 0.256728
21.000000 46.130000 13.000000 3.000000 -6.000000 100.596139 -51.285363 2317.731755 619.070994 21.692136 0.000000 0.294977
22.000000 48.460000 7.000000 4.000000 -6.000000 65.993922 -34.674966 1719.565966 1523.852827 20.662621 0.000000 0.170426
23.000000 49.897000 4.000000 2.000000 -3.000000 74.104621 -36.626902 1775.111023 1322.909469 10.032263 0.000000 0.149942
24.000000 50.094000 9.000000 4.000000 -6.000000 81.071806 -38.492749 1830.900743 1157.032517 19.983021 0.000000 0.136483
25.000000 49.474000 5.000000 2.000000 -3.000000 87.061099 -40.274377 1886.936745 1013.422609 10.115641 0.000000 0.127204
26.000000 48.342000 11.000000 4.000000 -6.000000 92.223589 -41.974146 1943.220665 884.787716 20.702879 0.000000 0.125357
27.000000 46.911000 6.000000 2.000000 -3.000000 96.690630 -43.594778 1999.754150 766.668290 10.666367 0.000000 0.134636
28.000000 45.636000 7.000000 5.000000 -6.000000 65.106040 -28.459957 1558.406523 1509.118120 21.942554 0.000000 0.130387
29.000000 47.305000 8.000000 5.000000 -6.000000 73.118818 -30.435569 1607.356588 1319.818568 21.164969 0.000000 0.121070
30.000000 47.811000 9.000000 5.000000 -6.000000 80.080114 -32.341546 1656.497838 1163.788669 20.938515 0.000000 0.114821
31.000000 47.510000 10.000000 5.000000 -6.000000 86.122365 -34.177510 1705.831395 1029.181081 21.068433 0.000000 0.104734
32.000000 46.678000 11.000000 5.000000 -6.000000 91.372755 -35.943683 1755.358389 909.142114 21.442061 0.000000 0.092006
33.000000 45.511000 12.000000 5.000000 -6.000000 95.946227 -37.640805 1805.079962 799.431241 21.989696 0.000000 0.081157
41.000000 62.273000 6.000000 2.000000 -5.000000 67.787695 -46.232664 2098.630878 1576.358030 16.077907 0.000000 0.304546
42.000000 63.263000 7.000000 2.000000 -5.000000 77.180004 -48.316712 2183.715866 1309.298464 15.823743 0.000000 0.284963
43.000000 62.335000 8.000000 2.000000 -5.000000 84.883846 -50.255743 2269.367100 1091.716780 16.057008 0.000000 0.292266
44.000000 60.370000 9.000000 2.000000 -5.000000 91.242479 -52.060379 2355.590251 903.032672 16.577950 0.000000 0.321570
49.000000 55.478000 5.000000 3.000000 -5.000000 56.681899 -35.322364 1737.689701 1808.103369 18.051389 0.000000 0.242123
50.000000 59.796000 6.000000 3.000000 -5.000000 67.916002 -37.733021 1807.846030 1493.160460 16.744717 0.000000 0.187794
51.000000 61.123000 7.000000 3.000000 -5.000000 77.243851 -40.008574 1878.392614 1259.118031 16.378410 0.000000 0.164168
52.000000 60.592000 8.000000 3.000000 -5.000000 84.981731 -42.153476 1949.332720 1068.482813 16.519433 0.000000 0.152915
53.000000 58.993000 9.000000 3.000000 -5.000000 91.423201 -44.173153 2020.669650 903.717832 16.965252 0.000000 0.155472
54.000000 56.832000 10.000000 3.000000 -5.000000 96.817384 -46.073663 2092.406742 755.522979 17.608478 0.000000 0.175095
55.000000 54.422000 11.000000 3.000000 -5.000000 101.366769 -47.861422 2164.547373 618.506271 18.386868 0.000000 0.210021
56.000000 51.946000 12.000000 3.000000 -5.000000 105.232654 -49.542989 2237.094957 489.325330 19.261858 0.000000 0.255793
59.000000 51.567000 5.000000 4.000000 -5.000000 56.087253 -27.601932 1537.719262 1757.516799 19.421379 0.000000 0.177227
60.000000 56.011000 6.000000 4.000000 -5.000000 67.023554 -30.050862 1597.673363 1468.203822 17.877434 0.000000 0.133458
61.000000 57.787000 7.000000 4.000000 -5.000000 76.265583 -32.395351 1657.914630 1252.542175 17.324999 0.000000 0.121982
62.000000 57.792000 8.000000 4.000000 -5.000000 84.046021 -34.634592 1718.445131 1077.424427 17.320701 0.000000 0.110500
63.000000 56.703000 9.000000 4.000000 -5.000000 90.600316 -36.769131 1779.266955 926.921953 17.651225 0.000000 0.096146
64.000000 54.983000 10.000000 4.000000 -5.000000 96.140485 -38.800627 1840.382209 792.421409 18.201233 0.000000 0.086248
65.000000 52.938000 11.000000 4.000000 -5.000000 100.846671 -40.731619 1901.793023 668.857166 18.902905 0.000000 0.091144
66.000000 50.757000 12.000000 4.000000 -5.000000 104.867407 -42.565316 1963.501546 553.054764 19.713754 0.000000 0.114021
67.000000 48.556000 13.000000 4.000000 -5.000000 108.323354 -44.305408 2025.509947 442.923280 20.605807 0.000000 0.149360
68.000000 46.405000 14.000000 4.000000 -5.000000 111.311925 -45.955911 2087.820418 337.029005 21.559895 0.000000 0.191714
69.000000 47.058000 2.000000 2.000000 -2.000000 54.866756 -20.915690 1386.334566 1751.791291 8.513408 0.000000 0.142054
70.000000 51.563000 6.000000 5.000000 -5.000000 65.440377 -23.306593 1438.672368 1476.549168 19.420713 0.000000 0.102752
71.000000 53.757000 7.000000 5.000000 -5.000000 74.544419 -25.624087 1491.230275 1271.044008 18.624842 0.000000 0.109479
72.000000 54.310000 8.000000 5.000000 -5.000000 82.335459 -27.864280 1544.009677 1104.838360 18.432223 0.000000 0.111997
73.000000 53.773000 9.000000 5.000000 -5.000000 88.990682 -30.024476 1597.011977 962.900692 18.613859 0.000000 0.103389
74.000000 52.554000 4.000000 2.000000 -2.000000 94.681511 -32.103074 1650.238591 836.952622 7.617456 0.000000 0.086491
75.000000 50.937000 11.000000 5.000000 -5.000000 99.561489 -34.099450 1703.690946 722.059023 19.646392 0.000000 0.066028
76.000000 49.112000 12.000000 5.000000 -5.000000 103.762512 -36.013827 1757.370480 615.094737 20.374523 0.000000 0.050589
77.000000 47.205000 13.000000 5.000000 -5.000000 107.395299 -37.847140 1811.278646 513.984226 21.196431 0.000000 0.054750
78.000000 46.955000 6.000000 6.000000 -5.000000 63.461578 -17.491693 1314.182735 1504.581725 21.327643 0.000000 0.078945
79.000000 49.460000 7.000000 6.000000 -5.000000 72.365663 -19.719986 1360.792767 1304.445751 20.244196 0.000000 0.100304
80.000000 50.489000 8.000000 6.000000 -5.000000 80.112923 -21.895889 1407.577831 1143.177767 19.828538 0.000000 0.117276
81.000000 50.470000 9.000000 6.000000 -5.000000 86.828486 -24.015185 1454.538914 1006.289004 19.833254 0.000000 0.120262
82.000000 49.746000 10.000000 6.000000 -5.000000 92.644211 -26.074488 1501.677011 885.661348 20.119714 0.000000 0.112083
83.000000 48.571000 11.000000 6.000000 -5.000000 97.685519 -28.071223 1548.993126 776.392408 20.604208 0.000000 0.095933
84.000000 47.128000 12.000000 6.000000 -5.000000 102.065228 -30.003572 1596.488268 675.346517 21.233201 0.000000 0.074440
85.000000 45.543000 13.000000 6.000000 -5.000000 105.881597 -31.870419 1644.163457 580.424451 21.970857 0.000000 0.050255
86.000000 46.595000 8.000000 7.000000 -5.000000 77.602711 -16.702260 1297.950037 1188.006166 21.486898 0.000000 0.116163
87.000000 47.017000 9.000000 7.000000 -5.000000 84.325353 -18.738141 1340.104263 1053.933318 21.291373 0.000000 0.129531
88.000000 46.740000 10.000000 7.000000 -5.000000 90.222732 -20.732788 1382.401723 936.526265 21.414809 0.000000 0.130553
89.000000 45.985000 11.000000 7.000000 -5.000000 95.393247 -22.682759 1424.843148 830.870147 21.764225 0.000000 0.122544
97.000000 77.203000 5.000000 2.000000 -4.000000 70.512669 -42.457030 1959.758077 1457.232504 12.968462 0.000000 0.226664
98.000000 75.411000 7.000000 2.000000 -4.000000 89.979955 -47.602095 2153.779187 941.558427 13.271782 0.000000 0.217719
103.000000 65.785000 4.000000 3.000000 -4.000000 56.307359 -29.435576 1582.341444 1764.966110 15.223747 0.000000 0.189973
104.000000 72.093000 5.000000 3.000000 -4.000000 69.795558 -32.480509 1660.160462 1410.542513 13.888454 0.000000 0.138820
105.000000 73.515000 6.000000 3.000000 -4.000000 80.648352 -35.349751 1738.462766 1158.310676 13.617044 0.000000 0.121546
106.000000 72.156000 7.000000 3.000000 -4.000000 89.361582 -38.044917 1817.252871 956.228804 13.871138 0.000000 0.104901
107.000000 69.385000 8.000000 3.000000 -4.000000 96.390744 -40.570513 1896.535350 782.299730 14.423187 0.000000 0.099161
108.000000 66.004000 9.000000 3.000000 -4.000000 102.108461 -42.933133 1976.314831 625.621963 15.160448 0.000000 0.119049
109.000000 62.454000 10.000000 3.000000 -4.000000 106.804788 -45.140770 2056.596005 480.175533 16.020687 0.000000 0.161526
110.000000 58.968000 11.000000 3.000000 -4.000000 110.701092 -47.202249 2137.383617 342.363437 16.966743 0.000000 0.216454
115.000000 65.375000 5.000000 4.000000 -4.000000 67.848754 -23.893022 1451.791156 1420.227812 15.316788 0.000000 0.103259
116.000000 67.751000 3.000000 2.000000 -2.000000 78.593078 -26.754042 1517.592202 1184.188297 7.388317 0.000000 0.112150
117.000000 67.481000 7.000000 4.000000 -4.000000 87.423734 -29.492032 1583.740428 996.636645 14.833109 0.000000 0.106470
118.000000 63.118000 9.000000 4.000000 -4.000000 100.670724 -34.585706 1717.089475 694.669616 15.854494 0.000000 0.061193
119.000000 60.204000 5.000000 2.000000 -2.000000 105.643786 -36.940534 1784.295893 563.909066 8.310119 0.000000 0.049526
120.000000 57.209000 11.000000 4.000000 -4.000000 109.802848 -39.169824 1851.860689 441.114030 17.488823 0.000000 0.072031
121.000000 54.277000 6.000000 2.000000 -2.000000 113.307312 -41.277131 1919.786737 324.005449 9.216257 0.000000 0.113749
122.000000 51.481000 13.000000 4.000000 -4.000000 116.282241 -43.266951 1988.076943 211.055032 19.432720 0.000000 0.162193
123.000000 48.855000 7.000000 2.000000 -2.000000 118.825841 -45.144431 2056.734243 101.199161 10.238261 0.000000 0.213761
125.000000 51.741000 4.000000 5.000000 -4.000000 52.887612 -13.932719 1242.008265 1780.046300 19.358357 0.000000 0.125399
126.000000 58.273000 5.000000 5.000000 -4.000000 65.254156 -16.728486 1298.487120 1459.006077 17.184872 0.000000 0.077074
127.000000 61.376000 6.000000 5.000000 -4.000000 75.774334 -19.456850 1355.223825 1230.383299 16.312887 0.000000 0.109421
128.000000 62.083000 7.000000 5.000000 -4.000000 84.634093 -22.108333 1412.220150 1050.116552 16.124262 0.000000 0.123191
129.000000 61.258000 8.000000 5.000000 -4.000000 92.067843 -24.675294 1469.477880 898.233900 16.338799 0.000000 0.117620
130.000000 59.530000 9.000000 5.000000 -4.000000 98.307920 -27.151917 1526.998819 764.368883 16.811067 0.000000 0.098995
131.000000 57.318000 10.000000 5.000000 -4.000000 103.561730 -29.534136 1584.784785 642.605079 17.458075 0.000000 0.072113
132.000000 54.889000 11.000000 5.000000 -4.000000 108.004886 -31.819487 1642.837615 529.319214 18.229008 0.000000 0.041384
133.000000 52.407000 12.000000 5.000000 -4.000000 111.782062 -34.006933 1701.159161 422.167908 19.091015 0.000000 0.022474
134.000000 49.968000 13.000000 5.000000 -4.000000 115.010834 -36.096664 1759.751293 319.568056 20.021912 0.000000 0.048371
135.000000 47.624000 14.000000 5.000000 -4.000000 117.786223 -38.089891 1818.615899 220.411342 21.006179 0.000000 0.087729
136.000000 51.527000 5.000000 6.000000 -4.000000 62.432920 -10.833583 1180.967988 1513.081937 19.435928 0.000000 0.050952
137.000000 55.058000 3.000000 3.000000 -2.000000 72.621475 -13.370936 1230.832589 1287.232435 9.092998 0.000000 0.098196
138.000000 56.512000 7.000000 6.000000 -4.000000 81.401334 -15.865928 1280.898626 1110.194182 17.715149 0.000000 0.127892
139.000000 56.513000 4.000000 3.000000 -2.000000 88.920603 -18.310413 1331.167322 962.360246 8.856097 0.000000 0.136198
140.000000 55.564000 9.000000 6.000000 -4.000000 95.345804 -20.697307 1381.639909 833.338929 18.012202 0.000000 0.129797
141.000000 54.036000 5.000000 3.000000 -2.000000 100.838384 -23.020648 1432.317631 717.108706 9.259803 0.000000 0.113447
142.000000 52.184000 11.000000 6.000000 -4.000000 105.543674 -25.275618 1483.201741 609.939157 19.175212 0.000000 0.090325
143.000000 50.177000 6.000000 3.000000 -2.000000 109.587277 -27.458526 1534.293502 509.395686 9.970197 0.000000 0.062593
144.000000 48.126000 13.000000 6.000000 -4.000000 113.075296 -29.566743 1585.594189 413.821598 20.788875 0.000000 0.031853
145.000000 46.099000 7.000000 3.000000 -2.000000 116.096259 -31.598626 1637.105084 322.050198 10.851080 0.000000 0.006366
147.000000 49.179000 6.000000 7.000000 -4.000000 69.419944 -8.324769 1132.489561 1349.428383 20.361571 0.000000 0.079577
148.000000 51.134000 7.000000 7.000000 -4.000000 78.023346 -10.636167 1177.126268 1173.306338 19.579732 0.000000 0.121937
149.000000 51.775000 8.000000 7.000000 -4.000000 85.532883 -12.921261 1221.924671 1027.269170 19.334724 0.000000 0.141681
150.000000 51.483000 9.000000 7.000000 -4.000000 92.060816 -15.173373 1266.885650 900.872202 19.441534 0.000000 0.145738
151.000000 50.567000 10.000000 7.000000 -4.000000 97.726777 -17.386422 1312.010090 787.975574 19.791407 0.000000 0.138969
152.000000 49.256000 11.000000 7.000000 -4.000000 102.645878 -19.554999 1357.298886 684.733396 20.316226 0.000000 0.124637
153.000000 47.714000 12.000000 7.000000 -4.000000 106.922829 -21.674417 1402.752936 588.613749 20.971150 0.000000 0.104973
154.000000 46.054000 13.000000 7.000000 -4.000000 110.649793 -23.740737 1448.373148 497.881532 21.725458 0.000000 0.081535
155.000000 46.152000 7.000000 8.000000 -4.000000 74.690767 -6.259658 1093.057003 1237.394343 21.694907 0.000000 0.108861
156.000000 47.249000 2.000000 2.000000 -1.000000 82.108875 -8.375222 1133.457744 1091.786328 5.297005 0.000000 0.137990
157.000000 47.476000 9.000000 8.000000 -4.000000 88.659910 -10.474871 1173.991137 966.604733 21.084129 0.000000 0.150807
158.000000 47.075000 5.000000 4.000000 -2.000000 94.428485 -12.553223 1214.657837 855.603954 10.630553 0.000000 0.152180
159.000000 46.243000 11.000000 8.000000 -4.000000 99.502269 -14.605226 1255.458500 754.830437 21.641640 0.000000 0.145398
162.000000 90.475000 3.000000 2.000000 -3.000000 56.573726 -32.635692 1664.263965 1784.581120 11.069056 0.000000 0.215957
163.000000 87.341000 7.000000 2.000000 -3.000000 103.964603 -46.610734 2113.576487 551.388514 11.456379 0.000000 0.185893
164.000000 80.782000 8.000000 2.000000 -3.000000 109.566185 -49.347711 2228.417245 353.808878 12.385244 0.000000 0.263908
168.000000 88.732000 4.000000 3.000000 -3.000000 71.664134 -24.860011 1473.686431 1334.125843 11.284235 0.000000 0.106594
169.000000 90.383000 5.000000 3.000000 -3.000000 84.671321 -28.593335 1561.652274 1055.332315 11.075308 0.000000 0.110281
170.000000 82.891000 7.000000 3.000000 -3.000000 102.430361 -35.384768 1739.451971 650.012732 12.072047 0.000000 0.054311
171.000000 77.608000 8.000000 3.000000 -3.000000 108.496314 -38.440479 1829.299094 481.320464 12.892360 0.000000 0.061305
172.000000 67.448000 10.000000 3.000000 -3.000000 117.173832 -43.904993 2010.921776 174.135291 14.832246 0.000000 0.179118
177.000000 65.993000 3.000000 4.000000 -3.000000 52.178850 -11.909644 1201.999994 1794.876264 15.177932 0.000000 0.125484
178.000000 76.485000 4.000000 4.000000 -3.000000 67.982783 -15.528740 1274.064306 1392.716724 13.092406 0.000000 0.080996
179.000000 80.131000 5.000000 4.000000 -3.000000 80.803205 -19.045272 1346.549357 1125.351038 12.493574 0.000000 0.122244
180.000000 79.591000 6.000000 4.000000 -3.000000 91.061712 -22.438320 1419.458842 919.419765 12.575777 0.000000 0.125492
181.000000 76.825000 7.000000 4.000000 -3.000000 99.251139 -25.691832 1492.796501 746.459913 13.026419 0.000000 0.104082
182.000000 73.044000 8.000000 4.000000 -3.000000 105.815248 -28.794617 1566.566115 593.114688 13.698827 0.000000 0.068598
183.000000 68.930000 9.000000 4.000000 -3.000000 111.114728 -31.740006 1640.771513 452.284348 14.515061 0.000000 0.027258
184.000000 64.838000 10.000000 4.000000 -3.000000 115.430070 -34.525302 1715.416568 319.845226 15.429873 0.000000 0.031923
185.000000 60.942000 11.000000 4.000000 -3.000000 118.975613 -37.151109 1790.505199 193.237288 16.415194 0.000000 0.081844
186.000000 57.317000 12.000000 4.000000 -3.000000 121.914466 -39.620641 1866.041370 70.786354 17.452688 0.000000 0.135742
187.000000 53.983000 13.000000 4.000000 -3.000000 124.371086 -41.939067 1942.029097 -48.649267 18.529868 0.000000 0.191376
191.000000 55.214000 3.000000 5.000000 -3.000000 49.337239 -5.086205 1070.795505 1869.197573 18.141741 0.000000 0.145958
192.000000 65.157000 4.000000 5.000000 -3.000000 64.008131 -8.305601 1132.121815 1471.316881 15.369930 0.000000 0.047696
193.000000 69.948000 5.000000 5.000000 -3.000000 76.394792 -11.488742 1193.754315 1206.812401 14.313972 0.000000 0.114913
194.000000 71.118000 6.000000 5.000000 -3.000000 86.674500 -14.617030 1255.695304 1005.631202 14.075529 0.000000 0.141058
195.000000 70.037000 7.000000 5.000000 -3.000000 95.141610 -17.673800 1317.947103 839.357912 14.290183 0.000000 0.139555
196.000000 67.697000 8.000000 5.000000 -3.000000 102.107065 -20.644748 1380.512057 694.280458 14.782092 0.000000 0.121287
197.000000 64.738000 9.000000 5.000000 -3.000000 107.851599 -23.518195 1443.392536 562.968413 15.455979 0.000000 0.092674
198.000000 61.548000 10.000000 5.000000 -3.000000 112.610994 -26.285159 1506.590932 441.044835 16.255736 0.000000 0.057613
199.000000 58.347000 11.000000 5.000000 -3.000000 116.576410 -28.939289 1570.109663 325.763305 17.146172 0.000000 0.018549
200.000000 55.257000 12.000000 5.000000 -3.000000 119.900309 -31.476665 1633.951170 215.312863 18.104094 0.000000 0.023161
201.000000 52.336000 13.000000 5.000000 -3.000000 122.703537 -33.895532 1698.117920 108.450555 19.113601 0.000000 0.066352
202.000000 49.609000 14.000000 5.000000 -3.000000 125.081845 -36.195981 1762.612405 4.294568 20.163419 0.000000 0.110645
203.000000 47.081000 15.000000 5.000000 -3.000000 127.111309 -38.379619 1827.437142 -97.798378 21.245339 0.000000 0.155803
204.000000 46.481000 1.000000 2.000000 -1.000000 46.697096 0.125409 972.644208 1955.353838 7.183601 0.000000 0.183129
205.000000 55.495000 4.000000 6.000000 -3.000000 60.221295 -2.713741 1026.015451 1557.559870 18.047146 0.000000 0.014414
206.000000 60.727000 5.000000 6.000000 -3.000000 72.012478 -5.551902 1079.619454 1292.097088 16.488939 0.000000 0.094358
207.000000 63.202000 7.000000 6.000000 -3.000000 90.665363 -11.170278 1187.531860 928.259305 15.837316 0.000000 0.152348
208.000000 62.078000 8.000000 6.000000 -3.000000 97.882889 -13.924449 1241.843353 787.467707 16.121809 0.000000 0.148408
209.000000 60.170000 3.000000 2.000000 -1.000000 103.965487 -16.626227 1296.393792 661.659473 5.543602 0.000000 0.132737
210.000000 57.849000 10.000000 6.000000 -3.000000 109.099280 -19.265465 1351.184756 546.206399 17.296440 0.000000 0.109433
211.000000 55.351000 11.000000 6.000000 -3.000000 113.444961 -21.833532 1406.217840 438.174253 18.075696 0.000000 0.081180
212.000000 52.821000 4.000000 2.000000 -1.000000 117.137232 -24.323394 1461.494652 335.612421 6.313330 0.000000 0.049912
213.000000 50.347000 13.000000 6.000000 -3.000000 120.287278 -26.729614 1517.016814 237.173345 19.869579 0.000000 0.018554
214.000000 47.977000 14.000000 6.000000 -3.000000 122.986208 -29.048286 1572.785965 141.895956 20.850398 0.000000 0.023658
215.000000 45.734000 5.000000 2.000000 -1.000000 125.308504 -31.276930 1628.803755 49.076179 7.290716 0.000000 0.058179
216.000000 47.541000 4.000000 7.000000 -3.000000 56.806703 1.666026 943.695073 1645.425197 21.067532 0.000000 0.037871
217.000000 52.766000 5.000000 7.000000 -3.000000 67.929122 -0.858066 991.119864 1377.449600 18.978129 0.000000 0.067277
218.000000 55.647000 6.000000 7.000000 -3.000000 77.700934 -3.388592 1038.728610 1176.062712 17.992178 0.000000 0.124054
219.000000 56.734000 7.000000 7.000000 -3.000000 86.188270 -5.915706 1086.522385 1013.092635 17.644632 0.000000 0.150979
220.000000 56.549000 8.000000 7.000000 -3.000000 93.510671 -8.429639 1134.502268 874.248670 17.699581 0.000000 0.158692
221.000000 55.522000 9.000000 7.000000 -3.000000 99.807803 -10.920928 1182.669350 751.508987 18.024601 0.000000 0.153676
222.000000 53.974000 10.000000 7.000000 -3.000000 105.219057 -13.380617 1231.024727 640.022606 18.539619 0.000000 0.140069
223.000000 52.131000 11.000000 7.000000 -3.000000 109.873018 -15.800440 1279.569506 536.683346 19.193368 0.000000 0.120623
224.000000 50.146000 12.000000 7.000000 -3.000000 113.883201 -18.172961 1328.304802 439.409871 19.951504 0.000000 0.097247
225.000000 48.121000 13.000000 7.000000 -3.000000 117.347314 -20.491677 1377.231740 346.755047 20.790156 0.000000 0.071365
226.000000 46.117000 14.000000 7.000000 -3.000000 120.348255 -22.751078 1426.351450 257.681326 21.692215 0.000000 0.044412
227.000000 46.050000 5.000000 8.000000 -3.000000 64.243652 2.899281 920.490824 1460.955278 21.747093 0.000000 0.039436
228.000000 49.197000 6.000000 8.000000 -3.000000 73.610339 0.630200 963.161292 1257.578758 20.352662 0.000000 0.104321
229.000000 50.841000 7.000000 8.000000 -3.000000 81.915211 -1.648786 1005.980795 1093.951180 19.691409 0.000000 0.141053
230.000000 51.336000 8.000000 8.000000 -3.000000 89.221881 -3.930506 1048.950114 955.652235 19.498729 0.000000 0.158280
231.000000 51.003000 9.000000 8.000000 -3.000000 95.620457 -6.207737 1092.070037 834.455693 19.623672 0.000000 0.162151
232.000000 50.103000 10.000000 8.000000 -3.000000 101.210647 -8.473343 1135.341357 725.325955 19.973838 0.000000 0.156729
233.000000 48.837000 11.000000 8.000000 -3.000000 106.091192 -10.720402 1178.764872 625.007719 20.489500 0.000000 0.144771
234.000000 47.352000 12.000000 8.000000 -3.000000 110.354101 -12.942334 1222.341387 531.302961 21.130333 0.000000 0.128205
235.000000 45.751000 13.000000 8.000000 -3.000000 114.082065 -15.133005 1266.071713 442.673806 21.868131 0.000000 0.108422
236.000000 45.594000 7.000000 9.000000 -3.000000 77.943573 1.848813 940.258204 1171.001241 21.959067 0.000000 0.126145
237.000000 46.552000 8.000000 9.000000 -3.000000 85.145832 -0.221659 979.163862 1032.404434 21.504095 0.000000 0.151056
238.000000 46.739000 3.000000 3.000000 -1.000000 91.553937 -2.298132 1018.193296 911.778824 7.138480 0.000000 0.162363
239.000000 46.359000 10.000000 9.000000 -3.000000 97.236092 -4.375167 1057.347098 803.944166 21.588507 0.000000 0.163920
240.000000 45.581000 11.000000 9.000000 -3.000000 102.265426 -6.447317 1096.625863 705.520867 21.955059 0.000000 0.158424
241.000000 90.522000 2.000000 3.000000 -2.000000 50.746894 -8.262949 1131.303609 1829.692178 11.065350 0.000000 0.132412
242.000000 84.514000 8.000000 3.000000 -2.000000 121.018056 -35.431120 1740.762690 146.750858 11.836502 0.000000 0.072795
243.000000 77.598000 9.000000 3.000000 -2.000000 124.801091 -38.958529 1845.276809 -21.028292 12.890643 0.000000 0.146514
247.000000 87.807000 3.000000 4.000000 -2.000000 66.334867 -4.133816 1052.788263 1413.909495 11.404874 0.000000 0.056313
248.000000 84.917000 7.000000 4.000000 -2.000000 111.361627 -20.558872 1378.670933 491.402147 11.782606 0.000000 0.095794
249.000000 73.721000 9.000000 4.000000 -2.000000 121.688126 -27.900080 1544.870413 189.188345 13.569534 0.000000 0.011762
250.000000 63.940000 11.000000 4.000000 -2.000000 128.215966 -34.448762 1713.300290 -86.665000 15.643443 0.000000 0.113354
255.000000 54.995000 2.000000 5.000000 -2.000000 43.319436 5.866509 864.411618 2088.368840 18.215212 0.000000 0.244572
256.000000 70.473000 3.000000 5.000000 -2.000000 60.794023 2.315108 931.487298 1543.159382 14.211448 0.000000 0.010097
257.000000 78.462000 4.000000 5.000000 -2.000000 75.610734 -1.273818 998.932459 1217.198743 12.761015 0.000000 0.114669
258.000000 80.892000 5.000000 5.000000 -2.000000 87.810234 -4.872476 1066.750164 982.303783 12.374691 0.000000 0.155150
259.000000 79.855000 6.000000 5.000000 -2.000000 97.706589 -8.452622 1134.943508 793.753840 12.532859 0.000000 0.159165
260.000000 76.933000 7.000000 5.000000 -2.000000 105.692998 -11.986869 1203.515620 631.868704 13.006856 0.000000 0.142679
261.000000 73.137000 8.000000 5.000000 -2.000000 112.141566 -15.449905 1272.469665 486.633274 13.680336 0.000000 0.114407
262.000000 69.054000 9.000000 5.000000 -2.000000 117.367424 -18.819480 1341.808842 352.412048 14.487848 0.000000 0.079556
263.000000 65.002000 10.000000 5.000000 -2.000000 121.624295 -22.077083 1411.536388 225.790189 15.389752 0.000000 0.042270
264.000000 61.141000 11.000000 5.000000 -2.000000 125.111912 -25.208277 1481.655574 104.577066 16.360637 0.000000 0.020188
265.000000 57.541000 12.000000 5.000000 -2.000000 127.986198 -28.202720 1552.169709 -12.697837 17.383461 0.000000 0.051772
266.000000 54.223000 13.000000 5.000000 -2.000000 130.368769 -31.053918 1623.082140 -127.058900 18.446370 0.000000 0.094196
267.000000 51.185000 14.000000 5.000000 -2.000000 132.354765 -33.758810 1694.396251 -239.242103 19.540861 0.000000 0.138596
270.000000 57.475000 3.000000 6.000000 -2.000000 56.178557 6.964123 843.531734 1667.459305 17.426400 0.000000 0.054624
271.000000 65.450000 2.000000 3.000000 -1.000000 69.893052 3.907942 901.475736 1335.934058 7.649751 0.000000 0.082328
272.000000 69.276000 5.000000 6.000000 -2.000000 81.647817 0.814664 959.695598 1099.031583 14.451475 0.000000 0.140598
273.000000 69.016000 7.000000 6.000000 -2.000000 99.827779 -5.412191 1076.970822 753.719352 14.500595 0.000000 0.161919
274.000000 66.802000 4.000000 3.000000 -1.000000 106.714109 -8.509213 1136.030191 614.210052 7.489561 0.000000 0.147797
275.000000 64.011000 9.000000 6.000000 -2.000000 112.445185 -11.571491 1195.373433 487.166108 15.630652 0.000000 0.125199
276.000000 60.984000 5.000000 3.000000 -1.000000 117.224114 -14.582498 1255.002600 368.856168 8.202489 0.000000 0.097486
277.000000 57.927000 11.000000 6.000000 -2.000000 121.221276 -17.527377 1314.919764 256.864388 17.269609 0.000000 0.067155
278.000000 54.955000 6.000000 3.000000 -1.000000 124.576605 -20.393301 1375.127016 149.557269 9.101293 0.000000 0.037549
279.000000 52.129000 13.000000 6.000000 -2.000000 127.403903 -23.169688 1435.626468 45.790349 19.188536 0.000000 0.024681
280.000000 49.477000 7.000000 3.000000 -1.000000 129.795395 -25.848277 1496.420252 -55.262353 10.108188 0.000000 0.048254
281.000000 47.007000 15.000000 6.000000 -2.000000 131.825840 -28.423078 1557.510522 -154.212175 21.277912 0.000000 0.081874
282.000000 47.737000 3.000000 7.000000 -2.000000 52.387474 10.432432 776.833223 1784.171444 20.982385 0.000000 0.107207
283.000000 55.140000 4.000000 7.000000 -2.000000 65.012909 7.797103 827.621460 1447.269691 18.161730 0.000000 0.052896
284.000000 59.506000 5.000000 7.000000 -2.000000 76.165879 5.116960 878.622151 1207.103450 16.825883 0.000000 0.118063
285.000000 61.441000 6.000000 7.000000 -2.000000 85.853044 2.402831 929.836630 1019.105045 16.292897 0.000000 0.152940
286.000000 61.620000 7.000000 7.000000 -2.000000 94.177955 -0.333575 981.266245 862.376888 16.242985 0.000000 0.165214
287.000000 60.628000 8.000000 7.000000 -2.000000 101.290048 -3.079954 1032.912354 725.818753 16.506289 0.000000 0.162681
288.000000 58.915000 9.000000 7.000000 -2.000000 107.350404 -5.823728 1084.776327 602.988128 16.984230 0.000000 0.150417
289.000000 56.798000 10.000000 7.000000 -2.000000 112.512689 -8.552392 1136.859546 489.888806 17.615669 0.000000 0.131763
290.000000 54.489000 11.000000 7.000000 -2.000000 116.914519 -11.253849 1189.163404 383.910147 18.360672 0.000000 0.109006
291.000000 52.125000 12.000000 7.000000 -2.000000 120.674896 -13.916723 1241.689306 283.274222 19.192055 0.000000 0.083848
292.000000 49.791000 13.000000 7.000000 -2.000000 123.894735 -16.530621 1294.438668 186.728104 20.090667 0.000000 0.057924
293.000000 47.536000 14.000000 7.000000 -2.000000 126.658725 -19.086338 1347.412921 93.363217 21.042630 0.000000 0.034542
294.000000 47.002000 2.000000 4.000000 -1.000000 60.884023 10.798168 769.721555 1551.256539 10.653900 0.000000 0.046339
295.000000 51.435000 5.000000 8.000000 -2.000000 71.383125 8.450603 815.095262 1307.545579 19.467643 0.000000 0.093449
296.000000 53.950000 3.000000 4.000000 -1.000000 80.721622 6.065195 860.638550 1117.822704 9.278565 0.000000 0.136836
297.000000 54.953000 7.000000 8.000000 -2.000000 88.935903 3.649466 906.352370 961.031850 18.215281 0.000000 0.159035
298.000000 54.851000 4.000000 4.000000 -1.000000 96.109592 1.211556 952.237682 825.769324 9.123296 0.000000 0.166016
299.000000 53.988000 9.000000 8.000000 -2.000000 102.348444 -1.239924 998.295454 705.321251 18.535960 0.000000 0.162482
300.000000 52.633000 5.000000 4.000000 -1.000000 107.763500 -3.696068 1044.526658 595.477217 9.505605 0.000000 0.151687
301.000000 50.983000 11.000000 8.000000 -2.000000 112.461264 -6.147871 1090.932278 493.462711 19.624783 0.000000 0.135903
302.000000 49.177000 6.000000 4.000000 -1.000000 116.538849 -8.586421 1137.513301 397.374923 10.172037 0.000000 0.116754
303.000000 47.309000 13.000000 8.000000 -2.000000 120.082189 -11.003094 1184.270724 305.865189 21.145976 0.000000 0.095469
304.000000 47.567000 6.000000 9.000000 -2.000000 76.165124 8.976862 804.977248 1209.344850 21.048762 0.000000 0.117806
305.000000 49.071000 7.000000 9.000000 -2.000000 84.167807 6.828421 846.118166 1051.722386 20.400577 0.000000 0.147296
306.000000 49.586000 8.000000 9.000000 -2.000000 91.286427 4.653160 887.398275 916.750631 20.186113 0.000000 0.161991
307.000000 49.364000 9.000000 9.000000 -2.000000 97.586335 2.456945 928.818282 797.521042 20.274208 0.000000 0.165817
308.000000 48.621000 10.000000 9.000000 -2.000000 103.144465 0.246000 970.378899 689.655490 20.581741 0.000000 0.161816
309.000000 47.527000 11.000000 9.000000 -2.000000 108.040343 -1.973193 1012.080843 590.244777 21.053487 0.000000 0.152202
310.000000 46.211000 12.000000 9.000000 -2.000000 112.350618 -4.194002 1053.924837 497.280130 21.651315 0.000000 0.138584
311.000000 89.151000 1.000000 3.000000 -1.000000 40.609516 9.966884 785.861637 2215.547606 11.236657 0.000000 0.301604
312.000000 89.434000 8.000000 3.000000 -1.000000 133.555974 -30.890224 1618.899452 -251.521514 11.183478 0.000000 0.117733
316.000000 90.884000 7.000000 4.000000 -1.000000 123.165978 -13.389727 1231.205551 217.950822 11.006830 0.000000 0.073107
317.000000 83.707000 8.000000 4.000000 -1.000000 128.202593 -18.043434 1325.611471 50.150866 11.949588 0.000000 0.032557
318.000000 77.142000 9.000000 4.000000 -1.000000 132.058358 -22.496527 1420.739245 -110.070111 12.965718 0.000000 0.044169
319.000000 71.267000 10.000000 4.000000 -1.000000 135.031364 -26.711791 1516.597186 -265.200273 14.033980 0.000000 0.092221
324.000000 70.728000 2.000000 5.000000 -1.000000 54.410572 15.090784 684.779237 1738.761872 14.161088 0.000000 0.102080
325.000000 84.323000 3.000000 5.000000 -1.000000 72.140593 11.335866 759.234463 1294.691566 11.874588 0.000000 0.098700
326.000000 89.730000 4.000000 5.000000 -1.000000 86.859953 7.455763 834.148466 1000.547984 11.156062 0.000000 0.153310
327.000000 89.685000 5.000000 5.000000 -1.000000 98.749559 3.481200 909.525499 775.044732 11.159048 0.000000 0.165123
328.000000 86.608000 6.000000 5.000000 -1.000000 108.230454 -0.552016 985.369869 586.481971 11.553442 0.000000 0.152282
329.000000 82.115000 7.000000 5.000000 -1.000000 115.760316 -4.604726 1061.685934 419.936521 12.183866 0.000000 0.126033
330.000000 77.144000 8.000000 5.000000 -1.000000 121.745103 -8.636630 1138.478110 267.458534 12.967572 0.000000 0.092978
331.000000 72.190000 9.000000 5.000000 -1.000000 126.516108 -12.608649 1215.750865 124.423039 13.856443 0.000000 0.057877
332.000000 67.490000 10.000000 5.000000 -1.000000 130.334186 -16.485113 1293.508726 -12.044871 14.820597 0.000000 0.030224
333.000000 63.141000 11.000000 5.000000 -1.000000 133.401958 -20.235489 1371.756274 -143.827243 15.840490 0.000000 0.041543
334.000000 59.171000 12.000000 5.000000 -1.000000 135.876381 -23.835456 1450.498149 -272.208645 16.902807 0.000000 0.077383
339.000000 55.447000 2.000000 6.000000 -1.000000 49.652973 17.991657 625.464047 1902.289320 18.064826 0.000000 0.168240
340.000000 67.409000 3.000000 6.000000 -1.000000 65.448164 14.905789 688.503781 1449.792848 14.855763 0.000000 0.072058
341.000000 73.948000 4.000000 6.000000 -1.000000 79.171844 11.712103 751.873049 1151.239507 13.538947 0.000000 0.128930
342.000000 76.249000 5.000000 6.000000 -1.000000 90.785445 8.425643 815.574444 926.083584 13.127341 0.000000 0.158770
343.000000 75.708000 6.000000 6.000000 -1.000000 100.460812 5.064756 879.610581 741.503051 13.218707 0.000000 0.163161
344.000000 73.475000 7.000000 6.000000 -1.000000 108.457619 1.650653 943.984108 581.612866 13.618379 0.000000 0.151795
345.000000 70.355000 8.000000 6.000000 -1.000000 115.047286 -1.793288 1008.697698 437.787452 14.220668 0.000000 0.131008
346.000000 66.857000 9.000000 6.000000 -1.000000 120.476892 -5.242425 1073.754051 304.938144 14.963238 0.000000 0.104862
347.000000 63.284000 10.000000 6.000000 -1.000000 124.957154 -8.671895 1139.155900 179.868205 15.806945 0.000000 0.076210
348.000000 59.803000 11.000000 6.000000 -1.000000 128.662091 -12.057674 1204.906002 60.467776 16.725971 0.000000 0.048018
349.000000 56.501000 12.000000 6.000000 -1.000000 131.733280 -15.377549 1271.007148 -54.712338 17.702595 0.000000 0.028961
350.000000 53.416000 13.000000 6.000000 -1.000000 134.285241 -18.611911 1337.462156 -166.700912 18.724252 0.000000 0.039577
351.000000 50.559000 14.000000 6.000000 -1.000000 136.410551 -21.744305 1404.273876 -276.248830 19.781782 0.000000 0.067750
354.000000 55.132000 3.000000 7.000000 -1.000000 60.182893 17.465531 636.357441 1587.637879 18.165233 0.000000 0.078687
355.000000 61.691000 4.000000 7.000000 -1.000000 72.853992 14.768467 691.264393 1284.402342 16.230717 0.000000 0.103273
356.000000 65.091000 5.000000 7.000000 -1.000000 83.947143 11.990090 746.421141 1057.672444 15.379643 0.000000 0.142940
357.000000 66.092000 6.000000 7.000000 -1.000000 93.503904 9.140282 801.829393 874.249850 15.144030 0.000000 0.160277
358.000000 65.444000 7.000000 7.000000 -1.000000 101.656153 6.230838 857.490874 717.649624 15.291496 0.000000 0.161065
359.000000 63.759000 8.000000 7.000000 -1.000000 108.573103 3.275271 913.407323 578.757651 15.693568 0.000000 0.150958
360.000000 61.481000 9.000000 7.000000 -1.000000 114.428264 0.288501 969.580496 452.124739 16.273447 0.000000 0.133873
361.000000 58.909000 10.000000 7.000000 -1.000000 119.382490 -2.713567 1026.012166 334.292327 16.982397 0.000000 0.112488
362.000000 56.237000 11.000000 7.000000 -1.000000 123.577250 -5.714530 1082.704120 222.959207 17.788004 0.000000 0.088719
363.000000 53.583000 12.000000 7.000000 -1.000000 127.133459 -8.698023 1139.658163 116.534483 18.667867 0.000000 0.064204
364.000000 51.017000 13.000000 7.000000 -1.000000 130.152902 -11.648245 1196.876119 13.882873 19.606013 0.000000 0.041377
365.000000 48.575000 14.000000 7.000000 -1.000000 132.720647 -14.550444 1254.359824 -85.827733 20.590743 0.000000 0.028184
366.000000 46.276000 15.000000 7.000000 -1.000000 134.907596 -17.391321 1312.111135 -183.221345 21.613291 0.000000 0.038015
367.000000 46.034000 3.000000 8.000000 -1.000000 55.974999 19.383682 596.321459 1711.316868 21.756809 0.000000 0.110245
368.000000 52.164000 4.000000 8.000000 -1.000000 67.647515 17.057635 644.759595 1403.937176 19.196370 0.000000 0.084871
369.000000 55.967000 5.000000 8.000000 -1.000000 78.126732 14.662493 693.392405 1174.903765 17.889010 0.000000 0.123633
370.000000 57.835000 6.000000 8.000000 -1.000000 87.390912 12.203859 742.221066 991.179281 17.308195 0.000000 0.149775
371.000000 58.236000 7.000000 8.000000 -1.000000 95.494935 9.688563 791.246763 835.962528 17.186142 0.000000 0.160201
372.000000 57.605000 8.000000 8.000000 -1.000000 102.536711 7.124625 840.470691 699.805374 17.372267 0.000000 0.159100
373.000000 56.292000 9.000000 8.000000 -1.000000 108.631923 4.521149 889.894055 576.986548 17.775387 0.000000 0.150039
374.000000 54.562000 10.000000 8.000000 -1.000000 113.897964 1.888172 939.518069 463.838710 18.337066 0.000000 0.135604
375.000000 52.604000 11.000000 8.000000 -1.000000 118.445112 -0.763545 989.343958 357.902429 19.018117 0.000000 0.117652
376.000000 50.546000 12.000000 8.000000 -1.000000 122.372556 -3.422772 1039.372956 257.466506 19.791288 0.000000 0.097550
377.000000 48.472000 13.000000 8.000000 -1.000000 125.767267 -6.078084 1089.606308 161.303368 20.637031 0.000000 0.076404
378.000000 46.435000 14.000000 8.000000 -1.000000 128.704394 -8.718158 1140.045268 68.509327 21.540968 0.000000 0.055381
379.000000 48.531000 5.000000 9.000000 -1.000000 73.171408 16.732171 651.437409 1280.930874 20.631805 0.000000 0.105199
380.000000 50.838000 6.000000 9.000000 -1.000000 82.056628 14.578234 695.082906 1096.174555 19.692235 0.000000 0.135512
381.000000 51.899000 7.000000 9.000000 -1.000000 89.987516 12.373353 738.886068 941.240090 19.286837 0.000000 0.153154
382.000000 52.007000 8.000000 9.000000 -1.000000 97.014823 10.122445 782.847751 806.471001 19.243920 0.000000 0.159469
383.000000 51.428000 9.000000 9.000000 -1.000000 103.211619 7.831204 826.968817 685.948514 19.458253 0.000000 0.157336
384.000000 50.379000 10.000000 9.000000 -1.000000 108.660213 5.506040 871.250134 575.842502 19.861740 0.000000 0.149142
385.000000 49.025000 11.000000 9.000000 -1.000000 113.443619 3.154000 915.692578 473.564694 20.408375 0.000000 0.136684
386.000000 47.491000 12.000000 9.000000 -1.000000 117.640597 0.782654 960.297028 377.302962 21.065948 0.000000 0.121302
387.000000 45.865000 13.000000 9.000000 -1.000000 121.323189 -1.600040 1005.064373 285.750562 21.811242 0.000000 0.104010
388.000000 46.389000 7.000000 10.000000 -1.000000 85.092126 14.509636 696.458246 1036.464775 21.579507 0.000000 0.142559
389.000000 46.999000 8.000000 10.000000 -1.000000 92.013352 12.511034 736.173837 902.243554 21.296735 0.000000 0.154747
390.000000 46.960000 9.000000 10.000000 -1.000000 98.212520 10.474313 776.019714 783.031229 21.312033 0.000000 0.158478
391.000000 46.441000 10.000000 10.000000 -1.000000 103.745014 8.403656 815.996520 674.874347 21.547833 0.000000 0.155772
392.000000 45.583000 11.000000 10.000000 -1.000000 108.671362 6.303740 856.104901 575.081558 21.951331 0.000000 0.148304
393.000000 172.262000 4.000000 2.000000 0.000000 138.391065 -8.873586 1143.034865 -285.559292 5.805881 0.000000 0.023985
395.000000 128.623000 1.000000 3.000000 0.000000 58.024793 26.882278 429.383279 1694.299372 7.786132 0.000000 0.142015
396.000000 159.796000 2.000000 3.000000 0.000000 87.357639 20.677032 568.795253 994.091516 6.264188 0.000000 0.134663
397.000000 158.575000 3.000000 3.000000 0.000000 108.255887 13.840131 709.837300 575.352922 6.310009 0.000000 0.135280
398.000000 145.039000 4.000000 3.000000 0.000000 122.447644 6.491254 852.538175 252.291566 6.897216 0.000000 0.095020
399.000000 129.313000 5.000000 3.000000 0.000000 131.984713 -1.167124 996.927317 -27.780845 7.734868 0.000000 0.044674
402.000000 85.118000 1.000000 4.000000 0.000000 49.421468 28.328615 394.781677 1988.209800 11.766988 0.000000 0.228933
403.000000 112.279000 2.000000 4.000000 0.000000 73.775783 23.862824 498.887278 1283.460441 8.917372 0.000000 0.110151
404.000000 121.201000 3.000000 4.000000 0.000000 93.329889 19.023808 603.901834 874.760107 8.258039 0.000000 0.141163
405.000000 111.651000 5.000000 4.000000 0.000000 119.408638 8.366698 816.705843 327.799297 8.960214 0.000000 0.106869
406.000000 102.854000 6.000000 4.000000 0.000000 127.689168 2.685308 924.519846 108.556149 9.725301 0.000000 0.069891
407.000000 94.141000 7.000000 4.000000 0.000000 133.832563 -3.100101 1033.291910 -93.818344 10.624422 0.000000 0.032985
411.000000 83.106000 2.000000 5.000000 0.000000 64.573744 25.694723 457.136626 1508.813806 12.049440 0.000000 0.110824
412.000000 94.146000 3.000000 5.000000 0.000000 82.190284 21.970958 540.783361 1100.180641 10.633304 0.000000 0.125937
413.000000 97.125000 4.000000 5.000000 0.000000 96.662180 18.013285 625.014868 808.805121 10.304495 0.000000 0.142742
414.000000 90.644000 6.000000 5.000000 0.000000 117.434793 9.481005 795.256897 374.534816 11.037033 0.000000 0.113570
415.000000 85.137000 7.000000 5.000000 0.000000 124.670218 4.976567 881.279988 193.748960 11.749563 0.000000 0.085115
416.000000 79.447000 8.000000 5.000000 0.000000 130.368280 0.377267 967.912991 26.008901 12.590004 0.000000 0.054621
417.000000 73.978000 9.000000 5.000000 0.000000 134.856230 -4.259526 1055.162416 -132.872565 13.519868 0.000000 0.026822
418.000000 64.281000 11.000000 5.000000 0.000000 141.173310 -13.406426 1231.537035 -433.828143 15.558227 0.000000 0.051475
423.000000 80.884000 5.000000 6.000000 0.000000 98.782874 17.332067 639.110736 766.800595 12.372986 0.000000 0.142917
424.000000 76.246000 7.000000 6.000000 0.000000 116.052045 10.218848 780.978560 406.364686 13.121608 0.000000 0.117816
425.000000 60.919000 11.000000 6.000000 0.000000 135.505517 -5.031740 1069.764379 -158.693925 16.418018 0.000000 0.023395
426.000000 54.183000 13.000000 6.000000 0.000000 140.754749 -12.658920 1216.742656 -409.366061 18.457740 0.000000 0.046238
427.000000 51.578000 2.000000 7.000000 0.000000 53.161317 27.713944 409.598703 1851.790334 19.418092 0.000000 0.184972
428.000000 60.919000 3.000000 7.000000 0.000000 67.281212 25.177497 469.050588 1438.946149 16.437199 0.000000 0.106495
429.000000 66.525000 4.000000 7.000000 0.000000 79.867609 22.517544 528.798168 1149.219183 15.048827 0.000000 0.121437
430.000000 69.022000 5.000000 7.000000 0.000000 90.835480 19.737136 588.843653 924.324864 14.501667 0.000000 0.138991
431.000000 69.243000 6.000000 7.000000 0.000000 100.249597 16.841866 649.189279 737.660483 14.452786 0.000000 0.142648
432.000000 65.774000 8.000000 7.000000 0.000000 115.030256 10.743277 770.789995 429.457443 15.210971 0.000000 0.120724
433.000000 63.105000 9.000000 7.000000 0.000000 120.748170 7.565583 832.049666 295.096018 15.852780 0.000000 0.101880
434.000000 60.231000 10.000000 7.000000 0.000000 125.569879 4.324052 893.618639 169.107339 16.608057 0.000000 0.080796
435.000000 57.323000 11.000000 7.000000 0.000000 129.635170 1.037995 955.499260 49.352244 17.449260 0.000000 0.058961
436.000000 54.486000 12.000000 7.000000 0.000000 133.063066 -2.271589 1017.693903 -65.668884 18.357091 0.000000 0.037845
437.000000 51.775000 13.000000 7.000000 0.000000 135.953730 -5.582778 1080.204965 -177.038837 19.317632 0.000000 0.021460
438.000000 46.825000 15.000000 7.000000 0.000000 140.445330 -12.122827 1206.186049 -391.836748 21.358173 0.000000 0.042603
439.000000 50.638000 3.000000 8.000000 0.000000 62.155073 26.143227 446.721598 1574.337979 19.776000 0.000000 0.118757
440.000000 59.309000 5.000000 8.000000 0.000000 84.169259 21.488765 551.280195 1059.120027 16.878516 0.000000 0.129543
441.000000 60.507000 7.000000 8.000000 0.000000 101.323892 16.472267 656.753698 716.243760 16.539158 0.000000 0.142245
442.000000 57.821000 9.000000 8.000000 0.000000 114.244724 11.135125 763.154168 446.983872 17.303496 0.000000 0.122828
443.000000 53.655000 11.000000 8.000000 0.000000 123.857425 5.545925 870.493879 215.524672 18.643998 0.000000 0.088863
444.000000 49.216000 13.000000 8.000000 0.000000 130.989560 -0.201508 978.785324 5.730116 20.323122 0.000000 0.050855
445.000000 48.004000 4.000000 9.000000 0.000000 68.758641 24.888010 475.674566 1402.190920 20.859223 0.000000 0.105873
446.000000 51.388000 5.000000 9.000000 0.000000 78.549055 22.819119 522.144877 1177.527161 19.482112 0.000000 0.118833
447.000000 53.940000 7.000000 9.000000 0.000000 95.203870 18.464098 615.626743 837.656344 18.554769 0.000000 0.142243
448.000000 53.716000 8.000000 9.000000 0.000000 102.144439 16.183661 662.640404 699.832517 18.629686 0.000000 0.141817
449.000000 51.578000 10.000000 9.000000 0.000000 113.622143 11.439000 757.218504 460.743542 19.398219 0.000000 0.124416
450.000000 50.035000 11.000000 9.000000 0.000000 118.326597 8.986842 804.785099 353.620074 19.994763 0.000000 0.110637
451.000000 46.594000 13.000000 9.000000 0.000000 126.056581 3.960762 900.478830 155.525321 21.468461 0.000000 0.078383
452.000000 48.222000 7.000000 10.000000 0.000000 89.810522 20.020459 582.825636 944.788250 20.757171 0.000000 0.137866
453.000000 48.290000 9.000000 10.000000 0.000000 102.791534 15.952065 667.351830 686.852444 20.723010 0.000000 0.141406
454.000000 46.548000 11.000000 10.000000 0.000000 113.116645 11.681526 752.472059 471.834687 21.494531 0.000000 0.125654
457.000000 143.506000 1.000000 3.000000 1.000000 70.251865 45.782088 -131.085631 1495.051580 6.976587 0.000000 0.254018
458.000000 164.918000 2.000000 3.000000 1.000000 98.175494 40.850323 44.316821 736.581389 6.068027 0.000000 0.086047
459.000000 159.859000 3.000000 3.000000 1.000000 118.476878 34.964436 222.365814 228.599503 6.257981 0.000000 0.041146
460.000000 145.234000 4.000000 3.000000 1.000000 132.649234 27.983500 403.121702 -181.671182 6.886809 0.000000 0.077379
464.000000 97.437000 1.000000 4.000000 1.000000 59.553456 42.282391 -3.747930 1796.098022 10.277012 0.000000 0.276087
465.000000 119.325000 2.000000 4.000000 1.000000 83.104569 38.489511 119.198532 1107.289975 8.388855 0.000000 0.122211
466.000000 124.837000 3.000000 4.000000 1.000000 102.076943 34.204219 243.435305 662.555498 8.015892 0.000000 0.059398
467.000000 120.792000 4.000000 4.000000 1.000000 116.701732 29.382078 368.982807 319.723101 8.282306 0.000000 0.022532
468.000000 112.665000 5.000000 4.000000 1.000000 127.759721 23.997380 495.861891 28.477031 8.878226 0.000000 0.025971
469.000000 103.470000 6.000000 4.000000 1.000000 136.054827 18.057615 624.093855 -233.522554 9.666169 0.000000 0.041864
474.000000 89.647000 2.000000 5.000000 1.000000 72.619800 37.158798 159.267413 1363.706097 11.168181 0.000000 0.150054
475.000000 98.344000 3.000000 5.000000 1.000000 89.810794 33.793151 254.670094 945.276788 10.177576 0.000000 0.098003
476.000000 99.739000 4.000000 5.000000 1.000000 103.972355 30.109984 350.843439 631.428956 10.032720 0.000000 0.074103
477.000000 96.792000 5.000000 5.000000 1.000000 115.377610 26.097083 447.796825 372.494028 10.336189 0.000000 0.053507
478.000000 91.723000 6.000000 5.000000 1.000000 124.461961 21.752863 545.539779 145.702761 10.905841 0.000000 0.036687
479.000000 85.882000 7.000000 5.000000 1.000000 131.660604 17.090597 644.081987 -60.857282 11.646433 0.000000 0.028597
480.000000 79.990000 8.000000 5.000000 1.000000 137.347046 12.142196 743.433291 -254.026700 12.503318 0.000000 0.026938
481.000000 74.396000 9.000000 5.000000 1.000000 141.822942 6.960348 843.603699 -438.016550 13.442898 0.000000 0.022522
486.000000 69.869000 2.000000 6.000000 1.000000 65.033466 36.305591 184.221553 1562.835780 14.331381 0.000000 0.175210
487.000000 78.876000 3.000000 6.000000 1.000000 80.489383 33.535643 261.653086 1157.323661 12.691669 0.000000 0.116090
488.000000 82.707000 4.000000 6.000000 1.000000 93.815254 30.556201 339.591366 857.650069 12.100994 0.000000 0.099269
489.000000 82.828000 5.000000 6.000000 1.000000 105.047096 27.360571 418.041383 615.214377 12.080954 0.000000 0.086877
490.000000 80.647000 6.000000 6.000000 1.000000 114.388827 23.946430 497.008195 407.066134 12.405656 0.000000 0.071541
491.000000 77.221000 7.000000 6.000000 1.000000 122.103433 20.317311 576.496926 220.953655 12.954537 0.000000 0.054866
492.000000 73.240000 8.000000 6.000000 1.000000 128.451258 16.484061 656.512765 49.738825 13.657384 0.000000 0.039538
493.000000 69.119000 9.000000 6.000000 1.000000 133.663491 12.466016 737.060975 -111.020052 14.470532 0.000000 0.027440
494.000000 65.090000 10.000000 6.000000 1.000000 137.935291 8.291595 818.146886 -264.232768 15.365402 0.000000 0.018659
495.000000 61.271000 11.000000 6.000000 1.000000 141.427818 3.998001 899.775900 -411.886220 16.322503 0.000000 0.011682
500.000000 56.198000 2.000000 7.000000 1.000000 59.339212 35.712212 201.256208 1726.828844 17.819190 0.000000 0.202815
501.000000 64.530000 3.000000 7.000000 1.000000 73.254881 33.359198 266.413866 1328.706473 15.515164 0.000000 0.128829
502.000000 69.248000 4.000000 7.000000 1.000000 85.643339 30.857700 331.929909 1036.518702 14.455059 0.000000 0.110357
503.000000 71.040000 5.000000 7.000000 1.000000 96.441680 28.203670 397.807300 803.110159 14.087859 0.000000 0.104389
504.000000 70.736000 6.000000 7.000000 1.000000 105.722915 25.395172 464.049038 605.592893 14.146120 0.000000 0.095815
505.000000 69.074000 7.000000 7.000000 1.000000 113.631733 22.432999 530.658155 431.513906 14.484344 0.000000 0.083240
506.000000 66.619000 8.000000 7.000000 1.000000 120.337862 19.321307 597.637714 273.515883 15.016587 0.000000 0.068324
507.000000 63.759000 9.000000 7.000000 1.000000 126.008809 16.068191 664.990814 126.971907 15.688817 0.000000 0.052880
508.000000 60.748000 10.000000 7.000000 1.000000 130.796866 12.686119 732.720590 -11.174274 16.465361 0.000000 0.038239
509.000000 57.741000 11.000000 7.000000 1.000000 134.834714 9.192123 800.830209 -143.023150 17.321719 0.000000 0.025095
510.000000 54.830000 12.000000 7.000000 1.000000 138.235475 5.607674 869.322877 -270.066467 18.240504 0.000000 0.013500
511.000000 52.064000 13.000000 7.000000 1.000000 141.094708 1.958162 938.201834 -393.393292 19.209039 0.000000 0.005173
514.000000 46.399000 2.000000 8.000000 1.000000 54.929099 35.275742 213.625088 1866.566464 21.583945 0.000000 0.232544
515.000000 53.799000 3.000000 8.000000 1.000000 67.519500 33.230746 269.867589 1473.459493 18.611779 0.000000 0.143060
516.000000 58.658000 4.000000 8.000000 1.000000 78.990004 31.075049 326.376871 1185.491836 17.067017 0.000000 0.116022
517.000000 61.275000 5.000000 8.000000 1.000000 89.243388 28.806024 383.154840 957.220942 16.334988 0.000000 0.112007
518.000000 62.122000 6.000000 8.000000 1.000000 98.283635 26.422182 440.203414 766.021231 16.109640 0.000000 0.109138
519.000000 61.685000 7.000000 8.000000 1.000000 106.180201 23.923467 497.524533 599.359878 16.221452 0.000000 0.102170
520.000000 60.385000 8.000000 8.000000 1.000000 113.036668 21.311563 555.120155 449.733196 16.568938 0.000000 0.091402
521.000000 58.546000 9.000000 8.000000 1.000000 118.968511 18.590182 612.992257 312.373555 17.087627 0.000000 0.078214
522.000000 56.406000 10.000000 8.000000 1.000000 124.089614 15.765324 671.142834 184.106107 17.734600 0.000000 0.063928
523.000000 54.126000 11.000000 8.000000 1.000000 128.505289 12.845452 729.573900 62.734559 18.480176 0.000000 0.049547
524.000000 51.816000 12.000000 8.000000 1.000000 132.309453 9.841566 788.287491 -53.309171 19.303176 0.000000 0.035707
525.000000 49.543000 13.000000 8.000000 1.000000 135.584174 6.767141 847.285661 -165.174845 20.188080 0.000000 0.022653
526.000000 47.347000 14.000000 8.000000 1.000000 138.400418 3.637901 906.570482 -273.724916 21.123258 0.000000 0.010249
527.000000 45.619000 3.000000 9.000000 1.000000 62.882656 33.133051 272.487554 1599.199732 21.950691 0.000000 0.160671
528.000000 50.280000 4.000000 9.000000 1.000000 73.502693 31.239160 322.167178 1313.811863 19.912489 0.000000 0.121468
529.000000 53.239000 5.000000 9.000000 1.000000 83.180054 29.257774 372.054383 1088.542379 18.802802 0.000000 0.114672
530.000000 54.752000 6.000000 9.000000 1.000000 91.884856 27.187761 422.150472 901.180985 18.280297 0.000000 0.115047
531.000000 55.129000 7.000000 9.000000 1.000000 99.641115 25.028808 472.456762 739.215373 18.152683 0.000000 0.112970
532.000000 54.669000 8.000000 9.000000 1.000000 106.506891 22.781583 522.974577 595.058594 18.303367 0.000000 0.106857
533.000000 53.625000 9.000000 9.000000 1.000000 112.557973 20.447897 573.705254 463.842353 18.657543 0.000000 0.097400
534.000000 52.201000 10.000000 9.000000 1.000000 117.876303 18.030842 624.650142 342.299139 19.165011 0.000000 0.085694
535.000000 50.546000 11.000000 9.000000 1.000000 122.542722 15.534922 675.810600 228.154015 19.790827 0.000000 0.072732
536.000000 48.771000 12.000000 9.000000 1.000000 126.632934 12.966128 727.187999 119.774133 20.509920 0.000000 0.059295
537.000000 46.951000 13.000000 9.000000 1.000000 130.215661 10.331970 778.783723 15.956953 21.303833 0.000000 0.045929
538.000000 46.621000 5.000000 10.000000 1.000000 78.030897 29.609087 363.353959 1203.436758 21.473827 0.000000 0.115900
539.000000 48.489000 6.000000 10.000000 1.000000 86.358023 27.780267 408.008050 1018.430964 20.643652 0.000000 0.116611
540.000000 49.386000 7.000000 10.000000 1.000000 93.898480 25.880629 452.829176 859.478105 20.265951 0.000000 0.117960
541.000000 49.517000 8.000000 10.000000 1.000000 100.680251 23.910400 497.818275 718.960995 20.209632 0.000000 0.115992
542.000000 49.075000 9.000000 10.000000 1.000000 106.750226 21.870489 542.976294 591.945492 20.389787 0.000000 0.110431
543.000000 48.221000 10.000000 10.000000 1.000000 112.165167 19.762575 588.304185 475.094589 20.748995 0.000000 0.101984
544.000000 47.086000 11.000000 10.000000 1.000000 116.985248 17.589186 633.802910 366.070425 21.247035 0.000000 0.091514
545.000000 45.774000 12.000000 10.000000 1.000000 121.269869 15.353762 679.473434 263.186236 21.854892 0.000000 0.079787
548.000000 119.938000 3.000000 4.000000 2.000000 106.050836 49.820369 -299.541088 461.051447 8.342362 0.000000 0.243604
554.000000 90.059000 2.000000 5.000000 2.000000 77.915577 48.633404 -247.251971 1289.676608 11.115381 0.000000 0.261486
555.000000 97.122000 3.000000 5.000000 2.000000 94.428133 45.916817 -136.302024 821.195907 10.304275 0.000000 0.157224
556.000000 97.933000 4.000000 5.000000 2.000000 108.218417 42.875321 -24.290801 457.602719 10.216672 0.000000 0.108168
557.000000 94.973000 5.000000 5.000000 2.000000 119.509257 39.467480 88.796999 151.907991 10.533277 0.000000 0.105188
558.000000 90.124000 6.000000 5.000000 2.000000 128.663640 35.651774 202.976973 -118.784136 11.098579 0.000000 0.121405
564.000000 79.409000 3.000000 6.000000 2.000000 85.201748 43.425580 -43.711521 1065.397474 12.604941 0.000000 0.151746
565.000000 82.219000 5.000000 6.000000 2.000000 109.207719 38.036343 133.006770 464.922846 12.169213 0.000000 0.045643
566.000000 76.523000 7.000000 6.000000 2.000000 126.213933 31.617676 312.401553 15.492130 13.071678 0.000000 0.059969
567.000000 68.587000 9.000000 6.000000 2.000000 137.988622 24.056346 494.534097 -367.520135 14.581876 0.000000 0.086825
571.000000 58.508000 2.000000 7.000000 2.000000 64.286913 43.772135 -56.124762 1658.754586 17.113693 0.000000 0.262162
572.000000 65.833000 3.000000 7.000000 2.000000 77.831722 41.703602 15.935411 1251.849885 15.206317 0.000000 0.164476
573.000000 69.838000 4.000000 7.000000 2.000000 89.925141 39.478840 88.438865 942.821860 14.331465 0.000000 0.103625
574.000000 71.183000 5.000000 7.000000 2.000000 100.516445 37.086971 161.389705 690.537898 14.058084 0.000000 0.060577
575.000000 70.631000 6.000000 7.000000 2.000000 109.673880 34.517762 234.792083 473.962673 14.165748 0.000000 0.026649
576.000000 68.852000 7.000000 7.000000 2.000000 117.528852 31.762266 308.650206 281.218438 14.530017 0.000000 0.002792
577.000000 66.355000 8.000000 7.000000 2.000000 124.235275 28.813647 382.968330 105.089596 15.075313 0.000000 0.024969
578.000000 63.495000 9.000000 7.000000 2.000000 129.945443 25.668170 457.750766 -59.061350 15.753088 0.000000 0.042916
579.000000 60.504000 10.000000 7.000000 2.000000 134.798249 22.326319 533.001881 -214.351684 16.530727 0.000000 0.055066
580.000000 57.526000 11.000000 7.000000 2.000000 138.915017 18.793963 608.726092 -362.954976 17.385510 0.000000 0.060732
585.000000 55.388000 3.000000 8.000000 2.000000 71.870917 40.444319 57.565272 1404.042005 18.075850 0.000000 0.179157
586.000000 61.856000 5.000000 8.000000 2.000000 93.170861 36.411485 181.154363 866.910807 16.179927 0.000000 0.085848
587.000000 61.802000 7.000000 8.000000 2.000000 109.888485 31.862456 306.043921 482.551497 16.189476 0.000000 0.038272
588.000000 58.500000 9.000000 8.000000 2.000000 122.623637 26.760545 432.254580 169.415596 17.099872 0.000000 0.018296
589.000000 54.044000 11.000000 8.000000 2.000000 132.207693 21.094680 559.807414 -105.303386 18.507153 0.000000 0.035228
590.000000 49.468000 13.000000 8.000000 2.000000 139.377512 14.894844 688.723947 -357.363079 20.217478 0.000000 0.044472
591.000000 47.262000 3.000000 9.000000 2.000000 66.981978 39.484185 88.270320 1533.458332 21.185522 0.000000 0.194066
592.000000 51.464000 4.000000 9.000000 2.000000 77.414458 37.742551 141.867724 1244.875198 19.452566 0.000000 0.137160
593.000000 54.056000 5.000000 9.000000 2.000000 86.931700 35.906434 195.708667 1012.227806 18.516830 0.000000 0.104035
594.000000 55.294000 6.000000 9.000000 2.000000 95.509318 33.972020 249.794814 815.821291 18.099382 0.000000 0.082635
595.000000 55.476000 7.000000 9.000000 2.000000 103.171911 31.935975 304.127841 644.188607 18.037822 0.000000 0.066295
596.000000 54.881000 8.000000 9.000000 2.000000 109.974935 29.795631 358.709445 490.199778 18.231184 0.000000 0.052308
597.000000 53.749000 9.000000 9.000000 2.000000 115.989885 27.549206 413.541334 349.188200 18.613392 0.000000 0.040347
598.000000 52.267000 10.000000 9.000000 2.000000 121.293791 25.196039 468.625235 217.971054 19.139393 0.000000 0.031492
599.000000 50.578000 11.000000 9.000000 2.000000 125.962584 22.736845 523.962888 94.302725 19.777406 0.000000 0.027350
600.000000 48.782000 12.000000 9.000000 2.000000 130.067399 20.173962 579.556051 -23.446746 20.504375 0.000000 0.027941
601.000000 46.950000 13.000000 9.000000 2.000000 133.672863 17.511582 635.406497 -136.489332 21.303165 0.000000 0.030760
602.000000 47.549000 5.000000 10.000000 2.000000 81.597488 35.514596 206.873001 1136.316798 21.052668 0.000000 0.116959
603.000000 49.879000 7.000000 10.000000 2.000000 97.259804 31.992221 302.659851 779.337654 20.063793 0.000000 0.085082
604.000000 49.324000 9.000000 10.000000 2.000000 109.993582 28.145147 399.222035 496.883032 20.285398 0.000000 0.063613
605.000000 47.210000 11.000000 10.000000 2.000000 120.181614 23.965956 496.569004 255.987008 21.189983 0.000000 0.044284
613.000000 79.772000 4.000000 6.000000 3.000000 100.444417 50.921757 -350.407826 626.270431 12.543987 0.000000 0.261132
614.000000 79.568000 5.000000 6.000000 3.000000 111.237426 48.661263 -248.450865 307.737183 12.574054 0.000000 0.233877
620.000000 65.106000 3.000000 7.000000 3.000000 80.953495 49.865849 -301.595427 1206.853778 15.374802 0.000000 0.272641
621.000000 68.596000 4.000000 7.000000 3.000000 92.668024 48.002754 -220.461462 866.040882 14.589659 0.000000 0.197792
622.000000 69.732000 5.000000 7.000000 3.000000 103.009083 45.980059 -138.759378 583.166157 14.349648 0.000000 0.153581
623.000000 69.168000 6.000000 7.000000 3.000000 112.032141 43.782082 -56.483188 337.720663 14.464599 0.000000 0.135796
624.000000 67.485000 7.000000 7.000000 3.000000 119.848514 41.392384 26.373183 117.737916 14.823581 0.000000 0.136932
625.000000 65.132000 8.000000 7.000000 3.000000 126.591196 38.794221 109.815891 -84.235973 15.357525 0.000000 0.146321
632.000000 55.512000 3.000000 8.000000 3.000000 75.136318 47.559731 -202.030231 1364.296328 18.033675 0.000000 0.255884
633.000000 59.298000 4.000000 8.000000 3.000000 86.059442 45.864294 -134.265472 1047.467665 16.879454 0.000000 0.179965
634.000000 61.203000 5.000000 8.000000 3.000000 95.894602 44.047919 -66.106318 786.397715 16.351498 0.000000 0.126541
635.000000 61.629000 6.000000 8.000000 3.000000 104.647348 42.101255 2.450683 561.864740 16.236155 0.000000 0.091931
636.000000 60.979000 7.000000 8.000000 3.000000 112.374851 40.014768 71.409024 362.496014 16.407035 0.000000 0.077043
637.000000 59.601000 8.000000 8.000000 3.000000 119.162013 37.779000 140.772241 181.131690 16.784584 0.000000 0.079625
638.000000 57.766000 9.000000 8.000000 3.000000 125.104146 35.384914 210.543910 13.038613 17.316233 0.000000 0.090779
639.000000 55.674000 10.000000 8.000000 3.000000 130.296073 32.824367 280.727649 -145.038132 17.965846 0.000000 0.102810
640.000000 53.463000 11.000000 8.000000 3.000000 134.826172 30.090712 351.327119 -295.411110 18.707767 0.000000 0.111868
644.000000 51.618000 4.000000 9.000000 3.000000 80.433356 44.234402 -72.908556 1194.173982 19.393024 0.000000 0.180539
645.000000 53.917000 5.000000 9.000000 3.000000 89.748402 42.592455 -14.441795 947.419945 18.563105 0.000000 0.126814
646.000000 55.055000 7.000000 9.000000 3.000000 105.736809 39.002077 103.369482 550.741536 18.174509 0.000000 0.055981
647.000000 54.420000 8.000000 9.000000 3.000000 112.482346 37.041933 162.718401 382.956797 18.384443 0.000000 0.039529
648.000000 51.826000 10.000000 9.000000 3.000000 123.790559 32.764694 282.313978 84.466271 19.301536 0.000000 0.053186
649.000000 50.169000 11.000000 9.000000 3.000000 128.492887 30.438666 342.565173 -51.731148 19.937601 0.000000 0.066443
650.000000 46.619000 13.000000 9.000000 3.000000 136.319174 25.397915 463.985894 -306.613174 21.453737 0.000000 0.084710
651.000000 47.734000 5.000000 10.000000 3.000000 84.424687 41.457988 24.181266 1081.188940 20.969539 0.000000 0.135997
652.000000 49.166000 6.000000 10.000000 3.000000 92.499651 39.883907 75.591822 879.768822 20.355918 0.000000 0.096874
653.000000 49.748000 7.000000 10.000000 3.000000 99.844910 38.226714 127.227038 703.239423 20.115478 0.000000 0.065407
654.000000 49.662000 8.000000 10.000000 3.000000 106.486233 36.482650 179.088390 544.834612 20.148101 0.000000 0.039251
655.000000 49.076000 9.000000 10.000000 3.000000 112.465223 34.648194 231.177368 400.009373 20.386540 0.000000 0.018459
656.000000 48.134000 10.000000 10.000000 3.000000 117.831833 32.720197 283.495473 265.597263 20.783954 0.000000 0.013706
657.000000 46.949000 11.000000 10.000000 3.000000 122.638978 30.696025 336.044220 139.324355 21.306716 0.000000 0.027024
658.000000 45.612000 12.000000 10.000000 3.000000 126.938973 28.573738 388.825137 19.515278 21.930056 0.000000 0.040906
669.000000 59.565000 5.000000 8.000000 4.000000 97.478588 51.451893 -375.757845 714.276465 16.800325 0.000000 0.273377
670.000000 59.396000 7.000000 8.000000 4.000000 113.679617 48.058938 -222.821486 234.794590 16.843798 0.000000 0.231335
675.000000 50.896000 4.000000 9.000000 4.000000 82.578059 50.552639 -333.096077 1161.667577 19.666754 0.000000 0.281251
676.000000 52.974000 5.000000 9.000000 4.000000 91.653581 49.137391 -269.147791 893.508861 18.892565 0.000000 0.222905
677.000000 53.925000 6.000000 9.000000 4.000000 99.905317 47.627911 -204.846354 662.124109 18.556701 0.000000 0.183958
678.000000 53.989000 7.000000 9.000000 4.000000 107.351189 46.016782 -140.188833 456.754009 18.532741 0.000000 0.162050
679.000000 53.390000 8.000000 9.000000 4.000000 114.034132 44.296201 -75.172262 270.412645 18.738613 0.000000 0.154194
680.000000 52.324000 9.000000 9.000000 4.000000 120.010885 42.458061 -9.793641 98.366044 19.118720 0.000000 0.155831
681.000000 50.946000 10.000000 9.000000 4.000000 125.343735 40.494083 55.950062 -62.708074 19.634058 0.000000 0.162076
685.000000 47.267000 5.000000 10.000000 4.000000 86.514867 47.313212 -191.908712 1037.680843 21.175650 0.000000 0.201685
686.000000 49.073000 7.000000 10.000000 4.000000 101.655168 44.439235 -80.430022 630.056369 20.391284 0.000000 0.126181
687.000000 48.394000 9.000000 10.000000 4.000000 114.154827 41.219825 32.117559 299.289546 20.672966 0.000000 0.102227
688.000000 46.348000 11.000000 10.000000 4.000000 124.329626 37.613108 145.749478 13.127853 21.582461 0.000000 0.112750
705.000000 47.469000 6.000000 10.000000 5.000000 95.646185 51.763636 -390.941290 769.071815 21.081828 0.000000 0.281954
706.000000 47.955000 7.000000 10.000000 5.000000 102.738510 50.487903 -330.087855 558.576340 20.865954 0.000000 0.253068
707.000000 47.871000 8.000000 10.000000 5.000000 109.211930 49.132060 -268.913867 367.797448 20.900244 0.000000 0.236953
708.000000 47.353000 9.000000 10.000000 5.000000 115.098210 47.689987 -207.416786 192.075905 21.127009 0.000000 0.230409
#UB matrix in q= (UB) B0 G* 
#[[-0.947995516 -0.188669681 -0.255988005]
# [-0.317970141  0.526852202  0.78926397 ]
# [-0.014124156  0.829959964 -0.559703641]]
#B0 matrix in q= UB (B0) G*
#[[ 0.19670273 -0.          0.03056101]
# [ 0.          0.19187965 -0.        ]
# [ 0.          0.          0.18806537]]
#UBB0 matrix in q= (UB B0) G* i.e. recip. basis vectors are columns in LT frame: astar = UBB0[:,0], bstar = UBB0[:,1], cstar = UBB0[:,2]. (abcstar as columns on xyzlab1, xlab1 = ui, ui = unit vector along incident beam)
#[[-0.18647331 -0.03620187 -0.07711418]
# [-0.0625456   0.10109222  0.13871573]
# [-0.00277826  0.15925243 -0.10569252]]
#Euler angles phi theta psi (deg)
#[180.976 123.979  17.997]
#deviatoric strain in direct crystal frame (10-3 unit)
#[[-2.95  0.16  0.6 ]
# [ 0.16 -3.87  0.44]
# [ 0.6   0.44  6.83]]
#deviatoric strain in sample2 frame (10-3 unit)
#[[ 0.14 -4.79  0.8 ]
# [-4.79  2.88 -1.85]
# [ 0.8  -1.85 -3.02]]
#new lattice parameters
#[ 5.1505     5.2068186  5.3131306 89.9766025 99.2008471 89.981833 ]
#CCDLabel
#sCMOS
#DetectorParameters
#[79.0, 975.0, 941.0, 0.0, 0.0]
#pixelsize
#0.0734
#Frame dimensions
#[2018, 2016]
#
