#Strain and Orientation Refinement from experimental file: /home/micha/LaueProjects/DepthEffects/testZrO2_108.cor
#File created at Wed Jun 28 14:24:57 2023 with indexingSpotsSet.py
#Number of indexed spots: 515
#Element
#ZrO2
#grainIndex
#G_0
#Mean Deviation(pixel): 0.117
##spot_index intensity h k l 2theta Chi Xexp Yexp Energy GrainIndex PixDev
3.000000 140.730000 -1.000000 -1.000000 2.000000 45.518298 23.455441 508.008888 2093.202601 7.113656 0.000000 0.227151
4.000000 163.745000 -1.000000 0.000000 2.000000 47.883479 -4.484413 1059.411597 1917.058443 6.114038 0.000000 0.127158
12.000000 112.683000 -1.000000 -2.000000 3.000000 57.659515 34.235089 242.587182 1765.289438 8.882469 0.000000 0.193975
13.000000 161.571000 0.000000 -2.000000 3.000000 87.184999 43.162301 -34.375747 1013.553697 6.191582 0.000000 0.142085
15.000000 142.571000 -1.000000 -1.000000 3.000000 64.654788 16.931258 647.355303 1473.900066 7.020230 0.000000 0.080688
17.000000 134.365000 -1.000000 1.000000 3.000000 60.527363 -26.571974 1513.309699 1621.096037 7.449107 0.000000 0.123566
18.000000 198.263000 0.000000 1.000000 3.000000 95.633580 -35.127367 1732.200566 811.189842 5.045086 0.000000 0.076279
26.000000 88.320000 -1.000000 -3.000000 4.000000 62.687834 39.643566 83.232612 1662.799875 11.331535 0.000000 0.217262
27.000000 112.489000 0.000000 -3.000000 4.000000 83.513566 46.706905 -167.411545 1119.452144 8.893588 0.000000 0.206369
29.000000 108.851000 -1.000000 -2.000000 4.000000 69.780904 27.993699 402.876010 1389.931904 9.193707 0.000000 0.113667
30.000000 138.866000 0.000000 -2.000000 4.000000 94.530986 34.410938 237.744093 837.616582 7.203208 0.000000 0.080421
31.000000 152.151000 1.000000 -2.000000 4.000000 116.729798 43.858945 -59.256760 189.286764 6.571622 0.000000 0.171282
32.000000 79.636000 -2.000000 -1.000000 4.000000 47.898889 10.286733 779.661609 1929.432052 12.571277 0.000000 0.137794
33.000000 126.148000 -1.000000 -1.000000 4.000000 75.155344 12.619815 734.028867 1233.329117 7.932821 0.000000 0.123313
34.000000 161.266000 0.000000 -1.000000 4.000000 103.558622 16.227473 661.747888 670.669627 6.201899 0.000000 0.142439
35.000000 173.874000 1.000000 -1.000000 4.000000 129.548157 22.469774 529.849373 -20.764892 5.749611 0.000000 0.032836
36.000000 131.646000 -1.000000 0.000000 4.000000 76.173830 -5.430836 1077.324215 1207.078940 7.601416 0.000000 0.132783
37.000000 168.902000 0.000000 0.000000 4.000000 105.866222 -6.936749 1105.946406 632.839690 5.921321 0.000000 0.160586
38.000000 181.213000 1.000000 0.000000 4.000000 133.226938 -9.700198 1158.978182 -85.333914 5.516520 0.000000 0.032607
39.000000 75.193000 -2.000000 1.000000 4.000000 45.074509 -19.096485 1347.626366 2077.014680 13.314062 0.000000 0.212811
40.000000 121.208000 -1.000000 1.000000 4.000000 71.741296 -23.071347 1433.442376 1326.959929 8.256318 0.000000 0.111670
41.000000 156.402000 0.000000 1.000000 4.000000 99.270043 -29.008875 1571.817615 740.127256 6.395103 0.000000 0.095401
42.000000 169.609000 1.000000 1.000000 4.000000 123.876492 -38.540034 1832.351675 17.164818 5.894568 0.000000 0.127606
43.000000 100.490000 -1.000000 2.000000 4.000000 63.750843 -37.575173 1803.115463 1610.670391 9.959079 0.000000 0.189359
44.000000 130.612000 0.000000 2.000000 4.000000 87.395252 -45.256843 2060.987312 1010.557498 7.659000 0.000000 0.166138
54.000000 71.693000 -1.000000 -4.000000 5.000000 65.335146 42.839716 -23.046112 1615.032761 13.958641 0.000000 0.240978
55.000000 85.953000 0.000000 -4.000000 5.000000 81.356193 48.611051 -246.291002 1188.465446 11.639621 0.000000 0.250782
57.000000 63.908000 -2.000000 -3.000000 5.000000 53.107057 29.889521 356.365236 1872.843815 15.662909 0.000000 0.190291
58.000000 85.636000 -1.000000 -3.000000 5.000000 71.706364 34.292016 241.021577 1371.679818 11.685385 0.000000 0.133056
59.000000 102.620000 0.000000 -3.000000 5.000000 90.150728 39.949683 73.491390 937.306582 9.747977 0.000000 0.103146
60.000000 112.142000 1.000000 -3.000000 5.000000 107.029304 47.315375 -191.997116 454.751522 8.917505 0.000000 0.198781
62.000000 73.329000 -2.000000 -2.000000 5.000000 56.641350 19.830102 586.871351 1694.236272 13.650749 0.000000 0.097538
63.000000 99.437000 -1.000000 -2.000000 5.000000 77.596316 23.232947 512.966904 1198.600356 10.062991 0.000000 0.120029
64.000000 119.105000 0.000000 -2.000000 5.000000 98.623802 27.905003 405.011193 756.291389 8.397832 0.000000 0.100045
65.000000 128.734000 1.000000 -2.000000 5.000000 117.989011 34.603173 232.426347 246.056931 7.766947 0.000000 0.040662
67.000000 49.901000 -3.000000 -1.000000 5.000000 38.078364 6.884524 845.049040 2324.693733 20.064184 0.000000 0.299064
68.000000 80.068000 -2.000000 -1.000000 5.000000 58.818008 8.025765 823.243114 1598.807700 12.501847 0.000000 0.034112
69.000000 109.709000 -1.000000 -1.000000 5.000000 81.584388 9.590205 793.147714 1102.489884 9.120433 0.000000 0.148410
70.000000 131.445000 0.000000 -1.000000 5.000000 104.709190 11.862405 748.926708 652.289269 7.608848 0.000000 0.152580
71.000000 140.925000 1.000000 -1.000000 5.000000 126.311793 15.447176 677.585508 120.399105 7.094319 0.000000 0.053953
74.000000 76.998000 -2.000000 1.000000 5.000000 56.356773 -17.507178 1314.502541 1692.048369 13.000288 0.000000 0.089264
75.000000 106.453000 -1.000000 1.000000 5.000000 78.681615 -20.609631 1379.758914 1171.153734 9.399571 0.000000 0.128831
76.000000 128.263000 0.000000 1.000000 5.000000 101.183035 -24.997793 1476.833794 706.226529 7.797892 0.000000 0.112924
77.000000 138.044000 1.000000 1.000000 5.000000 121.853954 -31.575312 1636.501540 156.056484 7.242695 0.000000 0.031693
79.000000 67.812000 -2.000000 2.000000 5.000000 52.044524 -28.929927 1569.880074 1900.250099 14.761364 0.000000 0.194272
80.000000 93.622000 -1.000000 2.000000 5.000000 72.305287 -33.486613 1687.022064 1352.719217 10.688486 0.000000 0.129004
81.000000 113.408000 0.000000 2.000000 5.000000 92.439850 -39.505842 1862.412866 881.561947 8.820307 0.000000 0.091139
82.000000 123.525000 1.000000 2.000000 5.000000 110.658546 -47.604410 2153.874860 339.130145 8.095197 0.000000 0.214993
84.000000 78.232000 -1.000000 3.000000 5.000000 64.698056 -43.718387 2004.190163 1644.991535 12.791977 0.000000 0.257843
85.000000 95.344000 0.000000 3.000000 5.000000 82.270513 -50.129348 2263.574219 1168.881234 10.492791 0.000000 0.278141
94.000000 48.670000 -2.000000 -5.000000 6.000000 53.655059 40.776887 46.725107 1986.768579 20.565258 0.000000 0.303126
95.000000 60.072000 -1.000000 -5.000000 6.000000 66.945982 44.938341 -98.980238 1588.095609 16.658303 0.000000 0.262029
96.000000 69.441000 0.000000 -5.000000 6.000000 79.943660 49.797079 -298.490570 1236.696580 14.407453 0.000000 0.282395
98.000000 69.953000 -1.000000 -4.000000 6.000000 72.565805 38.268293 125.960661 1371.502437 14.304564 0.000000 0.154660
99.000000 87.724000 1.000000 -4.000000 6.000000 100.766857 49.126305 -268.661398 628.238826 11.400871 0.000000 0.227862
100.000000 64.237000 -2.000000 -3.000000 6.000000 61.497437 26.313378 442.749516 1593.000863 15.581134 0.000000 0.116777
101.000000 80.251000 -1.000000 -3.000000 6.000000 78.125205 29.878942 356.629602 1202.009765 12.468271 0.000000 0.114658
102.000000 99.791000 1.000000 -3.000000 6.000000 109.788837 40.276310 63.000890 433.417358 10.020941 0.000000 0.079283
104.000000 51.408000 -3.000000 -2.000000 6.000000 47.318608 14.919471 688.228536 1968.155573 19.474191 0.000000 0.161154
105.000000 89.592000 -1.000000 -2.000000 6.000000 82.895827 19.529133 593.248202 1083.326984 11.167748 0.000000 0.136016
106.000000 103.264000 0.000000 -2.000000 6.000000 101.048176 22.995566 518.238487 712.709152 9.685785 0.000000 0.120135
107.000000 110.569000 1.000000 -2.000000 6.000000 118.058763 27.809191 407.313742 292.397927 9.043065 0.000000 0.025634
109.000000 54.238000 -3.000000 -1.000000 6.000000 48.206069 5.466792 871.994206 1907.509121 18.458295 0.000000 0.123062
110.000000 75.990000 -2.000000 -1.000000 6.000000 66.478126 6.280111 856.554164 1412.303036 13.171081 0.000000 0.077263
111.000000 95.998000 -1.000000 -1.000000 6.000000 85.865404 7.356236 836.049656 1019.448670 10.422195 0.000000 0.161091
112.000000 110.634000 0.000000 -1.000000 6.000000 105.302595 8.845784 807.500068 642.961891 9.040010 0.000000 0.157682
113.000000 117.932000 1.000000 -1.000000 6.000000 123.689461 11.039727 765.015024 209.958768 8.477810 0.000000 0.081772
114.000000 118.347000 2.000000 -1.000000 6.000000 140.198880 14.577517 695.097289 -393.724625 8.446171 0.000000 0.052728
115.000000 76.974000 -2.000000 0.000000 6.000000 66.408721 -5.070730 1070.502516 1412.873073 13.002838 0.000000 0.077883
116.000000 97.594000 -1.000000 0.000000 6.000000 86.104190 -5.850237 1085.279511 1014.679058 10.251738 0.000000 0.163869
117.000000 119.935000 1.000000 0.000000 6.000000 124.558776 -8.554556 1136.901122 191.316195 8.336112 0.000000 0.083822
118.000000 120.124000 2.000000 0.000000 6.000000 141.349056 -11.213267 1188.371002 -430.985613 8.321064 0.000000 0.039095
119.000000 52.201000 -3.000000 1.000000 6.000000 46.288532 -14.362300 1250.590648 2003.136770 19.178288 0.000000 0.175397
120.000000 73.771000 -2.000000 1.000000 6.000000 64.299001 -16.282024 1289.363961 1480.652232 13.567360 0.000000 0.081637
121.000000 93.705000 -1.000000 1.000000 6.000000 83.344470 -18.790269 1341.196489 1073.658895 10.677489 0.000000 0.141121
122.000000 108.398000 0.000000 1.000000 6.000000 102.318137 -22.190620 1414.022016 687.172600 9.226795 0.000000 0.124148
123.000000 115.867000 1.000000 1.000000 6.000000 120.046308 -27.018319 1523.832864 242.171600 8.629302 0.000000 0.026032
125.000000 47.619000 -3.000000 2.000000 6.000000 43.643684 -23.618967 1445.645759 2172.673322 21.023650 0.000000 0.258182
126.000000 85.363000 -1.000000 2.000000 6.000000 78.201953 -30.305468 1604.073383 1201.394948 11.721609 0.000000 0.116710
127.000000 106.729000 1.000000 2.000000 6.000000 111.716771 -41.485587 1926.742169 368.764422 9.369115 0.000000 0.100084
129.000000 58.770000 -2.000000 3.000000 6.000000 55.778356 -35.493145 1742.518979 1840.111822 17.031042 0.000000 0.221920
130.000000 74.634000 -1.000000 3.000000 6.000000 71.756559 -39.877319 1874.198031 1403.292455 13.407366 0.000000 0.170954
132.000000 63.500000 -1.000000 4.000000 6.000000 64.984796 -47.555952 2151.874364 1685.190852 15.759215 0.000000 0.323159
137.000000 51.596000 -1.000000 -6.000000 7.000000 68.022396 46.418269 -155.942185 1571.068172 19.394624 0.000000 0.280163
138.000000 58.210000 0.000000 -6.000000 7.000000 78.948908 50.606138 -335.588341 1272.217772 17.187665 0.000000 0.305876
140.000000 49.686000 -2.000000 -5.000000 7.000000 60.626272 37.334250 154.066273 1702.919446 20.143450 0.000000 0.205006
141.000000 58.904000 -1.000000 -5.000000 7.000000 72.997176 40.982655 39.963552 1376.965883 16.987555 0.000000 0.176949
142.000000 66.387000 0.000000 -5.000000 7.000000 85.077924 45.247636 -110.638352 1072.651883 15.069367 0.000000 0.177144
143.000000 71.603000 1.000000 -5.000000 7.000000 96.427270 50.238757 -318.586812 751.434026 13.968592 0.000000 0.253215
145.000000 56.041000 -2.000000 -4.000000 7.000000 64.417222 30.896809 330.932573 1541.489437 17.858869 0.000000 0.134600
146.000000 66.661000 -1.000000 -4.000000 7.000000 78.057277 34.321099 240.220907 1216.640704 15.009904 0.000000 0.118832
147.000000 75.042000 0.000000 -4.000000 7.000000 91.417028 38.459514 120.117906 906.999369 13.330097 0.000000 0.091514
148.000000 80.526000 1.000000 -4.000000 7.000000 103.958017 43.501608 -46.422525 572.197451 12.419456 0.000000 0.118406
150.000000 48.760000 -3.000000 -3.000000 7.000000 53.345584 20.946521 563.001538 1798.587886 20.529924 0.000000 0.125824
151.000000 62.213000 -2.000000 -3.000000 7.000000 67.887666 23.308695 511.280801 1417.169659 16.086768 0.000000 0.101952
152.000000 74.254000 -1.000000 -3.000000 7.000000 82.809271 26.218043 444.976501 1092.362978 13.474296 0.000000 0.120516
153.000000 83.496000 0.000000 -3.000000 7.000000 97.499867 29.867791 356.908175 777.602768 11.979551 0.000000 0.092100
154.000000 89.147000 1.000000 -3.000000 7.000000 111.334357 34.537135 234.255907 430.688951 11.217250 0.000000 0.018625
155.000000 91.213000 2.000000 -3.000000 7.000000 123.766871 40.625555 51.671206 -7.133585 10.960938 0.000000 0.162628
156.000000 52.456000 -3.000000 -2.000000 7.000000 55.075724 12.976348 726.985831 1712.205848 19.083336 0.000000 0.070243
157.000000 67.415000 -2.000000 -2.000000 7.000000 70.605996 14.571658 695.214799 1332.489183 14.845061 0.000000 0.102920
158.000000 80.724000 -1.000000 -2.000000 7.000000 86.659432 16.588223 654.383615 1006.551533 12.393855 0.000000 0.148031
159.000000 90.696000 0.000000 -2.000000 7.000000 102.565006 19.210559 599.972265 686.964035 11.027758 0.000000 0.133577
160.000000 96.423000 1.000000 -2.000000 7.000000 117.645633 22.741760 523.854354 329.711337 10.369888 0.000000 0.062705
161.000000 98.010000 2.000000 -2.000000 7.000000 131.334658 27.705372 409.804140 -128.296593 10.199784 0.000000 0.072513
163.000000 54.701000 -3.000000 -1.000000 7.000000 55.908824 4.309442 893.894656 1671.529664 18.300132 0.000000 0.027348
164.000000 70.714000 -2.000000 -1.000000 7.000000 72.088435 4.893999 882.842583 1290.146407 14.152509 0.000000 0.111792
165.000000 84.912000 -1.000000 -1.000000 7.000000 88.899054 5.645650 868.602577 961.784497 11.782229 0.000000 0.167791
166.000000 95.386000 0.000000 -1.000000 7.000000 105.634451 6.647570 849.562861 637.756798 10.485098 0.000000 0.160451
167.000000 101.142000 1.000000 -1.000000 7.000000 121.599708 8.048637 822.804903 272.279722 9.885529 0.000000 0.099604
168.000000 102.369000 2.000000 -1.000000 7.000000 136.261036 10.143353 782.442446 -201.603965 9.764892 0.000000 0.025292
170.000000 53.129000 -3.000000 1.000000 7.000000 54.168315 -13.671469 1236.804522 1740.814270 18.841643 0.000000 0.083167
171.000000 69.046000 -2.000000 1.000000 7.000000 70.134353 -15.309554 1269.633704 1344.191244 14.494437 0.000000 0.103957
172.000000 83.215000 -1.000000 1.000000 7.000000 86.673085 -17.393450 1312.155062 1006.563968 12.022809 0.000000 0.148841
173.000000 93.731000 0.000000 1.000000 7.000000 103.051663 -20.125172 1369.404045 675.270879 10.670521 0.000000 0.131550
174.000000 99.592000 1.000000 1.000000 7.000000 118.530463 -23.841544 1450.634837 301.290277 10.039722 0.000000 0.054642
175.000000 100.964000 2.000000 1.000000 7.000000 132.496033 -29.134589 1574.909025 -187.940132 9.901138 0.000000 0.089345
176.000000 49.484000 -3.000000 2.000000 7.000000 51.715772 -22.142688 1412.972173 1858.167955 20.229664 0.000000 0.149797
177.000000 64.273000 -2.000000 2.000000 7.000000 66.866833 -24.655863 1469.035894 1446.941784 15.571132 0.000000 0.107159
178.000000 77.529000 -1.000000 2.000000 7.000000 82.452488 -27.774280 1541.848291 1102.173683 12.905182 0.000000 0.119703
179.000000 87.576000 0.000000 2.000000 7.000000 97.771272 -31.719254 1640.232654 768.323910 11.421241 0.000000 0.084244
180.000000 93.490000 1.000000 2.000000 7.000000 112.104117 -36.812249 1780.529926 395.001888 10.695890 0.000000 0.036325
182.000000 57.913000 -2.000000 3.000000 7.000000 62.637018 -32.949662 1672.610069 1604.787026 17.281534 0.000000 0.156275
183.000000 69.889000 -1.000000 3.000000 7.000000 76.996280 -36.694138 1777.073755 1250.982931 14.316770 0.000000 0.129673
184.000000 79.224000 0.000000 3.000000 7.000000 91.020361 -41.245823 1918.745958 915.505000 12.626405 0.000000 0.107408
185.000000 85.110000 1.000000 3.000000 7.000000 104.069234 -46.816883 2121.814006 546.846262 11.750314 0.000000 0.176710
187.000000 50.936000 -2.000000 4.000000 7.000000 57.953459 -40.073969 1880.488545 1821.485202 19.649460 0.000000 0.257316
188.000000 61.486000 -1.000000 4.000000 7.000000 71.017321 -44.100880 2018.033760 1456.563129 16.274279 0.000000 0.223893
189.000000 69.967000 0.000000 4.000000 7.000000 83.730890 -48.819271 2205.275740 1120.571940 14.298377 0.000000 0.243159
197.000000 50.086000 0.000000 -7.000000 8.000000 78.211110 51.193094 -363.309734 1299.437210 19.975579 0.000000 0.323956
199.000000 50.775000 -1.000000 -6.000000 8.000000 73.231346 42.945462 -26.746967 1384.044908 19.707034 0.000000 0.198032
200.000000 60.286000 1.000000 -6.000000 8.000000 93.254700 50.990980 -353.685015 843.763204 16.591790 0.000000 0.274383
201.000000 49.269000 -2.000000 -5.000000 8.000000 66.302001 34.269049 241.653459 1512.652758 20.312262 0.000000 0.149727
202.000000 56.757000 -1.000000 -5.000000 8.000000 77.805133 37.464937 150.176334 1234.051012 17.629018 0.000000 0.131084
203.000000 62.803000 0.000000 -5.000000 8.000000 89.038757 41.196561 32.889686 964.999500 15.928340 0.000000 0.116059
204.000000 67.067000 1.000000 -5.000000 8.000000 99.666506 45.569959 -122.923389 679.118658 14.912689 0.000000 0.152150
206.000000 62.818000 -1.000000 -4.000000 8.000000 82.284308 30.909090 330.619236 1110.957680 15.927209 0.000000 0.111564
207.000000 73.867000 1.000000 -4.000000 8.000000 106.129042 38.660061 113.956788 542.407343 13.538665 0.000000 0.054178
209.000000 48.661000 -3.000000 -3.000000 8.000000 59.596336 18.793741 608.730743 1608.118389 20.569734 0.000000 0.082206
210.000000 59.211000 -2.000000 -3.000000 8.000000 72.847817 20.761792 566.975250 1296.254072 16.900916 0.000000 0.110882
211.000000 68.473000 -1.000000 -3.000000 8.000000 86.317471 23.155546 514.687819 1016.340660 14.611142 0.000000 0.130654
212.000000 75.608000 0.000000 -3.000000 8.000000 99.568607 26.118035 447.308713 738.931581 13.228971 0.000000 0.107533
213.000000 80.153000 1.000000 -3.000000 8.000000 112.166031 29.856022 357.202131 435.414939 12.475869 0.000000 0.037896
214.000000 82.106000 2.000000 -3.000000 8.000000 123.727751 34.671294 230.536025 67.304743 12.176696 0.000000 0.080408
216.000000 51.608000 -3.000000 -2.000000 8.000000 61.174588 11.339589 759.161704 1545.112429 19.395300 0.000000 0.053156
217.000000 73.074000 -1.000000 -2.000000 8.000000 89.439268 14.208165 702.492469 951.866004 13.690678 0.000000 0.156164
218.000000 85.239000 1.000000 -2.000000 8.000000 117.055983 18.872808 607.072691 360.042492 11.730616 0.000000 0.086171
220.000000 53.343000 -3.000000 -1.000000 8.000000 61.907639 3.347507 912.045840 1516.485141 18.764551 0.000000 0.040859
221.000000 65.427000 -2.000000 -1.000000 8.000000 76.348881 3.767947 904.117368 1202.965948 15.294974 0.000000 0.133084
222.000000 75.927000 -1.000000 -1.000000 8.000000 91.152005 4.296026 894.148100 919.295833 13.176014 0.000000 0.171440
223.000000 83.770000 0.000000 -1.000000 8.000000 105.830758 4.979013 881.233694 634.659307 11.938930 0.000000 0.162034
224.000000 88.411000 1.000000 -1.000000 8.000000 119.919751 5.896467 863.842878 318.315007 11.309396 0.000000 0.111549
225.000000 89.929000 2.000000 -1.000000 8.000000 133.053249 7.193299 839.160288 -72.509354 11.116175 0.000000 0.036404
227.000000 53.536000 -3.000000 0.000000 8.000000 61.630679 -4.909126 1067.443652 1524.345472 18.696694 0.000000 0.042848
228.000000 76.497000 -1.000000 0.000000 8.000000 91.085310 -6.086931 1089.774387 920.494533 13.077704 0.000000 0.170907
229.000000 89.124000 1.000000 0.000000 8.000000 120.038696 -8.080334 1127.802471 312.390782 11.218875 0.000000 0.108435
231.000000 52.101000 -3.000000 1.000000 8.000000 60.314558 -13.097784 1225.417649 1570.932897 19.211853 0.000000 0.061127
232.000000 64.133000 -2.000000 1.000000 8.000000 74.578276 -14.519325 1253.735957 1247.694796 15.603697 0.000000 0.122392
233.000000 74.622000 -1.000000 1.000000 8.000000 89.160251 -16.288501 1289.496015 957.435397 13.406669 0.000000 0.153758
234.000000 82.497000 0.000000 1.000000 8.000000 103.556465 -18.545562 1336.074986 667.267895 12.123468 0.000000 0.136683
235.000000 87.206000 1.000000 1.000000 8.000000 117.273043 -21.513553 1399.257704 344.571566 11.465904 0.000000 0.074400
236.000000 88.819000 2.000000 1.000000 8.000000 129.896119 -25.564221 1489.847672 -56.445602 11.255439 0.000000 0.044533
238.000000 49.233000 -3.000000 2.000000 8.000000 58.082033 -20.901654 1386.032427 1658.626562 20.331120 0.000000 0.100309
239.000000 70.584000 -1.000000 2.000000 8.000000 85.634123 -25.719771 1493.442946 1032.207760 14.174216 0.000000 0.125748
240.000000 82.933000 1.000000 2.000000 8.000000 112.159786 -33.171112 1678.532456 417.313628 12.057525 0.000000 0.016062
242.000000 55.767000 -2.000000 3.000000 8.000000 68.003600 -30.797505 1616.536640 1447.148390 17.945343 0.000000 0.126902
243.000000 65.002000 -1.000000 3.000000 8.000000 80.985644 -34.028567 1701.750699 1147.024665 15.392054 0.000000 0.113678
244.000000 72.212000 0.000000 3.000000 8.000000 93.659808 -37.916902 1813.382267 853.736145 13.851930 0.000000 0.081506
245.000000 76.922000 1.000000 3.000000 8.000000 105.573745 -42.636502 1965.969539 533.239827 13.000977 0.000000 0.102197
247.000000 58.608000 -1.000000 4.000000 8.000000 75.735401 -41.119622 1914.560651 1304.231108 17.072314 0.000000 0.164727
248.000000 69.923000 1.000000 4.000000 8.000000 98.336796 -50.093397 2261.932096 695.152783 14.303702 0.000000 0.246426
249.000000 52.042000 -1.000000 5.000000 8.000000 70.315715 -47.070130 2132.020356 1506.312908 19.227565 0.000000 0.276783
250.000000 58.172000 0.000000 5.000000 8.000000 80.999768 -51.225529 2314.862181 1213.209117 17.198075 0.000000 0.310582
256.000000 48.740000 0.000000 -7.000000 9.000000 82.309736 47.783965 -211.319830 1157.294740 20.525920 0.000000 0.230574
257.000000 51.954000 1.000000 -7.000000 9.000000 90.838803 51.533393 -379.707226 915.668061 19.253418 0.000000 0.291984
259.000000 49.298000 -1.000000 -6.000000 9.000000 77.508610 39.794182 78.450552 1251.326640 20.296366 0.000000 0.147226
260.000000 57.248000 1.000000 -6.000000 9.000000 96.397961 47.005762 -179.417026 764.020134 17.471363 0.000000 0.180589
262.000000 48.034000 -2.000000 -5.000000 9.000000 70.950297 31.537364 314.480171 1377.046985 20.833578 0.000000 0.123223
263.000000 54.167000 -1.000000 -5.000000 9.000000 81.654971 34.338752 239.734631 1132.201506 18.470837 0.000000 0.111614
264.000000 59.117000 0.000000 -5.000000 9.000000 92.116845 37.600539 146.125681 890.787213 16.920848 0.000000 0.086724
265.000000 62.658000 1.000000 -5.000000 9.000000 102.077612 41.419092 25.481357 633.891689 15.961531 0.000000 0.087425
266.000000 64.743000 2.000000 -5.000000 9.000000 111.304660 45.906129 -135.887314 337.796844 15.444961 0.000000 0.184101
268.000000 52.190000 -2.000000 -4.000000 9.000000 74.089890 25.458212 462.597205 1280.789741 19.173900 0.000000 0.113135
269.000000 58.920000 -1.000000 -4.000000 9.000000 85.588315 27.950190 403.923842 1035.001950 16.979979 0.000000 0.116210
270.000000 64.241000 0.000000 -4.000000 9.000000 96.857760 30.921879 330.292822 790.113396 15.570137 0.000000 0.088223
271.000000 67.897000 1.000000 -4.000000 9.000000 107.608090 34.504867 235.148809 526.490824 14.728838 0.000000 0.031020
272.000000 69.858000 2.000000 -4.000000 9.000000 117.578939 38.870630 107.450557 218.941572 14.312916 0.000000 0.093310
274.000000 55.912000 -2.000000 -3.000000 9.000000 76.772355 18.583558 613.130763 1207.907038 17.897115 0.000000 0.123623
275.000000 63.193000 -1.000000 -3.000000 9.000000 89.009933 20.569684 571.097392 960.866736 15.831245 0.000000 0.139714
276.000000 72.576000 1.000000 -3.000000 9.000000 112.574930 26.013004 449.753793 443.093733 13.778320 0.000000 0.064828
277.000000 74.388000 2.000000 -3.000000 9.000000 123.315629 29.843582 357.512781 125.431625 13.440344 0.000000 0.031283
278.000000 49.853000 -3.000000 -2.000000 9.000000 66.058684 9.944175 786.301357 1426.165692 20.076719 0.000000 0.076743
279.000000 58.817000 -2.000000 -2.000000 9.000000 78.723334 10.982000 766.140470 1159.612467 17.012920 0.000000 0.138031
280.000000 66.550000 -1.000000 -2.000000 9.000000 91.560666 12.248791 741.337392 910.992735 15.032313 0.000000 0.161620
281.000000 72.460000 0.000000 -2.000000 9.000000 104.234647 13.827941 710.080167 659.813664 13.802703 0.000000 0.148424
282.000000 76.242000 1.000000 -2.000000 9.000000 116.423179 15.847631 669.472800 385.049103 13.115133 0.000000 0.101934
283.000000 77.912000 2.000000 -2.000000 9.000000 127.855324 18.514121 614.581990 58.817814 12.831587 0.000000 0.036374
284.000000 77.746000 3.000000 -2.000000 9.000000 138.325774 22.177597 536.263281 -364.698725 12.857238 0.000000 0.083675
286.000000 51.187000 -3.000000 -1.000000 9.000000 66.683635 2.535776 927.334633 1405.344718 19.553359 0.000000 0.077929
287.000000 60.530000 -2.000000 -1.000000 9.000000 79.682186 2.835713 921.687929 1137.181741 16.531341 0.000000 0.146649
288.000000 68.561000 -1.000000 -1.000000 9.000000 92.886938 3.205138 914.728996 886.638240 14.591092 0.000000 0.173433
289.000000 74.644000 0.000000 -1.000000 9.000000 105.951430 3.671314 905.940276 632.732122 13.398610 0.000000 0.162966
290.000000 78.457000 1.000000 -1.000000 9.000000 118.549357 4.277883 894.490835 353.782850 12.744562 0.000000 0.119971
291.000000 80.034000 2.000000 -1.000000 9.000000 130.418810 5.099282 878.956883 20.750137 12.491080 0.000000 0.054013
292.000000 79.687000 3.000000 -1.000000 9.000000 141.384811 6.273585 856.678237 -414.636067 12.543664 0.000000 0.023864
294.000000 50.186000 -3.000000 1.000000 9.000000 65.215169 -12.613869 1215.853840 1450.263650 19.943605 0.000000 0.078267
295.000000 59.499000 -2.000000 1.000000 9.000000 78.063912 -13.864730 1240.652903 1175.346768 16.817874 0.000000 0.135313
296.000000 67.528000 -1.000000 1.000000 9.000000 91.085416 -15.393214 1271.323687 919.849422 14.814628 0.000000 0.156986
297.000000 73.635000 0.000000 1.000000 9.000000 103.920947 -17.300159 1310.231614 661.585770 13.582543 0.000000 0.140402
298.000000 77.495000 1.000000 1.000000 9.000000 116.225302 -19.739653 1361.209726 377.706227 12.903056 0.000000 0.088398
299.000000 79.136000 2.000000 1.000000 9.000000 127.706113 -22.956957 1430.905888 37.394557 12.633071 0.000000 0.027371
301.000000 47.921000 -3.000000 2.000000 9.000000 63.195542 -19.844717 1363.438937 1519.110950 20.886171 0.000000 0.089512
302.000000 56.831000 -2.000000 2.000000 9.000000 75.584712 -21.741108 1404.204276 1238.837605 17.607820 0.000000 0.120522
303.000000 64.559000 -1.000000 2.000000 9.000000 88.091189 -24.022943 1454.713598 980.271671 15.496440 0.000000 0.131525
304.000000 70.514000 0.000000 2.000000 9.000000 100.361907 -26.810998 1518.934707 720.498542 14.184260 0.000000 0.105110
305.000000 74.384000 1.000000 2.000000 9.000000 112.050961 -30.275884 1603.328030 436.181661 13.443359 0.000000 0.038573
306.000000 76.175000 2.000000 2.000000 9.000000 122.854114 -34.660659 1719.168658 95.973162 13.124956 0.000000 0.070051
308.000000 53.104000 -2.000000 3.000000 9.000000 72.282188 -28.957699 1570.561307 1333.990756 18.844086 0.000000 0.117442
309.000000 60.378000 -1.000000 3.000000 9.000000 84.095320 -31.773013 1641.629089 1071.934843 16.570094 0.000000 0.110487
310.000000 69.939000 1.000000 3.000000 9.000000 106.568603 -39.160890 1851.581498 528.019370 14.298757 0.000000 0.055874
311.000000 71.913000 2.000000 3.000000 9.000000 116.608782 -44.048221 2016.117297 190.849460 13.903871 0.000000 0.170237
312.000000 48.724000 -2.000000 4.000000 9.000000 68.449270 -35.396968 1739.796816 1462.450532 20.538575 0.000000 0.150004
313.000000 55.447000 -1.000000 4.000000 9.000000 79.481867 -38.534208 1832.172813 1196.462061 18.044795 0.000000 0.130631
314.000000 60.836000 0.000000 4.000000 9.000000 90.222481 -42.178269 1950.180474 935.360377 16.442868 0.000000 0.118479
315.000000 64.628000 1.000000 4.000000 9.000000 100.375480 -46.424951 2106.206318 655.116190 15.475229 0.000000 0.164489
317.000000 50.205000 -1.000000 5.000000 9.000000 74.595956 -44.331064 2026.451447 1355.562823 19.930042 0.000000 0.207805
318.000000 55.226000 0.000000 5.000000 9.000000 84.544687 -48.063955 2173.032478 1094.805319 18.114628 0.000000 0.224716
319.000000 58.910000 1.000000 5.000000 9.000000 93.949807 -52.297788 2367.450955 819.483381 16.978904 0.000000 0.307501
323.000000 45.588000 1.000000 -8.000000 10.000000 88.939766 51.942964 -399.770808 973.312088 21.942766 0.000000 0.306721
324.000000 47.067000 0.000000 -7.000000 10.000000 85.707956 44.639306 -87.827675 1054.523075 21.254610 0.000000 0.166118
325.000000 49.820000 1.000000 -7.000000 10.000000 93.834434 48.059485 -222.844507 833.068289 20.077139 0.000000 0.204586
328.000000 47.475000 -1.000000 -6.000000 10.000000 81.037388 36.938346 165.768438 1153.375936 21.074570 0.000000 0.118974
329.000000 54.189000 1.000000 -6.000000 10.000000 98.868573 43.386569 -42.323090 709.914048 18.457263 0.000000 0.116677
331.000000 46.365000 -2.000000 -5.000000 10.000000 74.787420 29.098156 375.987667 1275.951387 21.582118 0.000000 0.115034
332.000000 51.441000 -1.000000 -5.000000 10.000000 84.767034 31.557972 313.947150 1056.683122 19.448891 0.000000 0.108025
333.000000 58.529000 1.000000 -5.000000 10.000000 103.878940 37.741339 141.904145 604.704959 17.087158 0.000000 0.049812
334.000000 60.358000 2.000000 -5.000000 10.000000 112.628826 41.650774 17.714271 340.561246 16.566773 0.000000 0.110754
336.000000 55.197000 -1.000000 -4.000000 10.000000 88.211179 25.372780 464.564380 978.202269 18.124574 0.000000 0.123951
337.000000 62.616000 1.000000 -4.000000 10.000000 108.615479 30.935210 329.952494 518.339402 15.970929 0.000000 0.046434
338.000000 64.912000 3.000000 -4.000000 10.000000 126.576310 39.091984 100.569382 -87.992127 15.401393 0.000000 0.160784
339.000000 45.868000 -3.000000 -3.000000 10.000000 68.804533 15.307312 680.411573 1373.720376 21.819547 0.000000 0.095034
340.000000 52.637000 -2.000000 -3.000000 10.000000 79.933724 16.704472 652.004668 1140.481803 19.009711 0.000000 0.134778
341.000000 58.476000 -1.000000 -3.000000 10.000000 91.122307 18.365662 617.680821 918.783301 17.107606 0.000000 0.146897
342.000000 63.048000 0.000000 -3.000000 10.000000 102.131584 20.369751 575.376437 694.209010 15.863858 0.000000 0.129712
343.000000 66.168000 1.000000 -3.000000 10.000000 112.731440 22.828290 521.942085 451.760991 15.112774 0.000000 0.084275
344.000000 67.830000 2.000000 -3.000000 10.000000 122.719185 25.902561 452.320136 172.297091 14.739960 0.000000 0.022250
345.000000 68.172000 3.000000 -3.000000 10.000000 131.927099 29.830411 357.841587 -173.260686 14.663892 0.000000 0.094846
347.000000 47.711000 -3.000000 -2.000000 10.000000 70.037902 8.741736 809.501386 1336.527648 20.976277 0.000000 0.099852
348.000000 60.983000 -1.000000 -2.000000 10.000000 93.224183 10.611202 773.359200 879.315250 16.404133 0.000000 0.165307
349.000000 68.881000 1.000000 -2.000000 10.000000 115.804627 13.429839 717.998135 405.961176 14.516984 0.000000 0.113048
350.000000 70.635000 3.000000 -2.000000 10.000000 136.078502 18.132520 622.536524 -234.996541 14.152024 0.000000 0.047615
351.000000 48.742000 -3.000000 -1.000000 10.000000 70.561436 1.841877 940.388635 1321.033840 20.532575 0.000000 0.103474
352.000000 56.127000 -2.000000 -1.000000 10.000000 82.355085 2.051613 936.444223 1085.559812 17.827239 0.000000 0.155592
353.000000 62.442000 -1.000000 -1.000000 10.000000 94.261873 2.305697 931.664357 860.728263 16.020467 0.000000 0.174483
354.000000 67.292000 0.000000 -1.000000 10.000000 106.027446 2.619847 925.752166 631.496050 14.862396 0.000000 0.163518
355.000000 70.476000 1.000000 -1.000000 10.000000 117.414457 3.018187 918.251223 381.982029 14.187944 0.000000 0.126159
356.000000 72.008000 2.000000 -1.000000 10.000000 128.228797 3.539738 908.421721 91.543054 13.883663 0.000000 0.068720
357.000000 72.074000 3.000000 -1.000000 10.000000 138.334023 4.251979 894.980134 -271.789473 13.869016 0.000000 0.014155
359.000000 48.823000 -3.000000 0.000000 10.000000 70.285939 -5.208483 1073.111126 1328.266196 20.498639 0.000000 0.102711
360.000000 56.286000 -2.000000 0.000000 10.000000 82.121500 -5.674456 1081.943858 1090.669966 17.776855 0.000000 0.154218
361.000000 62.667000 -1.000000 0.000000 10.000000 94.068140 -6.238950 1092.663342 863.995730 15.963089 0.000000 0.172535
362.000000 70.765000 1.000000 0.000000 10.000000 117.272835 -7.821089 1122.837577 380.919213 14.130138 0.000000 0.121737
363.000000 72.294000 2.000000 0.000000 10.000000 128.088105 -8.977655 1145.038015 86.975828 13.828854 0.000000 0.062717
364.000000 72.340000 3.000000 0.000000 10.000000 138.168729 -10.553432 1175.517720 -282.138151 13.818152 0.000000 0.025401
366.000000 47.920000 -3.000000 1.000000 10.000000 69.199649 -12.200238 1207.707731 1359.300701 20.885013 0.000000 0.098402
367.000000 55.288000 -2.000000 1.000000 10.000000 80.865234 -13.313745 1229.697822 1118.844106 18.097982 0.000000 0.144304
368.000000 61.604000 -1.000000 1.000000 10.000000 92.617787 -14.653420 1256.425504 890.136536 16.238658 0.000000 0.159160
369.000000 66.473000 0.000000 1.000000 10.000000 104.194224 -16.293926 1289.606625 657.379515 15.045894 0.000000 0.143198
370.000000 69.691000 1.000000 1.000000 10.000000 115.344209 -18.345531 1331.899386 403.925154 14.348152 0.000000 0.098736
371.000000 71.269000 2.000000 1.000000 10.000000 125.853543 -20.976964 1387.654241 108.015576 14.028104 0.000000 0.036056
372.000000 71.388000 3.000000 1.000000 10.000000 135.553256 -24.456781 1464.515417 -264.443079 14.002784 0.000000 0.076012
374.000000 46.115000 -3.000000 2.000000 10.000000 67.373477 -18.934325 1344.218426 1415.264666 21.702609 0.000000 0.096534
375.000000 59.357000 -1.000000 2.000000 10.000000 90.038459 -22.600205 1423.022594 940.217452 16.854015 0.000000 0.136366
376.000000 67.354000 1.000000 2.000000 10.000000 111.862739 -27.929789 1545.585131 452.212430 14.846675 0.000000 0.057741
377.000000 69.295000 3.000000 2.000000 10.000000 130.969740 -36.187291 1762.361777 -216.998901 14.426325 0.000000 0.152748
378.000000 50.311000 -2.000000 3.000000 10.000000 75.753530 -27.369933 1532.181598 1248.720573 19.889120 0.000000 0.117347
379.000000 56.153000 -1.000000 3.000000 10.000000 86.570804 -29.845250 1592.528870 1015.355658 17.816189 0.000000 0.112707
380.000000 60.772000 0.000000 3.000000 10.000000 97.145254 -32.766456 1667.732844 780.546290 16.458724 0.000000 0.080721
381.000000 63.980000 1.000000 3.000000 10.000000 107.232593 -36.245787 1764.049931 527.057406 15.630504 0.000000 0.032819
382.000000 65.761000 2.000000 3.000000 10.000000 116.613682 -40.425456 1891.823083 232.573945 15.204771 0.000000 0.107023
384.000000 52.293000 -1.000000 4.000000 10.000000 82.502123 -36.279403 1765.021204 1116.721427 19.132404 0.000000 0.113023
385.000000 59.871000 1.000000 4.000000 10.000000 101.892734 -43.249417 1987.455924 629.804108 16.704543 0.000000 0.109187
387.000000 48.079000 -1.000000 5.000000 10.000000 78.106341 -41.896330 1940.579203 1245.540967 20.810089 0.000000 0.161991
388.000000 55.340000 1.000000 5.000000 10.000000 96.223393 -49.064935 2215.972666 761.868390 18.073813 0.000000 0.221178
394.000000 47.613000 1.000000 -7.000000 11.000000 96.278069 44.857210 -95.943027 773.962943 21.007095 0.000000 0.142202
395.000000 49.284000 2.000000 -7.000000 11.000000 103.588418 48.343531 -234.855646 549.594505 20.292237 0.000000 0.213648
397.000000 45.502000 -1.000000 -6.000000 11.000000 83.966594 34.350607 239.407961 1078.787737 21.987345 0.000000 0.106875
398.000000 48.758000 0.000000 -6.000000 11.000000 92.560312 37.042048 162.715010 880.704875 20.515535 0.000000 0.084354
399.000000 51.228000 1.000000 -6.000000 11.000000 100.816345 40.110307 68.345101 672.131192 19.523558 0.000000 0.074293
400.000000 52.883000 2.000000 -6.000000 11.000000 108.603698 43.618648 -50.609376 440.562554 18.909964 0.000000 0.129723
403.000000 48.745000 -1.000000 -5.000000 11.000000 87.308388 29.079488 376.446875 998.896968 20.523781 0.000000 0.111845
404.000000 52.192000 0.000000 -5.000000 11.000000 96.443310 31.579273 313.395945 798.322129 19.164740 0.000000 0.086049
405.000000 54.737000 1.000000 -5.000000 11.000000 105.230562 34.485741 235.677750 585.485091 18.270748 0.000000 0.041066
406.000000 56.357000 2.000000 -5.000000 11.000000 113.526487 37.887637 137.500678 347.274772 17.743024 0.000000 0.058827
407.000000 57.103000 3.000000 -5.000000 11.000000 121.206163 41.892174 9.561721 65.149926 17.508914 0.000000 0.164945
409.000000 47.218000 -2.000000 -4.000000 11.000000 80.485916 21.269879 556.022094 1134.567282 21.190699 0.000000 0.128331
410.000000 51.742000 -1.000000 -4.000000 11.000000 90.324434 23.116209 515.561669 934.373448 19.334282 0.000000 0.131577
411.000000 55.362000 0.000000 -4.000000 11.000000 99.984639 25.284281 466.599227 731.442084 18.066510 0.000000 0.110992
412.000000 57.966000 1.000000 -4.000000 11.000000 109.298714 27.858039 406.140340 514.710745 17.252147 0.000000 0.065928
413.000000 59.536000 2.000000 -4.000000 11.000000 118.114935 30.949118 329.597344 270.487060 16.794435 0.000000 0.006226
414.000000 60.145000 3.000000 -4.000000 11.000000 126.302614 34.706166 229.567124 -20.815985 16.622320 0.000000 0.100379
416.000000 49.530000 -2.000000 -3.000000 11.000000 82.522151 15.070193 685.194126 1087.305265 20.201231 0.000000 0.143638
417.000000 54.297000 -1.000000 -3.000000 11.000000 92.812205 16.470007 656.799873 885.868459 18.423761 0.000000 0.152414
418.000000 58.065000 0.000000 -3.000000 11.000000 102.941661 18.139626 622.388726 680.737019 17.224995 0.000000 0.136940
419.000000 60.711000 1.000000 -3.000000 11.000000 112.736674 20.161510 579.821519 460.525479 16.471308 0.000000 0.098503
420.000000 62.227000 2.000000 -3.000000 11.000000 122.043862 22.653211 525.808712 210.992549 16.067274 0.000000 0.042155
421.000000 62.704000 3.000000 -3.000000 11.000000 130.735732 25.786278 455.016994 -88.435712 15.942926 0.000000 0.054726
424.000000 51.249000 -2.000000 -2.000000 11.000000 83.922710 8.394198 816.178049 1056.832114 19.523339 0.000000 0.155784
425.000000 56.208000 -1.000000 -2.000000 11.000000 94.558667 9.224269 800.210476 854.060574 17.797250 0.000000 0.167820
426.000000 60.088000 0.000000 -2.000000 11.000000 105.051020 10.226482 780.830487 646.908318 16.644437 0.000000 0.155535
427.000000 62.764000 1.000000 -2.000000 11.000000 115.223614 11.459720 756.813313 423.679459 15.931855 0.000000 0.121187
428.000000 64.234000 2.000000 -2.000000 11.000000 124.926291 13.012608 726.268417 169.623732 15.564672 0.000000 0.069413
429.000000 64.604000 3.000000 -2.000000 11.000000 134.042347 15.024427 686.115964 -136.746053 15.473469 0.000000 0.030868
431.000000 46.260000 -3.000000 -1.000000 11.000000 73.764485 1.242056 951.664469 1254.489635 21.633075 0.000000 0.121375
432.000000 52.212000 -2.000000 -1.000000 11.000000 84.542755 1.383171 949.012255 1043.854778 19.163248 0.000000 0.161647
433.000000 57.293000 -1.000000 -1.000000 11.000000 95.377107 1.551721 945.843988 839.656935 17.459903 0.000000 0.174975
434.000000 61.248000 0.000000 -1.000000 11.000000 106.075914 1.756564 941.992820 630.687894 16.329172 0.000000 0.163842
435.000000 63.945000 1.000000 -1.000000 11.000000 116.461272 2.010830 937.211290 404.957412 15.637487 0.000000 0.130863
436.000000 65.388000 2.000000 -1.000000 11.000000 126.385296 2.334844 931.115946 147.254735 15.289823 0.000000 0.080477
437.000000 65.693000 3.000000 -1.000000 11.000000 135.739596 2.761834 923.079054 -164.730029 15.216732 0.000000 0.023963
439.000000 45.574000 -3.000000 1.000000 11.000000 72.495026 -11.842649 1200.685841 1287.839524 21.958818 0.000000 0.114467
440.000000 51.516000 -2.000000 1.000000 11.000000 83.162595 -12.843655 1220.390585 1073.364748 19.422224 0.000000 0.150657
441.000000 56.600000 -1.000000 1.000000 11.000000 93.865394 -14.032043 1243.989729 866.041954 17.673942 0.000000 0.160660
442.000000 60.569000 0.000000 1.000000 11.000000 104.405424 -15.464480 1272.764392 654.161269 16.512350 0.000000 0.145361
443.000000 63.291000 1.000000 1.000000 11.000000 114.595583 -17.222251 1308.626822 425.208036 15.799184 0.000000 0.106638
444.000000 64.768000 2.000000 1.000000 11.000000 124.274246 -19.425599 1354.563639 163.235614 15.436460 0.000000 0.050147
445.000000 65.112000 3.000000 1.000000 11.000000 133.311691 -22.258665 1415.513646 -155.360367 15.352803 0.000000 0.047962
447.000000 49.892000 -2.000000 2.000000 11.000000 81.223874 -19.636179 1359.017114 1117.419570 20.054601 0.000000 0.135674
448.000000 54.856000 -1.000000 2.000000 11.000000 91.615444 -21.391509 1396.611118 908.400226 18.236277 0.000000 0.140287
449.000000 58.765000 0.000000 2.000000 11.000000 101.817210 -23.479243 1442.522504 695.485488 17.019959 0.000000 0.119150
450.000000 61.489000 1.000000 2.000000 11.000000 111.639565 -25.996174 1499.854825 465.939986 16.263034 0.000000 0.072336
451.000000 63.023000 2.000000 2.000000 11.000000 120.913713 -29.076313 1573.475050 203.564617 15.864642 0.000000 0.013439
452.000000 63.467000 3.000000 2.000000 11.000000 129.496907 -32.907032 1671.473380 -115.670335 15.751431 0.000000 0.101854
454.000000 47.576000 -2.000000 3.000000 11.000000 78.614823 -25.987744 1499.658818 1182.108233 21.031416 0.000000 0.120831
455.000000 52.351000 -1.000000 3.000000 11.000000 88.578277 -28.182215 1551.673870 971.305042 19.109683 0.000000 0.116743
456.000000 56.157000 0.000000 3.000000 11.000000 98.327724 -30.748874 1615.299162 757.682277 17.811196 0.000000 0.088002
457.000000 58.869000 1.000000 3.000000 11.000000 107.677370 -33.777721 1694.910303 528.318713 16.987544 0.000000 0.034706
458.000000 60.475000 2.000000 3.000000 11.000000 116.459320 -37.383482 1797.397545 266.857438 16.533969 0.000000 0.062183
459.000000 61.056000 3.000000 3.000000 11.000000 124.529438 -41.709854 1934.275314 -50.972497 16.374420 0.000000 0.182902
461.000000 49.283000 -1.000000 4.000000 11.000000 84.972057 -34.301412 1709.237035 1055.628099 20.299978 0.000000 0.105861
462.000000 52.950000 0.000000 4.000000 11.000000 94.206155 -37.173774 1791.175600 841.660513 18.890910 0.000000 0.078727
463.000000 55.633000 1.000000 4.000000 11.000000 103.036232 -40.489754 1893.909331 613.331522 17.976812 0.000000 0.071921
464.000000 57.311000 2.000000 4.000000 11.000000 111.303704 -44.332528 2026.505178 354.236344 17.447955 0.000000 0.148503
466.000000 45.867000 -1.000000 5.000000 11.000000 81.014486 -39.725355 1869.361586 1162.278917 21.813130 0.000000 0.132312
467.000000 49.365000 0.000000 5.000000 11.000000 89.711943 -42.759179 1970.235991 948.370006 20.264058 0.000000 0.126178
468.000000 51.998000 1.000000 5.000000 11.000000 98.017409 -46.190395 2096.972722 722.013092 19.235024 0.000000 0.160029
469.000000 53.736000 2.000000 5.000000 11.000000 105.786997 -50.072531 2260.980159 466.882590 18.610180 0.000000 0.258755
471.000000 45.606000 0.000000 6.000000 11.000000 85.063078 -47.572754 2152.567587 1078.803603 21.935712 0.000000 0.213359
472.000000 48.167000 1.000000 6.000000 11.000000 92.863577 -51.002394 2304.226279 855.448109 20.766453 0.000000 0.272048
475.000000 46.901000 2.000000 -7.000000 12.000000 105.286618 45.081686 -104.367595 524.385539 21.322591 0.000000 0.148390
476.000000 47.802000 3.000000 -7.000000 12.000000 111.837512 48.636490 -247.384713 288.332927 20.918433 0.000000 0.249024
478.000000 48.428000 1.000000 -6.000000 12.000000 102.357865 37.149022 159.556494 645.154271 20.652113 0.000000 0.051403
479.000000 46.165000 -1.000000 -5.000000 12.000000 89.404940 26.864461 429.803896 953.530901 21.669965 0.000000 0.118150
480.000000 49.093000 0.000000 -5.000000 12.000000 97.973444 29.060227 376.920493 768.533499 20.374052 0.000000 0.095292
481.000000 51.288000 1.000000 -5.000000 12.000000 106.248974 31.601303 312.825609 572.695746 19.499167 0.000000 0.052181
482.000000 52.733000 2.000000 -5.000000 12.000000 114.117095 34.563306 233.531186 355.893502 18.962189 0.000000 0.021147
483.000000 53.464000 3.000000 -5.000000 12.000000 121.477078 38.039761 132.903262 104.311573 18.700529 0.000000 0.106919
485.000000 48.581000 -1.000000 -4.000000 12.000000 92.050781 21.129930 559.046535 899.681847 20.591834 0.000000 0.138202
486.000000 53.870000 1.000000 -4.000000 12.000000 109.757039 25.192549 468.705299 513.786035 18.563585 0.000000 0.081915
487.000000 55.922000 3.000000 -4.000000 12.000000 125.850526 30.963641 329.226382 34.064581 17.877735 0.000000 0.058389
489.000000 46.647000 -2.000000 -3.000000 12.000000 84.672602 13.638013 713.861024 1044.275814 21.448730 0.000000 0.150501
490.000000 50.601000 -1.000000 -3.000000 12.000000 94.187550 14.825634 690.115569 859.483238 19.769100 0.000000 0.156627
491.000000 56.027000 1.000000 -3.000000 12.000000 112.651609 17.904993 627.262836 468.983158 17.848413 0.000000 0.109184
492.000000 57.408000 2.000000 -3.000000 12.000000 121.347832 19.944438 584.442493 243.540585 17.416371 0.000000 0.060102
493.000000 57.783000 4.000000 -3.000000 12.000000 137.171823 25.663680 457.854581 -347.227531 17.299300 0.000000 0.100338
495.000000 52.084000 -1.000000 -2.000000 12.000000 95.649964 8.035846 823.049989 833.464840 19.205955 0.000000 0.169537
496.000000 57.612000 1.000000 -2.000000 12.000000 114.687868 9.827078 788.567820 438.868427 17.356754 0.000000 0.127334
497.000000 59.447000 3.000000 -2.000000 12.000000 132.215507 12.574884 734.915060 -59.453583 16.816212 0.000000 0.033687
499.000000 48.740000 -2.000000 -1.000000 12.000000 86.364370 0.806703 959.845182 1009.393449 20.527567 0.000000 0.165828
500.000000 52.908000 -1.000000 -1.000000 12.000000 96.299164 0.910767 957.889902 822.176890 18.906688 0.000000 0.175128
501.000000 56.192000 0.000000 -1.000000 12.000000 106.106788 1.035400 955.548017 630.154720 17.798197 0.000000 0.164023
502.000000 58.505000 1.000000 -1.000000 12.000000 115.650532 1.187366 952.692286 424.047558 17.091770 0.000000 0.134535
503.000000 59.844000 2.000000 -1.000000 12.000000 124.815121 1.376760 949.132754 192.318530 16.706635 0.000000 0.089924
504.000000 60.285000 3.000000 -1.000000 12.000000 133.513132 1.619347 944.572669 -81.242321 16.582298 0.000000 0.037354
505.000000 59.952000 4.000000 -1.000000 12.000000 141.686801 1.941182 938.521177 -421.961819 16.672555 0.000000 0.010585
507.000000 52.995000 -1.000000 0.000000 12.000000 96.051737 -6.344836 1094.676574 826.190986 18.875680 0.000000 0.172565
508.000000 58.625000 1.000000 0.000000 12.000000 115.408066 -7.657656 1119.710810 425.151849 17.056680 0.000000 0.129881
510.000000 48.154000 -2.000000 1.000000 12.000000 85.078961 -12.437914 1212.385401 1035.896316 20.777455 0.000000 0.155226
511.000000 52.325000 -1.000000 1.000000 12.000000 94.900256 -13.502873 1233.452473 846.101014 19.117411 0.000000 0.161711
512.000000 55.622000 0.000000 1.000000 12.000000 104.572753 -14.769266 1258.751658 651.632208 17.981131 0.000000 0.147078
513.000000 57.953000 1.000000 1.000000 12.000000 113.953052 -16.298536 1289.700621 442.839410 17.254769 0.000000 0.112850
514.000000 59.318000 2.000000 1.000000 12.000000 122.916193 -18.178967 1328.429792 207.679961 16.855245 0.000000 0.062713
515.000000 59.788000 3.000000 1.000000 12.000000 131.360235 -20.541313 1378.294729 -70.890898 16.720508 0.000000 0.032279
518.000000 50.943000 -1.000000 2.000000 12.000000 92.916059 -20.352801 1374.261308 882.524127 19.636460 0.000000 0.143442
519.000000 56.531000 1.000000 2.000000 12.000000 111.405009 -24.378495 1462.741718 477.796479 17.689381 0.000000 0.083644
520.000000 58.471000 3.000000 2.000000 12.000000 128.130696 -30.250664 1602.692996 -37.033125 17.097691 0.000000 0.065559
521.000000 48.948000 -1.000000 3.000000 12.000000 90.232877 -26.735188 1517.148079 936.101764 20.437510 0.000000 0.121088
522.000000 54.457000 1.000000 3.000000 12.000000 107.974181 -31.668549 1638.917002 530.738801 18.363925 0.000000 0.047108
523.000000 55.906000 2.000000 3.000000 12.000000 116.214320 -34.806643 1723.229101 295.588267 17.885261 0.000000 0.029000
525.000000 46.476000 -1.000000 4.000000 12.000000 87.018852 -32.556160 1662.159125 1007.500733 21.525350 0.000000 0.104668
526.000000 51.867000 1.000000 4.000000 12.000000 103.908193 -38.079881 1818.312402 602.413091 19.281879 0.000000 0.049453
527.000000 54.100000 3.000000 4.000000 12.000000 118.949825 -45.427016 2067.457935 92.676385 18.481183 0.000000 0.213132
528.000000 46.650000 0.000000 5.000000 12.000000 91.614682 -40.530548 1895.235031 901.082560 21.442833 0.000000 0.100014
529.000000 48.915000 1.000000 5.000000 12.000000 99.446231 -43.630019 2001.017017 693.598579 20.446783 0.000000 0.115870
530.000000 50.454000 2.000000 5.000000 12.000000 106.825885 -47.131317 2134.500897 462.573877 19.820576 0.000000 0.190154
532.000000 45.751000 1.000000 6.000000 12.000000 94.791994 -48.396805 2187.123266 805.108645 21.862251 0.000000 0.207082
534.000000 45.814000 1.000000 -6.000000 13.000000 103.583023 34.473086 236.027588 625.561010 21.829866 0.000000 0.047940
535.000000 47.126000 2.000000 -6.000000 13.000000 110.675822 37.259425 156.287369 430.662600 21.219545 0.000000 0.042161
536.000000 47.898000 3.000000 -6.000000 13.000000 117.354296 40.447962 57.447116 209.314732 20.874929 0.000000 0.115805
539.000000 46.255000 0.000000 -5.000000 13.000000 99.209849 26.813028 431.017438 745.465230 21.624099 0.000000 0.104622
540.000000 48.166000 1.000000 -5.000000 13.000000 107.018908 29.040345 377.409211 564.180988 20.762969 0.000000 0.066823
541.000000 49.463000 2.000000 -5.000000 13.000000 114.486777 31.624100 312.235129 365.319550 20.215783 0.000000 0.011009
542.000000 50.171000 3.000000 -5.000000 13.000000 121.531738 34.643789 231.299638 138.310544 19.928000 0.000000 0.064300
543.000000 50.346000 4.000000 -5.000000 13.000000 128.082577 38.198064 128.098793 -132.187391 19.857023 0.000000 0.159951
545.000000 45.708000 -1.000000 -4.000000 13.000000 93.479076 19.372141 596.565083 871.638579 21.885574 0.000000 0.143718
546.000000 48.311000 0.000000 -4.000000 13.000000 101.890265 20.985609 562.159467 698.280732 20.703098 0.000000 0.127567
547.000000 50.256000 1.000000 -4.000000 13.000000 110.057826 22.870820 521.001311 514.500390 19.898848 0.000000 0.094555
548.000000 51.533000 2.000000 -4.000000 13.000000 117.887601 25.097403 470.886403 312.049202 19.402794 0.000000 0.046406
549.000000 52.177000 3.000000 -4.000000 13.000000 125.297597 27.758344 408.534052 79.915146 19.161190 0.000000 0.031113
550.000000 52.251000 4.000000 -4.000000 13.000000 132.217582 30.978820 328.838529 -197.994984 19.132099 0.000000 0.107930
552.000000 47.327000 -1.000000 -3.000000 13.000000 95.323953 13.387929 718.830136 837.899572 21.136475 0.000000 0.159850
553.000000 50.004000 0.000000 -3.000000 13.000000 104.036171 14.573291 695.182040 662.983129 20.001514 0.000000 0.146673
554.000000 51.974000 1.000000 -3.000000 13.000000 112.513582 15.976457 666.856136 476.961844 19.240143 0.000000 0.117389
555.000000 53.232000 2.000000 -3.000000 13.000000 120.662542 17.661272 632.312110 271.330900 18.782909 0.000000 0.074341
556.000000 53.817000 3.000000 -3.000000 13.000000 128.404377 19.717968 589.250008 34.662500 18.576568 0.000000 0.031714
557.000000 53.802000 4.000000 -3.000000 13.000000 135.675165 22.277369 534.076089 -249.849293 18.579622 0.000000 0.066610
559.000000 48.496000 -1.000000 -2.000000 13.000000 96.557124 7.006994 842.714320 816.353677 20.626412 0.000000 0.170708
560.000000 51.230000 0.000000 -2.000000 13.000000 105.491091 7.666194 830.125898 640.007156 19.522422 0.000000 0.159266
561.000000 53.220000 1.000000 -2.000000 13.000000 114.198049 8.454127 815.027596 452.024958 18.789541 0.000000 0.132095
562.000000 54.461000 2.000000 -2.000000 13.000000 122.586002 9.412174 796.585668 243.663583 18.358494 0.000000 0.091636
563.000000 55.001000 3.000000 -2.000000 13.000000 130.581126 10.601332 773.551110 3.110281 18.176239 0.000000 0.044598
564.000000 54.919000 4.000000 -2.000000 13.000000 138.128560 12.115173 743.964356 -287.105920 18.201474 0.000000 0.033705
566.000000 45.658000 -2.000000 -1.000000 13.000000 87.903527 0.304544 969.279119 980.400135 21.912609 0.000000 0.168754
567.000000 49.133000 -1.000000 -1.000000 13.000000 97.073805 0.359326 968.250013 807.437501 20.359005 0.000000 0.175073
568.000000 51.903000 0.000000 -1.000000 13.000000 106.126117 0.424112 967.032968 629.803545 19.268952 0.000000 0.164114
569.000000 53.907000 1.000000 -1.000000 13.000000 114.953171 0.501916 965.571325 440.167060 18.549775 0.000000 0.137469
570.000000 55.141000 2.000000 -1.000000 13.000000 123.463375 0.597102 963.783111 229.566710 18.131957 0.000000 0.097611
571.000000 55.655000 3.000000 -1.000000 13.000000 131.585276 0.716224 961.545113 -14.158889 17.962337 0.000000 0.049508
572.000000 55.534000 4.000000 -1.000000 13.000000 139.269124 0.869610 958.663219 -309.088418 17.999561 0.000000 0.005819
574.000000 48.637000 -1.000000 1.000000 13.000000 95.772146 -13.046877 1224.409810 829.319671 20.567020 0.000000 0.162457
575.000000 51.416000 0.000000 1.000000 13.000000 104.708097 -14.178301 1246.910643 649.600348 19.451696 0.000000 0.148469
576.000000 53.435000 1.000000 1.000000 13.000000 113.396358 -15.525917 1274.007184 457.690899 18.713921 0.000000 0.117846
577.000000 54.688000 2.000000 1.000000 13.000000 121.738319 -17.156211 1307.267558 244.270690 18.282344 0.000000 0.073206
578.000000 55.225000 3.000000 1.000000 13.000000 129.652334 -19.164838 1349.064872 -3.384894 18.102527 0.000000 0.030466
579.000000 55.129000 4.000000 1.000000 13.000000 137.073332 -21.693579 1403.169798 -304.353428 18.132215 0.000000 0.068540
581.000000 47.521000 -1.000000 2.000000 13.000000 94.005524 -19.451138 1355.103132 861.072081 21.050062 0.000000 0.145991
582.000000 50.273000 0.000000 2.000000 13.000000 102.721480 -21.084431 1389.971431 680.588366 19.894472 0.000000 0.128208
583.000000 52.292000 1.000000 2.000000 13.000000 111.171583 -23.007219 1432.019859 488.123148 19.123545 0.000000 0.092598
584.000000 53.571000 2.000000 2.000000 13.000000 119.253135 -25.298208 1483.720785 274.222165 18.664282 0.000000 0.041591
585.000000 54.154000 3.000000 2.000000 13.000000 126.877657 -28.064414 1548.828855 25.960488 18.461058 0.000000 0.039931
586.000000 54.120000 4.000000 2.000000 13.000000 133.969968 -31.452844 1633.336136 -276.104975 18.470740 0.000000 0.122999
588.000000 45.907000 -1.000000 3.000000 13.000000 91.616200 -25.466182 1487.586461 907.363688 21.791003 0.000000 0.125181
589.000000 48.610000 0.000000 3.000000 13.000000 100.033386 -27.495500 1535.175894 726.325447 20.575997 0.000000 0.102091
590.000000 50.621000 1.000000 3.000000 13.000000 108.169464 -29.849943 1592.646051 533.737185 19.755428 0.000000 0.059659
591.000000 51.932000 2.000000 3.000000 13.000000 115.920578 -32.604220 1663.430608 320.047580 19.254130 0.000000 0.003883
592.000000 52.579000 3.000000 3.000000 13.000000 123.195431 -35.853010 1752.762677 72.196413 19.014897 0.000000 0.086666
595.000000 46.523000 0.000000 4.000000 13.000000 96.802482 -33.321541 1682.572576 787.352959 21.499711 0.000000 0.079166
596.000000 48.519000 1.000000 4.000000 13.000000 104.580178 -35.964360 1755.951141 595.111514 20.612555 0.000000 0.041430
597.000000 49.862000 2.000000 4.000000 13.000000 111.967490 -38.997495 1846.488022 382.384839 20.054502 0.000000 0.063773
598.000000 50.583000 3.000000 4.000000 13.000000 118.875136 -42.492947 1960.998278 136.051668 19.766352 0.000000 0.155597
600.000000 46.094000 1.000000 5.000000 13.000000 100.594609 -41.343689 1922.002710 672.847703 21.697962 0.000000 0.084226
601.000000 47.466000 2.000000 5.000000 13.000000 107.611999 -44.508557 2032.987443 461.899140 21.068054 0.000000 0.138932
602.000000 48.263000 3.000000 5.000000 13.000000 114.161871 -48.079185 2173.673220 218.289222 20.717768 0.000000 0.243838
606.000000 46.514000 2.000000 -5.000000 14.000000 114.697498 29.019811 377.913762 374.950524 21.497418 0.000000 0.032115
607.000000 47.195000 3.000000 -5.000000 14.000000 121.437372 31.647705 311.623418 168.129955 21.185039 0.000000 0.032928
608.000000 47.425000 4.000000 -5.000000 14.000000 127.763198 34.727357 228.977956 -73.455474 21.079988 0.000000 0.112152
610.000000 47.053000 1.000000 -4.000000 14.000000 110.247315 20.836712 565.364833 516.209201 21.253227 0.000000 0.104589
611.000000 48.847000 3.000000 -4.000000 14.000000 124.693680 24.998649 473.146621 118.897754 20.467748 0.000000 0.023744
613.000000 46.716000 0.000000 -3.000000 14.000000 104.411107 13.130450 723.935430 657.007316 21.409248 0.000000 0.149976
614.000000 48.441000 1.000000 -3.000000 14.000000 112.345753 14.312795 700.400047 484.402659 20.643596 0.000000 0.123822
615.000000 49.588000 2.000000 -3.000000 14.000000 120.004307 15.716516 672.132529 295.355044 20.163627 0.000000 0.085660
616.000000 50.182000 3.000000 -3.000000 14.000000 127.323209 17.407933 637.546164 81.005597 19.922275 0.000000 0.042139
617.000000 50.278000 4.000000 -3.000000 14.000000 134.250727 19.481484 594.255595 -171.179101 19.882274 0.000000 0.043852
620.000000 49.434000 1.000000 -2.000000 14.000000 113.751734 7.284734 837.414995 463.526269 20.228644 0.000000 0.135860
621.000000 51.136000 3.000000 -2.000000 14.000000 129.118049 8.980897 804.899568 54.892981 19.550486 0.000000 0.055926
623.000000 45.852000 -1.000000 -1.000000 14.000000 97.733496 -0.120047 977.255066 794.838205 21.815589 0.000000 0.174891
624.000000 48.219000 0.000000 -1.000000 14.000000 106.137705 -0.100522 976.888300 629.575698 20.741069 0.000000 0.164144
625.000000 49.972000 1.000000 -1.000000 14.000000 114.347349 -0.077378 976.453536 453.962879 20.010757 0.000000 0.139858
626.000000 51.105000 2.000000 -1.000000 14.000000 122.288446 -0.049504 975.929935 260.898489 19.564188 0.000000 0.103952
627.000000 51.653000 3.000000 -1.000000 14.000000 129.901910 -0.015287 975.287166 41.017305 19.354274 0.000000 0.060038
628.000000 51.676000 4.000000 -1.000000 14.000000 137.144836 0.027718 974.479326 -219.049845 19.343802 0.000000 0.015759
631.000000 45.878000 -1.000000 0.000000 14.000000 97.465380 -6.422822 1096.159861 799.073916 21.802986 0.000000 0.172080
632.000000 50.018000 1.000000 0.000000 14.000000 114.066405 -7.545206 1117.560835 456.109054 19.992362 0.000000 0.135315
633.000000 51.155000 2.000000 0.000000 14.000000 121.990065 -8.276733 1131.568003 261.640171 19.545167 0.000000 0.098216
634.000000 51.704000 3.000000 0.000000 14.000000 129.575785 -9.172536 1148.792230 39.854720 19.335560 0.000000 0.053614
635.000000 51.724000 4.000000 0.000000 14.000000 136.777494 -10.294320 1170.485603 -222.971907 19.326053 0.000000 0.022877
638.000000 47.799000 0.000000 1.000000 14.000000 104.819502 -13.669874 1236.772790 647.937394 20.923663 0.000000 0.149616
639.000000 49.563000 1.000000 1.000000 14.000000 112.909856 -14.870348 1260.783408 470.375640 20.175922 0.000000 0.121941
640.000000 50.712000 2.000000 1.000000 14.000000 120.708398 -16.302502 1289.781485 274.949987 19.716180 0.000000 0.081927
641.000000 51.278000 3.000000 1.000000 14.000000 128.148687 -18.038122 1325.501105 51.901035 19.496294 0.000000 0.037590
642.000000 51.320000 4.000000 1.000000 14.000000 135.177101 -20.180607 1370.585634 -212.800564 19.478286 0.000000 0.048570
645.000000 48.629000 1.000000 2.000000 14.000000 110.945791 -21.831300 1406.169179 497.188355 20.563944 0.000000 0.099832
646.000000 50.395000 3.000000 2.000000 14.000000 125.734208 -26.238598 1505.503359 77.672673 19.838452 0.000000 0.025311
648.000000 45.505000 0.000000 3.000000 14.000000 100.660758 -26.168935 1503.877779 715.256192 21.979662 0.000000 0.107914
649.000000 47.263000 1.000000 3.000000 14.000000 108.294108 -28.268740 1553.767528 536.988402 21.158976 0.000000 0.070512
650.000000 48.452000 2.000000 3.000000 14.000000 115.603769 -30.705428 1614.194688 341.141271 20.637216 0.000000 0.016507
651.000000 49.096000 3.000000 3.000000 14.000000 122.515669 -33.555797 1688.891927 117.707676 20.364043 0.000000 0.055490
652.000000 49.247000 4.000000 3.000000 14.000000 128.965124 -36.916552 1783.590910 -147.767404 20.299822 0.000000 0.145594
654.000000 45.534000 1.000000 4.000000 14.000000 105.102941 -34.097202 1703.629353 590.233120 21.963609 0.000000 0.044622
655.000000 47.442000 3.000000 4.000000 14.000000 118.701412 -39.926357 1875.763273 172.566774 21.075102 0.000000 0.111930
657.000000 45.505000 3.000000 5.000000 14.000000 114.489923 -45.394474 2066.217564 242.834517 21.973697 0.000000 0.185107
659.000000 45.876000 3.000000 -4.000000 15.000000 124.070470 22.608159 526.802110 152.511720 21.793569 0.000000 0.033895
660.000000 46.091000 4.000000 -4.000000 15.000000 130.436434 24.896080 475.490336 -70.141546 21.689473 0.000000 0.047464
661.000000 45.952000 5.000000 -4.000000 15.000000 136.419779 27.650140 411.127115 -335.817193 21.753703 0.000000 0.110807
663.000000 46.385000 2.000000 -3.000000 15.000000 119.380871 14.043756 705.776490 316.342087 21.556031 0.000000 0.094780
664.000000 47.146000 4.000000 -3.000000 15.000000 132.912734 17.144405 642.975330 -106.129596 21.203714 0.000000 0.032219
665.000000 46.949000 5.000000 -3.000000 15.000000 139.149487 19.234315 599.471750 -377.265335 21.290982 0.000000 0.070964
666.000000 46.140000 1.000000 -2.000000 15.000000 113.345303 6.277542 856.602996 473.663043 21.672883 0.000000 0.138892
667.000000 47.182000 2.000000 -2.000000 15.000000 120.715434 6.890924 844.927062 296.898271 21.191601 0.000000 0.106131
668.000000 47.751000 3.000000 -2.000000 15.000000 127.805257 7.628611 830.844630 98.525976 20.936573 0.000000 0.066028
669.000000 47.889000 4.000000 -2.000000 15.000000 134.576131 8.532308 813.526226 -131.354715 20.874223 0.000000 0.028194
670.000000 47.650000 5.000000 -2.000000 15.000000 141.000319 9.664513 791.711680 -407.262904 20.977306 0.000000 0.035221
672.000000 46.567000 1.000000 -1.000000 15.000000 113.816393 -0.573309 985.769905 465.905986 21.474160 0.000000 0.141835
673.000000 47.607000 2.000000 -1.000000 15.000000 121.258392 -0.594310 986.164436 287.637753 21.002102 0.000000 0.109248
674.000000 48.166000 3.000000 -1.000000 15.000000 128.420639 -0.619674 986.640956 87.258304 20.756110 0.000000 0.069092
675.000000 48.286000 4.000000 -1.000000 15.000000 135.266034 -0.650920 987.227986 -145.405920 20.702528 0.000000 0.026740
676.000000 48.023000 5.000000 -1.000000 15.000000 141.769643 -0.690363 987.969010 -425.335101 20.814063 0.000000 0.006584
678.000000 46.210000 1.000000 1.000000 15.000000 112.481356 -14.307241 1249.488845 481.337931 21.640232 0.000000 0.125354
679.000000 47.263000 2.000000 1.000000 15.000000 119.801063 -15.579427 1275.090225 301.062023 21.155549 0.000000 0.089226
680.000000 47.835000 3.000000 1.000000 15.000000 126.816897 -17.099520 1306.101479 98.072666 20.899822 0.000000 0.046939
681.000000 47.971000 4.000000 1.000000 15.000000 133.484050 -18.944875 1344.439938 -138.257767 20.838739 0.000000 0.035347
684.000000 46.501000 2.000000 2.000000 15.000000 117.872531 -22.593627 1422.877610 324.475566 21.502392 0.000000 0.065422
685.000000 47.098000 3.000000 2.000000 15.000000 124.692458 -24.693813 1469.899245 120.957947 21.227495 0.000000 0.024938
686.000000 47.267000 4.000000 2.000000 15.000000 131.140351 -27.199847 1528.136503 -116.149058 21.149804 0.000000 0.063673
689.000000 46.230000 4.000000 3.000000 15.000000 128.038577 -34.523149 1715.357000 -81.045957 21.624982 0.000000 0.108114
#UB matrix in q= (UB) B0 G* 
#[[-0.720426707  0.048514477 -0.690923665]
# [ 0.004235064 -0.997493085 -0.074452568]
# [-0.69351815  -0.056620731  0.719062833]]
#B0 matrix in q= UB (B0) G*
#[[ 0.19670273 -0.          0.03056101]
# [ 0.          0.19187965 -0.        ]
# [ 0.          0.          0.18806537]]
#UBB0 matrix in q= (UB B0) G* i.e. recip. basis vectors are columns in LT frame: astar = UBB0[:,0], bstar = UBB0[:,1], cstar = UBB0[:,2]. (abcstar as columns on xyzlab1, xlab1 = ui, ui = unit vector along incident beam)
#[[-0.1417099   0.00930894 -0.15195578]
# [ 0.00083305 -0.19139863 -0.01387252]
# [-0.13641691 -0.01086437  0.11403621]]
#Euler angles phi theta psi (deg)
#[274.661  44.093  96.139]
#deviatoric strain in direct crystal frame (10-3 unit)
#[[-6.54 -0.04  1.11]
# [-0.04 -6.62 -0.04]
# [ 1.11 -0.04 13.15]]
#deviatoric strain in sample2 frame (10-3 unit)
#[[-6.3   0.13 -2.41]
# [ 0.14 -6.51 -1.41]
# [-2.43 -1.41 12.81]]
#new lattice parameters
#[ 5.1505     5.2111782  5.3184206 90.0018543 99.1609886 90.0049035]
#CCDLabel
#sCMOS
#DetectorParameters
#[79.0, 975.0, 941.0, 0.0, 0.0]
#pixelsize
#0.0734
#Frame dimensions
#[2018, 2016]
#
