#Strain and Orientation Refinement from experimental file: /home/micha/LaueProjects/DepthEffects/testZrO2_114.cor
#File created at Wed Jun 28 14:25:18 2023 with indexingSpotsSet.py
#Number of indexed spots: 511
#Element
#ZrO2
#grainIndex
#G_0
#Mean Deviation(pixel): 0.118
##spot_index intensity h k l 2theta Chi Xexp Yexp Energy GrainIndex PixDev
7.000000 46.186000 0.000000 -5.000000 -16.000000 132.414591 22.329013 532.942745 -122.000984 21.638828 0.000000 0.041591
9.000000 47.601000 -1.000000 -4.000000 -16.000000 139.564761 13.222954 722.102497 -356.466047 20.994210 0.000000 0.039720
10.000000 46.985000 0.000000 -1.000000 -4.000000 132.584426 14.037588 705.899590 -78.612393 5.317773 0.000000 0.028868
11.000000 45.972000 1.000000 -4.000000 -16.000000 125.460631 14.664063 693.360898 148.590637 21.742281 0.000000 0.063123
14.000000 48.093000 -1.000000 -3.000000 -16.000000 138.761069 3.533246 908.544133 -289.094979 20.779387 0.000000 0.007200
15.000000 47.473000 0.000000 -3.000000 -16.000000 131.839287 5.591090 869.637411 -27.253336 21.052711 0.000000 0.044346
16.000000 46.440000 1.000000 -3.000000 -16.000000 124.735078 7.184896 839.320667 188.857184 21.523340 0.000000 0.085902
19.000000 48.242000 -1.000000 -2.000000 -16.000000 136.878754 -5.781511 1083.975101 -214.174693 20.715684 0.000000 0.017037
20.000000 47.614000 0.000000 -1.000000 -8.000000 130.154486 -2.653119 1024.874170 31.950961 10.495537 0.000000 0.057199
21.000000 46.562000 1.000000 -2.000000 -16.000000 123.188182 -0.187361 978.519567 237.006004 21.467312 0.000000 0.100190
24.000000 48.024000 -1.000000 -1.000000 -16.000000 134.005706 -14.299942 1249.342810 -131.812497 20.810417 0.000000 0.027543
25.000000 47.383000 0.000000 -1.000000 -16.000000 127.580809 -10.385487 1172.255161 98.920338 21.094061 0.000000 0.061739
26.000000 46.315000 1.000000 -1.000000 -16.000000 120.849325 -7.223532 1111.416713 293.000278 21.582721 0.000000 0.106388
28.000000 47.681000 -1.000000 0.000000 -8.000000 135.893623 -27.126795 1526.402909 -306.643421 10.479813 0.000000 0.102413
29.000000 47.432000 -1.000000 0.000000 -16.000000 130.300039 -21.800092 1405.489007 -42.069133 21.071385 0.000000 0.031505
30.000000 46.773000 0.000000 0.000000 -4.000000 124.229311 -17.403480 1312.361982 173.616828 5.342524 0.000000 0.057764
31.000000 45.691000 1.000000 0.000000 -16.000000 117.797704 -13.753166 1238.430567 356.841053 21.878693 0.000000 0.105206
33.000000 46.752000 -2.000000 1.000000 -16.000000 131.142811 -33.658430 1691.671390 -188.718451 21.377254 0.000000 0.126882
34.000000 46.474000 -1.000000 1.000000 -16.000000 125.947969 -28.243817 1553.164107 55.037712 21.506907 0.000000 0.035773
35.000000 45.794000 0.000000 1.000000 -16.000000 120.245492 -23.622293 1445.720199 256.042486 21.828184 0.000000 0.046007
36.000000 45.492000 -1.000000 1.000000 -8.000000 125.967589 -39.013529 1846.986800 -64.207716 10.985417 0.000000 0.154163
40.000000 47.610000 0.000000 -2.000000 -5.000000 130.830630 33.085079 273.771933 -169.013400 6.997332 0.000000 0.112273
41.000000 46.505000 1.000000 -6.000000 -15.000000 123.667076 31.533198 314.587900 99.894185 21.493129 0.000000 0.042170
44.000000 48.916000 0.000000 -2.000000 -6.000000 132.169463 25.000428 473.105945 -134.664053 8.172520 0.000000 0.054516
45.000000 47.782000 1.000000 -5.000000 -15.000000 124.737429 24.337626 488.183359 121.907403 20.918703 0.000000 0.025795
46.000000 46.204000 2.000000 -5.000000 -15.000000 117.214708 23.815864 499.941640 335.992945 21.635369 0.000000 0.062463
48.000000 50.605000 -1.000000 -4.000000 -15.000000 140.054819 15.765483 671.139609 -394.408322 19.747436 0.000000 0.053546
49.000000 49.921000 0.000000 -4.000000 -15.000000 132.625794 16.278363 660.710674 -90.968295 20.020168 0.000000 0.027772
50.000000 48.759000 1.000000 -4.000000 -15.000000 125.040077 16.665880 652.794757 153.153425 20.499434 0.000000 0.058209
51.000000 47.128000 2.000000 -4.000000 -15.000000 117.361830 16.968965 646.581202 358.657951 21.211491 0.000000 0.096781
53.000000 51.251000 -1.000000 -3.000000 -15.000000 139.464560 5.317269 874.828004 -323.040830 19.498803 0.000000 0.012457
54.000000 50.562000 0.000000 -1.000000 -5.000000 132.063819 7.275473 837.591799 -38.156105 6.588779 0.000000 0.041008
55.000000 49.376000 1.000000 -3.000000 -15.000000 124.466730 8.762508 809.101929 193.478398 20.243683 0.000000 0.084617
56.000000 47.699000 2.000000 -3.000000 -15.000000 116.750747 9.928717 786.600662 390.236656 20.958016 0.000000 0.121421
57.000000 45.567000 1.000000 -1.000000 -5.000000 108.994081 10.867095 768.379358 563.761559 7.313804 0.000000 0.147702
60.000000 51.488000 -1.000000 -2.000000 -15.000000 137.629873 -4.807185 1065.514886 -243.092727 19.409491 0.000000 0.014067
61.000000 50.790000 0.000000 -2.000000 -15.000000 130.432306 -1.577638 1004.643225 23.607097 19.678085 0.000000 0.055941
62.000000 49.581000 1.000000 -2.000000 -15.000000 122.969055 0.919927 957.717806 242.782487 20.160420 0.000000 0.101359
63.000000 47.868000 2.000000 -2.000000 -15.000000 115.338632 2.902063 920.438425 430.695440 20.884705 0.000000 0.137131
64.000000 45.687000 3.000000 -2.000000 -15.000000 107.633991 4.509829 890.108013 597.813890 21.884340 0.000000 0.161183
67.000000 51.283000 -1.000000 -1.000000 -15.000000 134.641591 -14.052928 1244.406592 -154.704913 19.487701 0.000000 0.027808
68.000000 50.571000 0.000000 -1.000000 -15.000000 127.778059 -9.890637 1162.662188 94.215112 19.764288 0.000000 0.061706
69.000000 49.341000 1.000000 -1.000000 -15.000000 120.570240 -6.582399 1099.196446 301.016925 20.259286 0.000000 0.108864
70.000000 47.602000 2.000000 -1.000000 -15.000000 113.136232 -3.906392 1048.495022 480.045995 21.002077 0.000000 0.144632
72.000000 49.799000 -2.000000 1.000000 -15.000000 131.453700 -34.835785 1724.041375 -217.240605 20.069195 0.000000 0.143425
73.000000 49.524000 -1.000000 1.000000 -15.000000 126.001114 -28.972605 1570.927101 47.127589 20.182400 0.000000 0.041255
74.000000 48.764000 0.000000 1.000000 -15.000000 119.961238 -24.008247 1454.382721 261.813121 20.498839 0.000000 0.044980
75.000000 47.502000 1.000000 1.000000 -15.000000 113.468483 -19.810111 1362.704356 444.324997 21.045692 0.000000 0.099875
76.000000 45.749000 2.000000 1.000000 -15.000000 106.651595 -16.249501 1288.700994 605.692335 21.855217 0.000000 0.138252
78.000000 48.337000 -2.000000 2.000000 -15.000000 125.850191 -40.403884 1891.124031 -80.257829 20.677770 0.000000 0.174964
79.000000 48.014000 -1.000000 2.000000 -15.000000 120.800056 -34.702304 1720.325516 160.577806 20.818362 0.000000 0.058294
80.000000 47.225000 0.000000 2.000000 -15.000000 115.161838 -29.715786 1589.300491 358.854650 21.168404 0.000000 0.026276
81.000000 45.954000 1.000000 2.000000 -15.000000 109.054664 -25.380137 1485.604913 529.540753 21.756464 0.000000 0.086503
83.000000 46.527000 -2.000000 3.000000 -15.000000 119.986800 -44.903036 2047.657521 64.159552 21.483551 0.000000 0.212748
84.000000 46.150000 -1.000000 3.000000 -15.000000 115.280115 -39.476904 1861.500097 282.472207 21.660908 0.000000 0.088195
87.000000 47.232000 1.000000 -7.000000 -14.000000 120.460205 40.953765 40.915418 102.881887 21.163260 0.000000 0.136723
88.000000 45.559000 2.000000 -7.000000 -14.000000 113.188442 38.813370 109.223600 349.305643 21.942719 0.000000 0.063390
90.000000 50.330000 0.000000 -3.000000 -7.000000 130.031557 36.296787 184.476179 -180.801453 9.928924 0.000000 0.143436
91.000000 49.060000 1.000000 -6.000000 -14.000000 122.501472 34.310580 240.510568 110.832026 20.374191 0.000000 0.061474
92.000000 47.302000 1.000000 -3.000000 -7.000000 114.842577 32.735639 283.085582 348.627530 10.566961 0.000000 0.005493
94.000000 51.944000 0.000000 -5.000000 -14.000000 131.783666 27.975363 403.317699 -148.018656 19.240448 0.000000 0.072586
95.000000 50.635000 1.000000 -5.000000 -14.000000 123.907074 26.909647 428.736858 129.723422 19.739990 0.000000 0.019742
96.000000 48.797000 2.000000 -5.000000 -14.000000 115.926860 26.079603 448.203903 358.442284 20.486129 0.000000 0.053619
97.000000 46.474000 3.000000 -5.000000 -14.000000 107.924399 25.415097 463.590327 555.557992 21.513366 0.000000 0.091890
100.000000 53.216000 0.000000 -2.000000 -7.000000 132.594712 18.816897 608.245311 -104.391841 9.390235 0.000000 0.030517
101.000000 51.872000 1.000000 -4.000000 -14.000000 124.495319 18.898254 606.538739 159.274134 19.269418 0.000000 0.051853
102.000000 49.961000 1.000000 -2.000000 -7.000000 116.298462 18.960975 605.221973 378.581410 10.004433 0.000000 0.093055
103.000000 47.532000 3.000000 -4.000000 -14.000000 108.086996 19.010803 604.175148 569.204377 21.034580 0.000000 0.124310
105.000000 54.832000 -1.000000 -3.000000 -14.000000 140.217586 7.412823 834.968822 -362.509391 18.225345 0.000000 0.021175
106.000000 54.062000 0.000000 -3.000000 -14.000000 132.274034 9.206913 800.545096 -50.231235 18.486608 0.000000 0.037091
107.000000 52.686000 1.000000 -3.000000 -14.000000 124.118307 10.539201 774.758867 199.279531 18.971915 0.000000 0.082700
108.000000 50.714000 2.000000 -3.000000 -14.000000 115.841154 11.566636 754.721587 408.939963 19.712422 0.000000 0.121437
109.000000 48.196000 3.000000 -3.000000 -14.000000 107.535604 12.382624 738.703513 592.810448 20.745339 0.000000 0.148123
111.000000 55.191000 -1.000000 -2.000000 -14.000000 138.470495 -3.657969 1043.808018 -276.748700 18.107178 0.000000 0.010823
112.000000 54.412000 0.000000 -1.000000 -7.000000 130.730105 -0.338001 981.349374 14.240400 9.184105 0.000000 0.054319
113.000000 53.006000 1.000000 -2.000000 -14.000000 122.697260 2.173500 934.151463 249.606630 18.857658 0.000000 0.102464
114.000000 50.985000 1.000000 -1.000000 -7.000000 114.489086 4.132843 897.230124 449.473872 9.803968 0.000000 0.139607
115.000000 48.401000 3.000000 -2.000000 -14.000000 106.216593 5.700686 867.558543 626.413750 20.657896 0.000000 0.163354
117.000000 55.012000 -1.000000 -1.000000 -14.000000 135.365452 -13.763250 1238.631360 -181.338175 18.166718 0.000000 0.028568
118.000000 54.216000 0.000000 -1.000000 -14.000000 127.999189 -9.321207 1151.659017 88.879752 18.435337 0.000000 0.061621
119.000000 52.785000 1.000000 -1.000000 -14.000000 120.243712 -5.856248 1085.393613 310.189821 18.937638 0.000000 0.111582
120.000000 50.730000 2.000000 -1.000000 -14.000000 112.242454 -3.096643 1033.226767 500.198219 19.707479 0.000000 0.148415
121.000000 48.106000 3.000000 -1.000000 -14.000000 104.125884 -0.856567 991.091710 670.106331 20.785585 0.000000 0.170446
124.000000 54.276000 -1.000000 0.000000 -14.000000 131.131190 -22.499469 1420.804008 -76.383737 18.413907 0.000000 0.037894
125.000000 52.002000 1.000000 0.000000 -14.000000 116.855751 -13.283346 1229.094883 381.027822 19.223745 0.000000 0.111084
126.000000 49.930000 2.000000 0.000000 -14.000000 109.168406 -9.915728 1163.147887 561.186397 20.024151 0.000000 0.148757
127.000000 47.295000 3.000000 0.000000 -14.000000 101.311363 -7.129695 1109.626042 724.035581 21.142938 0.000000 0.170016
130.000000 52.997000 -1.000000 1.000000 -14.000000 126.052529 -29.804805 1591.519410 38.083421 18.859444 0.000000 0.048135
131.000000 52.143000 0.000000 1.000000 -14.000000 119.633843 -24.445019 1464.248801 268.450422 19.170410 0.000000 0.043774
132.000000 50.674000 1.000000 1.000000 -14.000000 112.692917 -19.956104 1365.805534 462.181726 19.728856 0.000000 0.102375
133.000000 48.603000 2.000000 1.000000 -14.000000 105.387361 -16.185238 1287.391714 632.570127 20.572206 0.000000 0.141735
134.000000 45.987000 3.000000 1.000000 -14.000000 97.865302 -12.998829 1223.458943 788.405839 21.745830 0.000000 0.162905
137.000000 51.221000 -1.000000 2.000000 -14.000000 120.404661 -35.820220 1751.825469 162.101213 19.514856 0.000000 0.069015
138.000000 50.330000 0.000000 1.000000 -7.000000 114.443428 -30.462037 1608.025585 373.444963 9.931360 0.000000 0.023779
139.000000 48.850000 1.000000 2.000000 -14.000000 107.943445 -25.831171 1496.023562 553.774060 20.466946 0.000000 0.087877
140.000000 46.798000 1.000000 1.000000 -7.000000 101.051179 -21.838330 1406.322423 714.540310 10.683584 0.000000 0.129007
142.000000 49.021000 -1.000000 3.000000 -14.000000 114.422794 -40.757686 1902.646081 295.772695 20.392579 0.000000 0.103583
143.000000 48.090000 0.000000 3.000000 -14.000000 108.873437 -35.556827 1744.324999 488.728586 20.789472 0.000000 0.028847
144.000000 46.608000 1.000000 3.000000 -14.000000 102.796189 -30.941212 1620.200756 655.988795 21.453207 0.000000 0.073145
146.000000 46.487000 -1.000000 4.000000 -14.000000 108.295351 -44.826590 2044.798947 439.263520 21.506054 0.000000 0.150420
147.000000 45.519000 0.000000 2.000000 -7.000000 103.108178 -39.862190 1873.715571 614.492308 10.982763 0.000000 0.068353
150.000000 49.604000 1.000000 -7.000000 -13.000000 118.625067 44.000533 -64.384655 124.374855 20.151377 0.000000 0.177978
151.000000 47.666000 2.000000 -7.000000 -13.000000 111.019219 41.500828 22.747541 388.804175 20.973569 0.000000 0.094658
154.000000 51.828000 1.000000 -6.000000 -13.000000 121.055108 37.317908 154.551738 126.055193 19.286191 0.000000 0.087673
155.000000 49.775000 2.000000 -6.000000 -13.000000 112.982087 35.363550 211.147525 381.263762 20.084477 0.000000 0.020927
156.000000 47.196000 3.000000 -6.000000 -13.000000 104.857999 33.786351 254.855021 597.444158 21.185032 0.000000 0.047516
158.000000 55.310000 0.000000 -5.000000 -13.000000 131.208692 31.289602 320.870316 -161.930744 18.069754 0.000000 0.097035
159.000000 53.785000 1.000000 -5.000000 -13.000000 122.851390 29.741931 360.048203 140.566436 18.584125 0.000000 0.023039
160.000000 51.623000 2.000000 -5.000000 -13.000000 114.371720 28.548968 389.428293 385.918769 19.365330 0.000000 0.042624
161.000000 48.883000 3.000000 -5.000000 -13.000000 105.872398 27.602067 412.277504 595.666525 20.453692 0.000000 0.085177
162.000000 45.666000 4.000000 -5.000000 -13.000000 97.453266 26.832606 430.555632 783.206408 21.898092 0.000000 0.111697
165.000000 56.933000 0.000000 -4.000000 -13.000000 132.458337 21.704521 546.592102 -118.950020 17.554386 0.000000 0.039081
166.000000 55.361000 1.000000 -4.000000 -13.000000 123.787309 21.395359 553.305450 167.525238 18.055093 0.000000 0.043581
167.000000 53.099000 2.000000 -4.000000 -13.000000 115.011552 21.160619 558.383800 402.544633 18.826966 0.000000 0.088000
168.000000 50.214000 3.000000 -4.000000 -13.000000 106.233276 20.976321 562.359606 605.388130 19.911901 0.000000 0.121068
169.000000 46.815000 4.000000 -4.000000 -13.000000 97.554680 20.827787 565.556762 788.278228 21.360891 0.000000 0.139084
171.000000 58.920000 -1.000000 -3.000000 -13.000000 141.016585 9.901920 787.119420 -409.010005 16.960495 0.000000 0.033056
172.000000 58.056000 0.000000 -3.000000 -13.000000 132.455272 11.438540 757.227501 -63.651798 17.214971 0.000000 0.032758
173.000000 56.441000 1.000000 -3.000000 -13.000000 123.663074 12.551035 735.385295 206.653896 17.709832 0.000000 0.079901
174.000000 54.093000 2.000000 -3.000000 -13.000000 114.747795 13.393123 718.727056 431.001687 18.481164 0.000000 0.120890
175.000000 51.085000 3.000000 -3.000000 -13.000000 105.821784 14.052445 705.603035 626.588275 19.572658 0.000000 0.147918
176.000000 47.535000 4.000000 -3.000000 -13.000000 96.995859 14.582549 694.996371 804.530399 21.037723 0.000000 0.159704
178.000000 59.451000 -1.000000 -2.000000 -13.000000 139.415772 -2.283363 1017.915420 -316.432291 16.809566 0.000000 0.007804
179.000000 58.577000 0.000000 -2.000000 -13.000000 131.047273 1.105003 954.240081 3.657168 17.062138 0.000000 0.052211
180.000000 56.924000 1.000000 -2.000000 -13.000000 122.355983 3.602923 907.230184 257.771801 17.559986 0.000000 0.103438
181.000000 54.509000 2.000000 -2.000000 -13.000000 113.482489 5.513949 871.100190 471.231321 18.340749 0.000000 0.142038
182.000000 51.408000 3.000000 -2.000000 -13.000000 104.560936 7.020079 842.464800 659.318140 19.450181 0.000000 0.165170
183.000000 47.748000 4.000000 -2.000000 -13.000000 95.717630 8.236108 819.211191 832.114032 20.944467 0.000000 0.172423
185.000000 59.318000 -1.000000 -1.000000 -13.000000 136.196760 -13.418832 1231.783331 -212.719194 16.847842 0.000000 0.029962
186.000000 58.424000 0.000000 -1.000000 -13.000000 128.248567 -8.659103 1138.910024 82.779304 17.107391 0.000000 0.061462
187.000000 56.738000 1.000000 -1.000000 -13.000000 119.857111 -5.027257 1069.679507 320.789076 17.618203 0.000000 0.114575
188.000000 54.277000 2.000000 -1.000000 -13.000000 111.198860 -2.185966 1016.083043 523.253593 18.419709 0.000000 0.152415
189.000000 51.121000 3.000000 -1.000000 -13.000000 102.433506 0.087194 973.362072 703.701160 19.560049 0.000000 0.173197
190.000000 47.402000 4.000000 -1.000000 -13.000000 93.705752 1.941706 938.511311 871.250617 21.098612 0.000000 0.177177
192.000000 56.989000 -1.000000 1.000000 -13.000000 126.099562 -30.763669 1615.675514 27.641538 17.538386 0.000000 0.056732
193.000000 56.022000 0.000000 1.000000 -13.000000 119.252805 -24.943293 1475.587996 276.164936 17.843113 0.000000 0.042343
194.000000 54.289000 1.000000 1.000000 -13.000000 111.797466 -20.120940 1369.313870 482.590870 18.415126 0.000000 0.105153
195.000000 51.812000 2.000000 1.000000 -13.000000 103.929271 -16.113398 1285.929050 663.144740 19.298371 0.000000 0.145339
196.000000 48.672000 3.000000 1.000000 -13.000000 95.831518 -12.760993 1218.757621 828.291915 20.546979 0.000000 0.164573
198.000000 54.873000 -1.000000 2.000000 -13.000000 119.927919 -37.086515 1788.596832 164.298709 18.216260 0.000000 0.082082
199.000000 53.858000 0.000000 2.000000 -13.000000 113.606197 -31.302694 1629.466487 390.507145 18.561846 0.000000 0.021366
200.000000 52.114000 1.000000 2.000000 -13.000000 106.659850 -26.335832 1507.775529 581.617565 19.185228 0.000000 0.089358
201.000000 49.668000 2.000000 2.000000 -13.000000 99.268786 -22.084646 1411.701854 751.444249 20.133191 0.000000 0.131228
202.000000 46.596000 3.000000 2.000000 -13.000000 91.609153 -18.442708 1333.926721 909.127334 21.463647 0.000000 0.150486
204.000000 52.244000 -1.000000 3.000000 -13.000000 113.410822 -42.186367 1950.457492 312.095973 19.134757 0.000000 0.122294
205.000000 51.178000 0.000000 3.000000 -13.000000 107.554333 -36.615484 1774.778065 516.812565 19.535448 0.000000 0.036369
206.000000 49.436000 1.000000 3.000000 -13.000000 101.092087 -31.687673 1639.413054 693.027046 20.226492 0.000000 0.074504
207.000000 47.044000 2.000000 3.000000 -13.000000 94.181460 -27.358694 1531.913929 852.402076 21.258008 0.000000 0.114655
209.000000 49.227000 -1.000000 4.000000 -13.000000 106.772388 -46.325606 2102.285822 471.255340 20.309584 0.000000 0.176144
210.000000 48.114000 0.000000 4.000000 -13.000000 101.318924 -41.048795 1912.218775 655.334880 20.781435 0.000000 0.083183
211.000000 46.385000 1.000000 4.000000 -13.000000 95.300549 -36.268940 1764.718807 817.148450 21.558591 0.000000 0.076708
213.000000 45.955000 -1.000000 5.000000 -13.000000 100.179658 -49.719230 2244.986512 642.080679 21.757847 0.000000 0.241926
215.000000 47.133000 1.000000 -4.000000 -6.000000 105.780192 49.733048 -295.607619 470.420845 10.605942 0.000000 0.243813
217.000000 52.096000 1.000000 -7.000000 -12.000000 116.397064 47.234611 -188.701388 154.240059 19.188246 0.000000 0.231625
218.000000 49.832000 2.000000 -7.000000 -12.000000 108.445166 44.349329 -77.122198 438.996829 20.062350 0.000000 0.134612
219.000000 47.021000 3.000000 -7.000000 -12.000000 100.392229 41.978099 6.644955 675.482207 21.264932 0.000000 0.088834
220.000000 54.813000 1.000000 -6.000000 -12.000000 119.256869 40.566244 53.603605 147.319176 18.236264 0.000000 0.122496
221.000000 52.393000 1.000000 -3.000000 -6.000000 110.744412 38.188224 128.398067 422.348978 9.540633 0.000000 0.047143
222.000000 49.354000 1.000000 -2.000000 -4.000000 102.171862 36.277444 185.035400 653.030515 6.753086 0.000000 0.049304
223.000000 45.817000 2.000000 -3.000000 -6.000000 93.664060 34.711758 229.411683 857.154964 10.913348 0.000000 0.082012
225.000000 59.055000 0.000000 -5.000000 -12.000000 130.379117 34.978377 221.975809 -176.106731 16.923743 0.000000 0.130000
226.000000 57.261000 1.000000 -5.000000 -12.000000 121.504919 32.859962 279.780409 155.664633 17.456491 0.000000 0.039338
227.000000 54.689000 2.000000 -5.000000 -12.000000 112.481215 31.242787 322.073971 420.047697 18.280020 0.000000 0.029893
228.000000 51.428000 3.000000 -5.000000 -12.000000 103.440209 29.969648 354.361191 644.092795 19.442102 0.000000 0.077735
229.000000 47.618000 4.000000 -5.000000 -12.000000 94.506973 28.942256 379.817558 844.054245 21.001578 0.000000 0.105899
231.000000 59.285000 1.000000 -4.000000 -12.000000 122.862721 24.195869 491.387433 178.742369 16.860234 0.000000 0.032807
232.000000 56.574000 1.000000 -2.000000 -6.000000 113.439833 23.594539 504.900742 431.787509 8.835524 0.000000 0.081225
233.000000 53.108000 3.000000 -4.000000 -12.000000 104.030006 23.128165 515.296120 648.545954 18.827230 0.000000 0.116597
234.000000 49.046000 1.000000 -1.000000 -3.000000 94.760103 22.755944 523.541053 843.810612 5.097589 0.000000 0.134098
237.000000 60.728000 1.000000 -3.000000 -12.000000 123.063481 14.841901 689.788574 216.166604 16.459815 0.000000 0.075854
238.000000 57.895000 2.000000 -3.000000 -12.000000 113.418688 15.438292 677.765146 457.378876 17.267961 0.000000 0.119547
239.000000 54.255000 1.000000 -1.000000 -4.000000 103.788325 15.898065 668.448815 666.364662 6.143262 0.000000 0.146827
240.000000 49.979000 4.000000 -3.000000 -12.000000 94.308130 16.263296 661.017828 856.539763 20.010019 0.000000 0.156315
242.000000 64.399000 -1.000000 -2.000000 -12.000000 140.483467 -0.612023 986.497208 -363.956492 15.517726 0.000000 0.007358
243.000000 63.413000 0.000000 -1.000000 -6.000000 131.381067 2.803512 922.294291 -8.385409 7.880389 0.000000 0.049449
244.000000 61.442000 1.000000 -2.000000 -12.000000 121.921455 5.245767 876.182645 267.686469 16.268684 0.000000 0.104179
245.000000 58.514000 1.000000 -1.000000 -6.000000 112.275227 7.072770 841.459870 496.742539 8.542843 0.000000 0.144321
246.000000 54.741000 3.000000 -2.000000 -12.000000 102.606752 8.488352 814.370431 697.620549 18.266465 0.000000 0.166398
247.000000 50.309000 2.000000 -1.000000 -6.000000 93.070178 9.616145 792.646476 882.449126 9.939702 0.000000 0.170048
249.000000 64.344000 -1.000000 -1.000000 -12.000000 137.161124 -13.002571 1223.532980 -250.255160 15.531564 0.000000 0.032115
250.000000 63.336000 0.000000 -1.000000 -12.000000 128.531582 -7.879929 1123.963905 75.737611 15.780699 0.000000 0.061191
251.000000 61.321000 1.000000 -1.000000 -12.000000 119.393069 -4.072347 1051.627620 333.176224 16.301550 0.000000 0.117875
252.000000 58.329000 2.000000 -1.000000 -12.000000 109.965928 -1.154798 996.695680 549.906155 17.140630 0.000000 0.156604
253.000000 54.478000 3.000000 -1.000000 -12.000000 100.448428 1.141125 953.561279 742.483151 18.355712 0.000000 0.175464
254.000000 49.959000 4.000000 -1.000000 -12.000000 91.018356 2.989458 918.792386 921.842218 20.019454 0.000000 0.174865
256.000000 63.412000 -1.000000 0.000000 -12.000000 132.223659 -23.462452 1442.147623 -123.767928 15.760795 0.000000 0.049321
257.000000 60.315000 1.000000 0.000000 -12.000000 115.592264 -12.675038 1217.060723 412.628554 16.574534 0.000000 0.118520
258.000000 57.296000 1.000000 0.000000 -6.000000 106.561508 -8.929539 1144.111730 617.003052 8.725431 0.000000 0.157632
259.000000 53.426000 1.000000 0.000000 -4.000000 97.360595 -5.913292 1086.476554 801.222658 6.239321 0.000000 0.174732
260.000000 48.902000 2.000000 0.000000 -6.000000 88.187277 -3.444953 1039.791128 975.124813 10.226761 0.000000 0.171093
262.000000 61.623000 -1.000000 1.000000 -12.000000 126.137911 -31.879814 1644.408201 15.449249 16.219687 0.000000 0.067514
263.000000 60.520000 0.000000 1.000000 -12.000000 118.803962 -25.516947 1488.756854 285.241212 16.517237 0.000000 0.040621
264.000000 58.448000 1.000000 1.000000 -12.000000 110.752170 -20.308514 1373.315181 506.150580 17.105344 0.000000 0.108248
265.000000 55.440000 2.000000 1.000000 -12.000000 102.229647 -16.032556 1284.284368 698.273032 18.036340 0.000000 0.148980
266.000000 51.616000 3.000000 1.000000 -12.000000 93.466819 -12.496073 1213.531312 874.214532 19.375924 0.000000 0.165348
267.000000 47.166000 4.000000 1.000000 -12.000000 84.670485 -9.543573 1155.951436 1042.813151 21.207727 0.000000 0.159645
269.000000 59.064000 -1.000000 2.000000 -12.000000 119.345350 -38.531304 1832.083664 167.468527 16.923795 0.000000 0.098235
270.000000 57.897000 0.000000 1.000000 -6.000000 112.619119 -32.256439 1654.260228 410.721465 8.633520 0.000000 0.019637
271.000000 55.816000 1.000000 2.000000 -12.000000 105.161219 -26.904191 1521.134255 613.962347 17.913470 0.000000 0.090952
272.000000 52.857000 1.000000 1.000000 -6.000000 97.195786 -22.359862 1417.734659 794.065221 9.459576 0.000000 0.133188
273.000000 49.137000 3.000000 2.000000 -12.000000 88.942682 -18.499127 1335.104795 961.946169 20.354884 0.000000 0.149318
275.000000 55.880000 -1.000000 3.000000 -12.000000 112.202976 -43.788007 2006.696722 332.481264 17.890112 0.000000 0.145429
276.000000 54.646000 0.000000 1.000000 -4.000000 106.005086 -37.799708 1809.850638 550.286040 6.098674 0.000000 0.046578
277.000000 52.572000 1.000000 3.000000 -12.000000 99.106672 -32.519232 1661.183068 736.397656 19.020419 0.000000 0.076475
278.000000 49.697000 2.000000 3.000000 -12.000000 91.700521 -27.902760 1544.934860 904.843031 20.123820 0.000000 0.115429
279.000000 46.131000 1.000000 1.000000 -4.000000 83.985060 -23.882032 1451.544217 1065.025809 7.227702 0.000000 0.130700
281.000000 52.244000 -1.000000 4.000000 -12.000000 104.978964 -47.981387 2169.565246 510.792743 19.137238 0.000000 0.208021
282.000000 50.951000 0.000000 2.000000 -6.000000 99.231056 -42.359364 1956.392804 704.279931 9.812564 0.000000 0.101674
283.000000 48.902000 1.000000 4.000000 -12.000000 92.839908 -37.271090 1794.058607 873.907194 20.449981 0.000000 0.085070
284.000000 46.139000 1.000000 2.000000 -6.000000 85.966938 -32.713017 1666.314004 1031.191387 10.838817 0.000000 0.106765
286.000000 48.339000 -1.000000 5.000000 -12.000000 97.865670 -51.370663 2321.835596 702.820007 20.685576 0.000000 0.284217
287.000000 46.999000 0.000000 5.000000 -12.000000 92.500934 -46.131170 2094.653716 873.166042 21.277451 0.000000 0.169740
291.000000 45.803000 3.000000 -8.000000 -11.000000 94.604717 49.684060 -293.407123 807.019321 21.831904 0.000000 0.230679
293.000000 52.008000 2.000000 -7.000000 -11.000000 105.383485 47.358438 -193.758501 503.853816 19.223976 0.000000 0.186468
294.000000 48.712000 3.000000 -7.000000 -11.000000 96.957454 44.652207 -88.306464 756.372891 20.527757 0.000000 0.129972
296.000000 58.003000 1.000000 -6.000000 -11.000000 117.016755 44.062291 -66.629021 177.281749 17.233922 0.000000 0.169026
297.000000 55.125000 2.000000 -6.000000 -11.000000 108.041351 41.217283 32.201956 474.952860 18.136479 0.000000 0.081762
298.000000 51.517000 3.000000 -6.000000 -11.000000 98.994537 38.938519 105.344680 721.973890 19.409730 0.000000 0.064876
299.000000 47.347000 4.000000 -6.000000 -11.000000 90.032809 37.077724 161.662626 940.227508 21.122730 0.000000 0.089465
302.000000 61.084000 1.000000 -5.000000 -11.000000 119.781165 36.287799 184.736057 176.870646 16.364304 0.000000 0.065940
303.000000 57.991000 2.000000 -5.000000 -11.000000 110.167217 34.179466 244.114895 463.169995 17.239785 0.000000 0.021817
304.000000 54.072000 3.000000 -5.000000 -11.000000 100.538032 32.532020 288.479011 703.518631 18.492361 0.000000 0.071139
305.000000 49.524000 4.000000 -5.000000 -11.000000 91.052305 31.211248 322.884200 917.884700 20.194228 0.000000 0.100913
307.000000 65.940000 0.000000 -4.000000 -11.000000 131.659884 28.770705 384.018626 -151.452404 15.156582 0.000000 0.078035
308.000000 63.708000 1.000000 -4.000000 -11.000000 121.648024 27.342544 418.470623 194.177446 15.689937 0.000000 0.019321
309.000000 60.414000 2.000000 -4.000000 -11.000000 111.501500 26.291933 443.250783 468.079685 16.548305 0.000000 0.072316
310.000000 56.202000 3.000000 -4.000000 -11.000000 101.388108 25.487134 461.930602 700.841726 17.791741 0.000000 0.110719
311.000000 51.298000 4.000000 -4.000000 -11.000000 91.468128 24.851146 476.515850 910.600443 19.496066 0.000000 0.127627
312.000000 45.973000 5.000000 -4.000000 -11.000000 81.882072 24.336014 488.219830 1109.494664 21.758403 0.000000 0.125494
314.000000 67.969000 0.000000 -3.000000 -11.000000 132.624867 17.089085 644.113083 -95.320323 14.704186 0.000000 0.028144
315.000000 65.653000 1.000000 -3.000000 -11.000000 122.265926 17.465082 636.366714 228.651304 15.225100 0.000000 0.070010
316.000000 62.182000 2.000000 -3.000000 -11.000000 111.782866 17.737643 630.731371 489.418823 16.077942 0.000000 0.117074
317.000000 57.714000 3.000000 -3.000000 -11.000000 101.349973 17.944281 626.447597 713.912475 17.325729 0.000000 0.144491
318.000000 52.505000 4.000000 -3.000000 -11.000000 91.136300 18.106328 623.081222 918.539733 19.048506 0.000000 0.150908
319.000000 46.855000 5.000000 -3.000000 -11.000000 81.290158 18.236811 620.366049 1114.605370 21.349516 0.000000 0.137684
321.000000 70.211000 -1.000000 -2.000000 -11.000000 141.693669 1.459725 947.573310 -421.957685 14.233080 0.000000 0.012209
322.000000 69.092000 0.000000 -2.000000 -11.000000 131.724710 4.828021 884.090939 -22.193793 14.465355 0.000000 0.045804
323.000000 66.704000 1.000000 -2.000000 -11.000000 121.359325 7.150266 839.981456 279.934451 14.985503 0.000000 0.104523
324.000000 63.092000 2.000000 -2.000000 -11.000000 110.807242 8.843146 807.550830 527.078141 15.846287 0.000000 0.146297
325.000000 58.430000 3.000000 -2.000000 -11.000000 100.273248 10.129912 782.703004 742.834164 17.114203 0.000000 0.166684
326.000000 52.991000 4.000000 -2.000000 -11.000000 89.948032 11.140110 763.056878 941.994951 18.874258 0.000000 0.165447
327.000000 47.105000 5.000000 -2.000000 -11.000000 79.995072 11.953784 747.133818 1135.083879 21.236897 0.000000 0.143595
329.000000 70.285000 -1.000000 -1.000000 -11.000000 138.292886 -12.489432 1213.400425 -295.976171 14.218538 0.000000 0.035105
330.000000 69.141000 0.000000 -1.000000 -11.000000 128.854874 -6.950006 1106.199133 67.520475 14.455592 0.000000 0.060753
331.000000 66.694000 1.000000 -1.000000 -11.000000 118.827123 -2.961146 1030.674342 347.846568 14.988462 0.000000 0.121519
332.000000 62.990000 2.000000 -1.000000 -11.000000 108.489447 0.021646 974.593391 581.097364 15.872843 0.000000 0.160910
333.000000 58.211000 3.000000 -1.000000 -11.000000 98.092088 2.324855 931.303890 787.846204 17.179348 0.000000 0.176875
334.000000 52.646000 4.000000 -1.000000 -11.000000 87.856322 4.151518 896.877464 981.393519 18.998860 0.000000 0.170038
335.000000 46.638000 5.000000 -1.000000 -11.000000 77.966337 5.632872 868.844948 1171.547667 21.450370 0.000000 0.141367
337.000000 67.063000 -1.000000 1.000000 -11.000000 126.160519 -33.194295 1679.154179 1.023566 14.903970 0.000000 0.081179
338.000000 65.795000 0.000000 1.000000 -11.000000 118.267754 -26.184340 1504.237082 296.073355 15.193180 0.000000 0.038523
339.000000 63.275000 1.000000 1.000000 -11.000000 109.516255 -20.523876 1377.921225 533.665441 15.800681 0.000000 0.111697
340.000000 59.558000 2.000000 1.000000 -11.000000 100.224042 -15.940907 1282.421440 739.114401 16.789852 0.000000 0.152503
341.000000 54.827000 3.000000 1.000000 -11.000000 90.686097 -12.199177 1207.686878 927.813369 18.242097 0.000000 0.164652
342.000000 49.366000 4.000000 1.000000 -11.000000 81.162761 -9.111135 1147.608952 1110.473773 20.263738 0.000000 0.150974
344.000000 63.917000 -1.000000 2.000000 -11.000000 118.622546 -40.192897 1884.310476 172.073884 15.639119 0.000000 0.118573
345.000000 62.561000 0.000000 2.000000 -11.000000 111.439721 -33.347083 1683.259970 435.040693 15.980044 0.000000 0.019850
346.000000 60.036000 1.000000 2.000000 -11.000000 103.389857 -27.548987 1536.453441 652.026873 16.654713 0.000000 0.092666
347.000000 56.400000 2.000000 2.000000 -11.000000 94.756742 -22.669362 1424.547571 843.940952 17.731555 0.000000 0.134646
348.000000 51.828000 3.000000 2.000000 -11.000000 85.819346 -18.562023 1336.419024 1023.989913 19.299075 0.000000 0.146225
349.000000 46.588000 4.000000 2.000000 -11.000000 76.832059 -15.090617 1265.217404 1201.800912 21.473806 0.000000 0.131193
351.000000 59.999000 -1.000000 3.000000 -11.000000 110.743312 -45.593015 2073.807540 358.466948 16.662300 0.000000 0.174612
352.000000 58.554000 0.000000 3.000000 -11.000000 104.163755 -39.132029 1850.680104 590.836057 17.075492 0.000000 0.060074
353.000000 56.048000 1.000000 3.000000 -11.000000 96.767327 -33.450900 1686.057982 787.926847 17.841470 0.000000 0.079464
354.000000 52.543000 2.000000 3.000000 -11.000000 88.793312 -28.508942 1559.597622 966.799185 19.034777 0.000000 0.115862
355.000000 48.202000 3.000000 3.000000 -11.000000 80.489800 -24.231076 1459.407655 1138.727100 20.752546 0.000000 0.126310
357.000000 55.559000 -1.000000 4.000000 -11.000000 102.845388 -49.816629 2249.372326 560.635528 17.995884 0.000000 0.248318
358.000000 54.037000 0.000000 4.000000 -11.000000 96.769860 -43.812781 2007.590067 763.941919 18.505014 0.000000 0.125061
359.000000 51.577000 1.000000 4.000000 -11.000000 89.958236 -38.380639 1827.468332 942.000793 19.390296 0.000000 0.096998
360.000000 48.242000 2.000000 4.000000 -11.000000 82.607037 -33.526036 1688.087208 1108.521536 20.733718 0.000000 0.111496
362.000000 49.272000 0.000000 5.000000 -11.000000 89.497437 -47.630403 2154.949438 955.009012 20.296982 0.000000 0.204450
363.000000 46.882000 1.000000 5.000000 -11.000000 83.200772 -42.502829 1961.339767 1115.061262 21.334088 0.000000 0.149769
366.000000 46.824000 3.000000 -8.000000 -10.000000 90.377899 52.415119 -423.359758 929.361252 21.357268 0.000000 0.307018
368.000000 54.108000 2.000000 -7.000000 -10.000000 101.735177 50.524136 -331.770534 589.324087 18.478960 0.000000 0.255052
369.000000 50.227000 3.000000 -7.000000 -10.000000 92.930352 47.465511 -198.150562 859.503568 19.909987 0.000000 0.184793
370.000000 45.804000 4.000000 -7.000000 -10.000000 84.170287 44.917661 -98.205246 1096.184964 21.835909 0.000000 0.167236
372.000000 61.358000 1.000000 -6.000000 -10.000000 114.221270 47.806448 -212.255687 220.095693 16.292132 0.000000 0.232262
373.000000 57.903000 1.000000 -3.000000 -5.000000 104.762998 44.454923 -81.008248 543.654704 8.633501 0.000000 0.127886
374.000000 53.590000 3.000000 -6.000000 -10.000000 95.220302 41.774891 13.530262 809.142652 18.659904 0.000000 0.096134
375.000000 48.653000 2.000000 -3.000000 -5.000000 85.789840 39.591807 84.871157 1043.815388 10.278624 0.000000 0.110226
376.000000 65.260000 1.000000 -5.000000 -10.000000 117.565582 40.045601 70.421156 207.066444 15.317471 0.000000 0.103840
377.000000 61.495000 2.000000 -5.000000 -10.000000 107.315326 37.375749 152.832515 518.757434 16.258004 0.000000 0.036951
378.000000 56.739000 3.000000 -5.000000 -10.000000 97.051990 35.302660 212.866149 777.855752 17.624047 0.000000 0.069884
379.000000 51.274000 4.000000 -5.000000 -10.000000 86.979028 33.650372 258.547082 1009.235089 19.506266 0.000000 0.100012
381.000000 68.695000 1.000000 -4.000000 -10.000000 120.040899 30.880887 331.338705 215.764198 14.551244 0.000000 0.013004
382.000000 64.632000 1.000000 -2.000000 -5.000000 109.086312 29.283932 371.408654 514.022698 7.734429 0.000000 0.061195
383.000000 59.447000 3.000000 -4.000000 -10.000000 98.190961 28.075387 400.906412 765.415798 16.821461 0.000000 0.103574
384.000000 53.472000 2.000000 -2.000000 -5.000000 87.560916 27.129690 423.528439 992.513248 9.352344 0.000000 0.120017
385.000000 47.088000 5.000000 -4.000000 -10.000000 77.368542 26.369884 441.427830 1210.213749 21.244430 0.000000 0.116071
387.000000 74.190000 0.000000 -3.000000 -10.000000 132.518051 20.699696 568.308799 -113.968517 13.471045 0.000000 0.035502
388.000000 71.347000 1.000000 -3.000000 -10.000000 121.192568 20.484763 572.916259 245.376235 14.010193 0.000000 0.061516
389.000000 67.017000 2.000000 -3.000000 -10.000000 109.741920 20.332728 576.167592 529.075428 14.918383 0.000000 0.113012
390.000000 61.449000 3.000000 -3.000000 -10.000000 98.392319 20.219507 578.584718 771.786396 16.273520 0.000000 0.140433
391.000000 55.025000 4.000000 -3.000000 -10.000000 87.358213 20.131919 580.452186 993.892438 18.177098 0.000000 0.142830
392.000000 48.180000 5.000000 -3.000000 -10.000000 76.819600 20.062146 581.938345 1209.336502 20.763855 0.000000 0.123272
394.000000 72.895000 1.000000 -2.000000 -10.000000 120.618716 9.378929 797.227279 295.376115 13.712899 0.000000 0.104202
395.000000 62.485000 3.000000 -2.000000 -10.000000 97.450332 11.974123 746.734594 797.121658 16.004288 0.000000 0.165469
396.000000 55.719000 2.000000 -1.000000 -5.000000 86.226865 12.829225 729.894547 1013.797833 8.975706 0.000000 0.157565
397.000000 48.532000 5.000000 -2.000000 -10.000000 75.520602 13.509331 716.419212 1226.844563 20.614286 0.000000 0.125909
399.000000 77.410000 -1.000000 -1.000000 -10.000000 139.639099 -11.841262 1200.658637 -352.926320 12.909659 0.000000 0.038905
400.000000 76.107000 0.000000 -1.000000 -10.000000 129.226553 -5.821569 1084.735350 57.809947 13.132534 0.000000 0.060057
401.000000 73.074000 1.000000 -1.000000 -10.000000 118.123830 -1.652949 1006.059058 365.497517 13.680049 0.000000 0.125532
402.000000 68.389000 2.000000 -1.000000 -10.000000 106.693279 1.375153 949.162962 618.140875 14.620106 0.000000 0.165184
403.000000 62.345000 3.000000 -1.000000 -10.000000 95.256803 3.662713 906.102504 841.770887 16.040963 0.000000 0.176814
404.000000 55.389000 4.000000 -1.000000 -10.000000 84.093569 5.446541 872.378081 1052.851283 18.059478 0.000000 0.161353
405.000000 48.023000 5.000000 -1.000000 -10.000000 73.426154 6.873959 845.250398 1263.641577 20.833717 0.000000 0.120179
407.000000 76.206000 -1.000000 0.000000 -10.000000 133.721377 -24.871641 1473.951815 -193.521999 13.114514 0.000000 0.068670
408.000000 71.743000 1.000000 0.000000 -10.000000 113.810106 -11.856651 1200.960440 455.717239 13.934736 0.000000 0.128154
409.000000 67.008000 2.000000 0.000000 -10.000000 102.889873 -7.647061 1119.508190 692.485770 14.922397 0.000000 0.167042
410.000000 60.931000 3.000000 0.000000 -10.000000 91.841829 -4.375793 1057.358923 906.288364 16.414398 0.000000 0.174962
411.000000 53.963000 4.000000 0.000000 -10.000000 80.982311 -1.776274 1008.377788 1111.891022 18.537785 0.000000 0.153959
412.000000 46.610000 2.000000 0.000000 -4.000000 70.559804 0.331082 968.780602 1320.878313 8.586476 0.000000 0.105318
414.000000 73.535000 -1.000000 1.000000 -10.000000 126.155621 -34.763291 1722.021800 -16.315605 13.592099 0.000000 0.098810
415.000000 72.064000 0.000000 1.000000 -10.000000 117.616430 -26.970257 1522.695751 309.223163 13.871502 0.000000 0.035931
416.000000 68.939000 1.000000 1.000000 -10.000000 108.032806 -20.773686 1383.280303 566.246087 14.502824 0.000000 0.115532
417.000000 64.250000 2.000000 1.000000 -10.000000 97.823314 -15.836129 1280.293737 787.285783 15.564414 0.000000 0.155617
418.000000 58.289000 3.000000 1.000000 -10.000000 87.373609 -11.864162 1201.107767 991.448716 17.159741 0.000000 0.161538
419.000000 51.493000 4.000000 1.000000 -10.000000 77.016427 -8.628736 1138.326400 1191.998081 19.428343 0.000000 0.136804
420.000000 69.589000 -1.000000 2.000000 -10.000000 117.709990 -42.120507 1948.206464 178.860008 14.364551 0.000000 0.144780
421.000000 67.995000 0.000000 1.000000 -5.000000 110.008447 -34.605391 1717.635161 464.840470 7.351668 0.000000 0.023681
422.000000 64.873000 1.000000 2.000000 -10.000000 101.265947 -28.286547 1554.198823 697.526874 15.413376 0.000000 0.094508
423.000000 60.320000 1.000000 1.000000 -5.000000 91.848531 -23.019959 1432.302363 903.258068 8.290037 0.000000 0.135204
424.000000 54.610000 3.000000 2.000000 -10.000000 82.116841 -18.632578 1337.894457 1098.268675 18.317207 0.000000 0.140185
425.000000 48.148000 2.000000 1.000000 -5.000000 72.393943 -14.961589 1262.618980 1294.530905 10.389884 0.000000 0.114391
427.000000 64.681000 -1.000000 3.000000 -10.000000 108.954514 -47.638384 2155.279615 392.412549 15.456470 0.000000 0.212317
428.000000 62.964000 0.000000 3.000000 -10.000000 101.945402 -40.640327 1898.810618 640.923906 15.880036 0.000000 0.077881
429.000000 59.885000 1.000000 3.000000 -10.000000 93.975383 -34.501319 1714.753045 850.239220 16.699160 0.000000 0.084179
430.000000 55.543000 2.000000 3.000000 -10.000000 85.345867 -29.188361 1576.233644 1041.364251 18.007968 0.000000 0.115987
431.000000 50.188000 3.000000 3.000000 -10.000000 76.371850 -24.619662 1468.212827 1228.036355 19.933027 0.000000 0.120011
433.000000 57.361000 0.000000 2.000000 -5.000000 93.835715 -45.431531 2067.630148 838.171175 8.716642 0.000000 0.155198
434.000000 54.364000 1.000000 4.000000 -10.000000 86.546676 -39.614847 1865.857947 1025.311154 18.397264 0.000000 0.114016
435.000000 50.286000 1.000000 2.000000 -5.000000 78.653568 -34.427559 1712.714731 1202.834500 9.946093 0.000000 0.119567
437.000000 51.556000 0.000000 2.000000 -4.000000 85.959676 -49.277546 2225.316058 1057.529076 7.759506 0.000000 0.249074
438.000000 48.675000 1.000000 5.000000 -10.000000 79.262368 -43.833115 2008.323882 1223.937969 20.549831 0.000000 0.181749
444.000000 51.414000 3.000000 -7.000000 -9.000000 88.202772 50.414552 -326.689266 993.997945 19.451318 0.000000 0.258436
445.000000 46.255000 4.000000 -7.000000 -9.000000 79.088022 47.559014 -202.000668 1248.477174 21.624713 0.000000 0.230727
447.000000 60.610000 2.000000 -6.000000 -9.000000 100.773443 47.900619 -216.184350 635.523499 16.496921 0.000000 0.190572
448.000000 55.423000 1.000000 -2.000000 -3.000000 90.721233 44.789165 -93.402279 921.908965 6.014653 0.000000 0.144288
449.000000 49.562000 4.000000 -6.000000 -9.000000 80.818374 42.257747 -2.902502 1176.050746 20.181397 0.000000 0.148686
451.000000 69.760000 1.000000 -5.000000 -9.000000 114.706563 44.146209 -69.686215 250.902863 14.329967 0.000000 0.157418
452.000000 65.120000 2.000000 -5.000000 -9.000000 103.777076 40.844979 44.492255 592.139463 15.353934 0.000000 0.072820
453.000000 59.293000 3.000000 -5.000000 -9.000000 92.838153 38.293413 125.194898 873.014820 16.865970 0.000000 0.082359
454.000000 52.690000 4.000000 -5.000000 -9.000000 82.152317 36.269619 185.261562 1124.997607 18.983320 0.000000 0.109769
455.000000 45.757000 5.000000 -5.000000 -9.000000 71.926431 34.628999 231.710056 1367.855708 21.864055 0.000000 0.128588
457.000000 74.298000 1.000000 -4.000000 -9.000000 117.897834 34.856321 225.385883 246.599735 13.454177 0.000000 0.037062
458.000000 69.204000 2.000000 -4.000000 -9.000000 106.044549 32.602342 286.619099 573.577031 14.447411 0.000000 0.049894
459.000000 62.737000 3.000000 -4.000000 -9.000000 94.285256 30.915822 330.447416 846.995717 15.940231 0.000000 0.096471
460.000000 55.394000 4.000000 -4.000000 -9.000000 82.889096 29.608515 363.368174 1095.433212 18.056973 0.000000 0.113208
461.000000 47.716000 5.000000 -4.000000 -9.000000 72.067803 28.566451 389.002612 1337.580019 20.966961 0.000000 0.111647
463.000000 77.963000 1.000000 -3.000000 -9.000000 119.728340 23.976989 496.320774 268.342330 12.821559 0.000000 0.049018
464.000000 72.451000 2.000000 -3.000000 -9.000000 107.157178 23.271537 512.108156 579.284353 13.799955 0.000000 0.106783
465.000000 57.379000 4.000000 -3.000000 -9.000000 82.814420 22.362713 532.202707 1087.727188 17.432802 0.000000 0.131552
466.000000 49.037000 5.000000 -3.000000 -9.000000 71.538507 22.052933 538.991791 1328.682761 20.402886 0.000000 0.106896
468.000000 83.987000 0.000000 -2.000000 -9.000000 132.369474 10.281372 779.765633 -56.761630 11.899781 0.000000 0.034948
469.000000 80.262000 1.000000 -2.000000 -9.000000 119.622158 12.013386 745.963756 315.326181 12.454432 0.000000 0.102775
470.000000 74.409000 2.000000 -2.000000 -9.000000 106.714216 13.196977 722.617365 609.038337 13.437148 0.000000 0.148113
471.000000 66.881000 3.000000 -2.000000 -9.000000 93.985420 14.056347 705.525143 863.698789 14.953309 0.000000 0.161879
472.000000 58.342000 4.000000 -2.000000 -9.000000 81.740969 14.708399 692.470837 1102.521431 17.145978 0.000000 0.144874
473.000000 49.496000 5.000000 -2.000000 -9.000000 70.216858 15.219957 682.174716 1342.204304 20.214398 0.000000 0.101753
474.000000 86.102000 -1.000000 -1.000000 -9.000000 141.265845 -10.996943 1184.150818 -425.894679 11.606184 0.000000 0.043233
475.000000 84.613000 0.000000 -1.000000 -9.000000 129.656242 -4.424695 1058.282979 46.163969 11.812188 0.000000 0.058959
476.000000 80.762000 1.000000 -1.000000 -9.000000 117.230120 -0.092086 976.729831 387.143728 12.377933 0.000000 0.129928
477.000000 74.686000 2.000000 -1.000000 -9.000000 104.467550 2.947033 919.591466 662.933881 13.388053 0.000000 0.169138
478.000000 66.873000 3.000000 -1.000000 -9.000000 91.791895 5.185106 877.331649 907.190133 14.955981 0.000000 0.174242
479.000000 58.036000 4.000000 -1.000000 -9.000000 79.560100 6.897150 844.808402 1140.757410 17.237354 0.000000 0.146656
480.000000 48.925000 5.000000 -1.000000 -9.000000 68.039307 8.246891 819.004393 1379.527172 20.451643 0.000000 0.089000
481.000000 81.357000 -1.000000 1.000000 -9.000000 126.103119 -36.665436 1776.235474 -37.558512 12.285307 0.000000 0.122149
482.000000 79.634000 0.000000 1.000000 -9.000000 116.809333 -27.908958 1545.083950 325.519540 12.553022 0.000000 0.032688
483.000000 75.664000 1.000000 1.000000 -9.000000 106.219987 -21.066915 1389.593522 605.474313 13.214297 0.000000 0.119759
484.000000 69.602000 2.000000 1.000000 -9.000000 94.900871 -15.715185 1277.840491 845.128884 14.368478 0.000000 0.157783
485.000000 61.933000 3.000000 1.000000 -9.000000 83.368678 -11.483212 1193.646160 1068.683626 16.151426 0.000000 0.154408
486.000000 53.349000 4.000000 1.000000 -9.000000 72.055305 -8.087270 1127.935396 1293.062276 18.753980 0.000000 0.114077
487.000000 76.287000 -1.000000 2.000000 -9.000000 116.534506 -44.377958 2028.174402 189.077962 13.103428 0.000000 0.179554
488.000000 74.385000 0.000000 2.000000 -9.000000 108.239466 -36.071693 1759.033078 502.180697 13.440567 0.000000 0.032298
489.000000 70.439000 1.000000 2.000000 -9.000000 98.676147 -29.138135 1574.996344 752.966415 14.196137 0.000000 0.096507
490.000000 64.612000 2.000000 2.000000 -9.000000 88.326926 -23.420386 1441.208862 975.259995 15.479767 0.000000 0.134219
491.000000 57.352000 3.000000 2.000000 -9.000000 77.668029 -18.712283 1339.562693 1189.430985 17.443052 0.000000 0.129700
492.000000 49.286000 4.000000 2.000000 -9.000000 67.115436 -14.817325 1259.717418 1410.929848 20.301750 0.000000 0.090922
493.000000 70.011000 -1.000000 3.000000 -9.000000 106.727611 -49.969133 2256.275096 438.094091 14.280105 0.000000 0.262488
494.000000 64.075000 1.000000 3.000000 -9.000000 90.594013 -35.693876 1748.221467 927.260038 15.608039 0.000000 0.091875
495.000000 58.598000 2.000000 3.000000 -9.000000 81.202556 -29.954911 1595.269993 1133.251181 17.070357 0.000000 0.116245
496.000000 51.899000 1.000000 1.000000 -3.000000 71.463406 -25.054870 1478.139683 1339.373458 6.425820 0.000000 0.112765
498.000000 60.874000 0.000000 4.000000 -9.000000 90.293885 -47.242444 2139.020605 932.868236 16.428290 0.000000 0.194972
499.000000 57.160000 1.000000 4.000000 -9.000000 82.459090 -40.994608 1910.430532 1129.770698 17.498349 0.000000 0.138463
500.000000 52.105000 2.000000 4.000000 -9.000000 73.950405 -35.432340 1740.797219 1321.008149 19.199222 0.000000 0.134023
501.000000 46.048000 3.000000 4.000000 -9.000000 65.100469 -30.536801 1609.917308 1521.038000 21.728403 0.000000 0.133210
503.000000 53.730000 0.000000 5.000000 -9.000000 81.752851 -51.092452 2308.506629 1189.382590 18.615114 0.000000 0.307910
504.000000 50.210000 1.000000 5.000000 -9.000000 74.604730 -45.300457 2062.641984 1362.339009 19.922942 0.000000 0.225220
505.000000 45.610000 2.000000 5.000000 -9.000000 66.881023 -40.011318 1878.480506 1540.933848 21.935422 0.000000 0.199269
511.000000 46.061000 4.000000 -7.000000 -8.000000 73.209951 50.319152 -322.284799 1449.603057 21.717610 0.000000 0.318871
513.000000 63.041000 1.000000 -3.000000 -4.000000 95.907105 51.547786 -380.406175 761.926270 7.930910 0.000000 0.277994
514.000000 56.782000 3.000000 -6.000000 -8.000000 85.345563 47.980354 -219.521961 1071.904978 17.613711 0.000000 0.213859
515.000000 49.829000 2.000000 -3.000000 -4.000000 74.984935 45.077123 -104.195682 1349.827787 10.037526 0.000000 0.209609
516.000000 74.482000 1.000000 -5.000000 -8.000000 111.004360 48.590896 -245.425242 316.226426 13.422167 0.000000 0.234863
517.000000 68.692000 2.000000 -5.000000 -8.000000 99.360803 44.594865 -86.180067 691.841597 14.556332 0.000000 0.127156
518.000000 61.499000 3.000000 -5.000000 -8.000000 87.716429 41.513269 22.330800 998.317316 16.262354 0.000000 0.116598
519.000000 53.500000 4.000000 -5.000000 -8.000000 76.410202 39.077492 101.021211 1276.156663 18.697664 0.000000 0.139337
520.000000 80.530000 1.000000 -4.000000 -8.000000 115.016432 39.309168 93.775697 291.866121 12.413489 0.000000 0.078792
521.000000 65.862000 3.000000 -4.000000 -8.000000 89.469529 34.031018 248.182260 953.024501 15.185128 0.000000 0.094246
522.000000 56.778000 2.000000 -2.000000 -4.000000 77.265003 32.304646 294.472844 1228.788656 8.809223 0.000000 0.113594
523.000000 47.542000 5.000000 -4.000000 -8.000000 65.816645 30.938764 329.861759 1504.507421 21.045273 0.000000 0.125334
524.000000 90.246000 0.000000 -3.000000 -8.000000 131.425003 30.144937 349.965728 -157.245158 11.074495 0.000000 0.088068
525.000000 85.667000 1.000000 -3.000000 -8.000000 117.700052 28.029078 402.023346 300.847662 11.668822 0.000000 0.030308
526.000000 78.490000 2.000000 -3.000000 -8.000000 103.830161 26.608253 435.838042 644.649371 12.738979 0.000000 0.097879
527.000000 69.384000 3.000000 -3.000000 -8.000000 90.240745 25.589462 459.569571 935.985772 14.414392 0.000000 0.125171
528.000000 59.278000 4.000000 -3.000000 -8.000000 77.296961 24.823659 477.142791 1208.311865 16.876108 0.000000 0.117915
529.000000 49.083000 5.000000 -3.000000 -8.000000 65.260974 24.227217 490.679512 1484.825816 20.385375 0.000000 0.098664
530.000000 89.131000 1.000000 -2.000000 -8.000000 118.247991 15.160709 683.369722 341.883235 11.215459 0.000000 0.099493
531.000000 71.503000 3.000000 -2.000000 -8.000000 89.663467 16.419117 657.839106 947.590567 13.987812 0.000000 0.154542
532.000000 60.571000 2.000000 -1.000000 -4.000000 76.268173 16.806812 649.907964 1215.741279 8.258180 0.000000 0.125490
533.000000 49.632000 5.000000 -2.000000 -8.000000 63.879787 17.106513 643.754720 1493.170276 20.160905 0.000000 0.076541
534.000000 90.187000 1.000000 -1.000000 -8.000000 116.063406 1.799305 941.189159 414.321323 11.084587 0.000000 0.134668
535.000000 82.061000 2.000000 -1.000000 -8.000000 101.648712 4.791716 884.777755 718.336528 12.185527 0.000000 0.172210
536.000000 71.703000 3.000000 -1.000000 -8.000000 87.481857 6.930371 844.175166 988.681869 13.949485 0.000000 0.167350
537.000000 60.293000 4.000000 -1.000000 -8.000000 74.024307 8.530931 813.552686 1252.575618 16.593577 0.000000 0.122480
538.000000 48.954000 5.000000 -1.000000 -8.000000 61.589208 9.771997 789.633386 1531.783871 20.441329 0.000000 0.048796
539.000000 88.381000 1.000000 0.000000 -8.000000 111.111556 -10.697244 1178.314299 518.093793 11.312011 0.000000 0.140900
540.000000 69.701000 3.000000 0.000000 -8.000000 83.664676 -2.374150 1019.623657 1060.598348 14.351381 0.000000 0.161837
541.000000 46.958000 5.000000 0.000000 -8.000000 58.404633 2.457313 928.811352 1603.630022 21.311722 0.000000 0.008943
542.000000 88.946000 0.000000 1.000000 -8.000000 115.784570 -29.049099 1572.805943 346.237809 11.238982 0.000000 0.028628
543.000000 83.749000 1.000000 1.000000 -8.000000 103.955911 -21.415941 1397.140597 653.691808 11.939041 0.000000 0.124323
544.000000 75.678000 2.000000 1.000000 -8.000000 91.271385 -15.574022 1274.980802 916.202818 13.215725 0.000000 0.157981
545.000000 65.577000 3.000000 1.000000 -8.000000 78.443280 -11.046227 1185.111729 1165.238848 15.255177 0.000000 0.140477
546.000000 54.579000 4.000000 1.000000 -8.000000 66.040298 -7.475298 1116.224789 1423.390140 18.333321 0.000000 0.078145
547.000000 84.282000 -1.000000 2.000000 -8.000000 114.984671 -47.048641 2131.150582 204.941134 11.860741 0.000000 0.227458
548.000000 76.844000 1.000000 2.000000 -8.000000 95.454609 -30.131928 1599.707531 822.167546 13.013588 0.000000 0.098769
549.000000 59.785000 3.000000 2.000000 -8.000000 72.240533 -18.803039 1341.464167 1305.154736 16.734636 0.000000 0.113009
550.000000 49.610000 2.000000 1.000000 -4.000000 60.763252 -14.654959 1256.456386 1563.684632 10.085468 0.000000 0.068682
552.000000 73.493000 0.000000 3.000000 -8.000000 95.850174 -44.332766 2026.513915 786.827833 13.606235 0.000000 0.134240
553.000000 68.544000 1.000000 3.000000 -8.000000 86.429285 -37.058235 1787.762357 1025.160976 14.591544 0.000000 0.104798
554.000000 61.496000 2.000000 3.000000 -8.000000 76.147099 -30.826167 1617.266558 1250.082485 16.267112 0.000000 0.118431
555.000000 53.000000 3.000000 3.000000 -8.000000 65.538271 -25.545567 1489.417138 1483.678412 18.878721 0.000000 0.110301
557.000000 59.760000 1.000000 4.000000 -8.000000 77.496892 -42.545359 1962.810639 1264.953113 16.738512 0.000000 0.174155
558.000000 53.405000 1.000000 2.000000 -4.000000 68.289302 -36.558458 1773.116553 1474.510808 9.366841 0.000000 0.160444
559.000000 45.910000 3.000000 4.000000 -8.000000 58.760967 -31.309040 1629.629785 1705.100249 21.795718 0.000000 0.165879
562.000000 51.219000 1.000000 5.000000 -8.000000 69.044229 -46.924928 2126.156642 1544.549381 19.532010 0.000000 0.286062
563.000000 45.574000 2.000000 5.000000 -8.000000 60.773053 -41.282065 1919.950856 1742.341972 21.954756 0.000000 0.255060
568.000000 57.314000 3.000000 -6.000000 -7.000000 78.919428 51.342977 -370.501943 1278.435645 17.451681 0.000000 0.314196
569.000000 49.112000 4.000000 -6.000000 -7.000000 68.144026 48.048736 -222.392571 1586.786513 20.370265 0.000000 0.301175
571.000000 71.889000 2.000000 -5.000000 -7.000000 93.822498 48.624819 -246.882806 832.205262 13.910140 0.000000 0.207378
572.000000 62.967000 3.000000 -5.000000 -7.000000 81.466287 44.966862 -100.050026 1169.264578 15.884728 0.000000 0.178515
573.000000 53.296000 4.000000 -5.000000 -7.000000 69.564525 42.080129 3.171293 1481.318657 18.770989 0.000000 0.198190
574.000000 87.297000 1.000000 -4.000000 -7.000000 111.110881 44.266820 -74.095446 360.712389 11.451846 0.000000 0.142657
575.000000 78.859000 2.000000 -4.000000 -7.000000 97.189479 40.334556 61.119513 762.893352 12.680354 0.000000 0.078523
576.000000 68.427000 3.000000 -4.000000 -7.000000 83.481300 37.441591 150.872231 1095.896979 14.617124 0.000000 0.108962
577.000000 57.163000 4.000000 -4.000000 -7.000000 70.457799 35.234353 214.791070 1408.713724 17.501640 0.000000 0.135680
578.000000 46.123000 5.000000 -4.000000 -7.000000 58.427772 33.499622 262.626564 1734.176748 21.695065 0.000000 0.175952
579.000000 85.017000 2.000000 -3.000000 -7.000000 99.472891 30.401733 343.498147 732.783448 11.761723 0.000000 0.087055
580.000000 73.062000 3.000000 -3.000000 -7.000000 84.542053 28.758929 384.306501 1058.307838 13.690165 0.000000 0.115133
581.000000 60.222000 4.000000 -3.000000 -7.000000 70.537303 27.541686 413.721004 1369.959330 16.613123 0.000000 0.109563
582.000000 47.807000 5.000000 -3.000000 -7.000000 57.763840 26.604386 435.928916 1700.101389 20.931698 0.000000 0.128065
583.000000 89.325000 2.000000 -2.000000 -7.000000 99.944639 19.051345 603.322972 741.357238 11.194742 0.000000 0.142711
584.000000 76.048000 3.000000 -2.000000 -7.000000 84.176907 19.113320 602.019456 1057.168311 13.153106 0.000000 0.141465
585.000000 61.886000 4.000000 -2.000000 -7.000000 69.510842 19.158466 601.069292 1366.758668 16.167387 0.000000 0.099631
586.000000 48.369000 5.000000 -2.000000 -7.000000 56.255975 19.192818 600.345952 1702.309947 20.689836 0.000000 0.091766
587.000000 90.686000 2.000000 -1.000000 -7.000000 97.984541 6.981926 843.192309 788.904966 11.027253 0.000000 0.173280
588.000000 76.565000 3.000000 -1.000000 -7.000000 82.011577 8.947239 805.547553 1093.902060 13.065183 0.000000 0.152890
589.000000 61.611000 4.000000 -1.000000 -7.000000 67.168935 10.381680 777.818746 1401.660699 16.240585 0.000000 0.084168
590.000000 47.492000 5.000000 -1.000000 -7.000000 53.801161 11.473494 756.543927 1744.756456 21.072823 0.000000 0.071104
591.000000 82.460000 2.000000 1.000000 -7.000000 86.653874 -15.407110 1271.604540 1006.273920 12.129836 0.000000 0.154219
592.000000 68.809000 3.000000 1.000000 -7.000000 72.266510 -10.539924 1175.255178 1291.089441 14.540436 0.000000 0.114792
593.000000 54.545000 4.000000 1.000000 -7.000000 58.645045 -6.778260 1102.926160 1601.428103 18.347026 0.000000 0.034399
594.000000 84.157000 1.000000 2.000000 -7.000000 91.350133 -31.306010 1629.551825 911.310572 11.883591 0.000000 0.101694
595.000000 73.822000 2.000000 2.000000 -7.000000 78.517997 -24.420020 1463.682259 1181.102216 13.550824 0.000000 0.123388
596.000000 61.383000 3.000000 2.000000 -7.000000 65.506224 -18.907317 1343.651467 1459.320897 16.300793 0.000000 0.091635
597.000000 48.461000 4.000000 2.000000 -7.000000 53.026799 -14.470859 1252.764670 1777.804652 20.651688 0.000000 0.099424
599.000000 79.584000 0.000000 3.000000 -7.000000 91.552186 -46.615595 2113.770021 898.540848 12.565780 0.000000 0.180403
600.000000 73.064000 1.000000 3.000000 -7.000000 81.200017 -38.632462 1835.193271 1154.294787 13.689990 0.000000 0.127026
601.000000 63.805000 2.000000 3.000000 -7.000000 69.874064 -31.824653 1642.972034 1405.206364 15.680088 0.000000 0.128355
602.000000 52.901000 3.000000 3.000000 -7.000000 58.289915 -26.102997 1502.340947 1681.524788 18.916164 0.000000 0.131581
604.000000 67.792000 0.000000 4.000000 -7.000000 80.577057 -51.574990 2331.728409 1228.409669 14.754045 0.000000 0.325574
605.000000 61.764000 1.000000 4.000000 -7.000000 71.387780 -44.298227 2025.246578 1447.443138 16.196769 0.000000 0.227790
606.000000 53.672000 2.000000 4.000000 -7.000000 61.391694 -37.828253 1810.709796 1684.198227 18.642244 0.000000 0.208892
616.000000 63.085000 3.000000 -5.000000 -6.000000 73.828860 48.652746 -248.084193 1413.441202 15.856846 0.000000 0.278516
617.000000 51.506000 4.000000 -5.000000 -6.000000 61.409863 45.280278 -111.876084 1774.629287 19.425358 0.000000 0.298803
618.000000 69.738000 3.000000 -4.000000 -6.000000 75.986661 41.163839 33.974780 1297.808694 14.344050 0.000000 0.157936
619.000000 55.843000 2.000000 -2.000000 -3.000000 62.195616 38.411935 121.574580 1665.345187 8.958713 0.000000 0.199282
620.000000 59.388000 4.000000 -3.000000 -6.000000 62.198097 30.544965 339.875954 1599.953938 16.848564 0.000000 0.134124
621.000000 79.818000 3.000000 -2.000000 -6.000000 77.081956 22.199144 535.791198 1207.624251 12.533395 0.000000 0.121064
622.000000 61.360000 2.000000 -1.000000 -3.000000 61.075959 21.802601 544.456317 1581.555303 8.153955 0.000000 0.090138
623.000000 80.769000 3.000000 -1.000000 -6.000000 74.911182 11.298072 759.972852 1236.915618 12.386634 0.000000 0.125017
624.000000 60.981000 4.000000 -1.000000 -6.000000 58.561812 12.490939 736.569874 1614.909153 16.410479 0.000000 0.050356
625.000000 57.826000 4.000000 0.000000 -6.000000 54.600562 3.067488 917.322492 1706.964121 17.307296 0.000000 0.037304
626.000000 89.671000 2.000000 1.000000 -6.000000 80.605002 -15.206700 1267.557837 1125.544499 11.155688 0.000000 0.142442
627.000000 70.722000 3.000000 1.000000 -6.000000 64.348432 -9.946491 1163.743485 1465.752701 14.148949 0.000000 0.070278
628.000000 52.127000 4.000000 1.000000 -6.000000 49.426270 -5.977354 1087.693000 1867.678318 19.200678 0.000000 0.111484
629.000000 61.123000 3.000000 2.000000 -6.000000 56.997127 -19.028381 1346.194279 1680.435227 16.372339 0.000000 0.096250
631.000000 77.074000 1.000000 3.000000 -6.000000 74.489615 -40.465981 1893.137514 1333.608136 12.979113 0.000000 0.166318
632.000000 64.660000 2.000000 3.000000 -6.000000 61.947130 -32.979670 1673.410846 1624.722911 15.474574 0.000000 0.161576
633.000000 50.579000 1.000000 1.000000 -2.000000 49.304930 -26.741638 1517.300014 1977.452133 6.595605 0.000000 0.210518
634.000000 62.429000 1.000000 4.000000 -6.000000 63.757701 -46.291460 2100.941572 1708.868754 16.025984 0.000000 0.312212
635.000000 52.031000 1.000000 2.000000 -3.000000 52.887773 -39.269571 1854.982533 1992.899816 9.616125 0.000000 0.298164
642.000000 85.768000 2.000000 -4.000000 -5.000000 82.275362 49.640778 -291.466580 1166.443195 11.661489 0.000000 0.259348
643.000000 68.636000 3.000000 -4.000000 -5.000000 66.583082 45.206645 -109.086014 1602.599932 14.576291 0.000000 0.260037
645.000000 75.941000 3.000000 -3.000000 -5.000000 67.879776 36.265384 185.383935 1483.587237 13.174508 0.000000 0.151273
646.000000 55.488000 4.000000 -3.000000 -5.000000 51.881143 33.861557 252.808018 1957.990104 18.034979 0.000000 0.232608
647.000000 81.312000 3.000000 -2.000000 -5.000000 67.741876 25.746268 455.943674 1430.051629 12.304907 0.000000 0.104309
648.000000 57.443000 4.000000 -2.000000 -5.000000 50.466114 24.783767 478.052206 1919.413690 17.422364 0.000000 0.173444
649.000000 82.722000 3.000000 -1.000000 -5.000000 65.472564 14.063029 705.391757 1447.292190 12.096077 0.000000 0.077585
650.000000 56.636000 4.000000 -1.000000 -5.000000 47.631091 14.909824 688.422609 1956.925465 17.671917 0.000000 0.156996
651.000000 69.394000 3.000000 1.000000 -5.000000 53.955290 -9.241489 1150.121534 1734.557706 14.422006 0.000000 0.067864
652.000000 79.727000 2.000000 2.000000 -5.000000 62.102505 -25.815123 1495.651510 1573.976884 12.550577 0.000000 0.116066
653.000000 57.063000 3.000000 2.000000 -5.000000 46.048478 -19.170636 1349.186945 2039.525833 17.539529 0.000000 0.205737
654.000000 79.278000 1.000000 3.000000 -5.000000 65.670991 -42.623729 1965.526277 1602.335451 12.619912 0.000000 0.238897
655.000000 62.382000 2.000000 3.000000 -5.000000 51.743348 -34.329952 1710.022942 1968.707584 16.041938 0.000000 0.251259
662.000000 71.376000 3.000000 -3.000000 -4.000000 55.733929 40.673525 50.105794 1907.812010 14.019214 0.000000 0.275752
664.000000 77.520000 3.000000 -2.000000 -4.000000 55.278859 29.832301 357.794400 1800.783251 12.908888 0.000000 0.167315
666.000000 78.920000 3.000000 -1.000000 -4.000000 52.643811 17.345112 638.841808 1801.726146 12.681123 0.000000 0.108834
668.000000 73.178000 3.000000 0.000000 -4.000000 47.385489 4.168090 896.564527 1933.832440 13.677546 0.000000 0.136079
669.000000 60.877000 3.000000 1.000000 -4.000000 40.002333 -8.390476 1133.750512 2237.447921 16.442228 0.000000 0.274311
679.000000 89.494000 2.000000 1.000000 -3.000000 43.498037 -14.260351 1248.550919 2111.317006 11.184015 0.000000 0.225234
#UB matrix in q= (UB) B0 G* 
#[[ 0.537725193  0.239244131  0.807381634]
# [ 0.28058204  -0.955030033  0.096121674]
# [ 0.795063102  0.175070267 -0.58131694 ]]
#B0 matrix in q= UB (B0) G*
#[[ 0.19670273 -0.          0.03056101]
# [ 0.          0.19187965 -0.        ]
# [ 0.          0.          0.18806537]]
#UBB0 matrix in q= (UB B0) G* i.e. recip. basis vectors are columns in LT frame: astar = UBB0[:,0], bstar = UBB0[:,1], cstar = UBB0[:,2]. (abcstar as columns on xyzlab1, xlab1 = ui, ui = unit vector along incident beam)
#[[ 0.10577201  0.04590608  0.16827395]
# [ 0.05519125 -0.18325083  0.02665203]
# [ 0.15639108  0.03359242 -0.08502766]]
#Euler angles phi theta psi (deg)
#[102.425 125.498  83.223]
#deviatoric strain in direct crystal frame (10-3 unit)
#[[-5.05  0.03  0.81]
# [ 0.03 -4.88  0.4 ]
# [ 0.81  0.4   9.94]]
#deviatoric strain in sample2 frame (10-3 unit)
#[[-3.69  0.33 -4.33]
# [ 0.33 -4.81 -1.22]
# [-4.34 -1.22  8.5 ]]
#new lattice parameters
#[ 5.1505     5.2124907  5.3207021 89.9765421 99.174946  89.996683 ]
#CCDLabel
#sCMOS
#DetectorParameters
#[79.0, 975.0, 941.0, 0.0, 0.0]
#pixelsize
#0.0734
#Frame dimensions
#[2018, 2016]
#
