#Strain and Orientation Refinement from experimental file: /home/micha/LaueProjects/DepthEffects/testZrO2_65.cor
#File created at Wed Jun 28 14:22:27 2023 with indexingSpotsSet.py
#Number of indexed spots: 534
#Element
#ZrO2
#grainIndex
#G_0
#Mean Deviation(pixel): 0.115
##spot_index intensity h k l 2theta Chi Xexp Yexp Energy GrainIndex PixDev
6.000000 49.719000 4.000000 5.000000 -2.000000 45.714229 26.031919 449.313786 2109.315870 20.126191 0.000000 0.220326
7.000000 46.013000 5.000000 5.000000 -2.000000 46.463777 18.785565 608.902092 2021.200958 21.748110 0.000000 0.168989
11.000000 48.796000 2.000000 3.000000 -1.000000 50.561684 30.892659 331.038453 1972.642553 10.252856 0.000000 0.213501
12.000000 45.866000 5.000000 6.000000 -2.000000 51.293671 23.855370 499.054680 1884.033577 21.816193 0.000000 0.154634
15.000000 46.748000 4.000000 7.000000 -2.000000 54.209152 34.924566 223.480460 1887.433052 21.402218 0.000000 0.223389
16.000000 79.422000 3.000000 2.000000 -1.000000 40.561626 7.089186 841.146739 2208.124346 12.600721 0.000000 0.210772
17.000000 64.145000 4.000000 2.000000 -1.000000 40.409908 -1.331717 1000.020641 2205.540071 15.601959 0.000000 0.209605
18.000000 52.651000 5.000000 2.000000 -1.000000 39.856916 -6.984737 1106.861296 2239.841518 19.007947 0.000000 0.224119
19.000000 84.826000 3.000000 3.000000 -1.000000 51.382918 17.813274 629.164646 1844.011609 11.796489 0.000000 0.117621
20.000000 71.055000 4.000000 3.000000 -1.000000 50.517547 8.323616 817.532557 1837.114543 14.083342 0.000000 0.082999
21.000000 59.398000 5.000000 3.000000 -1.000000 49.127838 1.472556 947.332121 1872.708124 16.847548 0.000000 0.086143
22.000000 50.196000 6.000000 3.000000 -1.000000 47.693531 -3.572905 1042.203714 1922.482310 19.936542 0.000000 0.106761
24.000000 88.522000 2.000000 4.000000 -1.000000 56.996213 38.291729 125.246244 1831.667931 11.301890 0.000000 0.239970
25.000000 81.021000 3.000000 4.000000 -1.000000 58.192129 26.165151 446.210441 1684.749920 12.348923 0.000000 0.132123
26.000000 71.039000 4.000000 4.000000 -1.000000 57.584631 16.524138 655.693835 1653.884290 14.084745 0.000000 0.080250
27.000000 61.346000 5.000000 4.000000 -1.000000 56.165355 9.070010 803.183357 1671.594072 16.310897 0.000000 0.045733
28.000000 52.948000 6.000000 4.000000 -1.000000 54.497722 3.315386 912.651279 1710.064980 18.898483 0.000000 0.029539
29.000000 45.986000 7.000000 4.000000 -1.000000 52.845976 -1.177451 997.121380 1756.763671 21.760143 0.000000 0.042268
31.000000 78.371000 2.000000 5.000000 -1.000000 60.874717 43.537743 -47.713464 1768.235165 12.764611 0.000000 0.282425
32.000000 74.280000 3.000000 5.000000 -1.000000 62.484568 32.599143 286.703771 1606.493345 13.468159 0.000000 0.158625
33.000000 67.606000 4.000000 5.000000 -1.000000 62.391140 23.312894 511.187298 1553.925877 14.798572 0.000000 0.108068
34.000000 60.255000 5.000000 5.000000 -1.000000 61.316443 15.708599 672.293026 1552.698770 16.604650 0.000000 0.077217
35.000000 53.277000 6.000000 5.000000 -1.000000 59.785839 9.569862 793.540731 1576.619920 18.780198 0.000000 0.050630
36.000000 47.090000 7.000000 5.000000 -1.000000 58.112394 4.616387 888.093594 1612.790556 21.248446 0.000000 0.025406
39.000000 67.238000 3.000000 6.000000 -1.000000 65.262005 37.591087 146.408512 1566.838867 14.877835 0.000000 0.186048
40.000000 62.905000 4.000000 6.000000 -1.000000 65.650135 28.878921 381.370165 1497.270099 15.903259 0.000000 0.128885
41.000000 57.563000 5.000000 6.000000 -1.000000 65.021171 21.413499 552.912340 1479.578322 17.379903 0.000000 0.102025
42.000000 52.054000 6.000000 6.000000 -1.000000 63.802549 15.146384 683.658556 1489.600574 19.220227 0.000000 0.082048
43.000000 46.845000 7.000000 6.000000 -1.000000 62.299341 9.927961 786.615290 1514.673513 21.357960 0.000000 0.062617
46.000000 60.786000 3.000000 7.000000 -1.000000 67.119456 41.521620 22.050996 1547.665478 16.456135 0.000000 0.217083
47.000000 58.006000 4.000000 7.000000 -1.000000 67.881114 33.444639 264.110955 1465.258497 17.245455 0.000000 0.146455
48.000000 54.194000 5.000000 7.000000 -1.000000 67.672017 26.277540 443.587108 1433.979076 18.459202 0.000000 0.117687
49.000000 49.959000 6.000000 7.000000 -1.000000 66.814998 20.060553 581.972264 1431.739725 20.024571 0.000000 0.101695
50.000000 45.715000 7.000000 7.000000 -1.000000 65.575467 14.735402 691.928577 1446.406978 21.884508 0.000000 0.087564
53.000000 55.138000 3.000000 8.000000 -1.000000 68.402925 44.669233 -88.938632 1540.107450 18.141010 0.000000 0.252157
54.000000 53.369000 4.000000 8.000000 -1.000000 69.431282 37.212719 157.671542 1448.137245 18.742755 0.000000 0.165354
55.000000 50.668000 5.000000 8.000000 -1.000000 69.572668 30.417568 343.098216 1405.835463 19.742754 0.000000 0.129330
56.000000 47.456000 6.000000 8.000000 -1.000000 69.061454 24.363496 487.597854 1393.086500 21.079781 0.000000 0.113675
59.000000 50.269000 3.000000 9.000000 -1.000000 69.316630 47.232268 -188.605912 1539.415332 19.897528 0.000000 0.290123
60.000000 49.160000 4.000000 9.000000 -1.000000 70.526055 40.349991 60.620417 1440.387495 20.346922 0.000000 0.187561
61.000000 47.250000 5.000000 9.000000 -1.000000 70.943083 33.949272 250.415964 1389.197342 21.170128 0.000000 0.140862
63.000000 46.083000 3.000000 10.000000 -1.000000 69.984475 49.351824 -278.599299 1542.875841 21.704520 0.000000 0.329587
65.000000 189.739000 2.000000 1.000000 0.000000 61.966021 -8.446368 1134.823425 1520.378886 5.273191 0.000000 0.054559
66.000000 117.856000 3.000000 1.000000 0.000000 53.912397 -16.336067 1290.466046 1758.494157 8.490244 0.000000 0.092897
67.000000 82.954000 4.000000 1.000000 0.000000 49.218509 -20.347509 1374.148232 1931.214180 12.062926 0.000000 0.152996
68.000000 63.177000 5.000000 1.000000 0.000000 46.209085 -22.753507 1426.405110 2059.875455 15.839381 0.000000 0.198650
69.000000 50.685000 6.000000 1.000000 0.000000 44.130261 -24.351920 1462.140120 2158.826405 19.743439 0.000000 0.232978
70.000000 180.922000 2.000000 2.000000 0.000000 76.097169 12.093647 744.387325 1213.459181 5.528769 0.000000 0.128113
71.000000 128.505000 3.000000 2.000000 0.000000 68.208021 -0.961685 993.066830 1371.372855 7.785183 0.000000 0.089551
72.000000 73.330000 5.000000 2.000000 0.000000 57.353409 -13.148121 1226.414602 1649.115766 13.645060 0.000000 0.061854
73.000000 48.840000 7.000000 2.000000 0.000000 51.281566 -18.626889 1337.775443 1851.538253 20.488397 0.000000 0.124710
74.000000 172.709000 1.000000 3.000000 0.000000 81.271646 46.873423 -174.084305 1182.717824 5.790323 0.000000 0.223772
75.000000 150.043000 2.000000 3.000000 0.000000 80.851194 26.456700 439.394677 1134.611567 6.665718 0.000000 0.122462
76.000000 95.743000 4.000000 3.000000 0.000000 70.699577 2.562707 926.827740 1318.299163 10.448739 0.000000 0.104567
77.000000 77.022000 5.000000 3.000000 0.000000 65.921306 -3.892044 1048.224238 1423.081282 12.989434 0.000000 0.075078
78.000000 53.017000 7.000000 3.000000 0.000000 58.739021 -11.792948 1199.711344 1608.482470 18.872758 0.000000 0.054730
80.000000 122.651000 2.000000 4.000000 0.000000 81.946742 35.946392 194.563990 1129.105129 8.153874 0.000000 0.119418
81.000000 106.968000 3.000000 4.000000 0.000000 79.872141 22.309910 533.362060 1148.813242 9.350209 0.000000 0.127824
82.000000 76.022000 5.000000 4.000000 0.000000 72.012956 4.597339 888.453737 1291.568066 13.158861 0.000000 0.111715
83.000000 54.880000 7.000000 4.000000 0.000000 64.856925 -5.175238 1072.481460 1448.227870 18.230437 0.000000 0.068565
85.000000 101.867000 2.000000 5.000000 0.000000 81.802064 42.356890 -6.307718 1150.830418 9.817262 0.000000 0.159196
86.000000 93.450000 3.000000 5.000000 0.000000 81.453086 30.062265 352.040719 1127.895175 10.702184 0.000000 0.117713
87.000000 82.874000 4.000000 5.000000 0.000000 79.193937 20.009208 583.065014 1159.629131 12.068919 0.000000 0.129819
88.000000 62.957000 6.000000 5.000000 0.000000 72.818169 5.918882 863.417306 1275.578436 15.889342 0.000000 0.115735
89.000000 54.919000 7.000000 5.000000 0.000000 69.679697 1.072085 954.858658 1339.636767 18.216110 0.000000 0.098606
90.000000 48.193000 8.000000 5.000000 0.000000 66.810651 -2.782334 1027.306937 1402.607658 20.759307 0.000000 0.080695
92.000000 67.565000 5.000000 6.000000 0.000000 78.713148 18.550678 613.818093 1167.580506 14.803742 0.000000 0.130570
93.000000 53.693000 7.000000 6.000000 0.000000 73.360560 6.845413 845.794386 1264.973646 18.630535 0.000000 0.118260
95.000000 74.594000 2.000000 7.000000 0.000000 80.653659 50.189392 -316.322279 1217.678455 13.406470 0.000000 0.294297
96.000000 72.084000 3.000000 7.000000 0.000000 81.918186 40.476577 56.518543 1141.915697 13.873603 0.000000 0.141798
97.000000 67.753000 4.000000 7.000000 0.000000 81.649509 31.686038 310.629366 1126.657393 14.761140 0.000000 0.116386
98.000000 62.497000 5.000000 7.000000 0.000000 80.317991 24.038586 494.934146 1142.064599 16.003324 0.000000 0.125788
99.000000 57.001000 6.000000 7.000000 0.000000 78.358242 17.544646 634.723456 1173.567572 17.547429 0.000000 0.130828
100.000000 46.792000 8.000000 7.000000 0.000000 73.750093 7.530680 832.716811 1257.438622 21.378055 0.000000 0.119974
101.000000 64.129000 3.000000 8.000000 0.000000 81.647034 44.030775 -65.483110 1160.802474 15.594435 0.000000 0.179229
102.000000 57.617000 5.000000 8.000000 0.000000 81.249465 28.680012 386.234012 1129.835347 17.358262 0.000000 0.119365
103.000000 49.281000 7.000000 8.000000 0.000000 78.086673 16.809229 649.858424 1178.207435 20.296514 0.000000 0.130875
105.000000 55.747000 4.000000 9.000000 0.000000 81.955799 39.448090 89.407986 1137.982642 17.939304 0.000000 0.134436
106.000000 53.118000 5.000000 9.000000 0.000000 81.740578 32.608243 286.462889 1126.470827 18.827916 0.000000 0.116083
107.000000 46.708000 7.000000 9.000000 0.000000 79.502360 21.014776 561.530846 1154.643341 21.413652 0.000000 0.129060
108.000000 52.116000 3.000000 10.000000 0.000000 80.860855 49.188156 -271.377928 1205.924676 19.188652 0.000000 0.270715
110.000000 47.536000 3.000000 11.000000 0.000000 80.448768 51.103705 -359.042608 1229.414871 21.037592 0.000000 0.317712
111.000000 46.778000 4.000000 11.000000 0.000000 81.559438 44.799821 -93.799754 1166.081809 21.378690 0.000000 0.189938
115.000000 152.338000 3.000000 1.000000 1.000000 79.381121 -28.316917 1554.934748 1170.219044 6.565423 0.000000 0.117418
116.000000 106.325000 4.000000 1.000000 1.000000 69.090002 -29.346190 1580.129623 1412.749554 9.408332 0.000000 0.124083
117.000000 79.724000 5.000000 1.000000 1.000000 62.452511 -29.943284 1594.979055 1588.899296 12.548806 0.000000 0.141111
118.000000 62.911000 6.000000 1.000000 1.000000 57.846156 -30.333088 1604.769675 1724.878173 15.903542 0.000000 0.163136
119.000000 51.528000 7.000000 1.000000 1.000000 54.472784 -30.607559 1611.710340 1833.886391 19.417675 0.000000 0.185515
120.000000 154.923000 3.000000 2.000000 1.000000 92.715412 -11.206688 1188.242560 888.960825 6.454543 0.000000 0.157803
121.000000 114.024000 4.000000 2.000000 1.000000 81.371255 -16.746785 1298.861938 1111.560456 8.771525 0.000000 0.135620
122.000000 87.559000 5.000000 2.000000 1.000000 73.347445 -20.007882 1366.906765 1283.610605 11.424319 0.000000 0.114116
123.000000 69.793000 6.000000 2.000000 1.000000 67.485919 -22.143468 1412.989257 1422.650760 14.333861 0.000000 0.103953
124.000000 57.352000 7.000000 2.000000 1.000000 63.056405 -23.646627 1446.264836 1538.209043 17.444098 0.000000 0.106798
125.000000 48.301000 8.000000 2.000000 1.000000 59.607784 -24.760646 1471.420956 1636.171936 20.714189 0.000000 0.118529
126.000000 177.943000 2.000000 3.000000 1.000000 109.254663 19.831127 586.849586 541.341843 5.617638 0.000000 0.106300
127.000000 141.325000 3.000000 3.000000 1.000000 98.866800 4.548208 889.382547 772.565296 7.074784 0.000000 0.164935
128.000000 111.419000 4.000000 3.000000 1.000000 89.266026 -4.416018 1058.119018 954.829418 8.975458 0.000000 0.163108
129.000000 89.119000 5.000000 3.000000 1.000000 81.455774 -10.049797 1165.744389 1105.222442 11.223013 0.000000 0.143873
130.000000 72.764000 6.000000 3.000000 1.000000 75.265345 -13.850404 1240.367410 1232.533026 13.746979 0.000000 0.122050
131.000000 60.648000 7.000000 3.000000 1.000000 70.340217 -16.565412 1295.149913 1342.167537 16.494766 0.000000 0.104302
132.000000 51.499000 8.000000 3.000000 1.000000 66.371263 -18.593452 1337.076122 1437.794666 19.426328 0.000000 0.094212
134.000000 143.666000 2.000000 4.000000 1.000000 105.997374 32.624483 286.032899 574.625092 6.958181 0.000000 0.044154
135.000000 123.370000 3.000000 4.000000 1.000000 100.425710 17.234236 641.126394 733.654255 8.104029 0.000000 0.139060
136.000000 103.356000 4.000000 4.000000 1.000000 93.501113 6.638726 849.731247 874.705520 9.674758 0.000000 0.164891
137.000000 86.291000 5.000000 4.000000 1.000000 86.888885 -0.638500 986.994648 999.503049 11.589661 0.000000 0.161149
138.000000 72.545000 6.000000 4.000000 1.000000 81.106160 -5.791772 1084.169841 1110.288811 13.787251 0.000000 0.146047
139.000000 61.670000 7.000000 4.000000 1.000000 76.199022 -9.576159 1156.580929 1209.118857 16.219866 0.000000 0.127683
140.000000 53.069000 8.000000 4.000000 1.000000 72.065298 -12.450045 1212.624358 1297.742641 18.849989 0.000000 0.110251
141.000000 46.213000 9.000000 4.000000 1.000000 68.575181 -14.696297 1257.286179 1377.617336 21.647684 0.000000 0.096352
143.000000 117.854000 2.000000 5.000000 1.000000 102.245780 40.769366 46.971466 632.549306 8.482497 0.000000 0.085167
144.000000 106.528000 3.000000 5.000000 1.000000 99.759503 26.787272 431.624696 733.620282 9.385154 0.000000 0.100022
145.000000 93.532000 4.000000 5.000000 1.000000 95.261981 15.940507 667.586681 837.911451 10.690440 0.000000 0.148736
146.000000 81.100000 5.000000 5.000000 1.000000 90.163874 7.823853 827.109519 937.892720 12.330567 0.000000 0.162049
147.000000 70.173000 6.000000 5.000000 1.000000 85.205148 1.747729 942.158943 1031.323587 14.252155 0.000000 0.158046
148.000000 60.941000 7.000000 5.000000 1.000000 80.684268 -2.875311 1029.057765 1117.775955 16.412600 0.000000 0.146045
149.000000 53.270000 8.000000 5.000000 1.000000 76.678042 -6.467597 1097.011693 1197.493140 18.777482 0.000000 0.130918
150.000000 46.923000 9.000000 5.000000 1.000000 73.168146 -9.318514 1151.607077 1270.959754 21.318691 0.000000 0.115460
151.000000 98.747000 2.000000 6.000000 1.000000 98.883084 46.205914 -147.581215 697.935042 10.124286 0.000000 0.171009
152.000000 92.296000 3.000000 6.000000 1.000000 98.223355 33.874340 252.459737 753.656440 10.832382 0.000000 0.070644
153.000000 83.879000 4.000000 6.000000 1.000000 95.564309 23.499657 507.021596 826.662410 11.920477 0.000000 0.123578
154.000000 75.010000 5.000000 6.000000 1.000000 91.891481 15.166531 683.252330 904.173153 13.331122 0.000000 0.151487
155.000000 66.591000 6.000000 6.000000 1.000000 87.894206 8.586462 812.485915 981.023505 15.017895 0.000000 0.158924
156.000000 59.030000 7.000000 6.000000 1.000000 83.963139 3.386528 911.310291 1055.022331 16.942875 0.000000 0.155065
157.000000 52.436000 8.000000 6.000000 1.000000 80.284993 -0.762735 989.328735 1125.280828 19.074778 0.000000 0.145281
158.000000 46.769000 9.000000 6.000000 1.000000 76.929694 -4.117809 1052.486007 1191.520314 21.387571 0.000000 0.132713
159.000000 84.400000 2.000000 7.000000 1.000000 96.047524 50.028995 -308.996609 763.500349 11.845717 0.000000 0.256050
160.000000 80.662000 3.000000 7.000000 1.000000 96.451300 39.190688 97.487056 783.975191 12.394913 0.000000 0.082910
161.000000 75.164000 4.000000 7.000000 1.000000 95.086872 29.566352 364.415532 830.848458 13.302452 0.000000 0.097974
162.000000 68.870000 5.000000 7.000000 1.000000 92.595095 21.403548 553.128001 888.604540 14.519179 0.000000 0.134314
163.000000 62.483000 6.000000 7.000000 1.000000 89.523326 14.651660 693.609828 950.255434 16.004535 0.000000 0.151775
164.000000 56.423000 7.000000 7.000000 1.000000 86.252524 9.118148 802.255922 1012.398657 17.724759 0.000000 0.156075
165.000000 50.895000 8.000000 7.000000 1.000000 83.013513 4.579727 888.786704 1073.317116 19.651519 0.000000 0.152457
166.000000 45.964000 9.000000 7.000000 1.000000 79.930417 0.834075 959.330892 1132.148010 21.760864 0.000000 0.144282
168.000000 71.209000 3.000000 8.000000 1.000000 94.709297 43.261488 -37.883404 819.248773 14.040745 0.000000 0.127469
169.000000 67.576000 4.000000 8.000000 1.000000 94.230958 34.440967 236.915023 844.453486 14.796040 0.000000 0.083009
170.000000 63.098000 5.000000 8.000000 1.000000 92.658625 26.649873 434.859670 885.081633 15.847054 0.000000 0.114982
171.000000 58.280000 6.000000 8.000000 1.000000 90.396222 19.954146 584.236102 933.081527 17.158153 0.000000 0.139545
172.000000 53.481000 7.000000 8.000000 1.000000 87.770051 14.284493 700.966234 984.247598 18.699206 0.000000 0.151121
173.000000 48.918000 8.000000 8.000000 1.000000 85.010652 9.509944 794.698076 1036.271237 20.444564 0.000000 0.153596
175.000000 63.487000 3.000000 9.000000 1.000000 93.096584 46.448799 -157.149595 856.492835 15.748717 0.000000 0.180784
176.000000 61.064000 4.000000 9.000000 1.000000 93.218944 38.390156 122.240705 863.772197 16.374023 0.000000 0.089599
177.000000 57.859000 5.000000 9.000000 1.000000 92.340630 31.054710 326.897587 889.646907 17.281968 0.000000 0.098362
178.000000 54.225000 6.000000 9.000000 1.000000 90.749624 24.554427 483.269167 925.517474 18.441058 0.000000 0.124913
179.000000 50.444000 7.000000 9.000000 1.000000 88.707186 18.893407 606.640464 966.672646 19.824307 0.000000 0.142135
180.000000 46.714000 8.000000 9.000000 1.000000 86.420435 14.009465 706.460844 1010.393368 21.408464 0.000000 0.150119
182.000000 57.121000 3.000000 10.000000 1.000000 91.640675 48.997456 -263.023929 894.012249 17.504275 0.000000 0.235161
183.000000 55.495000 4.000000 10.000000 1.000000 92.169128 41.625929 18.549846 886.462980 18.017369 0.000000 0.115303
184.000000 53.185000 5.000000 10.000000 1.000000 91.807036 34.764275 227.950827 899.665854 18.800647 0.000000 0.090243
185.000000 50.436000 6.000000 10.000000 1.000000 90.756644 28.534699 389.775638 924.820325 19.826107 0.000000 0.110578
186.000000 47.462000 7.000000 10.000000 1.000000 89.219612 22.979964 518.584302 956.924125 21.069490 0.000000 0.130870
188.000000 51.815000 3.000000 11.000000 1.000000 90.339617 51.074290 -357.642070 930.846226 19.297081 0.000000 0.288251
189.000000 50.724000 4.000000 11.000000 1.000000 91.141953 44.309592 -75.663423 911.018151 19.712368 0.000000 0.150371
190.000000 49.048000 5.000000 11.000000 1.000000 91.161338 37.906375 136.935416 913.347088 20.386106 0.000000 0.095024
191.000000 46.960000 6.000000 11.000000 1.000000 90.539062 31.980904 302.955374 929.061518 21.293261 0.000000 0.099563
194.000000 46.617000 4.000000 12.000000 1.000000 90.166360 46.562086 -161.641726 936.454905 21.448895 0.000000 0.188937
200.000000 76.047000 5.000000 0.000000 2.000000 63.118441 -46.376126 2104.277759 1731.814575 13.154104 0.000000 0.320973
201.000000 61.089000 6.000000 0.000000 2.000000 58.833187 -44.031492 2015.509175 1846.442768 16.376384 0.000000 0.311550
202.000000 50.603000 7.000000 0.000000 2.000000 55.581088 -42.344845 1955.893448 1938.797188 19.770898 0.000000 0.310736
203.000000 156.017000 3.000000 1.000000 2.000000 97.287189 -41.254832 1919.045323 757.926334 6.408147 0.000000 0.100615
204.000000 114.805000 4.000000 1.000000 2.000000 84.768230 -38.820479 1840.996374 1067.492698 8.710591 0.000000 0.121364
205.000000 88.252000 5.000000 1.000000 2.000000 76.103923 -37.413749 1798.298442 1276.248824 11.333194 0.000000 0.143091
206.000000 70.421000 6.000000 1.000000 2.000000 69.828751 -36.498382 1771.368845 1432.851044 14.204316 0.000000 0.159226
207.000000 57.918000 7.000000 1.000000 2.000000 65.103807 -35.855511 1752.834212 1557.303880 17.272206 0.000000 0.173297
208.000000 48.805000 8.000000 1.000000 2.000000 61.430622 -35.379332 1739.298365 1659.805725 20.498548 0.000000 0.186669
209.000000 157.507000 3.000000 2.000000 2.000000 111.042175 -23.733662 1448.214539 488.686241 6.346279 0.000000 0.078148
210.000000 120.375000 4.000000 2.000000 2.000000 97.016397 -26.122865 1502.803839 793.464544 8.305995 0.000000 0.107525
211.000000 94.445000 5.000000 2.000000 2.000000 86.900956 -27.461593 1534.366667 1006.671912 10.588429 0.000000 0.115707
212.000000 62.966000 7.000000 2.000000 2.000000 73.620934 -28.910382 1569.400843 1302.379614 15.885783 0.000000 0.119417
213.000000 45.691000 9.000000 2.000000 2.000000 65.443938 -29.679764 1588.403709 1507.027054 21.894855 0.000000 0.131562
214.000000 178.891000 2.000000 3.000000 2.000000 132.145748 9.275430 799.223935 -45.973372 5.585797 0.000000 0.034581
215.000000 145.576000 3.000000 3.000000 2.000000 117.438225 -5.434929 1077.401800 379.667215 6.865743 0.000000 0.115164
216.000000 117.132000 4.000000 3.000000 2.000000 104.868663 -12.762609 1218.789538 648.011844 8.534946 0.000000 0.142159
217.000000 95.026000 5.000000 3.000000 2.000000 94.896268 -17.015395 1304.372437 844.578935 10.522452 0.000000 0.144426
218.000000 78.290000 6.000000 3.000000 2.000000 87.048742 -19.764836 1361.743773 999.961625 12.773563 0.000000 0.136923
219.000000 65.604000 7.000000 3.000000 2.000000 80.811727 -21.680222 1402.879213 1128.348578 15.245434 0.000000 0.126912
220.000000 55.867000 8.000000 3.000000 2.000000 75.780284 -23.088202 1433.816485 1237.486308 17.904029 0.000000 0.118210
221.000000 48.273000 9.000000 3.000000 2.000000 71.657857 -24.165620 1457.929776 1332.102682 20.721967 0.000000 0.112806
222.000000 149.216000 2.000000 4.000000 2.000000 127.128663 27.601543 412.290050 21.512437 6.697077 0.000000 0.047097
223.000000 128.927000 3.000000 4.000000 2.000000 118.358670 10.382796 777.797069 350.381821 7.752220 0.000000 0.102592
224.000000 108.927000 4.000000 4.000000 2.000000 108.767536 -0.101144 976.899973 575.279337 9.177237 0.000000 0.149122
225.000000 91.625000 5.000000 4.000000 2.000000 100.097670 -6.738323 1102.165408 747.994739 10.912096 0.000000 0.161157
226.000000 66.099000 7.000000 4.000000 2.000000 86.536980 -14.384427 1251.033604 1008.239651 15.129820 0.000000 0.147789
227.000000 49.706000 9.000000 4.000000 2.000000 77.028263 -18.566205 1336.506453 1202.534155 20.123093 0.000000 0.123869
228.000000 124.660000 2.000000 5.000000 2.000000 120.994911 38.525773 118.086130 114.527338 8.016939 0.000000 0.118083
229.000000 112.489000 3.000000 5.000000 2.000000 116.428663 22.431737 530.685885 362.261225 8.885214 0.000000 0.063404
230.000000 98.932000 4.000000 5.000000 2.000000 109.849208 10.865505 768.410320 545.373075 10.104117 0.000000 0.134275
231.000000 86.021000 5.000000 5.000000 2.000000 102.966543 2.766208 922.996704 692.890674 11.622358 0.000000 0.161019
232.000000 74.629000 6.000000 5.000000 2.000000 96.545720 -3.008533 1031.566934 817.331240 13.398188 0.000000 0.166848
233.000000 64.947000 7.000000 5.000000 2.000000 90.831806 -7.254391 1112.005744 925.247435 15.397275 0.000000 0.162252
234.000000 56.852000 8.000000 5.000000 2.000000 85.843115 -10.474953 1173.992721 1020.549613 17.591129 0.000000 0.152609
235.000000 50.119000 9.000000 5.000000 2.000000 81.514059 -12.986933 1223.223584 1105.798608 19.955911 0.000000 0.140925
236.000000 105.423000 2.000000 6.000000 2.000000 115.429445 45.313977 -113.155429 213.291525 9.480495 0.000000 0.201628
237.000000 98.072000 3.000000 6.000000 2.000000 113.437733 31.191803 323.383454 395.553435 10.191772 0.000000 0.015160
238.000000 79.554000 5.000000 6.000000 2.000000 104.133493 11.135787 763.141248 664.784072 12.566779 0.000000 0.148402
239.000000 62.681000 7.000000 6.000000 2.000000 93.856136 -0.491787 984.238382 868.450718 15.952918 0.000000 0.167774
240.000000 49.704000 9.000000 6.000000 2.000000 85.137905 -7.530989 1117.289094 1033.350331 20.121555 0.000000 0.154437
242.000000 85.983000 3.000000 7.000000 2.000000 110.263842 37.571737 146.987280 439.654914 11.625143 0.000000 0.051234
243.000000 79.856000 4.000000 7.000000 2.000000 107.805575 26.969719 427.316982 553.143346 12.518026 0.000000 0.072474
244.000000 73.039000 5.000000 7.000000 2.000000 104.181272 18.271863 619.635971 654.589002 13.687420 0.000000 0.127714
245.000000 66.209000 6.000000 7.000000 2.000000 100.048658 11.308569 759.767782 746.501562 15.100872 0.000000 0.154806
246.000000 59.764000 7.000000 7.000000 2.000000 95.832005 5.760864 866.416706 830.508524 16.730813 0.000000 0.165609
247.000000 53.897000 8.000000 7.000000 2.000000 91.767707 1.314519 950.302579 907.774554 18.553681 0.000000 0.166851
248.000000 48.667000 9.000000 7.000000 2.000000 87.969562 -2.288413 1018.010436 979.187961 20.549208 0.000000 0.162444
249.000000 75.993000 3.000000 8.000000 2.000000 107.262415 42.316954 -4.934777 488.687949 13.153982 0.000000 0.111232
250.000000 66.898000 5.000000 8.000000 2.000000 103.553662 24.253112 490.094448 656.421230 14.944004 0.000000 0.102797
251.000000 56.542000 7.000000 8.000000 2.000000 96.991061 11.428545 757.422931 806.348321 17.683714 0.000000 0.157552
252.000000 47.200000 9.000000 8.000000 2.000000 90.106626 2.671519 924.779441 938.994862 21.186815 0.000000 0.165219
254.000000 67.743000 3.000000 9.000000 2.000000 104.549009 45.938548 -137.145790 539.333037 14.756489 0.000000 0.171259
255.000000 64.893000 4.000000 9.000000 2.000000 104.099067 37.132814 160.035625 601.919700 15.404847 0.000000 0.049791
256.000000 61.304000 5.000000 9.000000 2.000000 102.552481 29.236752 372.573125 666.371595 16.307655 0.000000 0.077927
257.000000 57.330000 6.000000 9.000000 2.000000 100.264107 22.366413 532.121444 730.245390 17.439136 0.000000 0.120017
258.000000 53.249000 7.000000 9.000000 2.000000 97.542035 16.494440 656.300725 792.383820 18.776878 0.000000 0.145290
259.000000 49.254000 8.000000 9.000000 2.000000 94.619637 11.516714 755.698472 852.245194 20.301308 0.000000 0.158464
260.000000 45.464000 9.000000 9.000000 2.000000 91.657390 7.303335 837.059844 909.602726 21.995251 0.000000 0.163581
261.000000 60.893000 3.000000 10.000000 2.000000 102.139841 48.772433 -253.248160 589.706563 16.417032 0.000000 0.229621
262.000000 56.300000 5.000000 10.000000 2.000000 101.369164 33.394120 265.473146 681.789161 17.757138 0.000000 0.060360
263.000000 50.032000 7.000000 10.000000 2.000000 97.656761 20.982472 562.227077 786.030272 19.984190 0.000000 0.130348
265.000000 55.159000 3.000000 11.000000 2.000000 100.013722 51.040110 -356.016861 638.753332 18.124108 0.000000 0.285586
266.000000 53.797000 4.000000 11.000000 2.000000 100.499328 43.742389 -55.053665 664.905186 18.583051 0.000000 0.127517
267.000000 51.864000 5.000000 11.000000 2.000000 100.119551 36.880530 167.467173 700.846381 19.276484 0.000000 0.061107
268.000000 49.535000 6.000000 11.000000 2.000000 99.048527 30.592266 338.677426 741.882089 20.183508 0.000000 0.082072
269.000000 46.972000 7.000000 11.000000 2.000000 97.468541 24.939886 474.489843 785.394192 21.285637 0.000000 0.114207
271.000000 47.942000 5.000000 12.000000 2.000000 98.871045 39.825798 77.444103 722.266899 20.853453 0.000000 0.080867
273.000000 45.540000 4.000000 13.000000 2.000000 97.400963 48.273417 -231.878402 730.949644 21.953480 0.000000 0.214062
278.000000 112.979000 4.000000 1.000000 3.000000 96.049493 -48.277636 2182.057302 769.610911 8.849281 0.000000 0.218721
279.000000 90.223000 5.000000 1.000000 3.000000 86.865578 -44.921253 2048.339817 1024.237376 11.083193 0.000000 0.175540
280.000000 73.685000 6.000000 1.000000 3.000000 79.814521 -42.710305 1968.534250 1204.168560 13.572378 0.000000 0.173677
281.000000 61.467000 7.000000 1.000000 3.000000 74.294351 -41.148183 1915.506418 1342.916391 16.272046 0.000000 0.180693
282.000000 52.241000 8.000000 1.000000 3.000000 69.884025 -39.987410 1877.715176 1455.507265 19.147303 0.000000 0.189067
283.000000 146.793000 3.000000 2.000000 3.000000 122.738604 -37.860213 1811.672556 64.516183 6.807972 0.000000 0.121474
284.000000 117.679000 4.000000 2.000000 3.000000 108.471226 -36.217227 1763.225388 495.375538 8.494307 0.000000 0.038332
285.000000 95.359000 5.000000 2.000000 3.000000 97.654825 -35.311508 1737.383418 763.729342 10.484585 0.000000 0.069011
286.000000 78.560000 6.000000 2.000000 3.000000 89.316343 -34.738008 1721.318270 956.628554 12.728491 0.000000 0.096349
287.000000 65.854000 7.000000 2.000000 3.000000 82.758038 -34.342340 1710.364223 1106.643131 15.186236 0.000000 0.113110
288.000000 56.108000 8.000000 2.000000 3.000000 77.497517 -34.052919 1702.416898 1229.052689 17.825939 0.000000 0.124524
289.000000 48.504000 9.000000 2.000000 3.000000 73.201407 -33.832025 1696.387739 1332.156811 20.621758 0.000000 0.133655
291.000000 138.961000 3.000000 3.000000 3.000000 130.842815 -18.299061 1330.930738 -38.994428 7.190955 0.000000 0.029415
292.000000 115.308000 4.000000 3.000000 3.000000 116.899908 -22.460335 1419.943000 350.147349 8.667881 0.000000 0.059979
293.000000 95.768000 5.000000 3.000000 3.000000 105.826396 -24.713893 1470.356292 605.141440 10.438468 0.000000 0.091639
294.000000 68.053000 7.000000 3.000000 3.000000 89.931141 -27.086046 1525.436875 942.452862 14.693998 0.000000 0.114218
295.000000 58.435000 8.000000 3.000000 3.000000 84.155231 -27.785742 1542.123362 1065.534974 17.114434 0.000000 0.116541
297.000000 126.194000 3.000000 4.000000 3.000000 132.801015 0.968443 956.806185 -55.837241 7.918290 0.000000 0.036757
298.000000 108.505000 4.000000 4.000000 3.000000 121.285301 -8.375322 1133.459653 279.930753 9.210790 0.000000 0.092552
299.000000 92.673000 5.000000 4.000000 3.000000 111.215879 -13.759851 1238.563670 510.844819 10.786278 0.000000 0.121398
300.000000 79.304000 6.000000 4.000000 3.000000 102.734244 -17.204767 1308.266855 686.377163 12.606467 0.000000 0.133440
301.000000 68.299000 7.000000 4.000000 3.000000 95.649439 -19.582308 1357.876703 827.994598 14.639680 0.000000 0.135926
302.000000 59.313000 8.000000 4.000000 3.000000 89.717065 -21.316519 1394.987127 946.705259 16.859481 0.000000 0.133366
303.000000 51.970000 9.000000 4.000000 3.000000 84.716133 -22.635176 1423.793529 1048.846080 19.243633 0.000000 0.128575
304.000000 45.935000 10.000000 4.000000 3.000000 80.465175 -23.670648 1446.802673 1138.389128 21.773300 0.000000 0.123344
306.000000 112.387000 3.000000 5.000000 3.000000 130.822293 16.442020 657.371462 -28.405591 8.891268 0.000000 0.030904
307.000000 99.721000 4.000000 5.000000 3.000000 122.446592 4.475566 890.755622 254.641623 10.021933 0.000000 0.092716
308.000000 87.489000 5.000000 5.000000 3.000000 114.124152 -3.215344 1035.463335 458.245764 11.424829 0.000000 0.130694
309.000000 76.509000 6.000000 5.000000 3.000000 106.558053 -8.401705 1133.966036 617.529063 13.066208 0.000000 0.147501
310.000000 67.022000 7.000000 5.000000 3.000000 99.911601 -12.080120 1205.346917 748.673100 14.917678 0.000000 0.152355
311.000000 58.974000 8.000000 5.000000 3.000000 94.145548 -14.804123 1259.452080 860.311759 16.955184 0.000000 0.150476
312.000000 52.198000 9.000000 5.000000 3.000000 89.156630 -16.893808 1301.876160 957.558313 19.158205 0.000000 0.144972
313.000000 46.496000 10.000000 5.000000 3.000000 84.831387 -18.543574 1336.033439 1043.687310 21.509135 0.000000 0.137792
315.000000 90.575000 4.000000 6.000000 3.000000 121.529192 15.203438 682.507968 256.743003 11.034024 0.000000 0.072883
316.000000 81.368000 5.000000 6.000000 3.000000 115.122347 6.307241 856.038316 433.241499 12.284081 0.000000 0.123935
317.000000 64.694000 7.000000 6.000000 3.000000 102.847943 -4.828174 1065.911957 694.650515 15.453816 0.000000 0.159489
318.000000 57.709000 8.000000 6.000000 3.000000 97.493579 -8.413799 1134.198191 797.885551 17.326046 0.000000 0.161189
319.000000 46.405000 10.000000 6.000000 3.000000 88.473998 -13.433762 1232.079774 970.479107 21.550158 0.000000 0.151535
321.000000 88.145000 3.000000 7.000000 3.000000 123.014611 35.475036 207.994071 82.243794 11.337686 0.000000 0.091802
322.000000 81.917000 4.000000 7.000000 3.000000 119.506569 23.730095 501.865431 275.644138 12.200544 0.000000 0.041006
323.000000 75.069000 5.000000 7.000000 3.000000 114.822870 14.513696 696.376875 426.749919 13.314817 0.000000 0.106156
324.000000 68.216000 6.000000 7.000000 3.000000 109.725975 7.430410 834.632850 551.812144 14.653806 0.000000 0.141069
325.000000 61.733000 7.000000 7.000000 3.000000 104.667761 1.971291 937.954924 659.119851 16.194465 0.000000 0.158331
326.000000 55.804000 8.000000 7.000000 3.000000 99.878181 -2.293087 1018.098375 753.428707 17.916793 0.000000 0.165007
327.000000 50.492000 9.000000 7.000000 3.000000 95.454699 -5.681432 1082.076197 837.716083 19.803351 0.000000 0.165172
328.000000 45.789000 10.000000 7.000000 3.000000 91.422807 -8.420739 1134.331413 913.975905 21.838862 0.000000 0.161332
330.000000 78.467000 3.000000 8.000000 3.000000 119.047991 41.130339 35.084577 147.363974 12.736794 0.000000 0.145493
331.000000 74.099000 4.000000 8.000000 3.000000 117.016416 30.394521 343.680241 304.770049 13.488305 0.000000 0.002681
332.000000 69.022000 5.000000 8.000000 3.000000 113.733714 21.391732 553.384046 432.771660 14.481443 0.000000 0.081264
333.000000 63.701000 6.000000 8.000000 3.000000 109.789178 14.074276 705.167209 541.755031 15.692264 0.000000 0.126038
334.000000 58.463000 7.000000 8.000000 3.000000 105.606385 8.188997 820.114595 637.266967 17.099889 0.000000 0.150637
335.000000 53.505000 8.000000 8.000000 3.000000 101.450156 3.446247 910.184485 722.605416 18.686025 0.000000 0.162883
336.000000 48.930000 9.000000 8.000000 3.000000 97.468747 -0.408004 982.664442 799.896810 20.434580 0.000000 0.167296
337.000000 67.202000 4.000000 9.000000 3.000000 114.417211 35.615459 204.009655 339.951430 14.872994 0.000000 0.040826
338.000000 63.433000 5.000000 9.000000 3.000000 112.216563 27.085375 424.579027 447.260582 15.757577 0.000000 0.052649
339.000000 55.110000 7.000000 9.000000 3.000000 105.886308 13.769871 711.236806 625.623509 18.140020 0.000000 0.138064
340.000000 51.003000 8.000000 9.000000 3.000000 102.367771 8.735554 809.620245 702.226152 19.602123 0.000000 0.155999
341.000000 63.368000 3.000000 10.000000 3.000000 112.201823 48.502910 -241.653904 278.036766 15.773073 0.000000 0.257546
342.000000 61.184000 4.000000 10.000000 3.000000 111.890340 39.752286 79.782854 378.503163 16.336389 0.000000 0.085438
343.000000 58.375000 5.000000 10.000000 3.000000 110.505190 31.789203 307.950042 467.441342 17.123252 0.000000 0.027007
344.000000 55.185000 6.000000 10.000000 3.000000 108.347269 24.772915 478.299516 547.888553 18.114127 0.000000 0.083919
345.000000 51.820000 7.000000 10.000000 3.000000 105.696421 18.717095 610.336525 621.650947 19.291688 0.000000 0.122068
346.000000 48.437000 8.000000 10.000000 3.000000 102.778609 13.546552 715.679544 689.909098 20.640519 0.000000 0.145468
348.000000 55.952000 4.000000 11.000000 3.000000 109.517805 43.078681 -31.427464 418.678480 17.864568 0.000000 0.130559
349.000000 53.849000 5.000000 11.000000 3.000000 108.741033 35.691419 201.848499 491.384249 18.563077 0.000000 0.032358
350.000000 51.371000 6.000000 11.000000 3.000000 107.225821 29.001829 378.355426 559.455616 19.459090 0.000000 0.061447
351.000000 48.678000 7.000000 11.000000 3.000000 105.185880 23.070881 516.567965 623.466006 20.536745 0.000000 0.103991
352.000000 45.898000 8.000000 11.000000 3.000000 102.809939 17.882526 627.728866 683.852300 21.781835 0.000000 0.132290
353.000000 51.402000 4.000000 12.000000 3.000000 107.329311 45.794503 -131.565254 459.336015 19.446710 0.000000 0.175330
354.000000 49.819000 5.000000 12.000000 3.000000 107.005089 38.952497 104.910569 517.733327 20.064997 0.000000 0.063290
355.000000 45.730000 7.000000 12.000000 3.000000 104.466687 26.890004 429.200822 629.655198 21.860782 0.000000 0.085290
357.000000 47.433000 4.000000 13.000000 3.000000 105.328318 48.044291 -222.205734 499.731559 21.074275 0.000000 0.219207
358.000000 46.238000 5.000000 13.000000 3.000000 105.340876 41.701737 15.998254 545.528340 21.619435 0.000000 0.098395
364.000000 88.004000 5.000000 1.000000 4.000000 94.960020 -52.214961 2363.298589 788.549019 11.360637 0.000000 0.321296
365.000000 73.799000 6.000000 1.000000 4.000000 87.838257 -48.825083 2205.527575 1002.709953 13.549203 0.000000 0.244272
366.000000 62.698000 7.000000 1.000000 4.000000 82.011035 -46.396200 2105.070245 1160.021336 15.950017 0.000000 0.216905
367.000000 53.966000 8.000000 1.000000 4.000000 77.205233 -44.576410 2035.496602 1284.141238 18.532447 0.000000 0.209332
368.000000 47.021000 9.000000 1.000000 4.000000 73.199518 -43.164751 1984.462268 1386.526320 21.271486 0.000000 0.209342
369.000000 110.364000 4.000000 2.000000 4.000000 116.175579 -46.454110 2107.359761 173.101029 9.055944 0.000000 0.232524
370.000000 92.433000 5.000000 2.000000 4.000000 105.729691 -43.282468 1988.626819 524.596387 10.814568 0.000000 0.127168
371.000000 66.538000 7.000000 2.000000 4.000000 90.418163 -39.850051 1873.328618 930.768106 15.027690 0.000000 0.108100
372.000000 50.071000 9.000000 2.000000 4.000000 80.065128 -38.033968 1816.921304 1180.344324 19.973828 0.000000 0.133209
374.000000 109.190000 4.000000 3.000000 4.000000 125.403396 -33.191718 1679.085061 26.876158 9.152150 0.000000 0.083293
375.000000 93.036000 5.000000 3.000000 4.000000 114.217631 -32.952269 1672.679617 364.084110 10.743179 0.000000 0.013906
376.000000 79.525000 6.000000 3.000000 4.000000 105.103523 -32.805039 1668.758303 595.406977 12.570424 0.000000 0.046392
377.000000 68.460000 7.000000 3.000000 4.000000 97.622912 -32.705356 1666.110744 769.813773 14.604161 0.000000 0.075386
378.000000 59.450000 8.000000 3.000000 4.000000 91.422244 -32.633391 1664.203027 909.268661 16.819448 0.000000 0.093660
379.000000 52.097000 9.000000 3.000000 4.000000 86.227428 -32.578994 1662.763054 1025.222279 19.195208 0.000000 0.105506
380.000000 46.059000 10.000000 3.000000 4.000000 81.829059 -32.536432 1661.637586 1124.309740 21.713503 0.000000 0.113733
382.000000 90.646000 5.000000 4.000000 4.000000 120.094229 -21.669866 1402.653949 269.803296 11.025595 0.000000 0.049362
383.000000 68.651000 7.000000 4.000000 4.000000 103.434791 -25.123847 1479.719458 657.034424 14.562236 0.000000 0.096823
384.000000 53.125000 9.000000 4.000000 4.000000 91.565520 -26.875032 1520.445638 908.022871 18.822430 0.000000 0.113106
386.000000 97.199000 4.000000 5.000000 4.000000 132.781555 -3.579967 1042.336905 -56.963412 10.280405 0.000000 0.035753
387.000000 86.312000 5.000000 5.000000 4.000000 123.434602 -10.228897 1169.216363 218.904849 11.578771 0.000000 0.077556
388.000000 76.302000 6.000000 5.000000 4.000000 115.089722 -14.453131 1252.409510 420.592559 13.099533 0.000000 0.104509
389.000000 67.459000 7.000000 5.000000 4.000000 107.804623 -17.345452 1311.165204 578.876185 14.818770 0.000000 0.120086
390.000000 59.810000 8.000000 5.000000 4.000000 101.489857 -19.440199 1354.872043 708.997250 16.715870 0.000000 0.127828
391.000000 53.261000 9.000000 5.000000 4.000000 96.017869 -21.023409 1388.655275 819.446175 18.772983 0.000000 0.130469
392.000000 47.675000 10.000000 5.000000 4.000000 91.262064 -22.260325 1415.550057 915.378963 20.974568 0.000000 0.129966
394.000000 80.961000 5.000000 6.000000 4.000000 124.657454 0.510916 965.402259 196.890732 12.343768 0.000000 0.083228
395.000000 65.278000 7.000000 6.000000 4.000000 110.814188 -9.649828 1158.004483 525.976824 15.313133 0.000000 0.133212
396.000000 52.663000 9.000000 6.000000 4.000000 99.582244 -15.142623 1266.265614 752.765749 18.985303 0.000000 0.145187
398.000000 81.775000 4.000000 7.000000 4.000000 129.992788 19.605813 591.625809 -17.455244 12.219780 0.000000 0.031007
399.000000 75.267000 5.000000 7.000000 4.000000 124.344566 9.964428 785.909202 194.310915 13.277592 0.000000 0.073831
400.000000 68.719000 6.000000 7.000000 4.000000 118.408629 2.922951 920.045041 358.081974 14.544230 0.000000 0.113420
401.000000 62.473000 7.000000 7.000000 4.000000 112.640369 -2.299584 1018.220619 491.730153 16.000080 0.000000 0.136581
402.000000 56.710000 8.000000 7.000000 4.000000 107.248182 -6.266520 1093.187460 604.830552 17.627912 0.000000 0.148974
403.000000 51.501000 9.000000 7.000000 4.000000 102.307053 -9.354713 1152.305453 703.026284 19.412523 0.000000 0.154334
404.000000 46.853000 10.000000 7.000000 4.000000 97.824684 -11.813795 1200.120059 789.892884 21.340453 0.000000 0.155074
406.000000 69.652000 5.000000 8.000000 4.000000 123.052594 17.935542 626.628976 204.867447 14.348151 0.000000 0.054448
407.000000 59.338000 7.000000 8.000000 4.000000 113.507682 4.508430 890.134462 471.389249 16.845156 0.000000 0.132113
408.000000 49.941000 9.000000 8.000000 4.000000 104.277154 -3.770612 1045.932921 666.518867 20.018334 0.000000 0.157893
410.000000 68.115000 4.000000 9.000000 4.000000 124.042940 33.751109 255.813034 66.460209 14.671475 0.000000 0.079350
411.000000 64.349000 5.000000 9.000000 4.000000 121.212279 24.507719 484.329307 224.285603 15.531001 0.000000 0.028911
412.000000 60.258000 6.000000 9.000000 4.000000 117.612721 16.871498 648.581535 352.701122 16.586508 0.000000 0.085259
413.000000 56.086000 7.000000 9.000000 4.000000 113.645038 10.663783 772.336614 461.489554 17.821662 0.000000 0.121652
414.000000 52.005000 8.000000 9.000000 4.000000 109.583437 5.628495 868.927975 556.244399 19.221895 0.000000 0.143834
415.000000 48.123000 9.000000 9.000000 4.000000 105.597946 1.521364 946.414640 640.428875 20.774170 0.000000 0.156587
417.000000 59.465000 5.000000 10.000000 4.000000 119.115290 29.886841 356.432215 249.620293 16.807195 0.000000 0.010149
418.000000 52.862000 7.000000 10.000000 4.000000 113.256832 16.134799 663.635350 459.468174 18.908591 0.000000 0.106743
419.000000 46.160000 9.000000 10.000000 4.000000 106.381018 6.461264 853.108794 622.594329 21.657250 0.000000 0.151262
421.000000 57.217000 4.000000 11.000000 4.000000 118.107375 42.291782 -4.070301 163.868458 17.467402 0.000000 0.159437
422.000000 55.031000 5.000000 11.000000 4.000000 116.942531 34.298016 240.856432 278.818172 18.161824 0.000000 0.037985
423.000000 52.494000 6.000000 11.000000 4.000000 114.994175 27.165241 422.685029 377.040570 19.040349 0.000000 0.038752
424.000000 49.756000 7.000000 11.000000 4.000000 112.509876 20.945843 563.016157 463.407010 20.089185 0.000000 0.088689
425.000000 46.940000 8.000000 11.000000 4.000000 109.701564 15.594688 674.600799 540.867848 21.295884 0.000000 0.121465
427.000000 51.039000 5.000000 12.000000 4.000000 114.798993 37.940565 135.903274 310.434530 19.582992 0.000000 0.072318
428.000000 46.818000 7.000000 12.000000 4.000000 111.531973 25.153103 469.609975 471.855993 21.349915 0.000000 0.068723
430.000000 48.742000 4.000000 13.000000 4.000000 112.972553 47.780141 -211.160740 262.031468 20.505756 0.000000 0.243673
431.000000 47.458000 5.000000 13.000000 4.000000 112.741570 40.976312 40.172589 343.446409 21.061093 0.000000 0.107765
432.000000 45.872000 6.000000 13.000000 4.000000 111.843359 34.626810 231.770785 416.698729 21.789682 0.000000 0.023242
435.000000 62.250000 7.000000 1.000000 5.000000 88.346438 -51.514589 2328.794776 990.927416 16.062614 0.000000 0.309333
436.000000 54.345000 8.000000 1.000000 5.000000 83.426145 -49.088675 2217.011966 1130.396349 18.400819 0.000000 0.263967
437.000000 47.854000 9.000000 1.000000 5.000000 79.219105 -47.191309 2136.938510 1242.584012 20.898374 0.000000 0.242848
439.000000 75.583000 6.000000 2.000000 5.000000 103.472747 -47.701488 2157.893681 557.855007 13.225931 0.000000 0.210435
440.000000 65.637000 7.000000 2.000000 5.000000 96.676383 -45.333065 2063.880751 761.784401 15.231941 0.000000 0.159817
441.000000 57.409000 8.000000 2.000000 5.000000 90.925294 -43.583667 1999.356309 917.002470 17.416942 0.000000 0.144249
442.000000 50.605000 9.000000 2.000000 5.000000 86.032637 -42.240962 1952.327066 1041.828505 19.760676 0.000000 0.144277
444.000000 88.374000 5.000000 3.000000 5.000000 120.305174 -41.425816 1924.743270 102.036197 11.308682 0.000000 0.159852
445.000000 77.047000 6.000000 3.000000 5.000000 111.419318 -39.645701 1866.835030 392.673646 12.973173 0.000000 0.084446
446.000000 67.384000 7.000000 3.000000 5.000000 103.928510 -38.438491 1829.238240 600.220579 14.835483 0.000000 0.061477
447.000000 59.250000 8.000000 3.000000 5.000000 97.587589 -37.566662 1802.860975 760.123158 16.874055 0.000000 0.072406
448.000000 52.432000 9.000000 3.000000 5.000000 92.185489 -36.907779 1783.333142 889.631920 19.070353 0.000000 0.088978
449.000000 46.710000 10.000000 3.000000 5.000000 87.549297 -36.392441 1768.293419 998.224662 21.408355 0.000000 0.103005
451.000000 86.753000 5.000000 4.000000 5.000000 126.797097 -30.295500 1603.822215 8.577990 11.519062 0.000000 0.065199
452.000000 76.566000 6.000000 4.000000 5.000000 117.666705 -30.677899 1613.495372 284.910123 13.053501 0.000000 0.006439
453.000000 67.627000 7.000000 4.000000 5.000000 109.893702 -30.931745 1619.959021 486.945155 14.780834 0.000000 0.034783
454.000000 59.929000 8.000000 4.000000 5.000000 103.254349 -31.112527 1624.583222 644.885234 16.681482 0.000000 0.062777
455.000000 53.356000 9.000000 4.000000 5.000000 97.553780 -31.247820 1628.055377 774.057155 18.738429 0.000000 0.081666
456.000000 47.758000 10.000000 4.000000 5.000000 92.629137 -31.352873 1630.758320 883.126554 20.936815 0.000000 0.094473
458.000000 92.685000 4.000000 5.000000 5.000000 140.747264 -13.583536 1235.055642 -414.094006 10.779840 0.000000 0.050260
459.000000 74.590000 6.000000 5.000000 5.000000 122.101192 -21.131564 1390.988748 217.134372 13.398486 0.000000 0.042845
460.000000 66.634000 7.000000 5.000000 5.000000 114.474684 -23.012707 1432.141554 408.718739 15.000070 0.000000 0.067810
461.000000 59.602000 8.000000 5.000000 5.000000 107.840739 -24.350226 1462.101793 560.771018 16.771816 0.000000 0.086774
462.000000 53.468000 9.000000 5.000000 5.000000 102.063662 -25.349020 1484.889015 686.469305 18.698055 0.000000 0.099502
464.000000 86.463000 4.000000 6.000000 5.000000 140.969165 1.606687 944.810668 -387.173349 11.555614 0.000000 0.007165
465.000000 78.957000 5.000000 6.000000 5.000000 132.634823 -6.416375 1096.037232 -56.157448 12.655545 0.000000 0.034381
466.000000 71.602000 6.000000 6.000000 5.000000 124.801115 -11.501770 1194.009180 177.594641 13.957243 0.000000 0.067136
467.000000 64.724000 7.000000 6.000000 5.000000 117.693637 -14.962906 1262.645482 356.258612 15.442146 0.000000 0.091438
468.000000 58.476000 8.000000 6.000000 5.000000 111.340501 -17.454087 1313.406301 500.198123 17.093898 0.000000 0.107935
469.000000 52.899000 9.000000 6.000000 5.000000 105.694916 -19.326424 1352.470241 620.510267 18.898035 0.000000 0.118281
470.000000 47.970000 10.000000 6.000000 5.000000 100.684714 -20.782169 1383.462601 723.797434 20.841718 0.000000 0.124100
472.000000 79.997000 4.000000 7.000000 5.000000 139.148939 14.243641 701.783225 -343.131195 12.489814 0.000000 0.048828
473.000000 74.058000 5.000000 7.000000 5.000000 132.638187 4.424437 891.721897 -52.990177 13.492790 0.000000 0.036444
474.000000 68.024000 6.000000 7.000000 5.000000 126.006678 -2.309230 1018.402102 158.199045 14.691147 0.000000 0.075199
475.000000 62.201000 7.000000 7.000000 5.000000 119.677009 -7.092404 1108.914632 322.935609 16.067960 0.000000 0.102645
476.000000 56.766000 8.000000 7.000000 5.000000 113.818229 -10.620090 1176.813621 457.608447 17.608205 0.000000 0.120512
477.000000 51.799000 9.000000 7.000000 5.000000 108.477180 -13.310457 1229.632595 571.425640 19.298496 0.000000 0.131417
478.000000 47.321000 10.000000 7.000000 5.000000 103.643670 -15.421392 1271.893225 669.991159 21.126872 0.000000 0.137338
480.000000 73.720000 4.000000 8.000000 5.000000 136.238436 24.021545 495.317894 -289.421258 13.553836 0.000000 0.086478
481.000000 69.069000 5.000000 8.000000 5.000000 131.413930 13.712514 712.378682 -36.198939 14.467445 0.000000 0.032091
482.000000 64.182000 6.000000 8.000000 5.000000 126.047344 6.053111 860.868100 153.274916 15.570348 0.000000 0.071660
483.000000 59.324000 7.000000 8.000000 5.000000 120.620942 0.327536 968.847211 303.939836 16.847054 0.000000 0.103979
484.000000 54.668000 8.000000 8.000000 5.000000 115.391349 -4.034013 1050.903907 428.868206 18.283717 0.000000 0.125157
485.000000 50.313000 9.000000 8.000000 5.000000 110.480087 -7.430692 1115.372524 535.611909 19.867923 0.000000 0.138302
486.000000 46.307000 10.000000 8.000000 5.000000 105.933279 -10.133186 1167.360460 628.864662 21.588511 0.000000 0.145758
488.000000 67.856000 4.000000 9.000000 5.000000 132.894086 31.411095 317.741055 -230.653285 14.725570 0.000000 0.124162
489.000000 64.235000 5.000000 9.000000 5.000000 129.457012 21.377472 553.692990 -10.325016 15.556745 0.000000 0.032291
490.000000 60.306000 6.000000 9.000000 5.000000 125.260546 13.391782 718.753663 158.784175 16.571414 0.000000 0.059908
491.000000 56.289000 7.000000 9.000000 5.000000 120.748964 7.112650 840.699139 295.732972 17.755347 0.000000 0.097783
492.000000 52.342000 8.000000 9.000000 5.000000 116.206791 2.156512 934.471044 410.863624 19.095747 0.000000 0.123293
493.000000 48.569000 9.000000 9.000000 5.000000 111.799785 -1.799893 1008.821898 510.305180 20.581076 0.000000 0.139641
495.000000 62.502000 4.000000 10.000000 5.000000 129.487364 37.019282 163.386057 -169.713132 15.987659 0.000000 0.163016
496.000000 56.539000 6.000000 10.000000 5.000000 123.936045 19.687276 589.900499 171.814568 17.675697 0.000000 0.042606
497.000000 53.236000 7.000000 10.000000 5.000000 120.275886 13.177110 723.011055 295.680691 18.773553 0.000000 0.085902
498.000000 49.914000 8.000000 10.000000 5.000000 116.418505 7.856538 826.483896 401.222880 20.024405 0.000000 0.116265
499.000000 46.671000 9.000000 10.000000 5.000000 112.544863 3.497089 909.225914 493.363112 21.417507 0.000000 0.136350
502.000000 55.485000 5.000000 11.000000 5.000000 124.662891 32.644895 285.492229 57.147089 18.010871 0.000000 0.072188
503.000000 52.967000 6.000000 11.000000 5.000000 122.295124 25.025381 472.535155 190.242432 18.868166 0.000000 0.022910
504.000000 50.259000 7.000000 11.000000 5.000000 119.385927 18.515533 614.552493 301.801111 19.886042 0.000000 0.069767
505.000000 47.475000 8.000000 11.000000 5.000000 116.170523 13.023358 726.055684 398.121409 21.053486 0.000000 0.105207
507.000000 51.648000 5.000000 12.000000 5.000000 122.199564 36.754958 171.147863 95.062001 19.349592 0.000000 0.102131
508.000000 49.632000 6.000000 12.000000 5.000000 120.493803 29.535276 365.186910 212.504759 20.136575 0.000000 0.016286
509.000000 47.413000 7.000000 12.000000 5.000000 118.224916 23.173955 514.278702 312.589607 21.080015 0.000000 0.050490
511.000000 48.166000 5.000000 13.000000 5.000000 119.816724 40.136358 67.508157 134.189382 20.749285 0.000000 0.134436
512.000000 46.548000 6.000000 13.000000 5.000000 118.636003 33.351326 266.625817 237.442427 21.470845 0.000000 0.037632
517.000000 47.857000 9.000000 1.000000 6.000000 84.397928 -51.133343 2310.455620 1109.237746 20.894969 0.000000 0.309916
518.000000 63.709000 7.000000 2.000000 6.000000 101.681562 -50.693574 2289.673778 589.713475 15.691307 0.000000 0.282483
519.000000 50.341000 9.000000 2.000000 6.000000 91.145317 -46.408055 2105.538542 909.793405 19.862097 0.000000 0.187970
521.000000 65.335000 7.000000 3.000000 6.000000 108.966602 -44.172930 2020.661506 425.278251 15.299250 0.000000 0.151329
522.000000 58.172000 8.000000 3.000000 6.000000 102.715298 -42.513834 1961.720171 611.532222 17.184880 0.000000 0.111751
523.000000 46.715000 10.000000 3.000000 6.000000 92.556671 -40.267651 1886.719700 878.016311 21.403604 0.000000 0.104164
525.000000 65.673000 7.000000 4.000000 6.000000 115.101838 -36.899917 1783.102179 310.483172 15.218998 0.000000 0.061676
526.000000 52.867000 9.000000 4.000000 6.000000 102.699291 -35.707100 1748.598155 642.310282 18.909763 0.000000 0.050588
528.000000 79.437000 5.000000 5.000000 6.000000 136.404395 -27.295001 1530.397993 -331.024668 12.578192 0.000000 0.111162
529.000000 71.910000 6.000000 5.000000 6.000000 127.640288 -28.332622 1555.315469 -2.032958 13.896628 0.000000 0.055089
530.000000 64.924000 7.000000 5.000000 6.000000 119.951604 -29.007516 1571.784240 231.854846 15.393601 0.000000 0.010368
531.000000 58.612000 8.000000 5.000000 6.000000 113.212407 -29.481464 1583.478438 410.766459 17.053482 0.000000 0.028541
532.000000 52.996000 9.000000 5.000000 6.000000 107.297148 -29.832539 1592.211529 554.629845 18.862415 0.000000 0.054143
533.000000 48.045000 10.000000 5.000000 6.000000 102.090384 -30.103022 1598.981804 674.508354 20.808071 0.000000 0.072776
534.000000 75.933000 5.000000 6.000000 6.000000 139.019204 -14.573268 1254.817493 -339.160418 13.158304 0.000000 0.047233
535.000000 63.335000 7.000000 6.000000 6.000000 123.477953 -20.741425 1382.587235 179.882421 15.779181 0.000000 0.038657
537.000000 71.867000 5.000000 7.000000 6.000000 139.640591 -2.325044 1018.699656 -326.501669 13.902730 0.000000 0.005893
538.000000 66.450000 6.000000 7.000000 6.000000 132.475185 -8.345542 1132.888161 -54.930969 15.037560 0.000000 0.033201
539.000000 61.154000 7.000000 7.000000 6.000000 125.744735 -12.429034 1212.210468 147.737731 16.341386 0.000000 0.059591
540.000000 56.145000 8.000000 7.000000 6.000000 119.561971 -15.353462 1270.520516 307.930542 17.800979 0.000000 0.081281
541.000000 51.511000 9.000000 7.000000 6.000000 113.942348 -17.540503 1315.190943 439.796096 19.404453 0.000000 0.097568
542.000000 47.284000 10.000000 7.000000 6.000000 108.859258 -19.233278 1350.506402 551.623990 21.141106 0.000000 0.109081
543.000000 67.580000 5.000000 8.000000 6.000000 138.756551 8.500645 814.134360 -300.197064 14.784736 0.000000 0.025651
544.000000 58.602000 7.000000 8.000000 6.000000 126.901744 -4.408598 1057.978798 130.445927 17.052939 0.000000 0.068584
545.000000 50.147000 9.000000 8.000000 6.000000 116.047235 -11.395572 1191.932427 404.378676 19.931454 0.000000 0.109668
547.000000 63.307000 5.000000 9.000000 6.000000 136.897982 17.521911 635.193143 -265.029435 15.783086 0.000000 0.052718
548.000000 55.854000 7.000000 9.000000 6.000000 127.151257 3.047388 917.701148 124.335573 17.891904 0.000000 0.068471
549.000000 52.120000 8.000000 9.000000 6.000000 122.197697 -1.718279 1007.287343 262.976872 19.175282 0.000000 0.095788
550.000000 59.192000 5.000000 10.000000 6.000000 134.499619 24.814782 477.345221 -224.245354 16.880703 0.000000 0.079811
551.000000 53.042000 7.000000 10.000000 6.000000 126.709060 9.775493 789.565754 126.666566 18.840439 0.000000 0.061569
552.000000 46.741000 9.000000 10.000000 6.000000 118.216034 0.228708 970.703733 363.503623 21.383202 0.000000 0.115160
554.000000 55.317000 5.000000 11.000000 6.000000 131.861508 30.655690 337.068516 -180.072677 18.063696 0.000000 0.108299
555.000000 52.879000 6.000000 11.000000 6.000000 129.087009 22.508124 529.005518 -5.364567 18.897744 0.000000 0.033722
556.000000 50.259000 7.000000 11.000000 6.000000 125.773573 15.720020 672.061489 135.373753 19.883887 0.000000 0.049770
557.000000 47.563000 8.000000 11.000000 6.000000 122.179319 10.124897 782.800223 253.050228 21.012296 0.000000 0.084716
558.000000 51.720000 5.000000 12.000000 6.000000 129.170062 35.348103 211.583749 -134.051563 19.320649 0.000000 0.138343
559.000000 47.566000 7.000000 12.000000 6.000000 124.509366 20.903958 563.917988 148.887366 21.010092 0.000000 0.034940
561.000000 48.411000 5.000000 13.000000 6.000000 126.532855 39.152890 98.668421 -87.250832 20.642096 0.000000 0.169605
562.000000 46.800000 6.000000 13.000000 6.000000 125.076542 31.875361 305.707817 51.015096 21.353187 0.000000 0.067571
567.000000 49.498000 9.000000 2.000000 7.000000 95.472529 -50.492798 2280.315054 778.914853 20.198458 0.000000 0.272713
570.000000 56.509000 8.000000 3.000000 7.000000 106.904757 -47.401974 2145.542193 457.731154 17.689085 0.000000 0.211946
571.000000 51.028000 9.000000 3.000000 7.000000 101.593688 -45.570476 2072.943203 625.574252 19.591079 0.000000 0.163399
572.000000 46.222000 10.000000 3.000000 7.000000 96.887878 -44.126809 2018.978688 759.870480 21.629796 0.000000 0.139593
574.000000 63.156000 7.000000 4.000000 7.000000 119.182648 -42.902980 1975.258688 120.403838 15.824506 0.000000 0.178651
575.000000 57.185000 8.000000 4.000000 7.000000 112.744981 -41.358408 1922.493354 339.851277 17.478483 0.000000 0.116098
576.000000 51.850000 9.000000 4.000000 7.000000 107.050210 -40.200478 1884.554566 508.829467 19.279083 0.000000 0.081916
577.000000 47.124000 10.000000 4.000000 7.000000 102.006678 -39.300839 1855.962972 645.193092 21.214397 0.000000 0.072155
580.000000 62.648000 7.000000 5.000000 7.000000 124.313380 -35.218927 1734.774679 41.847607 15.951728 0.000000 0.098396
581.000000 57.073000 8.000000 5.000000 7.000000 117.656136 -34.762483 1721.999315 254.449979 17.511577 0.000000 0.048651
582.000000 52.019000 9.000000 5.000000 7.000000 111.750332 -34.425453 1712.656588 420.422163 19.215183 0.000000 0.023585
583.000000 47.485000 10.000000 5.000000 7.000000 106.502663 -34.166413 1705.526869 555.619925 21.051479 0.000000 0.036320
585.000000 66.782000 6.000000 6.000000 7.000000 135.600567 -25.743031 1493.981380 -279.200914 14.962080 0.000000 0.092683
586.000000 61.381000 7.000000 6.000000 7.000000 128.200590 -26.917574 1521.450399 -8.890370 16.280038 0.000000 0.048839
587.000000 56.303000 8.000000 6.000000 7.000000 121.571025 -27.730725 1540.803595 193.787751 17.750381 0.000000 0.014434
588.000000 51.622000 9.000000 6.000000 7.000000 115.639145 -28.326820 1555.174793 354.149555 19.361677 0.000000 0.025256
589.000000 47.366000 10.000000 6.000000 7.000000 110.329252 -28.782442 1566.268357 486.032568 21.103609 0.000000 0.047883
591.000000 64.287000 6.000000 7.000000 7.000000 137.802915 -15.219939 1267.824916 -289.259697 15.542195 0.000000 0.044525
592.000000 55.017000 8.000000 7.000000 7.000000 124.480668 -20.445704 1376.247829 152.121526 18.164417 0.000000 0.035864
593.000000 50.764000 9.000000 7.000000 7.000000 118.702556 -22.023681 1410.368651 305.295670 19.688132 0.000000 0.053994
594.000000 46.838000 10.000000 7.000000 7.000000 113.469382 -23.230843 1436.986296 432.467446 21.340404 0.000000 0.070942
597.000000 61.435000 6.000000 8.000000 7.000000 138.587917 -4.983530 1068.851796 -283.927923 16.263738 0.000000 0.013159
598.000000 57.350000 7.000000 8.000000 7.000000 132.329186 -9.739828 1159.744472 -53.692495 17.423647 0.000000 0.032274
599.000000 53.358000 8.000000 8.000000 7.000000 126.434732 -13.134282 1226.140472 125.137082 18.728940 0.000000 0.053950
600.000000 49.550000 9.000000 8.000000 7.000000 120.966973 -15.662216 1276.766981 270.235783 20.169716 0.000000 0.073275
601.000000 45.982000 10.000000 8.000000 7.000000 115.935178 -17.610884 1316.645693 391.824639 21.736948 0.000000 0.088861
604.000000 58.408000 6.000000 9.000000 7.000000 138.233105 4.386496 892.438831 -267.710854 17.106752 0.000000 0.014342
605.000000 54.921000 7.000000 9.000000 7.000000 132.822583 -1.601449 1005.090861 -56.837455 18.194172 0.000000 0.036384
606.000000 51.449000 8.000000 9.000000 7.000000 127.532643 -6.028197 1088.658641 109.558102 19.423659 0.000000 0.063147
607.000000 48.080000 9.000000 9.000000 7.000000 122.494105 -9.396810 1153.117789 246.156680 20.785962 0.000000 0.084333
610.000000 55.341000 6.000000 10.000000 7.000000 137.055145 12.572860 734.954965 -243.825904 18.054864 0.000000 0.033856
611.000000 52.388000 7.000000 10.000000 7.000000 132.525655 5.852096 864.685217 -51.300417 19.073887 0.000000 0.036051
612.000000 49.393000 8.000000 10.000000 7.000000 127.906525 0.677443 962.273722 102.872296 20.231772 0.000000 0.065087
613.000000 46.440000 9.000000 10.000000 7.000000 123.371494 -3.368449 1038.348915 230.855828 21.519855 0.000000 0.088741
616.000000 52.329000 6.000000 11.000000 7.000000 135.341449 19.516815 593.508692 -214.596012 19.094520 0.000000 0.053755
617.000000 49.841000 7.000000 11.000000 7.000000 131.643875 12.487112 736.645284 -39.241585 20.049003 0.000000 0.032777
618.000000 47.273000 8.000000 11.000000 7.000000 127.700888 6.850666 845.694296 103.136610 21.139248 0.000000 0.061372
621.000000 49.431000 6.000000 12.000000 7.000000 133.317083 25.320410 465.768891 -181.713236 20.214399 0.000000 0.074953
622.000000 47.341000 7.000000 12.000000 7.000000 130.359024 18.282883 619.406369 -22.299877 21.107956 0.000000 0.030684
625.000000 46.683000 6.000000 13.000000 7.000000 131.142082 30.150127 349.835346 -146.418639 21.404972 0.000000 0.097803
630.000000 49.675000 9.000000 3.000000 8.000000 105.183008 -49.807149 2248.944664 488.417141 20.123392 0.000000 0.266298
632.000000 50.469000 9.000000 4.000000 8.000000 110.673848 -44.673117 2039.082911 369.885380 19.805016 0.000000 0.167159
635.000000 55.183000 8.000000 5.000000 8.000000 121.248529 -40.107752 1881.572838 87.124014 18.110187 0.000000 0.144589
636.000000 50.686000 9.000000 5.000000 8.000000 115.475718 -39.071361 1848.787695 280.474975 19.718953 0.000000 0.093478
637.000000 46.586000 10.000000 5.000000 8.000000 110.288648 -38.273917 1824.210737 434.170286 21.456390 0.000000 0.062347
638.000000 59.084000 7.000000 6.000000 8.000000 131.927501 -33.378122 1684.095804 -216.568139 16.912211 0.000000 0.136308
639.000000 50.394000 9.000000 6.000000 8.000000 119.521246 -33.055785 1675.444461 213.836221 19.832123 0.000000 0.040924
642.000000 57.593000 7.000000 7.000000 8.000000 134.996895 -24.645886 1468.809027 -243.040875 17.349474 0.000000 0.080315
643.000000 53.532000 8.000000 7.000000 8.000000 128.597971 -25.850292 1496.466986 -13.658611 18.666999 0.000000 0.044696
644.000000 49.677000 9.000000 7.000000 8.000000 122.776316 -26.723999 1516.884612 165.129056 20.117444 0.000000 0.017393
645.000000 46.075000 10.000000 7.000000 8.000000 117.487168 -27.386485 1532.575920 310.341221 21.692083 0.000000 0.023644
647.000000 55.728000 7.000000 8.000000 8.000000 136.900906 -15.675463 1277.035395 -253.620491 17.929433 0.000000 0.042327
648.000000 48.624000 9.000000 8.000000 8.000000 125.243377 -20.213836 1371.294317 130.625675 20.552527 0.000000 0.033943
651.000000 53.622000 7.000000 9.000000 8.000000 137.746237 -6.893514 1105.122294 -252.378262 18.633544 0.000000 0.017603
652.000000 50.436000 8.000000 9.000000 8.000000 132.201575 -10.793455 1180.186688 -52.555301 19.812342 0.000000 0.031563
653.000000 47.319000 9.000000 9.000000 8.000000 126.960917 -13.688570 1237.144813 107.428066 21.118706 0.000000 0.049625
655.000000 51.381000 7.000000 10.000000 8.000000 137.704414 1.323361 950.136407 -242.330662 19.446338 0.000000 0.011314
656.000000 45.839000 9.000000 10.000000 8.000000 127.998189 -7.313724 1113.138521 93.264346 21.800293 0.000000 0.058652
659.000000 49.088000 7.000000 11.000000 8.000000 136.975929 8.731668 809.694968 -225.734910 20.354816 0.000000 0.023522
660.000000 46.676000 8.000000 11.000000 8.000000 132.716267 3.148573 915.794830 -54.244061 21.408146 0.000000 0.036667
662.000000 46.805000 7.000000 12.000000 8.000000 135.754923 15.236428 681.842380 -204.294474 21.347972 0.000000 0.038033
670.000000 49.122000 9.000000 5.000000 9.000000 118.538891 -43.709832 2003.882572 131.250336 20.345603 0.000000 0.189749
672.000000 52.671000 8.000000 6.000000 9.000000 128.465029 -38.750940 1838.846509 -155.396138 18.972177 0.000000 0.178807
675.000000 51.815000 8.000000 7.000000 9.000000 131.955696 -31.493141 1634.376764 -193.737562 19.284518 0.000000 0.116127
676.000000 48.352000 9.000000 7.000000 9.000000 126.196775 -31.590442 1636.893189 16.343917 20.667585 0.000000 0.072806
679.000000 50.621000 8.000000 8.000000 9.000000 134.527805 -23.829731 1450.369617 -216.363727 19.739132 0.000000 0.071511
680.000000 47.458000 9.000000 8.000000 9.000000 128.893576 -25.017138 1477.276259 -17.153457 21.056279 0.000000 0.041805
682.000000 49.175000 8.000000 9.000000 9.000000 136.205513 -16.013639 1283.899711 -226.884013 20.318880 0.000000 0.040570
684.000000 50.116000 7.000000 10.000000 9.000000 142.229592 -3.891196 1048.208226 -451.240487 19.935992 0.000000 0.014357
685.000000 47.559000 8.000000 10.000000 9.000000 137.062694 -8.329166 1132.573944 -228.050238 21.009271 0.000000 0.020508
687.000000 48.081000 7.000000 11.000000 9.000000 141.753121 4.357225 892.991905 -428.383640 20.780098 0.000000 0.017969
688.000000 45.838000 8.000000 11.000000 9.000000 137.212227 -1.033468 994.415681 -221.978912 21.797965 0.000000 0.012860
689.000000 46.023000 7.000000 12.000000 9.000000 140.682422 11.674074 752.618023 -400.909967 21.709476 0.000000 0.043967
698.000000 46.872000 9.000000 7.000000 10.000000 129.008343 -36.558970 1773.131445 -144.380267 21.319084 0.000000 0.151953
700.000000 46.128000 9.000000 8.000000 10.000000 131.945634 -30.021171 1596.929159 -176.124904 21.662239 0.000000 0.101626
#UB matrix in q= (UB) B0 G* 
#[[-0.284332518 -0.590433013 -0.753924845]
# [-0.510603826  0.759669417 -0.402360502]
# [ 0.81144239   0.270905681 -0.518254654]]
#B0 matrix in q= UB (B0) G*
#[[ 0.19670273 -0.          0.03056101]
# [ 0.          0.19187965 -0.        ]
# [ 0.          0.          0.18806537]]
#UBB0 matrix in q= (UB B0) G* i.e. recip. basis vectors are columns in LT frame: astar = UBB0[:,0], bstar = UBB0[:,1], cstar = UBB0[:,2]. (abcstar as columns on xyzlab1, xlab1 = ui, ui = unit vector along incident beam)
#[[-0.05592898 -0.11329208 -0.15047664]
# [-0.10043717  0.1457651  -0.09127464]
# [ 0.15961294  0.05198129 -0.07266726]]
#Euler angles phi theta psi (deg)
#[108.479 121.179 118.045]
#deviatoric strain in direct crystal frame (10-3 unit)
#[[-3.25  0.02  0.48]
# [ 0.02 -2.69  0.89]
# [ 0.48  0.89  5.94]]
#deviatoric strain in sample2 frame (10-3 unit)
#[[ 4.6   2.91 -1.67]
# [ 2.91 -1.8  -0.4 ]
# [-1.66 -0.4  -2.81]]
#new lattice parameters
#[ 5.1505     5.2144728  5.3208025 89.9474001 99.1947511 89.9978546]
#CCDLabel
#sCMOS
#DetectorParameters
#[79.0, 975.0, 941.0, 0.0, 0.0]
#pixelsize
#0.0734
#Frame dimensions
#[2018, 2016]
#
