#Strain and Orientation Refinement from experimental file: /home/micha/LaueProjects/DepthEffects/testZrO2_26.cor
#File created at Wed Jun 28 14:19:11 2023 with indexingSpotsSet.py
#Number of indexed spots: 517
#Element
#ZrO2
#grainIndex
#G_0
#Mean Deviation(pixel): 0.118
##spot_index intensity h k l 2theta Chi Xexp Yexp Energy GrainIndex PixDev
0.000000 48.037000 -7.000000 1.000000 -1.000000 50.510995 -17.071627 1305.528009 1868.760192 20.833931 0.000000 0.128163
1.000000 53.988000 -6.000000 1.000000 -1.000000 49.043197 -18.767119 1340.711356 1927.640314 18.537675 0.000000 0.153030
2.000000 61.294000 -5.000000 1.000000 -1.000000 46.977935 -21.051098 1389.252341 2017.265299 16.328259 0.000000 0.190179
3.000000 70.067000 -4.000000 1.000000 -1.000000 43.885841 -24.281197 1460.540341 2168.582638 14.283962 0.000000 0.250673
6.000000 45.490000 -8.000000 2.000000 -1.000000 55.823879 -22.765489 1426.669798 1733.534577 21.998149 0.000000 0.115082
7.000000 50.742000 -7.000000 2.000000 -1.000000 55.115847 -24.958238 1475.929510 1768.683568 19.721477 0.000000 0.133407
8.000000 57.139000 -6.000000 2.000000 -1.000000 54.099133 -27.771686 1541.786040 1821.562778 17.513473 0.000000 0.160203
9.000000 64.917000 -5.000000 2.000000 -1.000000 52.567261 -31.491196 1634.326509 1907.159599 15.414980 0.000000 0.202442
10.000000 74.086000 -4.000000 2.000000 -1.000000 50.120625 -36.584983 1773.889064 2060.916599 13.507245 0.000000 0.276528
13.000000 46.437000 -8.000000 3.000000 -1.000000 59.149859 -29.638842 1587.385723 1680.653838 21.547826 0.000000 0.142603
14.000000 51.516000 -7.000000 3.000000 -1.000000 58.586445 -32.605186 1663.456170 1721.293853 19.423417 0.000000 0.168140
15.000000 57.488000 -6.000000 3.000000 -1.000000 57.685980 -36.336551 1766.674342 1786.103705 17.405459 0.000000 0.208008
16.000000 64.349000 -5.000000 3.000000 -1.000000 56.215095 -41.124713 1914.729177 1896.960437 15.549397 0.000000 0.275997
19.000000 46.184000 -8.000000 4.000000 -1.000000 61.585643 -36.201426 1762.769478 1662.608391 21.664402 0.000000 0.182373
20.000000 50.703000 -7.000000 4.000000 -1.000000 60.968726 -39.771444 1870.826167 1718.213073 19.733431 0.000000 0.223180
21.000000 55.738000 -6.000000 4.000000 -1.000000 59.938790 -44.151327 2019.872968 1809.195954 17.950471 0.000000 0.290604
24.000000 48.781000 -7.000000 5.000000 -1.000000 62.422002 -46.302222 2101.365064 1754.698083 20.509460 0.000000 0.308173
29.000000 46.230000 -3.000000 -1.000000 0.000000 41.663962 11.693569 752.236163 2176.172348 10.825338 0.000000 0.250507
32.000000 50.678000 -7.000000 -1.000000 0.000000 51.788198 2.193164 933.781539 1788.940248 19.748435 0.000000 0.073341
33.000000 57.606000 -6.000000 -1.000000 0.000000 50.548510 3.461389 909.899004 1828.317836 17.373797 0.000000 0.091640
34.000000 66.500000 -5.000000 -1.000000 0.000000 48.793115 5.199552 877.058037 1887.346998 15.050296 0.000000 0.119154
35.000000 78.043000 -4.000000 -1.000000 0.000000 46.129999 7.722205 829.054533 1985.125236 12.824642 0.000000 0.164465
36.000000 50.354000 -3.000000 0.000000 0.000000 58.833738 -5.835635 1085.002332 1595.352142 7.452538 0.000000 0.022794
37.000000 47.759000 -9.000000 1.000000 0.000000 63.625240 -12.464585 1212.910828 1487.569132 20.951694 0.000000 0.065837
38.000000 54.057000 -8.000000 1.000000 0.000000 64.170418 -13.308376 1229.591332 1476.363780 18.510473 0.000000 0.070204
39.000000 62.225000 -7.000000 1.000000 0.000000 64.852275 -14.396478 1251.274879 1462.647265 16.080386 0.000000 0.075442
40.000000 73.215000 -6.000000 1.000000 0.000000 65.727202 -15.851683 1280.609448 1445.537016 13.666410 0.000000 0.081776
41.000000 88.725000 -5.000000 1.000000 0.000000 66.884623 -17.894139 1322.512000 1423.773633 11.276997 0.000000 0.089460
42.000000 112.068000 -4.000000 1.000000 0.000000 68.469102 -20.958724 1387.261287 1395.719174 8.927777 0.000000 0.098655
43.000000 150.418000 -3.000000 1.000000 0.000000 70.698229 -26.025877 1500.545663 1360.488024 6.651199 0.000000 0.109376
44.000000 49.552000 -9.000000 2.000000 0.000000 67.611540 -19.256845 1351.003062 1410.639416 20.191837 0.000000 0.093868
45.000000 64.322000 -7.000000 2.000000 0.000000 69.487566 -23.139881 1434.964140 1378.906571 15.554354 0.000000 0.103799
46.000000 89.944000 -5.000000 2.000000 0.000000 72.115083 -29.999049 1596.374965 1342.047568 11.122659 0.000000 0.116417
47.000000 110.476000 -4.000000 2.000000 0.000000 73.665201 -35.744037 1749.650951 1329.647945 9.055022 0.000000 0.132509
48.000000 139.407000 -3.000000 2.000000 0.000000 74.930614 -44.539751 2034.140273 1347.571644 7.175379 0.000000 0.204778
50.000000 56.334000 -8.000000 3.000000 0.000000 71.621136 -28.520197 1559.871451 1347.982306 17.758857 0.000000 0.113717
51.000000 64.016000 -7.000000 3.000000 0.000000 72.626104 -31.670126 1638.957911 1336.673460 15.627401 0.000000 0.119898
52.000000 85.786000 -5.000000 3.000000 0.000000 74.599669 -41.151891 1915.629283 1334.732053 11.660597 0.000000 0.167012
53.000000 100.818000 -4.000000 3.000000 0.000000 75.071356 -48.513256 2192.096678 1374.175976 9.921591 0.000000 0.270256
54.000000 49.666000 -9.000000 4.000000 0.000000 72.885924 -32.588871 1663.024394 1334.327463 20.142567 0.000000 0.122124
55.000000 61.867000 -7.000000 4.000000 0.000000 74.389762 -39.645219 1866.819752 1331.532743 16.169106 0.000000 0.154632
56.000000 78.750000 -5.000000 4.000000 0.000000 75.033219 -50.755569 2292.579748 1395.805238 12.701769 0.000000 0.319472
57.000000 48.359000 -9.000000 5.000000 0.000000 74.254097 -38.794531 1840.193693 1330.356142 20.685820 0.000000 0.148678
58.000000 53.134000 -8.000000 5.000000 0.000000 74.748832 -42.443626 1959.295585 1338.667024 18.826057 0.000000 0.179685
59.000000 58.550000 -7.000000 5.000000 0.000000 75.044760 -46.846408 2122.998940 1361.335521 17.084346 0.000000 0.239676
63.000000 48.375000 -6.000000 -3.000000 1.000000 45.863481 24.358860 487.702784 2087.383817 20.688528 0.000000 0.240507
67.000000 48.372000 -8.000000 -2.000000 1.000000 57.380935 11.871181 748.754569 1644.877759 20.688068 0.000000 0.059549
68.000000 54.339000 -7.000000 -2.000000 1.000000 56.819975 14.275101 701.154088 1667.194181 18.416319 0.000000 0.073406
69.000000 61.712000 -6.000000 -2.000000 1.000000 55.961471 17.393004 637.854130 1702.857727 16.215899 0.000000 0.093916
70.000000 70.823000 -5.000000 -2.000000 1.000000 54.578855 21.568284 549.553977 1764.114898 14.129987 0.000000 0.126911
71.000000 81.723000 -4.000000 -2.000000 1.000000 52.210955 27.370766 417.798568 1880.732883 12.245410 0.000000 0.186667
74.000000 48.647000 -9.000000 -1.000000 1.000000 64.121998 3.909069 901.454468 1464.327380 20.569300 0.000000 0.061210
75.000000 55.098000 -8.000000 -1.000000 1.000000 64.677567 5.164809 877.716046 1452.353794 18.160663 0.000000 0.066425
76.000000 63.443000 -7.000000 -1.000000 1.000000 65.353294 6.786057 846.925317 1438.311681 15.771718 0.000000 0.072617
77.000000 74.608000 -6.000000 -1.000000 1.000000 66.184852 8.955354 805.391326 1421.904543 13.411321 0.000000 0.079957
78.000000 90.185000 -5.000000 -1.000000 1.000000 67.212242 11.996098 746.303190 1403.256762 11.094572 0.000000 0.088522
79.000000 113.061000 -4.000000 -1.000000 1.000000 68.449434 16.531163 655.550241 1384.388653 8.849497 0.000000 0.098082
80.000000 148.557000 -3.000000 -1.000000 1.000000 69.719798 23.886173 498.362732 1375.964593 6.734655 0.000000 0.108981
81.000000 49.360000 -10.000000 1.000000 1.000000 73.475560 -9.379682 1152.787254 1264.639393 20.268731 0.000000 0.118766
82.000000 55.848000 -9.000000 1.000000 1.000000 75.092941 -9.814486 1161.188551 1231.777344 17.913431 0.000000 0.126069
83.000000 64.195000 -8.000000 1.000000 1.000000 77.107212 -10.370644 1171.966995 1191.453165 15.583644 0.000000 0.134097
84.000000 75.283000 -7.000000 1.000000 1.000000 79.682143 -11.107034 1186.297765 1140.682620 13.287777 0.000000 0.142666
85.000000 90.618000 -6.000000 1.000000 1.000000 83.083400 -12.127786 1206.283497 1074.542803 11.038387 0.000000 0.151114
86.000000 112.950000 -5.000000 1.000000 1.000000 87.768568 -13.635758 1236.094121 984.154741 8.855104 0.000000 0.157445
87.000000 147.709000 -4.000000 1.000000 1.000000 94.583657 -16.084233 1285.335554 851.197110 6.770420 0.000000 0.155501
88.000000 45.510000 -11.000000 2.000000 1.000000 75.717906 -14.931269 1262.008820 1224.560007 21.982034 0.000000 0.125004
89.000000 50.811000 -10.000000 2.000000 1.000000 77.301927 -15.933419 1282.269320 1193.204709 19.688231 0.000000 0.129576
90.000000 57.403000 -9.000000 2.000000 1.000000 79.202029 -17.180503 1307.767440 1155.861975 17.426643 0.000000 0.133721
91.000000 65.782000 -8.000000 2.000000 1.000000 81.517326 -18.773052 1340.835665 1110.539941 15.206204 0.000000 0.136712
92.000000 76.708000 -7.000000 2.000000 1.000000 84.388368 -20.873795 1385.432887 1054.180502 13.039484 0.000000 0.137058
93.000000 91.382000 -6.000000 2.000000 1.000000 88.015143 -23.762508 1448.861285 981.755308 10.944757 0.000000 0.131579
94.000000 111.742000 -5.000000 2.000000 1.000000 92.672400 -27.956999 1546.240106 884.125586 8.949647 0.000000 0.113107
95.000000 140.875000 -4.000000 2.000000 1.000000 98.671906 -34.502600 1714.788471 741.805721 7.097977 0.000000 0.068798
96.000000 182.984000 -3.000000 2.000000 1.000000 105.998515 -45.687998 2077.457637 499.248479 5.463699 0.000000 0.155825
97.000000 46.076000 -11.000000 3.000000 1.000000 78.590393 -20.906932 1386.146025 1173.515308 21.710740 0.000000 0.126617
98.000000 51.249000 -10.000000 3.000000 1.000000 80.262763 -22.552727 1421.976527 1140.988060 19.518363 0.000000 0.127149
99.000000 57.577000 -9.000000 3.000000 1.000000 82.212428 -24.587625 1467.484837 1102.873895 17.372545 0.000000 0.125561
100.000000 65.436000 -8.000000 3.000000 1.000000 84.498210 -27.160569 1527.204114 1057.517589 15.285395 0.000000 0.120387
101.000000 75.348000 -7.000000 3.000000 1.000000 87.182722 -30.501452 1609.022514 1002.471579 13.273619 0.000000 0.109494
102.000000 88.027000 -6.000000 3.000000 1.000000 90.310787 -34.977213 1727.991631 933.874913 11.360934 0.000000 0.092560
103.000000 104.359000 -5.000000 3.000000 1.000000 93.840483 -41.188609 1916.846508 844.990906 9.582169 0.000000 0.098323
104.000000 125.134000 -4.000000 3.000000 1.000000 97.441502 -50.111848 2262.774547 721.787427 7.990646 0.000000 0.242292
105.000000 45.937000 -11.000000 4.000000 1.000000 80.744634 -26.829215 1519.364369 1137.546191 21.774859 0.000000 0.119603
106.000000 50.781000 -10.000000 4.000000 1.000000 82.346864 -29.063903 1573.169877 1106.459247 19.697257 0.000000 0.115767
107.000000 56.569000 -9.000000 4.000000 1.000000 84.138739 -31.794593 1642.190116 1070.995594 17.681022 0.000000 0.109584
108.000000 63.537000 -8.000000 4.000000 1.000000 86.122948 -35.189304 1733.941233 1030.251883 15.741184 0.000000 0.102573
109.000000 71.959000 -7.000000 4.000000 1.000000 88.268925 -39.488507 1861.865984 983.148168 13.898112 0.000000 0.105253
110.000000 82.104000 -6.000000 4.000000 1.000000 90.468857 -45.034987 2052.609535 928.536533 12.180128 0.000000 0.151916
111.000000 94.091000 -5.000000 4.000000 1.000000 92.446604 -52.298805 2367.502053 865.801580 10.627799 0.000000 0.302258
112.000000 49.576000 -10.000000 5.000000 1.000000 83.614449 -35.309494 1737.326609 1088.603852 20.174876 0.000000 0.108273
113.000000 54.664000 -9.000000 5.000000 1.000000 85.096857 -38.596826 1834.096833 1059.136842 18.296333 0.000000 0.111619
114.000000 60.572000 -8.000000 5.000000 1.000000 86.607099 -42.596421 1964.579261 1027.681741 16.511208 0.000000 0.134197
115.000000 67.377000 -7.000000 5.000000 1.000000 88.041427 -47.513052 2150.106410 995.493159 14.842920 0.000000 0.199406
117.000000 47.831000 -10.000000 6.000000 1.000000 84.175316 -41.168769 1916.188629 1086.853195 20.910321 0.000000 0.130072
118.000000 52.162000 -9.000000 6.000000 1.000000 85.261804 -44.855444 2045.877005 1066.844737 19.173606 0.000000 0.165738
119.000000 56.998000 -8.000000 6.000000 1.000000 86.226744 -49.236756 2223.517267 1049.713460 17.546153 0.000000 0.238947
121.000000 45.731000 -10.000000 7.000000 1.000000 84.162759 -46.566687 2111.824558 1101.045447 21.869830 0.000000 0.195450
122.000000 49.324000 -9.000000 7.000000 1.000000 84.824673 -50.502949 2280.786285 1094.266128 20.276309 0.000000 0.271807
128.000000 48.718000 -8.000000 -3.000000 2.000000 60.229639 22.389502 531.614188 1606.855345 20.539292 0.000000 0.103829
129.000000 53.944000 -7.000000 -3.000000 2.000000 59.526978 25.994402 450.186374 1645.580956 18.549640 0.000000 0.126229
130.000000 59.885000 -6.000000 -3.000000 2.000000 58.360571 30.513961 340.660906 1710.771182 16.709208 0.000000 0.163297
131.000000 66.277000 -5.000000 -3.000000 2.000000 56.413147 36.262672 185.462316 1827.419505 15.097533 0.000000 0.230595
134.000000 50.226000 -9.000000 -2.000000 2.000000 67.807177 14.018141 706.287703 1393.547584 19.920954 0.000000 0.093210
135.000000 64.383000 -7.000000 -2.000000 2.000000 69.111827 19.724347 589.114795 1377.343781 15.539888 0.000000 0.103131
136.000000 86.776000 -5.000000 -2.000000 2.000000 70.086036 29.464058 366.952977 1388.830166 11.529127 0.000000 0.119981
137.000000 102.161000 -4.000000 -2.000000 2.000000 69.753882 37.144982 159.675946 1439.027900 9.792538 0.000000 0.158760
138.000000 119.092000 -3.000000 -2.000000 2.000000 67.647452 47.892180 -215.831686 1601.038225 8.400151 0.000000 0.316307
139.000000 49.328000 -10.000000 -1.000000 2.000000 73.292998 6.340695 855.402184 1266.035450 20.282108 0.000000 0.120094
140.000000 55.616000 -9.000000 -1.000000 2.000000 74.736404 7.820733 827.169226 1237.463413 17.988483 0.000000 0.126751
141.000000 63.587000 -8.000000 -1.000000 2.000000 76.478241 9.700324 791.019387 1203.581996 15.732744 0.000000 0.133486
142.000000 73.950000 -7.000000 -1.000000 2.000000 78.608278 12.160187 743.079658 1162.834598 13.527435 0.000000 0.139574
143.000000 87.813000 -6.000000 -1.000000 2.000000 81.242164 15.502900 676.458513 1113.068606 11.391327 0.000000 0.143278
144.000000 106.932000 -5.000000 -1.000000 2.000000 84.505800 20.265951 577.593617 1051.357054 9.353829 0.000000 0.140274
145.000000 133.998000 -4.000000 -1.000000 2.000000 88.432758 27.462841 415.603551 974.187712 7.463760 0.000000 0.119795
146.000000 172.163000 -3.000000 -1.000000 2.000000 92.492482 39.056435 101.677382 880.666491 5.808535 0.000000 0.089650
147.000000 47.063000 -11.000000 0.000000 2.000000 77.087213 -0.488948 984.185056 1187.766095 21.256768 0.000000 0.138335
148.000000 52.766000 -10.000000 0.000000 2.000000 78.897262 0.120885 972.729183 1152.214421 18.958749 0.000000 0.145726
149.000000 59.927000 -9.000000 0.000000 2.000000 81.097596 0.887021 958.336090 1109.609654 16.692350 0.000000 0.153552
150.000000 69.145000 -8.000000 0.000000 2.000000 83.825607 1.877964 939.710038 1057.498864 14.466373 0.000000 0.161506
151.000000 81.362000 -7.000000 0.000000 2.000000 87.288490 3.208706 914.661749 992.053479 12.293223 0.000000 0.168840
152.000000 98.137000 -6.000000 0.000000 2.000000 91.809979 5.087618 879.177735 906.853916 10.190960 0.000000 0.173725
153.000000 122.145000 -5.000000 0.000000 2.000000 97.912485 7.932980 825.020322 789.967421 8.186935 0.000000 0.171559
154.000000 158.084000 -4.000000 0.000000 2.000000 106.443872 12.713213 732.185784 615.349952 6.324646 0.000000 0.149475
155.000000 49.112000 -11.000000 1.000000 2.000000 81.515901 -6.506219 1097.746589 1102.588605 20.367984 0.000000 0.152439
156.000000 55.184000 -10.000000 1.000000 2.000000 83.786294 -6.585289 1099.251467 1058.961778 18.126174 0.000000 0.158745
157.000000 62.815000 -9.000000 1.000000 2.000000 86.551845 -6.685497 1101.159331 1006.295491 15.923171 0.000000 0.164804
158.000000 72.637000 -8.000000 1.000000 2.000000 89.989738 -6.816625 1103.657078 941.194138 13.769106 0.000000 0.169921
159.000000 85.637000 -7.000000 1.000000 2.000000 94.369787 -6.995594 1107.068305 858.137691 11.677974 0.000000 0.172680
160.000000 103.411000 -6.000000 1.000000 2.000000 100.120447 -7.254419 1112.006276 747.336251 9.669667 0.000000 0.170069
161.000000 128.618000 -5.000000 1.000000 2.000000 107.954952 -7.661873 1119.791464 589.084259 7.773447 0.000000 0.155338
162.000000 165.657000 -4.000000 1.000000 2.000000 119.119479 -8.397428 1133.883941 334.965580 6.034205 0.000000 0.112481
163.000000 50.330000 -11.000000 2.000000 2.000000 85.225218 -12.801488 1219.557456 1033.193510 19.873704 0.000000 0.154771
164.000000 64.130000 -9.000000 2.000000 2.000000 90.832332 -14.695242 1257.265000 924.834858 15.595274 0.000000 0.158236
165.000000 86.478000 -7.000000 2.000000 2.000000 99.261318 -17.981997 1324.335362 756.483109 11.563099 0.000000 0.146082
166.000000 103.240000 -6.000000 2.000000 2.000000 105.207872 -20.722945 1382.190345 628.179801 9.684594 0.000000 0.123482
167.000000 125.943000 -5.000000 2.000000 2.000000 112.897591 -25.002154 1476.933526 439.405339 7.937661 0.000000 0.073003
168.000000 156.901000 -4.000000 2.000000 2.000000 122.862824 -32.487893 1660.355389 116.706330 6.370396 0.000000 0.046915
169.000000 45.798000 -12.000000 3.000000 2.000000 85.891244 -17.940179 1323.467255 1022.266339 21.839522 0.000000 0.146005
170.000000 50.716000 -11.000000 3.000000 2.000000 88.126359 -19.235367 1350.550406 978.290488 19.720727 0.000000 0.145160
171.000000 56.661000 -10.000000 3.000000 2.000000 90.734445 -20.833848 1384.573578 926.237561 17.650904 0.000000 0.141597
172.000000 63.939000 -9.000000 3.000000 2.000000 93.804294 -22.852634 1428.596334 863.335446 15.640604 0.000000 0.133518
173.000000 72.971000 -8.000000 3.000000 2.000000 97.445897 -25.474861 1487.786490 785.188020 13.703645 0.000000 0.117735
174.000000 84.318000 -7.000000 3.000000 2.000000 101.785977 -29.000583 1571.613967 684.230171 11.858484 0.000000 0.088407
175.000000 98.692000 -6.000000 3.000000 2.000000 106.938989 -33.946346 1699.504143 545.847103 10.130331 0.000000 0.038353
176.000000 116.857000 -5.000000 3.000000 2.000000 112.898280 -41.240957 1918.584274 336.425054 8.554566 0.000000 0.100462
178.000000 50.345000 -11.000000 4.000000 2.000000 90.194980 -25.648926 1491.804318 936.936955 19.865010 0.000000 0.124682
179.000000 62.482000 -9.000000 4.000000 2.000000 95.488236 -30.835137 1617.495073 820.563466 16.004415 0.000000 0.094702
180.000000 80.024000 -7.000000 4.000000 2.000000 102.213497 -39.288750 1855.583798 639.993383 12.494428 0.000000 0.062527
182.000000 49.338000 -11.000000 5.000000 2.000000 91.469128 -31.886177 1644.573983 908.490910 20.269773 0.000000 0.098529
183.000000 54.304000 -10.000000 5.000000 2.000000 93.660832 -34.795984 1722.932141 857.143537 18.414979 0.000000 0.083765
184.000000 60.086000 -9.000000 5.000000 2.000000 96.035964 -38.359068 1826.809122 795.864422 16.642170 0.000000 0.075412
185.000000 66.800000 -8.000000 5.000000 2.000000 98.548802 -42.783839 1971.095691 720.553266 14.968478 0.000000 0.104692
186.000000 74.525000 -7.000000 5.000000 2.000000 101.082760 -48.348469 2185.065638 623.779548 13.416173 0.000000 0.203073
188.000000 47.839000 -11.000000 6.000000 2.000000 92.035380 -37.815553 1810.327479 892.580989 20.904064 0.000000 0.087338
189.000000 57.083000 -9.000000 6.000000 2.000000 95.674963 -45.231767 2060.037132 789.129393 17.517265 0.000000 0.144041
191.000000 45.995000 -11.000000 7.000000 2.000000 92.008821 -43.343534 1990.793503 889.090964 21.741648 0.000000 0.125355
192.000000 49.703000 -10.000000 7.000000 2.000000 93.380009 -47.035778 2130.630225 847.730833 20.119159 0.000000 0.178694
193.000000 53.762000 -9.000000 7.000000 2.000000 94.649598 -51.364231 2321.525620 800.803103 18.599341 0.000000 0.274900
196.000000 46.709000 -8.000000 -4.000000 3.000000 61.335378 32.131411 299.019359 1635.814903 21.421505 0.000000 0.159002
197.000000 50.553000 -7.000000 -4.000000 3.000000 60.171432 36.498750 178.620481 1708.677031 19.792489 0.000000 0.204427
198.000000 54.385000 -6.000000 -4.000000 3.000000 58.369298 41.741330 14.663199 1829.465754 18.397759 0.000000 0.283313
201.000000 54.860000 -8.000000 -3.000000 3.000000 70.010734 27.410862 416.843140 1382.025507 18.236626 0.000000 0.115044
202.000000 61.062000 -7.000000 -3.000000 3.000000 70.088500 31.748371 309.011210 1399.457773 16.383936 0.000000 0.127520
203.000000 75.681000 -5.000000 -3.000000 3.000000 68.655631 43.902567 -60.834018 1524.731230 13.218611 0.000000 0.238795
205.000000 49.831000 -10.000000 -2.000000 3.000000 76.108644 15.937108 667.655731 1217.823679 20.075721 0.000000 0.127606
206.000000 55.694000 -9.000000 -2.000000 3.000000 77.444784 18.513823 614.588212 1193.779187 17.961866 0.000000 0.129058
207.000000 62.846000 -8.000000 -2.000000 3.000000 78.922265 21.729009 546.059132 1167.844622 15.917027 0.000000 0.128043
208.000000 71.641000 -7.000000 -2.000000 3.000000 80.508940 25.823297 454.159016 1140.898814 13.962480 0.000000 0.122994
209.000000 82.464000 -6.000000 -2.000000 3.000000 82.097579 31.149282 324.474482 1115.562514 12.129247 0.000000 0.113583
210.000000 95.579000 -5.000000 -2.000000 3.000000 83.408681 38.212055 127.673183 1099.281806 10.464400 0.000000 0.116649
211.000000 110.597000 -4.000000 -2.000000 3.000000 83.791465 47.668777 -206.537828 1114.867695 9.042984 0.000000 0.222808
213.000000 48.445000 -11.000000 -1.000000 3.000000 80.697126 8.548402 813.217088 1119.286022 20.648686 0.000000 0.149393
214.000000 54.134000 -10.000000 -1.000000 3.000000 82.644010 10.198949 781.364475 1082.176380 18.477849 0.000000 0.153544
215.000000 61.149000 -9.000000 -1.000000 3.000000 84.935385 12.263168 741.054579 1038.614065 16.357359 0.000000 0.156294
216.000000 69.941000 -8.000000 -1.000000 3.000000 87.652315 14.910774 688.403514 986.663258 14.300410 0.000000 0.156173
217.000000 81.143000 -7.000000 -1.000000 3.000000 90.886215 18.411750 616.719381 923.453016 12.325250 0.000000 0.150275
218.000000 95.624000 -6.000000 -1.000000 3.000000 94.713226 23.213265 513.404699 844.445742 10.457849 0.000000 0.132509
219.000000 114.454000 -5.000000 -1.000000 3.000000 99.101747 30.079928 351.597680 741.736542 8.736478 0.000000 0.090096
220.000000 138.479000 -4.000000 -1.000000 3.000000 103.618826 40.306977 62.010715 599.063292 7.219962 0.000000 0.070674
222.000000 47.816000 -12.000000 1.000000 3.000000 88.094190 -3.836199 1047.170404 976.894045 20.917497 0.000000 0.169557
223.000000 53.246000 -11.000000 1.000000 3.000000 90.730907 -3.610075 1042.904708 927.241956 18.783402 0.000000 0.173209
224.000000 59.898000 -10.000000 1.000000 3.000000 93.873004 -3.326320 1037.554817 868.012114 16.696365 0.000000 0.175607
225.000000 68.183000 -9.000000 1.000000 3.000000 97.674431 -2.959705 1030.647207 795.774648 14.666559 0.000000 0.175724
226.000000 78.688000 -8.000000 1.000000 3.000000 102.354632 -2.467779 1021.385615 705.035801 12.707315 0.000000 0.171748
227.000000 92.263000 -7.000000 1.000000 3.000000 108.233873 -1.773180 1008.319617 586.257352 10.836453 0.000000 0.160366
228.000000 110.115000 -6.000000 1.000000 3.000000 115.789524 -0.718583 988.499202 420.900882 9.078347 0.000000 0.135346
229.000000 133.851000 -5.000000 1.000000 3.000000 125.739963 1.071948 954.861236 166.329641 7.467238 0.000000 0.085203
230.000000 165.099000 -4.000000 1.000000 3.000000 139.130213 4.768063 885.225185 -307.152256 6.052795 0.000000 0.012032
231.000000 48.863000 -12.000000 2.000000 3.000000 91.708869 -9.862070 1162.109300 908.407972 20.467719 0.000000 0.167735
232.000000 54.355000 -11.000000 2.000000 3.000000 94.615405 -10.328111 1171.141372 852.681148 18.398705 0.000000 0.168039
233.000000 61.038000 -10.000000 2.000000 3.000000 98.060940 -10.915838 1182.570167 785.760333 16.382937 0.000000 0.165871
234.000000 69.287000 -9.000000 2.000000 3.000000 102.200837 -11.679875 1197.495600 703.359907 14.431359 0.000000 0.159626
235.000000 79.615000 -8.000000 2.000000 3.000000 107.250409 -12.713110 1217.812178 598.394066 12.558138 0.000000 0.146560
236.000000 92.720000 -7.000000 2.000000 3.000000 113.511181 -14.187009 1247.084670 458.034172 10.781936 0.000000 0.121830
237.000000 109.507000 -6.000000 2.000000 3.000000 121.403640 -16.455765 1292.909234 255.869493 9.127858 0.000000 0.077162
238.000000 130.976000 -5.000000 2.000000 3.000000 131.484206 -20.380743 1374.858533 -74.251608 7.630485 0.000000 0.031792
240.000000 54.588000 -11.000000 3.000000 3.000000 97.580557 -17.276837 1309.751065 790.995332 18.318890 0.000000 0.150264
241.000000 61.020000 -10.000000 3.000000 3.000000 101.081923 -18.778212 1340.943803 718.340289 16.386829 0.000000 0.140494
242.000000 78.386000 -8.000000 3.000000 3.000000 110.106322 -23.334104 1439.285208 511.901963 12.754198 0.000000 0.094486
243.000000 90.152000 -7.000000 3.000000 3.000000 115.944770 -27.005722 1523.534726 353.252613 11.088415 0.000000 0.044796
245.000000 48.983000 -12.000000 4.000000 3.000000 96.683257 -22.361880 1417.778994 804.628062 20.415016 0.000000 0.132766
246.000000 54.028000 -11.000000 4.000000 3.000000 99.593445 -24.259303 1460.045443 741.465248 18.507641 0.000000 0.119725
247.000000 59.987000 -10.000000 4.000000 3.000000 102.914120 -26.627343 1514.610619 664.937472 16.668022 0.000000 0.099231
248.000000 67.060000 -9.000000 4.000000 3.000000 106.704925 -29.653752 1587.756532 569.316431 14.908843 0.000000 0.067109
249.000000 75.472000 -8.000000 4.000000 3.000000 111.010525 -33.630762 1690.921460 444.524383 13.246165 0.000000 0.020959
250.000000 85.433000 -7.000000 4.000000 3.000000 115.819432 -39.025396 1847.356099 270.677511 11.700627 0.000000 0.081132
252.000000 48.189000 -12.000000 5.000000 3.000000 98.025100 -28.546596 1560.513952 768.255040 20.750687 0.000000 0.100848
253.000000 52.809000 -11.000000 5.000000 3.000000 100.697498 -31.072859 1623.567039 703.619428 18.934189 0.000000 0.079311
254.000000 58.154000 -10.000000 5.000000 3.000000 103.649024 -34.179941 1705.898144 625.074503 17.192958 0.000000 0.051365
255.000000 64.333000 -9.000000 5.000000 3.000000 106.873719 -38.067725 1817.943900 526.327960 15.540482 0.000000 0.046031
256.000000 71.440000 -8.000000 5.000000 3.000000 110.317886 -43.019146 1979.333275 395.929133 13.993675 0.000000 0.119635
258.000000 51.086000 -11.000000 6.000000 3.000000 100.996998 -37.542620 1802.142392 677.219182 19.572293 0.000000 0.056974
259.000000 55.752000 -10.000000 6.000000 3.000000 103.458933 -41.212265 1917.631470 598.598598 17.933281 0.000000 0.080743
261.000000 49.014000 -11.000000 7.000000 3.000000 100.632018 -43.544376 1997.950574 662.255326 20.399435 0.000000 0.113436
262.000000 52.999000 -10.000000 7.000000 3.000000 102.551986 -47.589858 2153.273701 585.689056 18.864871 0.000000 0.188275
264.000000 46.731000 -11.000000 8.000000 3.000000 99.752854 -49.010941 2213.612546 658.956742 21.396185 0.000000 0.216973
271.000000 47.062000 -9.000000 -4.000000 4.000000 70.054019 32.987270 276.386264 1406.658366 21.257701 0.000000 0.132799
272.000000 55.332000 -7.000000 -4.000000 4.000000 69.029119 42.067779 3.592351 1496.696995 18.079991 0.000000 0.211443
274.000000 48.583000 -10.000000 -3.000000 4.000000 77.291007 25.214241 468.207565 1209.293613 20.590471 0.000000 0.120465
275.000000 53.507000 -9.000000 -3.000000 4.000000 78.168949 28.648066 387.013458 1197.908905 18.695047 0.000000 0.117699
276.000000 59.178000 -8.000000 -3.000000 4.000000 78.951450 32.806525 281.202192 1191.036642 16.902882 0.000000 0.116394
277.000000 65.617000 -7.000000 -3.000000 4.000000 79.497766 37.885078 137.577865 1193.802372 15.243752 0.000000 0.127981
278.000000 72.690000 -6.000000 -3.000000 4.000000 79.561096 44.114740 -68.538747 1217.193656 13.760098 0.000000 0.183392
281.000000 48.286000 -11.000000 -2.000000 4.000000 82.788534 17.658878 632.361641 1083.920940 20.715613 0.000000 0.143068
282.000000 59.633000 -9.000000 -2.000000 4.000000 86.395532 23.467140 507.747724 1014.912356 16.772304 0.000000 0.133294
283.000000 75.776000 -7.000000 -2.000000 4.000000 90.533828 32.532937 288.454778 929.105334 13.197744 0.000000 0.098397
284.000000 97.704000 -5.000000 -2.000000 4.000000 93.862960 47.498875 -199.522785 833.429115 10.234550 0.000000 0.191751
286.000000 46.759000 -12.000000 -1.000000 4.000000 86.727505 10.556034 774.431692 1003.599783 21.390867 0.000000 0.161885
287.000000 51.743000 -11.000000 -1.000000 4.000000 88.937296 12.333817 739.664373 961.436738 19.329507 0.000000 0.162369
288.000000 57.726000 -10.000000 -1.000000 4.000000 91.478699 14.525931 696.131631 912.299208 17.325152 0.000000 0.160180
289.000000 64.979000 -9.000000 -1.000000 4.000000 94.409584 17.286955 640.040460 854.076087 15.390160 0.000000 0.153422
290.000000 73.849000 -8.000000 -1.000000 4.000000 97.783875 20.851788 565.040556 783.563174 13.540745 0.000000 0.138660
291.000000 84.746000 -7.000000 -1.000000 4.000000 101.624119 25.586749 459.632200 695.522983 11.798600 0.000000 0.109347
292.000000 98.082000 -6.000000 -1.000000 4.000000 105.848700 32.070282 300.619551 580.426696 10.193425 0.000000 0.053996
293.000000 114.030000 -5.000000 -1.000000 4.000000 110.092214 41.188091 33.170677 417.844063 8.767001 0.000000 0.090875
295.000000 54.502000 -11.000000 0.000000 4.000000 94.619935 6.348836 855.247358 853.489810 18.348884 0.000000 0.174018
296.000000 69.108000 -9.000000 0.000000 4.000000 101.805272 9.978590 785.634933 712.591822 14.468842 0.000000 0.164484
297.000000 91.418000 -7.000000 0.000000 4.000000 111.993286 16.533484 655.502804 487.546935 10.935655 0.000000 0.120273
298.000000 106.847000 -6.000000 0.000000 4.000000 118.588190 22.179130 536.229714 307.607162 9.355437 0.000000 0.064372
299.000000 125.774000 -5.000000 0.000000 4.000000 126.141886 31.119327 325.242521 22.813167 7.946575 0.000000 0.058672
301.000000 45.981000 -13.000000 1.000000 4.000000 93.507525 -1.359173 1000.536683 875.010561 21.749869 0.000000 0.176240
302.000000 50.735000 -12.000000 1.000000 4.000000 96.322901 -0.874258 991.424096 821.726673 19.710814 0.000000 0.176836
303.000000 56.421000 -11.000000 1.000000 4.000000 99.611870 -0.271893 980.107506 758.727043 17.723319 0.000000 0.175384
304.000000 63.297000 -10.000000 1.000000 4.000000 103.496357 0.496275 965.677309 682.667290 15.796893 0.000000 0.170691
305.000000 71.704000 -9.000000 1.000000 4.000000 108.139390 1.509188 946.643531 588.271278 13.943537 0.000000 0.160821
306.000000 82.086000 -8.000000 1.000000 4.000000 113.760136 2.904895 920.385101 466.582285 12.178615 0.000000 0.142557
307.000000 94.998000 -7.000000 1.000000 4.000000 120.650947 4.947765 881.825103 300.803350 10.522127 0.000000 0.110540
308.000000 111.042000 -6.000000 1.000000 4.000000 129.184251 8.211941 819.674655 54.599609 9.000591 0.000000 0.057151
309.000000 130.629000 -5.000000 1.000000 4.000000 139.747630 14.195539 702.744851 -370.304941 7.649943 0.000000 0.046823
310.000000 46.897000 -13.000000 2.000000 4.000000 97.037988 -7.112020 1109.288833 807.092986 21.323826 0.000000 0.172339
311.000000 57.430000 -11.000000 2.000000 4.000000 103.715979 -7.432572 1115.408450 676.083836 17.410418 0.000000 0.164899
312.000000 72.648000 -9.000000 2.000000 4.000000 113.011356 -7.968029 1125.650920 479.432230 13.761042 0.000000 0.139061
313.000000 95.289000 -7.000000 2.000000 4.000000 126.595665 -9.043140 1146.299066 131.740804 10.489000 0.000000 0.070809
314.000000 110.438000 -6.000000 2.000000 4.000000 135.862201 -10.123244 1167.167726 -185.725290 9.048978 0.000000 0.022845
316.000000 47.266000 -13.000000 3.000000 4.000000 99.899647 -13.104747 1225.555528 748.140810 21.155624 0.000000 0.159442
317.000000 51.983000 -12.000000 3.000000 4.000000 103.098024 -13.926721 1241.888656 682.993335 19.234819 0.000000 0.152536
318.000000 57.546000 -11.000000 3.000000 4.000000 106.795692 -14.956518 1262.516920 604.744205 17.374274 0.000000 0.141265
319.000000 64.151000 -10.000000 3.000000 4.000000 111.104786 -16.283353 1289.391058 508.229500 15.584205 0.000000 0.123503
320.000000 72.035000 -9.000000 3.000000 4.000000 116.165207 -18.055098 1325.853845 384.822343 13.877275 0.000000 0.095995
321.000000 81.467000 -8.000000 3.000000 4.000000 122.145503 -20.534623 1378.151408 218.759270 12.269370 0.000000 0.054565
322.000000 92.706000 -7.000000 3.000000 4.000000 129.228325 -24.233375 1459.459609 -22.602040 10.780704 0.000000 0.033935
324.000000 47.122000 -13.000000 4.000000 4.000000 102.049551 -19.216054 1350.143498 697.697768 21.219408 0.000000 0.137060
325.000000 56.856000 -11.000000 4.000000 4.000000 108.800250 -22.601407 1423.049078 544.113746 17.584279 0.000000 0.103240
326.000000 70.122000 -9.000000 4.000000 4.000000 117.569802 -28.164835 1551.253717 303.573488 14.255401 0.000000 0.027684
327.000000 88.040000 -7.000000 4.000000 4.000000 128.737794 -38.662345 1836.113563 -164.782623 11.351989 0.000000 0.167094
328.000000 46.521000 -13.000000 5.000000 4.000000 103.488076 -25.309453 1483.979235 655.430242 21.492670 0.000000 0.105087
329.000000 50.705000 -12.000000 5.000000 4.000000 106.464688 -27.455340 1534.217505 582.534750 19.718168 0.000000 0.082766
330.000000 55.497000 -11.000000 5.000000 4.000000 109.771675 -30.100963 1598.930132 493.803584 18.014177 0.000000 0.050819
331.000000 60.986000 -10.000000 5.000000 4.000000 113.427870 -33.427447 1685.425316 382.187710 16.391757 0.000000 0.011381
332.000000 67.248000 -9.000000 5.000000 4.000000 117.422765 -37.702401 1806.926797 235.183393 14.864405 0.000000 0.071688
333.000000 74.321000 -8.000000 5.000000 4.000000 121.679366 -43.323372 1990.077670 28.004817 13.448771 0.000000 0.188289
335.000000 45.539000 -13.000000 6.000000 4.000000 104.256152 -31.250804 1628.132074 621.119927 21.955721 0.000000 0.065831
336.000000 53.629000 -11.000000 6.000000 4.000000 109.829643 -37.217562 1792.471927 453.624401 18.641317 0.000000 0.037957
337.000000 63.759000 -9.000000 6.000000 4.000000 116.068833 -46.252531 2099.411082 179.525375 15.677979 0.000000 0.209690
338.000000 47.657000 -12.000000 7.000000 4.000000 106.740654 -40.054497 1879.864049 518.054464 20.978255 0.000000 0.067125
339.000000 51.410000 -11.000000 7.000000 4.000000 109.140800 -43.781858 2006.475123 423.590661 19.446057 0.000000 0.128997
340.000000 55.517000 -10.000000 7.000000 4.000000 111.561273 -48.254188 2181.063298 302.255001 18.006461 0.000000 0.231134
342.000000 48.979000 -11.000000 8.000000 4.000000 107.885305 -49.705410 2244.365612 403.936114 20.411279 0.000000 0.251798
344.000000 46.314000 -8.000000 -5.000000 5.000000 68.297619 45.445913 -118.178852 1551.564655 21.600460 0.000000 0.265633
347.000000 46.048000 -10.000000 -4.000000 5.000000 77.078737 33.746859 255.928495 1237.962954 21.723077 0.000000 0.120686
348.000000 49.838000 -9.000000 -4.000000 5.000000 77.325706 37.711482 142.800671 1246.961000 20.070887 0.000000 0.134323
349.000000 53.904000 -8.000000 -4.000000 5.000000 77.274535 42.350217 -6.078186 1269.880426 18.556496 0.000000 0.172350
350.000000 58.096000 -7.000000 -4.000000 5.000000 76.748889 47.772327 -210.835718 1318.122249 17.217228 0.000000 0.257089
353.000000 46.802000 -11.000000 -3.000000 5.000000 83.412986 26.399463 440.735450 1079.754146 21.371377 0.000000 0.123490
354.000000 51.157000 -10.000000 -3.000000 5.000000 84.629169 29.737053 360.169762 1057.533085 19.551317 0.000000 0.114593
355.000000 56.101000 -9.000000 -3.000000 5.000000 85.802880 33.723067 256.574744 1035.963083 17.827568 0.000000 0.104864
356.000000 61.649000 -8.000000 -3.000000 5.000000 86.825701 38.514581 118.429570 1017.285943 16.222717 0.000000 0.106586
357.000000 67.724000 -7.000000 -3.000000 5.000000 87.512635 44.291753 -75.009174 1006.318061 14.767017 0.000000 0.153912
358.000000 74.067000 -6.000000 -3.000000 5.000000 87.564092 51.233520 -365.244972 1014.123032 13.501931 0.000000 0.291769
360.000000 46.213000 -12.000000 -2.000000 5.000000 88.231293 19.209681 599.990746 976.195143 21.642138 0.000000 0.146743
361.000000 50.698000 -11.000000 -2.000000 5.000000 90.141308 21.822774 544.016675 938.140635 19.726813 0.000000 0.139660
362.000000 55.917000 -10.000000 -2.000000 5.000000 92.217237 24.985934 473.437371 895.026032 17.884856 0.000000 0.127253
363.000000 61.991000 -9.000000 -2.000000 5.000000 94.432534 28.866323 381.678768 845.731643 16.131439 0.000000 0.106993
364.000000 69.028000 -8.000000 -2.000000 5.000000 96.712949 33.688063 257.524867 788.750574 14.486228 0.000000 0.078173
365.000000 77.062000 -7.000000 -2.000000 5.000000 98.893696 39.740971 80.142379 721.969528 12.975177 0.000000 0.073583
366.000000 85.947000 -6.000000 -2.000000 5.000000 100.648681 47.365312 -194.039955 642.220702 11.633265 0.000000 0.186065
368.000000 49.020000 -12.000000 -1.000000 5.000000 94.015908 14.255762 701.540845 863.037106 20.401047 0.000000 0.161314
369.000000 54.074000 -11.000000 -1.000000 5.000000 96.637461 16.532445 655.524049 810.354263 18.493392 0.000000 0.154455
370.000000 60.032000 -10.000000 -1.000000 5.000000 99.591309 19.353581 596.956778 748.233411 16.656814 0.000000 0.141896
371.000000 67.082000 -9.000000 -1.000000 5.000000 102.901652 22.920852 519.893830 673.328721 14.905320 0.000000 0.120062
372.000000 75.417000 -8.000000 -1.000000 5.000000 106.556748 27.532902 413.930885 580.160541 13.256856 0.000000 0.082571
373.000000 85.192000 -7.000000 -1.000000 5.000000 110.455837 33.631481 259.059068 458.827977 11.734800 0.000000 0.022899
374.000000 96.395000 -6.000000 -1.000000 5.000000 114.298996 41.842125 11.257003 288.715319 10.370176 0.000000 0.118824
376.000000 48.040000 -13.000000 1.000000 5.000000 100.870339 1.638884 944.205359 734.231594 20.814708 0.000000 0.174054
377.000000 52.871000 -12.000000 1.000000 5.000000 104.169968 2.502304 927.964608 668.996510 18.911549 0.000000 0.169079
378.000000 58.569000 -11.000000 1.000000 5.000000 107.986657 3.589219 907.488629 590.881119 17.070684 0.000000 0.160242
379.000000 65.330000 -10.000000 1.000000 5.000000 112.435864 4.998104 880.872339 494.898886 15.302699 0.000000 0.145638
380.000000 73.390000 -9.000000 1.000000 5.000000 117.660396 6.894100 844.866534 372.773100 13.620723 0.000000 0.122324
381.000000 83.009000 -8.000000 1.000000 5.000000 123.829053 9.575150 793.438580 209.502160 12.041238 0.000000 0.085951
382.000000 94.416000 -7.000000 1.000000 5.000000 131.115202 13.632050 713.979631 -25.645399 10.585226 0.000000 0.035226
384.000000 48.899000 -13.000000 2.000000 5.000000 104.583103 -4.406583 1057.940728 660.155057 20.447580 0.000000 0.166819
385.000000 53.772000 -12.000000 2.000000 5.000000 108.187467 -4.234778 1054.694961 586.425254 18.593384 0.000000 0.158928
386.000000 59.492000 -11.000000 2.000000 5.000000 112.362931 -4.016033 1050.564488 497.107945 16.804235 0.000000 0.146508
387.000000 66.242000 -10.000000 2.000000 5.000000 117.242424 -3.728079 1045.130515 385.676934 15.090757 0.000000 0.127604
388.000000 74.227000 -9.000000 2.000000 5.000000 122.996805 -3.331922 1037.660394 240.948262 13.466020 0.000000 0.099516
389.000000 83.661000 -8.000000 2.000000 5.000000 129.844883 -2.752535 1026.745843 41.798644 11.946287 0.000000 0.059279
390.000000 94.704000 -7.000000 2.000000 5.000000 138.062203 -1.824827 1009.290750 -257.566636 10.552053 0.000000 0.009020
392.000000 49.207000 -13.000000 3.000000 5.000000 107.570629 -10.786862 1180.058354 594.056069 20.318274 0.000000 0.150411
393.000000 53.979000 -12.000000 3.000000 5.000000 111.313693 -11.395548 1191.931971 512.629370 18.520994 0.000000 0.137768
394.000000 59.532000 -11.000000 3.000000 5.000000 115.622844 -12.174175 1207.195314 412.922538 16.792113 0.000000 0.119321
395.000000 66.012000 -10.000000 3.000000 5.000000 120.618408 -13.205001 1227.541652 286.714533 15.142380 0.000000 0.092868
396.000000 73.573000 -9.000000 3.000000 5.000000 126.447666 -14.633081 1256.017338 119.456458 13.584926 0.000000 0.056525
397.000000 82.349000 -8.000000 3.000000 5.000000 133.284048 -16.739406 1298.710785 -117.538773 12.135952 0.000000 0.029533
399.000000 48.997000 -13.000000 4.000000 5.000000 109.776381 -17.362676 1311.520346 535.536354 20.404393 0.000000 0.123962
400.000000 53.545000 -12.000000 4.000000 5.000000 113.480837 -18.782742 1341.038734 447.142122 18.670175 0.000000 0.104299
401.000000 58.773000 -11.000000 4.000000 5.000000 117.684699 -20.593038 1379.403183 337.753390 17.008066 0.000000 0.076726
402.000000 64.783000 -10.000000 4.000000 5.000000 122.465218 -22.974338 1431.291017 197.248590 15.428988 0.000000 0.039688
403.000000 71.665000 -9.000000 4.000000 5.000000 127.894687 -26.233425 1505.382587 7.096613 13.946192 0.000000 0.035453
404.000000 79.467000 -8.000000 4.000000 5.000000 134.008993 -30.925882 1619.809342 -270.998145 12.575903 0.000000 0.117960
406.000000 48.328000 -13.000000 5.000000 5.000000 111.193399 -23.966441 1453.441907 484.300602 20.686270 0.000000 0.086583
407.000000 52.559000 -12.000000 5.000000 5.000000 114.693983 -26.158085 1503.624794 389.625731 19.019799 0.000000 0.057006
408.000000 57.351000 -11.000000 5.000000 5.000000 118.578172 -28.919868 1569.633409 271.189685 17.429334 0.000000 0.016781
409.000000 68.818000 -9.000000 5.000000 5.000000 127.524097 -37.230867 1792.866086 -97.162298 14.523156 0.000000 0.137177
411.000000 47.275000 -13.000000 6.000000 5.000000 111.863513 -30.426327 1607.123055 440.152206 21.146558 0.000000 0.038331
412.000000 51.129000 -12.000000 6.000000 5.000000 115.027541 -33.285542 1681.604476 339.867481 19.551339 0.000000 0.008984
413.000000 55.421000 -11.000000 6.000000 5.000000 118.433681 -36.823899 1780.871397 212.978040 18.036089 0.000000 0.066196
414.000000 60.168000 -10.000000 6.000000 5.000000 122.040467 -41.276483 1919.765199 44.700045 16.612108 0.000000 0.155136
416.000000 45.921000 -13.000000 7.000000 5.000000 111.867915 -36.591829 1774.088555 402.992502 21.769904 0.000000 0.034182
417.000000 49.369000 -12.000000 7.000000 5.000000 114.606991 -39.973577 1877.272618 297.781135 20.248487 0.000000 0.088834
418.000000 53.139000 -11.000000 7.000000 5.000000 117.445978 -44.067003 2016.800464 163.027551 18.810977 0.000000 0.173757
420.000000 47.384000 -12.000000 8.000000 5.000000 113.583217 -46.099202 2093.404050 263.414238 21.096825 0.000000 0.192684
422.000000 45.477000 -9.000000 -5.000000 6.000000 75.458498 45.492126 -119.943993 1339.256261 21.995150 0.000000 0.223648
423.000000 48.154000 -8.000000 -5.000000 6.000000 74.652677 50.242431 -318.755507 1402.888613 20.772271 0.000000 0.322875
426.000000 51.464000 -9.000000 -4.000000 6.000000 83.779583 42.596970 -14.598287 1100.361231 19.433903 0.000000 0.147363
428.000000 48.455000 -11.000000 -3.000000 6.000000 89.835578 30.702289 335.885071 944.592163 20.639547 0.000000 0.106190
429.000000 52.694000 -10.000000 -3.000000 6.000000 91.218150 34.524254 234.612416 913.221586 18.978356 0.000000 0.091089
430.000000 62.482000 -8.000000 -3.000000 6.000000 93.513899 44.441675 -80.519908 848.430792 16.004236 0.000000 0.138746
431.000000 67.820000 -7.000000 -3.000000 6.000000 94.056167 50.819616 -345.590014 820.191975 14.744157 0.000000 0.269092
432.000000 52.213000 -11.000000 -2.000000 6.000000 96.849055 26.322664 442.532402 796.769937 19.151698 0.000000 0.115519
433.000000 62.902000 -9.000000 -2.000000 6.000000 101.403570 34.666213 230.677116 677.055734 15.895559 0.000000 0.057734
434.000000 76.130000 -7.000000 -2.000000 6.000000 105.499723 47.257558 -189.636767 501.224660 13.132338 0.000000 0.191303
435.000000 46.261000 -13.000000 -1.000000 6.000000 98.171561 15.991387 666.552673 780.227507 21.616050 0.000000 0.154718
436.000000 50.529000 -12.000000 -1.000000 6.000000 100.778572 18.319729 618.638520 725.163863 19.788864 0.000000 0.143802
437.000000 55.448000 -11.000000 -1.000000 6.000000 103.660120 21.162982 558.332755 660.503832 18.032283 0.000000 0.126497
438.000000 61.118000 -10.000000 -1.000000 6.000000 106.820486 24.693215 480.114353 582.880342 16.358335 0.000000 0.099284
439.000000 67.632000 -9.000000 -1.000000 6.000000 110.229514 29.154104 374.610402 486.834124 14.781945 0.000000 0.056213
440.000000 75.039000 -8.000000 -1.000000 6.000000 113.784995 34.887090 224.527195 362.703291 13.321862 0.000000 0.020700
441.000000 83.285000 -7.000000 -1.000000 6.000000 117.243926 42.346723 -5.958003 191.173068 12.001967 0.000000 0.143943
443.000000 48.123000 -13.000000 0.000000 6.000000 103.260656 10.798576 769.713615 682.782526 20.777906 0.000000 0.160589
444.000000 57.989000 -11.000000 0.000000 6.000000 110.032242 15.103782 684.517302 534.533679 17.240366 0.000000 0.132173
445.000000 64.128000 -10.000000 0.000000 6.000000 114.071913 18.160435 621.955827 434.977073 15.588710 0.000000 0.105501
446.000000 79.381000 -8.000000 0.000000 6.000000 123.545711 27.632467 411.550147 135.507053 12.591360 0.000000 0.019081
447.000000 88.558000 -7.000000 0.000000 6.000000 128.758217 35.278008 213.561223 -117.444818 11.285594 0.000000 0.123938
448.000000 49.474000 -13.000000 1.000000 6.000000 107.839237 5.021796 880.423868 593.291799 20.208644 0.000000 0.159449
449.000000 54.218000 -12.000000 1.000000 6.000000 111.511346 6.358049 855.072143 514.164840 18.439096 0.000000 0.147195
450.000000 59.714000 -11.000000 1.000000 6.000000 115.702586 8.062025 822.548386 417.783671 16.740862 0.000000 0.128920
451.000000 66.087000 -10.000000 1.000000 6.000000 120.502275 10.304971 779.307706 296.561549 15.125179 0.000000 0.102046
452.000000 73.461000 -9.000000 1.000000 6.000000 126.001249 13.378956 719.008237 137.175529 13.605771 0.000000 0.063521
453.000000 81.920000 -8.000000 1.000000 6.000000 132.263840 17.817613 629.074720 -86.389841 12.199589 0.000000 0.029258
455.000000 50.281000 -13.000000 2.000000 6.000000 111.764067 -1.306335 999.543592 511.184078 19.882896 0.000000 0.150126
456.000000 60.568000 -11.000000 2.000000 6.000000 120.408320 0.043841 974.176450 309.331605 16.503525 0.000000 0.114385
457.000000 74.234000 -9.000000 2.000000 6.000000 131.926992 2.532713 927.392273 -26.564415 13.463003 0.000000 0.046175
459.000000 46.456000 -14.000000 3.000000 6.000000 111.222059 -7.855180 1123.490116 519.097325 21.520222 0.000000 0.145424
460.000000 50.544000 -13.000000 3.000000 6.000000 114.916839 -8.094230 1128.068782 435.985255 19.778386 0.000000 0.131566
461.000000 60.570000 -11.000000 3.000000 6.000000 123.927945 -8.794568 1141.514665 208.384583 16.502137 0.000000 0.086647
462.000000 66.683000 -10.000000 3.000000 6.000000 129.461300 -9.337249 1151.968502 43.094930 14.987989 0.000000 0.053162
464.000000 50.295000 -13.000000 4.000000 6.000000 117.221683 -15.186936 1267.159180 367.309460 19.875476 0.000000 0.102644
465.000000 59.800000 -11.000000 4.000000 6.000000 126.131495 -18.116872 1327.138016 114.259831 16.713869 0.000000 0.045341
466.000000 71.841000 -9.000000 4.000000 6.000000 137.531948 -23.635050 1446.005697 -342.552138 13.910233 0.000000 0.084999
467.000000 45.882000 -14.000000 5.000000 6.000000 115.079108 -20.623794 1380.062621 402.814930 21.787582 0.000000 0.088658
468.000000 49.591000 -13.000000 5.000000 6.000000 118.658145 -22.379833 1418.173368 304.853067 20.156785 0.000000 0.062088
469.000000 53.746000 -12.000000 5.000000 6.000000 122.627448 -24.592223 1467.589284 183.217944 18.597388 0.000000 0.029677
470.000000 58.384000 -11.000000 5.000000 6.000000 127.019358 -27.455309 1534.216751 26.369681 17.118742 0.000000 0.036712
471.000000 63.527000 -10.000000 5.000000 6.000000 131.844507 -31.282389 1628.944145 -186.782316 15.731905 0.000000 0.104023
473.000000 48.507000 -13.000000 6.000000 6.000000 119.264422 -29.450588 1582.713298 248.391454 20.606875 0.000000 0.010424
474.000000 56.469000 -11.000000 6.000000 6.000000 126.724317 -36.337401 1766.698938 -55.789942 17.699197 0.000000 0.119159
475.000000 47.123000 -13.000000 7.000000 6.000000 119.128645 -36.198371 1762.681333 197.778538 21.211985 0.000000 0.062641
476.000000 50.525000 -12.000000 7.000000 6.000000 122.249698 -39.876434 1874.169798 56.119111 19.782525 0.000000 0.134430
479.000000 45.518000 -13.000000 8.000000 6.000000 118.371179 -42.474297 1960.354136 152.949350 21.959810 0.000000 0.150505
481.000000 46.481000 -9.000000 -5.000000 7.000000 80.951773 50.012790 -308.259225 1207.717451 21.517912 0.000000 0.284852
484.000000 48.684000 -10.000000 -4.000000 7.000000 89.011117 42.814392 -22.161717 966.325697 20.541795 0.000000 0.130566
485.000000 52.079000 -9.000000 -4.000000 7.000000 89.363786 47.578416 -202.801259 958.717211 19.202343 0.000000 0.202722
488.000000 45.715000 -12.000000 -3.000000 7.000000 94.101106 31.563269 313.810109 850.430832 21.874819 0.000000 0.094687
489.000000 49.337000 -11.000000 -3.000000 7.000000 95.585508 35.230313 214.904795 812.141531 20.268017 0.000000 0.076526
490.000000 53.298000 -10.000000 -3.000000 7.000000 96.984017 39.527673 86.898032 770.061816 18.761107 0.000000 0.077522
491.000000 57.557000 -9.000000 -3.000000 7.000000 98.180310 44.570281 -85.269720 723.817267 17.372179 0.000000 0.133329
492.000000 62.011000 -8.000000 -3.000000 7.000000 98.998756 50.469080 -329.214741 673.214019 16.123969 0.000000 0.259299
494.000000 48.732000 -12.000000 -2.000000 7.000000 100.604712 27.506988 414.549799 713.801642 20.518341 0.000000 0.101118
495.000000 52.900000 -11.000000 -2.000000 7.000000 102.822679 31.138848 324.742069 654.785082 18.900954 0.000000 0.071938
496.000000 57.531000 -10.000000 -2.000000 7.000000 105.071408 35.504705 207.153402 584.972716 17.378391 0.000000 0.040688
497.000000 62.613000 -9.000000 -2.000000 7.000000 107.237665 40.782699 46.534688 499.970421 15.967112 0.000000 0.078239
498.000000 68.064000 -8.000000 -2.000000 7.000000 109.128258 47.168791 -186.022911 391.908440 14.687620 0.000000 0.200581
500.000000 47.229000 -13.000000 -1.000000 7.000000 104.158042 19.918880 584.985729 652.218051 21.170137 0.000000 0.130712
501.000000 51.326000 -12.000000 -1.000000 7.000000 106.922426 22.757349 523.510026 585.891906 19.479446 0.000000 0.109627
502.000000 55.951000 -11.000000 -1.000000 7.000000 109.902080 26.225660 444.798703 506.628792 17.868113 0.000000 0.078412
503.000000 61.147000 -10.000000 -1.000000 7.000000 113.058423 30.523415 340.421612 409.140177 16.348668 0.000000 0.031636
504.000000 66.924000 -9.000000 -1.000000 7.000000 116.295812 35.917913 195.379953 284.292658 14.936428 0.000000 0.043329
505.000000 73.226000 -8.000000 -1.000000 7.000000 119.417613 42.747790 -19.839226 114.557949 13.650314 0.000000 0.165080
507.000000 46.322000 -14.000000 1.000000 7.000000 110.831497 7.311615 836.901753 528.119695 21.582683 0.000000 0.148072
508.000000 50.303000 -13.000000 1.000000 7.000000 114.323932 8.840094 807.609553 448.644539 19.873201 0.000000 0.133064
509.000000 54.825000 -12.000000 1.000000 7.000000 118.239573 10.759484 770.474573 352.594166 18.232797 0.000000 0.112009
510.000000 59.956000 -11.000000 1.000000 7.000000 122.631488 13.235177 721.860200 233.042994 16.671143 0.000000 0.082785
511.000000 65.755000 -10.000000 1.000000 7.000000 127.542596 16.535068 655.470437 78.176917 15.199802 0.000000 0.044561
512.000000 72.248000 -9.000000 1.000000 7.000000 132.979394 21.114710 559.375094 -134.119602 13.832719 0.000000 0.040890
514.000000 47.047000 -14.000000 2.000000 7.000000 114.657903 1.371933 949.223481 446.776014 21.248602 0.000000 0.139793
515.000000 51.063000 -13.000000 2.000000 7.000000 118.491500 2.259214 932.538922 356.372193 19.576054 0.000000 0.123113
516.000000 55.612000 -12.000000 2.000000 7.000000 122.819587 3.393466 911.179504 245.635527 17.973640 0.000000 0.100604
517.000000 60.755000 -11.000000 2.000000 7.000000 127.722812 4.893060 882.860348 105.415351 16.450861 0.000000 0.070810
518.000000 66.541000 -10.000000 2.000000 7.000000 133.288707 6.964856 843.517765 -80.385051 15.019016 0.000000 0.034168
519.000000 72.986000 -9.000000 2.000000 7.000000 139.599641 10.003118 785.159891 -343.146651 13.691646 0.000000 0.029410
521.000000 47.340000 -14.000000 3.000000 7.000000 117.816446 -5.044759 1070.010830 370.931247 21.115794 0.000000 0.123723
522.000000 51.296000 -13.000000 3.000000 7.000000 121.854166 -4.943298 1068.090354 269.763099 19.486150 0.000000 0.104072
523.000000 55.750000 -12.000000 3.000000 7.000000 126.415862 -4.811977 1065.605541 144.219014 17.928132 0.000000 0.078592
524.000000 60.750000 -11.000000 3.000000 7.000000 131.592823 -4.635342 1062.264802 -17.472652 16.451140 0.000000 0.046798
525.000000 66.329000 -10.000000 3.000000 7.000000 137.492278 -4.385051 1057.533866 -236.698766 15.066294 0.000000 0.013747
528.000000 47.222000 -14.000000 4.000000 7.000000 120.229358 -11.820849 1200.258352 300.254917 21.167998 0.000000 0.098947
529.000000 51.032000 -13.000000 4.000000 7.000000 124.309993 -12.604990 1215.678700 188.387052 19.586090 0.000000 0.074933
530.000000 55.287000 -12.000000 4.000000 7.000000 128.889532 -13.624119 1235.862619 47.729717 18.077608 0.000000 0.046214
531.000000 60.016000 -11.000000 4.000000 7.000000 134.042250 -15.001413 1263.420626 -136.626294 16.651893 0.000000 0.028150
532.000000 65.229000 -10.000000 4.000000 7.000000 139.846136 -16.963035 1303.297040 -392.730880 15.319946 0.000000 0.060289
534.000000 46.728000 -14.000000 5.000000 7.000000 121.859896 -18.786750 1341.122738 234.469287 21.390660 0.000000 0.064637
535.000000 50.326000 -13.000000 5.000000 7.000000 125.816717 -20.479999 1376.981765 111.868881 19.860372 0.000000 0.036966
536.000000 54.300000 -12.000000 5.000000 7.000000 130.192144 -22.667961 1424.516647 -44.405100 18.405514 0.000000 0.033015
537.000000 58.664000 -11.000000 5.000000 7.000000 135.016364 -25.594157 1490.538872 -253.076063 17.035401 0.000000 0.080698
539.000000 45.912000 -14.000000 6.000000 7.000000 122.718929 -25.741990 1493.957260 173.346367 21.770710 0.000000 0.023065
540.000000 49.247000 -13.000000 6.000000 7.000000 126.402088 -28.278519 1554.004370 39.883101 20.295135 0.000000 0.037760
541.000000 52.887000 -12.000000 6.000000 7.000000 130.382824 -31.506414 1634.719721 -132.729426 18.897121 0.000000 0.094532
544.000000 47.872000 -13.000000 7.000000 7.000000 126.158150 -35.726890 1749.162102 -27.850032 20.877949 0.000000 0.107123
551.000000 45.883000 -11.000000 -4.000000 8.000000 93.292985 43.007413 -28.921040 856.315939 21.794356 0.000000 0.119883
553.000000 46.187000 -12.000000 -3.000000 8.000000 99.171068 35.857056 197.121623 726.603914 21.649077 0.000000 0.062687
554.000000 49.543000 -11.000000 -3.000000 8.000000 100.620507 39.941203 73.762399 677.766968 20.181619 0.000000 0.071161
555.000000 53.122000 -10.000000 -3.000000 8.000000 101.901179 44.681815 -89.406034 621.975136 18.821443 0.000000 0.134467
556.000000 56.851000 -9.000000 -3.000000 8.000000 102.873735 50.168416 -315.361479 556.968186 17.586475 0.000000 0.256425
558.000000 45.544000 -13.000000 -2.000000 8.000000 103.701297 28.562707 389.093767 642.241306 21.953250 0.000000 0.085680
559.000000 52.871000 -11.000000 -2.000000 8.000000 108.010754 36.231162 186.372387 507.184400 18.909252 0.000000 0.031800
560.000000 61.413000 -9.000000 -2.000000 8.000000 111.939479 47.094400 -183.003599 304.199160 16.277544 0.000000 0.210842
561.000000 47.661000 -13.000000 -1.000000 8.000000 109.586078 24.170782 491.953737 521.243008 20.976345 0.000000 0.092509
562.000000 51.487000 -12.000000 -1.000000 8.000000 112.380129 27.562005 413.235438 441.085113 19.416491 0.000000 0.058361
563.000000 55.712000 -11.000000 -1.000000 8.000000 115.297969 31.694052 310.421453 343.120302 17.943080 0.000000 0.009292
564.000000 60.329000 -10.000000 -1.000000 8.000000 118.253421 36.778833 170.448979 218.864163 16.568834 0.000000 0.065463
565.000000 65.290000 -9.000000 -1.000000 8.000000 121.086616 43.074197 -31.269585 52.641216 15.309100 0.000000 0.182740
567.000000 49.357000 -13.000000 0.000000 8.000000 115.156193 19.060176 603.137277 406.220437 20.253585 0.000000 0.096823
568.000000 57.933000 -11.000000 0.000000 8.000000 122.271251 26.099271 447.745858 184.180119 17.253357 0.000000 0.023007
570.000000 46.811000 -14.000000 1.000000 8.000000 116.602284 11.069712 764.430258 391.759304 21.354772 0.000000 0.118687
571.000000 50.578000 -13.000000 1.000000 8.000000 120.247430 13.142471 723.697324 296.507672 19.762983 0.000000 0.095591
572.000000 54.780000 -12.000000 1.000000 8.000000 124.265803 15.767123 671.106349 179.074610 18.246131 0.000000 0.065091
573.000000 59.441000 -11.000000 1.000000 8.000000 128.671395 19.180892 600.597104 28.977553 16.814069 0.000000 0.031428
574.000000 64.566000 -10.000000 1.000000 8.000000 133.441268 23.762813 501.131858 -172.687207 15.478456 0.000000 0.057597
576.000000 51.297000 -13.000000 2.000000 8.000000 124.686513 6.368561 854.872225 191.487993 19.485015 0.000000 0.086940
577.000000 60.195000 -11.000000 2.000000 8.000000 134.193777 10.693099 771.766341 -123.915126 16.602365 0.000000 0.026564
579.000000 47.770000 -14.000000 3.000000 8.000000 124.015201 -1.794185 1008.714573 214.258524 20.923520 0.000000 0.094818
580.000000 51.512000 -13.000000 3.000000 8.000000 128.307089 -1.231037 998.128435 90.581467 19.402288 0.000000 0.069590
581.000000 55.654000 -12.000000 3.000000 8.000000 133.113760 -0.486067 984.130924 -66.699558 17.957334 0.000000 0.039076
582.000000 60.207000 -11.000000 3.000000 8.000000 138.510316 0.545297 964.756355 -276.025946 16.598094 0.000000 0.005732
585.000000 51.254000 -13.000000 4.000000 8.000000 130.974088 -9.505472 1155.215570 -6.767098 19.499255 0.000000 0.043949
586.000000 59.540000 -11.000000 4.000000 8.000000 141.331086 -10.990427 1184.023807 -429.057758 16.783413 0.000000 0.040337
587.000000 47.156000 -14.000000 5.000000 8.000000 128.334560 -16.606501 1295.990237 52.896734 21.194577 0.000000 0.040087
588.000000 50.572000 -13.000000 5.000000 8.000000 132.612534 -18.169761 1328.238225 -101.100457 19.761976 0.000000 0.030505
589.000000 54.287000 -12.000000 5.000000 8.000000 137.327570 -20.252650 1372.122482 -303.432248 18.408205 0.000000 0.062734
591.000000 49.528000 -13.000000 6.000000 8.000000 133.229513 -26.845594 1519.750803 -192.962204 20.177919 0.000000 0.076670
597.000000 45.795000 -11.000000 -4.000000 9.000000 97.561125 47.428321 -196.623030 729.821028 21.834011 0.000000 0.186881
600.000000 49.190000 -11.000000 -3.000000 9.000000 104.931486 44.779463 -93.040501 536.655421 20.324735 0.000000 0.139594
601.000000 52.336000 -10.000000 -3.000000 9.000000 105.986462 49.907701 -303.489251 462.215459 19.102555 0.000000 0.257238
602.000000 45.623000 -13.000000 -2.000000 9.000000 108.352683 32.895530 278.833109 515.771254 21.913402 0.000000 0.037214
603.000000 48.830000 -12.000000 -2.000000 9.000000 110.414999 36.866438 167.880824 440.283907 20.473221 0.000000 0.034895
604.000000 52.263000 -11.000000 -2.000000 9.000000 112.398497 41.537642 21.513956 348.386159 19.127700 0.000000 0.104948
605.000000 55.875000 -10.000000 -2.000000 9.000000 114.179074 47.031154 -180.443262 232.031415 17.890328 0.000000 0.220833
607.000000 47.620000 -13.000000 -1.000000 9.000000 114.410931 28.736416 384.856676 383.913290 20.992307 0.000000 0.039512
608.000000 51.113000 -12.000000 -1.000000 9.000000 117.111353 32.705532 283.884604 286.141000 19.556838 0.000000 0.011406
609.000000 54.880000 -11.000000 -1.000000 9.000000 119.820618 37.508350 148.881127 163.309950 18.213469 0.000000 0.085158
610.000000 58.882000 -10.000000 -1.000000 9.000000 122.407782 43.344998 -40.845511 1.491862 16.974890 0.000000 0.197592
612.000000 46.880000 -14.000000 1.000000 9.000000 121.863405 15.255988 681.447655 247.583064 21.321349 0.000000 0.080031
613.000000 50.372000 -13.000000 1.000000 9.000000 125.546880 17.968703 625.940661 132.524007 19.842210 0.000000 0.049434
614.000000 54.191000 -12.000000 1.000000 9.000000 129.520505 21.421955 552.729045 -12.765666 18.442822 0.000000 0.028393
615.000000 58.330000 -11.000000 1.000000 9.000000 133.747482 25.927764 451.734923 -204.540178 17.133068 0.000000 0.074250
617.000000 47.533000 -14.000000 2.000000 9.000000 126.153858 9.015006 804.242768 144.766343 21.027065 0.000000 0.073807
618.000000 51.053000 -13.000000 2.000000 9.000000 130.280321 11.103117 763.778653 11.472700 19.576408 0.000000 0.044956
619.000000 54.894000 -12.000000 2.000000 9.000000 134.802130 13.847685 709.686774 -159.882594 18.205496 0.000000 0.027027
620.000000 59.047000 -11.000000 2.000000 9.000000 139.721742 17.594714 633.688621 -391.432475 16.923930 0.000000 0.063298
622.000000 47.791000 -14.000000 3.000000 9.000000 129.759918 1.982063 937.752323 45.004206 20.912559 0.000000 0.060270
623.000000 51.262000 -13.000000 3.000000 9.000000 134.206983 3.166126 915.464092 -107.506142 19.495412 0.000000 0.031352
626.000000 47.671000 -14.000000 4.000000 9.000000 132.556664 -5.753451 1083.442617 -52.205268 20.964679 0.000000 0.039741
627.000000 51.025000 -13.000000 4.000000 9.000000 137.152737 -5.740351 1083.194048 -225.218762 19.585228 0.000000 0.016152
628.000000 54.645000 -12.000000 4.000000 9.000000 142.250580 -5.722283 1082.851230 -456.044046 18.286557 0.000000 0.024200
630.000000 47.203000 -14.000000 5.000000 9.000000 134.457568 -13.985464 1243.060292 -147.368172 21.171526 0.000000 0.027225
631.000000 50.386000 -13.000000 5.000000 9.000000 138.996417 -15.310675 1269.656334 -342.533439 19.833238 0.000000 0.047784
634.000000 46.433000 -14.000000 6.000000 9.000000 135.435697 -22.403923 1418.702694 -241.007028 21.522308 0.000000 0.062738
638.000000 45.722000 -12.000000 -3.000000 10.000000 107.443849 44.865667 -96.259228 463.837464 21.865745 0.000000 0.146860
639.000000 48.400000 -11.000000 -3.000000 10.000000 108.538059 49.679477 -293.201479 383.220880 20.655328 0.000000 0.259958
641.000000 51.212000 -11.000000 -2.000000 10.000000 116.004000 46.976723 -178.244638 171.484644 19.518986 0.000000 0.230094
642.000000 47.184000 -13.000000 -1.000000 10.000000 118.607498 33.587727 260.244069 236.354852 21.184645 0.000000 0.029735
643.000000 50.312000 -12.000000 -1.000000 10.000000 121.102538 38.134223 130.038882 115.478702 19.866851 0.000000 0.102539
646.000000 45.596000 -14.000000 0.000000 10.000000 121.516690 25.238355 467.654052 211.365069 21.921869 0.000000 0.031009
647.000000 48.683000 -13.000000 0.000000 10.000000 124.578113 28.955519 379.492170 93.134199 20.530858 0.000000 0.030318
648.000000 51.988000 -12.000000 0.000000 10.000000 127.713476 33.524477 261.954939 -57.331693 19.224339 0.000000 0.095091
650.000000 46.587000 -14.000000 1.000000 10.000000 126.569631 19.895224 585.488382 91.879618 21.454096 0.000000 0.036612
651.000000 49.766000 -13.000000 1.000000 10.000000 130.174013 23.339019 510.605282 -48.681663 20.082300 0.000000 0.035304
652.000000 53.174000 -12.000000 1.000000 10.000000 133.954457 27.725941 409.311108 -231.314819 18.794165 0.000000 0.089768
654.000000 50.413000 -13.000000 2.000000 10.000000 135.213320 16.536217 655.446944 -190.121820 19.823403 0.000000 0.034414
656.000000 47.458000 -14.000000 3.000000 10.000000 134.996953 6.380667 854.641985 -141.887787 21.057769 0.000000 0.025157
657.000000 50.623000 -13.000000 3.000000 10.000000 139.489051 8.388235 816.292504 -332.312672 19.740136 0.000000 0.023507
661.000000 46.919000 -14.000000 5.000000 10.000000 140.187250 -10.790086 1180.121117 -373.464319 21.298606 0.000000 0.034719
668.000000 46.432000 -13.000000 -1.000000 11.000000 122.169942 38.676953 113.436284 73.821678 21.526706 0.000000 0.117918
671.000000 45.992000 -14.000000 1.000000 11.000000 130.686994 24.994114 473.250349 -79.944351 21.729940 0.000000 0.046410
672.000000 48.844000 -13.000000 1.000000 11.000000 134.096124 29.240477 372.481218 -254.149883 20.460144 0.000000 0.103974
674.000000 46.584000 -14.000000 2.000000 11.000000 135.490885 18.845287 607.649987 -215.913789 21.452637 0.000000 0.044690
677.000000 46.831000 -14.000000 3.000000 11.000000 139.675519 11.502728 755.972091 -353.013905 21.338454 0.000000 0.035288
#UB matrix in q= (UB) B0 G* 
#[[ 0.490850304 -0.360140299 -0.792184385]
# [ 0.088567128 -0.884947507  0.457179989]
# [-0.866730548 -0.294946755 -0.403034937]]
#B0 matrix in q= UB (B0) G*
#[[ 0.19670273 -0.          0.03056101]
# [ 0.          0.19187965 -0.        ]
# [ 0.          0.          0.18806537]]
#UBB0 matrix in q= (UB B0) G* i.e. recip. basis vectors are columns in LT frame: astar = UBB0[:,0], bstar = UBB0[:,1], cstar = UBB0[:,2]. (abcstar as columns on xyzlab1, xlab1 = ui, ui = unit vector along incident beam)
#[[ 0.0965516  -0.0691036  -0.13398157]
# [ 0.0174214  -0.16980342  0.08868642]
# [-0.17048827 -0.05659428 -0.10228507]]
#Euler angles phi theta psi (deg)
#[288.77  113.736  60.054]
#deviatoric strain in direct crystal frame (10-3 unit)
#[[  6.05  -0.27  -1.02]
# [ -0.27   5.97   0.31]
# [ -1.02   0.31 -12.02]]
#deviatoric strain in sample2 frame (10-3 unit)
#[[-7.65  7.42  2.17]
# [ 7.43  1.92 -1.52]
# [ 2.16 -1.51  5.72]]
#new lattice parameters
#[ 5.1505     5.2111819  5.3190567 89.9765296 99.2886798 90.0313351]
#CCDLabel
#sCMOS
#DetectorParameters
#[79.0, 975.0, 941.0, 0.0, 0.0]
#pixelsize
#0.0734
#Frame dimensions
#[2018, 2016]
#
