#Strain and Orientation Refinement from experimental file: /home/micha/LaueProjects/DepthEffects/testZrO2_180.cor
#File created at Wed Jun 28 14:28:59 2023 with indexingSpotsSet.py
#Number of indexed spots: 537
#Element
#ZrO2
#grainIndex
#G_0
#Mean Deviation(pixel): 0.116
##spot_index intensity h k l 2theta Chi Xexp Yexp Energy GrainIndex PixDev
0.000000 45.496000 4.000000 -3.000000 -17.000000 133.635955 21.394393 553.326376 -161.179362 21.966471 0.000000 0.048218
5.000000 46.336000 6.000000 -2.000000 -17.000000 141.529756 3.128681 916.169620 -415.552681 21.566256 0.000000 0.007609
6.000000 45.569000 7.000000 -2.000000 -17.000000 140.537588 -6.710767 1101.640575 -375.415081 21.929538 0.000000 0.026395
12.000000 45.891000 3.000000 -4.000000 -16.000000 124.222683 25.208126 468.347895 131.872155 21.780431 0.000000 0.019949
13.000000 46.067000 1.000000 -1.000000 -4.000000 125.962221 17.595640 633.669487 121.782006 5.424146 0.000000 0.042576
14.000000 45.879000 5.000000 -4.000000 -16.000000 126.835567 9.731522 790.416155 123.016213 21.785426 0.000000 0.061777
16.000000 47.299000 2.000000 -3.000000 -16.000000 127.972866 35.557018 205.669582 -91.617406 21.130510 0.000000 0.126618
17.000000 47.859000 3.000000 -3.000000 -16.000000 130.843791 27.624587 411.738712 -109.184937 20.882339 0.000000 0.069219
18.000000 48.024000 4.000000 -3.000000 -16.000000 132.791565 18.967242 605.090332 -112.569165 20.810189 0.000000 0.033946
19.000000 47.799000 5.000000 -3.000000 -16.000000 133.709877 9.914986 786.866489 -103.484244 20.907958 0.000000 0.026629
20.000000 47.208000 6.000000 -3.000000 -16.000000 133.582063 0.900839 958.076461 -83.425511 21.169822 0.000000 0.033044
21.000000 46.290000 7.000000 -3.000000 -16.000000 132.488428 -7.652673 1119.615507 -53.701452 21.590223 0.000000 0.035709
26.000000 49.437000 5.000000 -2.000000 -16.000000 140.742731 10.165025 782.022293 -396.978908 20.213460 0.000000 0.031785
27.000000 48.795000 3.000000 -1.000000 -8.000000 140.463919 -0.455146 983.550048 -363.016579 10.239710 0.000000 0.005580
28.000000 47.811000 7.000000 -2.000000 -16.000000 139.026861 -10.359768 1171.755848 -318.845906 20.901613 0.000000 0.034993
29.000000 46.536000 4.000000 -1.000000 -8.000000 136.654885 -19.110366 1347.918399 -265.845030 10.737437 0.000000 0.061132
37.000000 45.863000 3.000000 -5.000000 -15.000000 115.974304 21.494883 551.147443 377.459521 21.796739 0.000000 0.071964
38.000000 45.993000 4.000000 -5.000000 -15.000000 117.441680 14.464686 697.359003 363.812515 21.734773 0.000000 0.096092
39.000000 45.730000 2.000000 -2.000000 -6.000000 118.112349 7.319327 836.754502 361.290483 8.743756 0.000000 0.110808
40.000000 45.528000 0.000000 -4.000000 -15.000000 113.265967 43.638712 -51.328754 301.557984 21.956998 0.000000 0.154704
41.000000 46.894000 1.000000 -4.000000 -15.000000 117.130829 37.536152 148.050875 245.514393 21.316367 0.000000 0.077177
42.000000 47.868000 2.000000 -4.000000 -15.000000 120.387765 30.699521 335.955384 206.983138 20.881593 0.000000 0.020861
43.000000 48.416000 3.000000 -4.000000 -15.000000 122.879490 23.215827 513.347724 183.960244 20.644755 0.000000 0.030212
44.000000 48.524000 4.000000 -4.000000 -15.000000 124.482972 15.273904 681.086032 174.686192 20.598332 0.000000 0.058586
45.000000 48.204000 5.000000 -4.000000 -15.000000 125.136158 7.152569 839.937520 177.611936 20.735177 0.000000 0.075968
46.000000 47.487000 6.000000 -4.000000 -15.000000 124.854061 -0.829875 990.590199 191.370304 21.048500 0.000000 0.083021
47.000000 46.422000 7.000000 -4.000000 -15.000000 123.725205 -8.385909 1133.662851 214.751807 21.531839 0.000000 0.080960
50.000000 49.138000 1.000000 -3.000000 -15.000000 123.430207 41.338333 28.175775 -5.295365 20.340672 0.000000 0.176492
51.000000 50.160000 2.000000 -3.000000 -15.000000 127.134553 33.860401 252.839522 -40.476599 19.925310 0.000000 0.099995
52.000000 50.722000 1.000000 -1.000000 -5.000000 129.968388 25.448617 462.818278 -58.042792 6.568087 0.000000 0.048052
53.000000 50.808000 4.000000 -3.000000 -15.000000 131.754863 16.337423 659.506287 -60.221053 19.670256 0.000000 0.027797
54.000000 50.433000 5.000000 -3.000000 -15.000000 132.397350 6.932913 844.126708 -48.938727 19.816386 0.000000 0.035725
55.000000 49.633000 2.000000 -1.000000 -5.000000 131.911910 -2.274947 1017.757077 -25.869567 6.712026 0.000000 0.042445
56.000000 48.462000 7.000000 -3.000000 -15.000000 130.423960 -10.853217 1181.350351 7.528210 20.623071 0.000000 0.040978
57.000000 46.986000 8.000000 -3.000000 -15.000000 128.129779 -18.530126 1335.752408 49.980378 21.271407 0.000000 0.032860
61.000000 52.759000 4.000000 -2.000000 -15.000000 139.199605 17.796215 629.518144 -368.543745 18.940928 0.000000 0.060685
62.000000 52.337000 5.000000 -2.000000 -15.000000 139.846894 6.630455 849.888710 -343.328953 19.093650 0.000000 0.016370
63.000000 51.466000 6.000000 -2.000000 -15.000000 139.111171 -4.238490 1054.765082 -305.406589 19.417169 0.000000 0.016208
64.000000 50.204000 7.000000 -2.000000 -15.000000 137.177848 -14.118998 1245.725856 -256.568167 19.905417 0.000000 0.041735
65.000000 48.625000 8.000000 -2.000000 -15.000000 134.331490 -22.650987 1424.142224 -198.347343 20.552612 0.000000 0.066213
66.000000 46.804000 9.000000 -2.000000 -15.000000 130.867176 -29.792440 1591.210961 -132.062167 21.353238 0.000000 0.093653
75.000000 46.671000 1.000000 -5.000000 -14.000000 108.870246 33.096267 273.472505 501.881322 21.421485 0.000000 0.029893
76.000000 47.659000 2.000000 -5.000000 -14.000000 111.772161 26.546234 437.294640 460.457878 20.976775 0.000000 0.059632
77.000000 48.182000 3.000000 -5.000000 -14.000000 113.932342 19.543488 592.944597 434.122713 20.748541 0.000000 0.090734
78.000000 48.229000 4.000000 -5.000000 -14.000000 115.262017 12.264977 741.018992 421.247648 20.727807 0.000000 0.112189
79.000000 47.818000 5.000000 -5.000000 -14.000000 115.730118 4.935473 882.057746 420.387253 20.906090 0.000000 0.124111
80.000000 46.988000 6.000000 -5.000000 -14.000000 115.369668 -2.210823 1016.550661 430.255809 21.275361 0.000000 0.127483
81.000000 45.799000 7.000000 -5.000000 -14.000000 114.269697 -8.972726 1144.943107 449.707535 21.828018 0.000000 0.123390
82.000000 46.138000 -1.000000 -4.000000 -14.000000 107.114194 48.238824 -230.412497 443.417840 21.668540 0.000000 0.228262
83.000000 48.069000 0.000000 -2.000000 -7.000000 111.596717 42.583496 -14.131295 362.338673 10.398607 0.000000 0.128400
84.000000 49.593000 1.000000 -4.000000 -14.000000 115.578252 36.139406 189.018272 303.083314 20.156732 0.000000 0.051046
85.000000 50.645000 1.000000 -2.000000 -7.000000 118.868739 28.926788 380.196909 263.035734 9.868714 0.000000 0.008697
86.000000 51.181000 3.000000 -4.000000 -14.000000 121.293486 21.065711 560.432445 239.916146 19.530162 0.000000 0.048971
87.000000 51.190000 2.000000 -2.000000 -7.000000 122.726263 12.791578 730.638315 231.731797 9.763148 0.000000 0.075852
88.000000 50.693000 5.000000 -4.000000 -14.000000 123.119916 4.429350 891.629044 236.735945 19.717652 0.000000 0.090259
89.000000 49.738000 3.000000 -2.000000 -7.000000 122.519585 -3.675214 1044.133286 253.393498 10.048242 0.000000 0.093836
90.000000 48.393000 7.000000 -4.000000 -14.000000 121.050177 -11.235487 1188.804844 280.352085 20.655452 0.000000 0.088059
91.000000 46.738000 4.000000 -2.000000 -7.000000 118.884469 -18.073295 1326.232045 316.417610 10.693797 0.000000 0.074290
94.000000 52.252000 1.000000 -3.000000 -14.000000 122.364770 39.957324 73.247125 51.125638 19.128972 0.000000 0.146052
95.000000 53.360000 2.000000 -3.000000 -14.000000 126.134087 31.992142 302.661934 14.447375 18.730947 0.000000 0.072733
96.000000 53.905000 3.000000 -3.000000 -14.000000 128.900471 23.066114 516.673739 -2.939391 18.540787 0.000000 0.030705
97.000000 53.877000 4.000000 -3.000000 -14.000000 130.477238 13.491000 716.783400 -3.566742 18.550165 0.000000 0.034525
98.000000 53.300000 5.000000 -3.000000 -14.000000 130.787228 3.758111 904.302924 10.385166 18.751190 0.000000 0.047887
99.000000 52.227000 6.000000 -3.000000 -14.000000 129.891967 -5.592232 1080.384256 37.032332 19.136384 0.000000 0.051482
100.000000 50.738000 7.000000 -3.000000 -14.000000 127.971504 -14.134874 1246.042973 74.741207 19.698652 0.000000 0.044824
101.000000 48.920000 8.000000 -3.000000 -14.000000 125.267749 -21.647975 1402.177877 122.091008 20.431258 0.000000 0.030268
102.000000 46.866000 9.000000 -3.000000 -14.000000 122.026199 -28.095845 1549.587314 177.842474 21.327805 0.000000 0.019005
106.000000 56.241000 3.000000 -2.000000 -14.000000 136.665208 25.803733 454.612492 -326.087936 17.768954 0.000000 0.096928
107.000000 56.179000 2.000000 -1.000000 -7.000000 138.453450 14.464658 697.359568 -313.298515 8.894141 0.000000 0.040944
108.000000 55.531000 5.000000 -2.000000 -14.000000 138.672458 2.825527 921.879757 -284.422777 17.995885 0.000000 0.007215
109.000000 54.358000 3.000000 -1.000000 -7.000000 137.406706 -8.202883 1130.151651 -241.837766 9.192267 0.000000 0.024861
110.000000 52.744000 7.000000 -2.000000 -14.000000 134.927282 -17.959942 1323.877465 -187.557721 18.947365 0.000000 0.046305
111.000000 50.789000 4.000000 -1.000000 -7.000000 131.582024 -26.196881 1504.529665 -123.297140 9.838928 0.000000 0.070090
112.000000 48.589000 9.000000 -2.000000 -14.000000 127.696817 -32.978832 1673.388466 -50.521360 20.569806 0.000000 0.099987
113.000000 46.237000 5.000000 -1.000000 -7.000000 123.529931 -38.514639 1831.572214 29.512568 10.808659 0.000000 0.137192
122.000000 45.480000 1.000000 -6.000000 -13.000000 99.624127 29.210387 373.223365 731.901993 21.986530 0.000000 0.087478
123.000000 46.458000 2.000000 -6.000000 -13.000000 102.198274 22.989645 518.369734 688.256867 21.522621 0.000000 0.112936
124.000000 46.948000 3.000000 -6.000000 -13.000000 104.078253 16.461032 656.983187 659.552021 21.297782 0.000000 0.134744
125.000000 46.940000 4.000000 -6.000000 -13.000000 105.202121 9.779147 789.495078 644.222279 21.301111 0.000000 0.149471
126.000000 46.457000 5.000000 -6.000000 -13.000000 105.559331 3.121782 916.299603 640.871207 21.522357 0.000000 0.156842
127.000000 45.549000 6.000000 -6.000000 -13.000000 105.191574 -3.337085 1037.757720 648.250872 21.951875 0.000000 0.157414
128.000000 45.512000 -1.000000 -5.000000 -13.000000 98.868270 43.557558 -48.421984 709.267368 21.970093 0.000000 0.125948
129.000000 47.524000 0.000000 -5.000000 -13.000000 102.979609 37.905672 136.956637 626.587626 21.038957 0.000000 0.057513
130.000000 49.096000 1.000000 -5.000000 -13.000000 106.570061 31.618086 312.390915 564.932073 20.364272 0.000000 0.048122
131.000000 50.153000 2.000000 -5.000000 -13.000000 109.473413 24.757087 478.660122 521.908009 19.934208 0.000000 0.080578
132.000000 50.652000 3.000000 -5.000000 -13.000000 111.550463 17.460361 636.464180 495.410355 19.737651 0.000000 0.109050
133.000000 50.583000 4.000000 -5.000000 -13.000000 112.714994 9.937350 786.433512 483.582754 19.764152 0.000000 0.127609
134.000000 49.977000 5.000000 -5.000000 -13.000000 112.952258 2.439985 929.137457 484.784600 20.003874 0.000000 0.136491
135.000000 48.893000 6.000000 -5.000000 -13.000000 112.321468 -4.784804 1065.091495 497.562990 20.447553 0.000000 0.136744
136.000000 47.413000 7.000000 -5.000000 -13.000000 110.940699 -11.540323 1194.763469 520.628773 21.086451 0.000000 0.129585
137.000000 45.627000 8.000000 -5.000000 -13.000000 108.961065 -17.704331 1318.578960 552.836034 21.912324 0.000000 0.116380
139.000000 48.656000 -1.000000 -4.000000 -13.000000 105.001980 47.408067 -195.792032 514.812287 20.548150 0.000000 0.203179
140.000000 50.858000 0.000000 -4.000000 -13.000000 109.670677 41.433485 25.000450 427.814369 19.657245 0.000000 0.102667
141.000000 52.568000 1.000000 -4.000000 -13.000000 113.769398 34.616755 232.049693 365.018297 19.016635 0.000000 0.026309
142.000000 53.700000 2.000000 -4.000000 -13.000000 117.079353 27.000023 426.600139 323.408130 18.614992 0.000000 0.031177
143.000000 54.204000 3.000000 -4.000000 -13.000000 119.407671 18.745080 609.750389 300.368954 18.441663 0.000000 0.069750
144.000000 54.071000 4.000000 -4.000000 -13.000000 120.629170 10.141728 782.473956 293.626418 18.486617 0.000000 0.093455
145.000000 53.339000 5.000000 -4.000000 -13.000000 120.720016 1.562754 945.636578 301.196603 18.740403 0.000000 0.104228
146.000000 52.079000 6.000000 -4.000000 -13.000000 119.764642 -6.625173 1100.010732 321.344240 19.194108 0.000000 0.103901
147.000000 50.387000 7.000000 -4.000000 -13.000000 117.930626 -14.147132 1246.287857 352.547714 19.839320 0.000000 0.094148
148.000000 48.368000 8.000000 -4.000000 -13.000000 115.425491 -20.857798 1385.088718 393.469641 20.668091 0.000000 0.076672
149.000000 46.127000 9.000000 -4.000000 -13.000000 112.456170 -26.727719 1516.972202 442.931998 21.672906 0.000000 0.053898
152.000000 53.917000 0.000000 -3.000000 -13.000000 116.401874 45.789250 -131.362290 174.728246 18.539891 0.000000 0.214839
153.000000 55.753000 1.000000 -3.000000 -13.000000 121.108942 38.429961 121.022920 111.899378 17.928099 0.000000 0.114339
154.000000 56.952000 2.000000 -3.000000 -13.000000 124.928656 29.929449 355.367022 73.703936 17.549987 0.000000 0.045275
155.000000 57.456000 3.000000 -3.000000 -13.000000 127.588034 20.455727 573.537696 56.740692 17.395327 0.000000 0.027552
156.000000 57.261000 4.000000 -3.000000 -13.000000 128.896178 10.415944 777.153423 58.109550 17.454479 0.000000 0.049015
157.000000 56.408000 5.000000 -3.000000 -13.000000 128.809357 0.392666 967.623705 75.327420 17.718351 0.000000 0.060821
158.000000 54.982000 6.000000 -3.000000 -13.000000 127.449995 -9.037048 1146.181741 106.260134 18.178358 0.000000 0.059666
159.000000 53.091000 7.000000 -3.000000 -13.000000 125.062097 -17.478541 1313.911155 149.066985 18.826388 0.000000 0.047051
160.000000 50.856000 8.000000 -3.000000 -13.000000 121.934628 -24.775878 1471.768007 202.155263 19.654772 0.000000 0.025185
161.000000 48.392000 9.000000 -3.000000 -13.000000 118.337862 -30.956807 1620.599026 264.142762 20.656252 0.000000 0.012993
162.000000 45.806000 10.000000 -3.000000 -13.000000 114.491632 -36.145485 1761.156808 333.826704 21.823952 0.000000 0.047967
165.000000 59.753000 2.000000 -2.000000 -13.000000 132.887425 33.892006 251.978211 -263.344279 16.725299 0.000000 0.145950
166.000000 60.256000 3.000000 -2.000000 -13.000000 135.999728 22.840859 521.664128 -268.354397 16.585195 0.000000 0.071282
167.000000 60.003000 4.000000 -2.000000 -13.000000 137.448332 10.803148 769.624604 -252.598907 16.654706 0.000000 0.024441
168.000000 59.045000 5.000000 -2.000000 -13.000000 137.144448 -1.244595 998.383237 -219.307707 16.925075 0.000000 0.015089
169.000000 57.474000 6.000000 -2.000000 -13.000000 135.272170 -12.321202 1210.087345 -171.185848 17.388023 0.000000 0.030864
170.000000 55.412000 7.000000 -2.000000 -13.000000 132.201401 -21.849940 1406.575577 -110.510661 18.035722 0.000000 0.048516
171.000000 52.991000 8.000000 -2.000000 -13.000000 128.341140 -29.721044 1589.431448 -39.208455 18.860761 0.000000 0.073458
172.000000 50.338000 9.000000 -2.000000 -13.000000 124.040064 -36.106214 1760.026114 41.084407 19.856122 0.000000 0.108123
173.000000 47.564000 10.000000 -2.000000 -13.000000 119.555972 -41.270097 1919.552813 128.972491 21.015150 0.000000 0.151857
184.000000 45.823000 0.000000 -2.000000 -4.000000 93.290069 33.753678 255.743220 866.584513 7.274693 0.000000 0.086722
185.000000 47.398000 1.000000 -6.000000 -12.000000 96.495046 27.696316 410.021152 802.609750 21.097893 0.000000 0.102922
186.000000 48.435000 1.000000 -3.000000 -6.000000 99.048129 21.221863 557.060405 757.136258 10.322822 0.000000 0.127098
187.000000 48.889000 1.000000 -2.000000 -4.000000 100.841630 14.464698 697.358754 728.127616 6.817837 0.000000 0.146754
188.000000 48.757000 2.000000 -3.000000 -6.000000 101.819098 7.601167 831.369361 713.779360 10.254291 0.000000 0.159053
189.000000 48.077000 5.000000 -6.000000 -12.000000 101.985396 0.824774 959.505656 712.489635 20.798793 0.000000 0.163866
190.000000 46.918000 2.000000 -2.000000 -4.000000 101.403783 -5.685091 1082.145605 722.833986 7.104282 0.000000 0.161868
191.000000 47.644000 -1.000000 -5.000000 -12.000000 95.991084 42.576524 -13.889759 787.608260 20.988390 0.000000 0.116610
192.000000 49.927000 0.000000 -5.000000 -12.000000 100.235965 36.631830 174.745240 698.810826 20.027514 0.000000 0.060511
193.000000 51.679000 1.000000 -5.000000 -12.000000 103.896622 30.022535 353.036655 633.446591 19.347390 0.000000 0.068767
194.000000 52.806000 2.000000 -5.000000 -12.000000 106.785816 22.834148 521.812551 588.731755 18.933911 0.000000 0.100759
195.000000 53.255000 3.000000 -5.000000 -12.000000 108.754814 15.237790 681.814902 562.230200 18.773899 0.000000 0.126407
196.000000 53.025000 4.000000 -5.000000 -12.000000 109.724309 7.478685 833.710494 551.804852 18.855031 0.000000 0.141833
197.000000 52.166000 5.000000 -5.000000 -12.000000 109.702481 -0.165037 978.100217 555.576679 19.165770 0.000000 0.147432
198.000000 50.764000 6.000000 -5.000000 -12.000000 108.781060 -7.438778 1115.527006 571.889993 19.695303 0.000000 0.144374
199.000000 48.931000 7.000000 -5.000000 -12.000000 107.111068 -14.156882 1246.482665 599.282984 20.433485 0.000000 0.134080
200.000000 46.787000 8.000000 -5.000000 -12.000000 104.869708 -20.219435 1371.413749 636.462597 21.370791 0.000000 0.118290
201.000000 48.400000 -1.000000 -2.000000 -6.000000 97.293828 51.961039 -400.664679 717.437413 10.329619 0.000000 0.310141
202.000000 51.387000 -1.000000 -4.000000 -12.000000 102.562814 46.502085 -159.260190 592.551460 19.456987 0.000000 0.179399
203.000000 53.918000 0.000000 -2.000000 -6.000000 107.428448 40.176371 66.221387 498.788409 9.271234 0.000000 0.079213
204.000000 55.846000 1.000000 -4.000000 -12.000000 111.642643 32.952840 277.305156 432.058881 17.901286 0.000000 0.018033
205.000000 57.059000 1.000000 -2.000000 -6.000000 114.953064 24.903213 475.327478 388.850058 8.759994 0.000000 0.056211
206.000000 57.497000 3.000000 -4.000000 -12.000000 117.148785 16.241390 661.464296 366.133655 17.385992 0.000000 0.090976
207.000000 56.117000 5.000000 -4.000000 -12.000000 117.854358 -1.443374 1002.119339 372.048277 17.813502 0.000000 0.117444
208.000000 54.467000 3.000000 -2.000000 -6.000000 116.509085 -9.669183 1158.378598 396.430172 9.176798 0.000000 0.112849
209.000000 52.345000 7.000000 -4.000000 -12.000000 114.292634 -17.107433 1306.264205 432.711794 19.098053 0.000000 0.098981
210.000000 49.893000 2.000000 -1.000000 -3.000000 111.447825 -23.654080 1446.431689 479.385367 5.009430 0.000000 0.078184
211.000000 47.240000 9.000000 -4.000000 -12.000000 108.200576 -29.319499 1579.469896 535.129542 21.163978 0.000000 0.054972
214.000000 57.618000 0.000000 -1.000000 -4.000000 114.724352 44.609757 -86.731884 244.849031 5.783163 0.000000 0.180832
215.000000 59.708000 1.000000 -3.000000 -12.000000 119.612483 36.734236 171.754103 177.690294 16.740882 0.000000 0.081334
216.000000 60.999000 2.000000 -3.000000 -12.000000 123.461024 27.646576 411.212422 137.986011 16.385877 0.000000 0.020775
217.000000 60.984000 4.000000 -3.000000 -12.000000 126.930946 7.103493 840.873827 125.728314 16.389277 0.000000 0.066121
218.000000 59.758000 5.000000 -3.000000 -12.000000 126.376155 -3.155843 1034.342147 146.974452 16.725803 0.000000 0.073547
219.000000 57.870000 2.000000 -1.000000 -4.000000 124.498988 -12.590683 1215.396512 183.085249 5.757354 0.000000 0.066655
220.000000 55.474000 7.000000 -3.000000 -12.000000 121.615453 -20.862720 1385.194597 231.972732 18.018689 0.000000 0.047594
221.000000 52.731000 8.000000 -3.000000 -12.000000 118.060311 -27.895259 1544.754472 291.840628 18.956876 0.000000 0.018270
222.000000 49.789000 3.000000 -1.000000 -4.000000 114.122969 -33.780101 1694.975028 361.138882 6.692772 0.000000 0.019737
223.000000 46.771000 10.000000 -3.000000 -12.000000 110.024311 -38.679847 1836.652919 438.526170 21.375183 0.000000 0.064964
226.000000 64.415000 1.000000 -1.000000 -6.000000 132.166449 31.436299 317.090868 -201.466892 7.757499 0.000000 0.113279
227.000000 64.821000 3.000000 -2.000000 -12.000000 135.099569 19.520462 593.431575 -204.905710 15.417233 0.000000 0.047201
228.000000 64.289000 2.000000 -1.000000 -6.000000 136.102021 6.794708 846.760497 -185.425733 7.772430 0.000000 0.018764
229.000000 62.902000 5.000000 -2.000000 -12.000000 135.168200 -5.563382 1079.837138 -146.755923 15.887705 0.000000 0.025172
230.000000 60.805000 3.000000 -1.000000 -6.000000 132.613167 -16.557921 1294.996743 -91.996039 8.218099 0.000000 0.033562
231.000000 58.171000 7.000000 -2.000000 -12.000000 128.914497 -25.753718 1494.228818 -23.737008 17.181329 0.000000 0.048566
232.000000 55.177000 4.000000 -1.000000 -6.000000 124.535103 -33.197450 1679.238829 55.844799 9.057303 0.000000 0.077848
233.000000 51.985000 9.000000 -2.000000 -12.000000 119.835689 -39.158190 1851.497145 144.913081 19.228016 0.000000 0.120096
234.000000 48.729000 5.000000 -1.000000 -6.000000 115.064894 -43.942453 2012.278200 241.912248 10.257000 0.000000 0.172282
235.000000 45.513000 11.000000 -2.000000 -12.000000 110.381092 -47.816925 2162.692077 345.519769 21.965411 0.000000 0.232135
246.000000 45.738000 3.000000 -7.000000 -11.000000 89.333330 11.949016 747.227401 953.801259 21.867683 0.000000 0.155931
247.000000 45.576000 4.000000 -7.000000 -11.000000 90.199768 5.659755 868.335016 937.228990 21.945349 0.000000 0.164110
248.000000 47.554000 0.000000 -6.000000 -11.000000 89.639275 32.405231 291.825029 949.026089 21.030934 0.000000 0.099274
249.000000 49.291000 1.000000 -6.000000 -11.000000 92.874104 26.076404 448.278383 880.841354 20.289165 0.000000 0.116090
250.000000 50.382000 2.000000 -6.000000 -11.000000 95.391981 19.339737 597.248895 833.336958 19.849412 0.000000 0.138529
251.000000 50.776000 3.000000 -6.000000 -11.000000 97.081644 12.354315 739.260862 804.120923 19.694935 0.000000 0.155861
252.000000 50.480000 4.000000 -6.000000 -11.000000 97.895808 5.319237 874.790716 791.086504 19.810206 0.000000 0.165602
253.000000 49.553000 5.000000 -6.000000 -11.000000 97.859381 -1.557910 1004.272367 792.374533 20.180805 0.000000 0.167759
254.000000 48.094000 6.000000 -6.000000 -11.000000 97.061052 -8.095955 1128.101842 806.341312 20.793323 0.000000 0.163174
255.000000 46.223000 7.000000 -6.000000 -11.000000 95.632109 -14.164823 1246.641332 831.531118 21.635273 0.000000 0.153102
256.000000 46.744000 -2.000000 -5.000000 -11.000000 87.853248 47.055995 -181.448163 1000.219661 21.394943 0.000000 0.205575
257.000000 49.831000 -1.000000 -5.000000 -11.000000 92.663256 41.514098 22.303029 874.139024 20.068443 0.000000 0.113203
258.000000 52.435000 0.000000 -5.000000 -11.000000 97.041695 35.251840 214.298576 778.198513 19.070594 0.000000 0.071736
259.000000 54.394000 1.000000 -5.000000 -11.000000 100.764085 28.297850 395.527334 708.613715 18.382924 0.000000 0.089155
260.000000 55.585000 2.000000 -5.000000 -11.000000 103.619870 20.766678 566.870277 662.102465 17.988318 0.000000 0.119497
261.000000 55.949000 3.000000 -5.000000 -11.000000 105.452605 12.868681 729.114817 635.810317 17.870899 0.000000 0.142092
262.000000 55.499000 4.000000 -5.000000 -11.000000 106.195995 4.887429 882.966906 627.248393 18.015917 0.000000 0.154138
263.000000 54.312000 5.000000 -5.000000 -11.000000 105.889262 -2.875499 1029.061304 634.241334 18.409649 0.000000 0.156223
264.000000 52.517000 6.000000 -5.000000 -11.000000 104.663400 -10.164644 1167.970332 654.883523 19.039313 0.000000 0.149717
265.000000 50.265000 7.000000 -5.000000 -11.000000 102.705517 -16.812633 1300.211364 687.502135 19.892988 0.000000 0.136371
266.000000 47.708000 8.000000 -5.000000 -11.000000 100.218363 -22.746632 1426.253268 730.625826 20.959542 0.000000 0.118553
268.000000 50.847000 -2.000000 -4.000000 -11.000000 94.193008 51.285902 -367.757620 814.838051 19.666040 0.000000 0.291109
269.000000 54.330000 -1.000000 -4.000000 -11.000000 99.719710 45.510699 -120.654190 677.926754 18.403934 0.000000 0.158347
270.000000 57.262000 0.000000 -4.000000 -11.000000 104.792185 38.797859 109.703412 576.326856 17.460396 0.000000 0.062003
271.000000 59.446000 1.000000 -4.000000 -11.000000 109.116908 31.130283 324.961655 505.183792 16.817932 0.000000 0.039546
272.000000 60.735000 2.000000 -4.000000 -11.000000 112.402613 22.619232 526.558014 460.355470 16.460304 0.000000 0.081262
273.000000 61.060000 3.000000 -4.000000 -11.000000 114.422031 13.542851 715.753114 438.294472 16.372422 0.000000 0.111865
274.000000 60.440000 4.000000 -4.000000 -11.000000 115.075484 4.322016 893.657107 435.952160 16.540243 0.000000 0.127311
275.000000 58.977000 5.000000 -4.000000 -11.000000 114.422259 -4.581747 1061.251482 450.700181 16.950684 0.000000 0.129365
276.000000 56.830000 6.000000 -4.000000 -11.000000 112.657937 -12.793880 1219.407174 480.265833 17.591537 0.000000 0.120218
277.000000 54.184000 7.000000 -4.000000 -11.000000 110.051709 -20.101499 1368.899705 522.678584 18.451401 0.000000 0.102320
278.000000 51.221000 8.000000 -4.000000 -11.000000 106.880068 -26.448873 1510.421902 576.225596 19.519614 0.000000 0.079271
279.000000 48.102000 9.000000 -4.000000 -11.000000 103.383086 -31.886970 1644.594632 639.414567 20.786196 0.000000 0.059490
281.000000 58.553000 -1.000000 -3.000000 -11.000000 106.842021 50.414159 -326.671082 429.705685 17.074158 0.000000 0.283753
282.000000 61.798000 0.000000 -3.000000 -11.000000 112.735014 43.296819 -39.135595 321.338055 16.176351 0.000000 0.145930
283.000000 64.196000 1.000000 -3.000000 -11.000000 117.807384 34.844211 225.723654 249.350251 15.571228 0.000000 0.047153
284.000000 65.573000 2.000000 -3.000000 -11.000000 121.653610 25.114819 470.487415 208.189770 15.243353 0.000000 0.024188
285.000000 65.853000 3.000000 -3.000000 -11.000000 123.931043 14.464679 697.359135 193.209892 15.178354 0.000000 0.064260
286.000000 65.062000 4.000000 -3.000000 -11.000000 124.476868 3.549827 908.231479 200.502285 15.362839 0.000000 0.083828
287.000000 63.325000 5.000000 -3.000000 -11.000000 123.378360 -6.873416 1104.739257 226.764566 15.784307 0.000000 0.085459
288.000000 60.835000 6.000000 -3.000000 -11.000000 120.934621 -16.229916 1288.301889 269.194670 16.431083 0.000000 0.072162
289.000000 57.808000 7.000000 -3.000000 -11.000000 117.538894 -24.264272 1460.157747 325.405981 17.292242 0.000000 0.046760
290.000000 54.456000 8.000000 -3.000000 -11.000000 113.566852 -30.987845 1621.392128 393.358664 18.357556 0.000000 0.015632
291.000000 50.962000 9.000000 -3.000000 -11.000000 109.318805 -36.553087 1772.960201 471.303763 19.617438 0.000000 0.039389
292.000000 47.468000 10.000000 -3.000000 -11.000000 105.009039 -41.154205 1915.705936 557.737406 21.062891 0.000000 0.090632
294.000000 68.354000 1.000000 -2.000000 -11.000000 126.624477 39.874791 75.882628 -101.469357 14.621866 0.000000 0.177028
295.000000 69.804000 2.000000 -2.000000 -11.000000 131.222075 28.641497 387.173674 -133.428464 14.317345 0.000000 0.080184
296.000000 70.037000 3.000000 -2.000000 -11.000000 133.879801 15.800441 670.430465 -134.653132 14.269340 0.000000 0.029159
297.000000 69.089000 4.000000 -2.000000 -11.000000 134.305095 2.432576 929.276886 -110.445975 14.465052 0.000000 0.028477
298.000000 67.108000 5.000000 -2.000000 -11.000000 132.624545 -10.101074 1166.738026 -65.150031 14.892523 0.000000 0.032987
299.000000 64.312000 6.000000 -2.000000 -11.000000 129.316411 -20.870359 1385.358955 -2.345536 15.540563 0.000000 0.032178
300.000000 60.950000 7.000000 -2.000000 -11.000000 124.967513 -29.635245 1587.296298 74.998937 16.398690 0.000000 0.047732
301.000000 57.259000 8.000000 -2.000000 -11.000000 120.081559 -36.602160 1774.389621 164.409174 17.457077 0.000000 0.086019
302.000000 53.438000 9.000000 -2.000000 -11.000000 115.017781 -42.120834 1948.217633 263.813404 18.706501 0.000000 0.138580
303.000000 49.642000 10.000000 -2.000000 -11.000000 110.005839 -46.524338 2110.142839 371.469640 20.138295 0.000000 0.200840
304.000000 45.979000 11.000000 -2.000000 -11.000000 105.180881 -50.080581 2261.347329 485.907775 21.744311 0.000000 0.270344
315.000000 46.278000 2.000000 -7.000000 -10.000000 83.123265 16.387188 658.490872 1076.298740 21.614723 0.000000 0.140395
316.000000 46.634000 3.000000 -7.000000 -10.000000 84.611805 9.953191 786.126796 1044.067265 21.449436 0.000000 0.151963
317.000000 46.328000 4.000000 -7.000000 -10.000000 85.358986 3.537594 908.462150 1028.538867 21.590936 0.000000 0.158232
318.000000 46.580000 -1.000000 -6.000000 -10.000000 81.534893 37.053581 162.374922 1141.712649 21.473456 0.000000 0.122912
319.000000 49.147000 0.000000 -3.000000 -5.000000 85.404342 30.956678 329.404266 1041.884889 10.175491 0.000000 0.109880
320.000000 51.061000 1.000000 -6.000000 -10.000000 88.656773 24.342033 488.083637 968.699420 19.587661 0.000000 0.125568
321.000000 52.197000 1.000000 -3.000000 -5.000000 91.123847 17.336279 639.023899 918.881148 9.580474 0.000000 0.145833
322.000000 52.499000 3.000000 -6.000000 -10.000000 92.693054 10.126056 782.777754 889.572961 19.050147 0.000000 0.160678
323.000000 51.991000 2.000000 -3.000000 -5.000000 93.330897 2.933493 919.846495 878.276722 9.618111 0.000000 0.167769
324.000000 50.763000 5.000000 -6.000000 -10.000000 93.087426 -4.022462 1050.685851 882.803515 19.701636 0.000000 0.167266
325.000000 48.954000 3.000000 -3.000000 -5.000000 92.080254 -10.563378 1175.711049 901.231537 10.215105 0.000000 0.160249
326.000000 46.721000 7.000000 -6.000000 -10.000000 90.465811 -16.572811 1295.301213 931.870345 21.406988 0.000000 0.148382
327.000000 48.443000 -2.000000 -5.000000 -10.000000 83.796339 46.202750 -147.457122 1110.037873 20.646315 0.000000 0.204254
328.000000 52.003000 -1.000000 -5.000000 -10.000000 88.781685 40.360542 60.279109 971.039133 19.231704 0.000000 0.116006
329.000000 57.181000 1.000000 -5.000000 -10.000000 97.061861 26.431229 439.991483 792.103716 17.488320 0.000000 0.107761
330.000000 58.425000 2.000000 -5.000000 -10.000000 99.861151 18.543777 613.962332 743.662929 17.115266 0.000000 0.135766
331.000000 58.654000 3.000000 -5.000000 -10.000000 101.527126 10.346982 778.492350 717.866162 17.048066 0.000000 0.155052
332.000000 57.905000 4.000000 -5.000000 -10.000000 102.014743 2.164025 934.329721 711.773642 17.268744 0.000000 0.163477
333.000000 54.028000 6.000000 -5.000000 -10.000000 99.871033 -12.952568 1222.543803 748.827602 18.508606 0.000000 0.151914
334.000000 51.287000 7.000000 -5.000000 -10.000000 97.641265 -19.496840 1356.069000 787.819243 19.498240 0.000000 0.135919
335.000000 48.273000 8.000000 -5.000000 -10.000000 94.940216 -25.276144 1483.213824 838.118101 20.716431 0.000000 0.117343
337.000000 53.367000 -1.000000 -2.000000 -5.000000 90.571914 50.547471 -332.855604 924.092473 9.369362 0.000000 0.275858
338.000000 57.462000 -1.000000 -4.000000 -10.000000 96.371305 44.421922 -79.792223 772.729018 17.401878 0.000000 0.142136
339.000000 60.887000 0.000000 -2.000000 -5.000000 101.658454 37.281322 155.637812 661.894629 8.210929 0.000000 0.057747
340.000000 63.372000 1.000000 -4.000000 -10.000000 106.084133 29.129532 375.215478 585.732805 15.776951 0.000000 0.066035
341.000000 64.723000 1.000000 -2.000000 -5.000000 109.312423 20.130158 580.489724 539.285673 7.723584 0.000000 0.105540
342.000000 64.860000 3.000000 -4.000000 -10.000000 111.104043 10.639235 772.814065 518.339461 15.414078 0.000000 0.131603
343.000000 63.839000 2.000000 -2.000000 -5.000000 111.391696 1.150959 953.376465 519.299735 7.830331 0.000000 0.142180
344.000000 61.825000 5.000000 -4.000000 -10.000000 110.300874 -7.841272 1123.223892 539.090066 16.171178 0.000000 0.139252
345.000000 59.052000 3.000000 -2.000000 -5.000000 108.099878 -15.983285 1283.282638 575.069214 8.465521 0.000000 0.125421
346.000000 55.775000 7.000000 -4.000000 -10.000000 105.113006 -23.113367 1434.375215 624.963103 17.926727 0.000000 0.104041
347.000000 52.226000 4.000000 -2.000000 -5.000000 101.645714 -29.228953 1577.234497 686.808648 9.572833 0.000000 0.081120
348.000000 48.598000 9.000000 -4.000000 -10.000000 97.945045 -34.420346 1712.515605 758.907146 20.576168 0.000000 0.070510
350.000000 62.675000 -1.000000 -3.000000 -10.000000 104.117967 49.470552 -283.867963 524.427045 15.952075 0.000000 0.250724
351.000000 66.532000 0.000000 -3.000000 -10.000000 110.344565 41.828077 11.732381 405.422326 15.026052 0.000000 0.111106
352.000000 69.301000 1.000000 -3.000000 -10.000000 115.599912 32.729375 283.251873 328.005332 14.424696 0.000000 0.013106
353.000000 70.747000 2.000000 -3.000000 -10.000000 119.399718 22.302807 533.517938 285.509833 14.129112 0.000000 0.051248
354.000000 70.782000 3.000000 -3.000000 -10.000000 121.370536 11.043983 764.932034 272.404519 14.121844 0.000000 0.087588
355.000000 69.479000 4.000000 -3.000000 -10.000000 121.397907 -0.242053 979.546958 284.075275 14.386740 0.000000 0.101115
356.000000 67.048000 5.000000 -3.000000 -10.000000 119.680047 -10.739058 1179.127907 316.654464 14.908832 0.000000 0.095999
357.000000 63.777000 6.000000 -3.000000 -10.000000 116.632771 -19.927673 1365.201139 366.885923 15.674229 0.000000 0.075984
358.000000 59.970000 7.000000 -3.000000 -10.000000 112.726913 -27.659336 1539.093078 432.017369 16.670025 0.000000 0.045889
359.000000 55.902000 8.000000 -3.000000 -10.000000 108.369511 -34.036292 1701.961985 509.714018 17.884208 0.000000 0.028787
360.000000 51.790000 9.000000 -3.000000 -10.000000 103.860591 -39.264506 1854.823787 597.988785 19.305590 0.000000 0.067631
361.000000 47.788000 10.000000 -3.000000 -10.000000 99.398683 -43.561788 1998.573291 695.145512 20.923731 0.000000 0.125581
363.000000 74.558000 1.000000 -2.000000 -10.000000 125.378290 37.723566 142.437900 -25.240227 13.405489 0.000000 0.135170
364.000000 76.015000 3.000000 -2.000000 -10.000000 132.220910 11.641578 753.254452 -56.152391 13.147482 0.000000 0.030571
365.000000 71.637000 5.000000 -2.000000 -10.000000 129.364021 -14.814030 1259.651180 27.695697 13.951621 0.000000 0.037495
366.000000 67.915000 3.000000 -1.000000 -5.000000 125.246679 -25.210940 1481.716671 100.370412 7.358468 0.000000 0.025893
367.000000 63.636000 7.000000 -2.000000 -10.000000 120.247072 -33.459707 1686.295650 188.725883 15.707656 0.000000 0.049867
368.000000 59.108000 4.000000 -1.000000 -5.000000 114.890178 -39.914210 1875.375336 289.929607 8.456141 0.000000 0.101846
369.000000 54.570000 9.000000 -2.000000 -10.000000 109.517493 -44.982921 2050.652823 401.630304 18.320083 0.000000 0.166640
370.000000 50.188000 5.000000 -1.000000 -5.000000 104.328709 -49.010337 2213.586170 521.867816 9.960517 0.000000 0.240207
376.000000 75.253000 5.000000 -1.000000 -10.000000 139.055660 -20.883826 1385.648731 -386.796273 13.279439 0.000000 0.086272
377.000000 71.182000 6.000000 -1.000000 -10.000000 133.588793 -32.497676 1660.613702 -273.754282 14.039765 0.000000 0.142989
383.000000 45.742000 1.000000 -7.000000 -9.000000 75.622192 20.969170 562.513683 1236.469077 21.870758 0.000000 0.119559
384.000000 46.801000 2.000000 -7.000000 -9.000000 77.772954 14.464710 697.358524 1181.870097 21.375508 0.000000 0.130314
385.000000 47.080000 3.000000 -7.000000 -9.000000 79.172631 7.861714 826.384805 1148.800091 21.248701 0.000000 0.139670
386.000000 46.606000 4.000000 -7.000000 -9.000000 79.806004 1.332684 949.961178 1134.591848 21.464754 0.000000 0.144209
388.000000 47.562000 -1.000000 -6.000000 -9.000000 76.532162 35.792532 198.965321 1258.770633 21.032433 0.000000 0.132535
389.000000 50.446000 0.000000 -2.000000 -3.000000 80.458678 29.398514 368.576123 1148.647440 6.609655 0.000000 0.116685
390.000000 52.549000 1.000000 -6.000000 -9.000000 83.713367 22.484163 529.532812 1069.324390 19.034741 0.000000 0.129353
391.000000 53.716000 2.000000 -6.000000 -9.000000 86.113711 15.204762 682.481255 1016.767910 18.620845 0.000000 0.146920
392.000000 53.888000 1.000000 -2.000000 -3.000000 87.549298 7.777081 828.004608 987.491861 6.187007 0.000000 0.159143
393.000000 53.115000 4.000000 -6.000000 -9.000000 88.005880 0.445522 966.630749 978.475567 18.831378 0.000000 0.163611
394.000000 51.531000 5.000000 -6.000000 -9.000000 87.563694 -6.563603 1098.838677 987.095438 19.410125 0.000000 0.160658
395.000000 49.328000 2.000000 -2.000000 -3.000000 86.371627 -13.079926 1225.064039 1011.067695 6.759117 0.000000 0.151759
396.000000 46.709000 7.000000 -6.000000 -9.000000 84.610232 -19.005049 1345.703928 1048.400237 21.414815 0.000000 0.139301
397.000000 49.912000 -2.000000 -5.000000 -9.000000 79.059695 45.275469 -111.693662 1236.647601 20.040156 0.000000 0.209136
398.000000 54.032000 -1.000000 -5.000000 -9.000000 84.213544 39.104673 100.173610 1081.553672 18.510859 0.000000 0.123886
399.000000 57.466000 0.000000 -5.000000 -9.000000 88.842680 32.123821 299.218148 966.673692 17.403942 0.000000 0.101609
400.000000 59.922000 1.000000 -5.000000 -9.000000 92.646730 24.408891 486.569856 886.362578 16.689739 0.000000 0.122851
401.000000 61.198000 2.000000 -5.000000 -9.000000 95.363073 16.154725 663.229673 835.806371 16.341297 0.000000 0.147965
402.000000 61.224000 3.000000 -5.000000 -9.000000 96.831989 7.668204 830.087463 810.886641 16.334075 0.000000 0.163692
403.000000 60.078000 4.000000 -5.000000 -9.000000 97.040307 -0.688659 987.937008 808.069441 16.645679 0.000000 0.168307
404.000000 57.955000 5.000000 -5.000000 -9.000000 96.118734 -8.585137 1137.488633 824.313927 17.255633 0.000000 0.162967
405.000000 55.115000 6.000000 -5.000000 -9.000000 94.295023 -15.791094 1279.379894 856.996799 18.145178 0.000000 0.149888
406.000000 51.827000 7.000000 -5.000000 -9.000000 91.830476 -22.198043 1414.184666 903.849557 19.297095 0.000000 0.132359
407.000000 48.327000 8.000000 -5.000000 -9.000000 88.968530 -27.798138 1542.420896 962.906181 20.695550 0.000000 0.115747
409.000000 55.862000 -2.000000 -4.000000 -9.000000 86.299433 49.736693 -295.771546 1048.707556 17.903011 0.000000 0.266263
410.000000 60.717000 -1.000000 -4.000000 -9.000000 92.382351 43.221576 -36.470596 879.551774 16.470253 0.000000 0.133270
411.000000 64.751000 0.000000 -4.000000 -9.000000 97.887872 35.607422 204.238077 757.591241 15.443060 0.000000 0.068403
412.000000 67.589000 1.000000 -4.000000 -9.000000 102.398473 26.928775 428.284908 675.615867 14.793758 0.000000 0.092005
413.000000 68.969000 2.000000 -4.000000 -9.000000 105.528026 17.417827 637.342023 627.578922 14.497136 0.000000 0.127961
414.000000 68.811000 3.000000 -4.000000 -9.000000 107.033733 7.522925 832.865043 608.387850 14.530175 0.000000 0.149036
415.000000 67.231000 4.000000 -4.000000 -9.000000 106.901029 -2.188304 1016.127033 613.737022 14.871817 0.000000 0.154275
416.000000 64.496000 5.000000 -4.000000 -9.000000 105.341894 -11.206876 1188.246242 639.973135 15.502761 0.000000 0.146067
417.000000 60.950000 6.000000 -4.000000 -9.000000 102.706893 -19.219161 1350.208949 683.986226 16.405282 0.000000 0.127765
418.000000 56.935000 7.000000 -4.000000 -9.000000 99.373119 -26.126493 1502.888371 743.120906 17.563074 0.000000 0.104451
419.000000 52.740000 8.000000 -4.000000 -9.000000 95.666222 -31.981508 1647.060414 815.103691 18.961110 0.000000 0.086348
420.000000 48.581000 9.000000 -4.000000 -9.000000 91.830376 -36.910629 1783.416856 897.983190 20.585521 0.000000 0.091019
422.000000 67.245000 -1.000000 -3.000000 -9.000000 100.839815 48.414506 -237.877765 630.501416 14.868771 0.000000 0.219392
423.000000 75.112000 1.000000 -3.000000 -9.000000 112.858316 30.354006 344.702740 415.201256 13.309462 0.000000 0.026338
424.000000 76.584000 2.000000 -3.000000 -9.000000 116.550424 19.177308 600.672580 371.598217 13.052942 0.000000 0.081101
425.000000 74.171000 4.000000 -3.000000 -9.000000 117.517221 -4.260439 1055.179656 378.751764 13.477678 0.000000 0.117065
426.000000 70.795000 5.000000 -3.000000 -9.000000 115.113244 -14.724749 1257.857485 419.392905 14.120828 0.000000 0.104506
427.000000 61.775000 7.000000 -3.000000 -9.000000 107.062234 -31.024324 1622.324902 555.521860 16.184584 0.000000 0.048640
428.000000 56.890000 8.000000 -3.000000 -9.000000 102.379502 -37.024735 1786.774645 645.105444 17.575413 0.000000 0.054537
429.000000 52.114000 3.000000 -1.000000 -3.000000 97.685001 -41.904685 1940.862490 745.860673 6.395852 0.000000 0.105129
430.000000 47.599000 10.000000 -3.000000 -9.000000 93.151045 -45.897121 2085.537873 855.861933 21.008770 0.000000 0.171285
432.000000 78.337000 0.000000 -2.000000 -9.000000 117.144847 46.334864 -152.650589 141.757202 12.760201 0.000000 0.231388
433.000000 81.903000 1.000000 -2.000000 -9.000000 123.781357 35.234421 214.789145 59.498355 12.203541 0.000000 0.090979
434.000000 83.448000 2.000000 -2.000000 -9.000000 128.278663 21.790770 544.714117 26.284181 11.977035 0.000000 0.026445
435.000000 82.871000 3.000000 -2.000000 -9.000000 129.953400 7.013485 842.590539 32.575238 12.060249 0.000000 0.049177
436.000000 80.379000 4.000000 -2.000000 -9.000000 128.728797 -7.299758 1112.871853 70.784058 12.434401 0.000000 0.055703
437.000000 76.402000 5.000000 -2.000000 -9.000000 125.200129 -19.645896 1359.222897 134.825624 13.082199 0.000000 0.037917
438.000000 71.461000 6.000000 -2.000000 -9.000000 120.244073 -29.530198 1584.687064 219.784123 13.987692 0.000000 0.015362
439.000000 66.044000 7.000000 -2.000000 -9.000000 114.625760 -37.195300 1791.812666 321.662642 15.136148 0.000000 0.061934
440.000000 60.539000 8.000000 -2.000000 -9.000000 108.865001 -43.116210 1982.749671 437.192909 16.513936 0.000000 0.129461
441.000000 55.213000 9.000000 -2.000000 -9.000000 103.266445 -47.735966 2159.324611 563.689098 18.108425 0.000000 0.207541
442.000000 50.226000 10.000000 -2.000000 -9.000000 97.987829 -51.396864 2323.099198 698.934390 19.907896 0.000000 0.293453
447.000000 85.294000 4.000000 -1.000000 -9.000000 140.246884 -12.150575 1206.731403 -382.611837 11.715979 0.000000 0.046685
448.000000 80.842000 5.000000 -1.000000 -9.000000 135.195559 -26.876917 1520.490138 -273.900428 12.361918 0.000000 0.102240
449.000000 75.375000 6.000000 -1.000000 -9.000000 128.661704 -37.477990 1800.212936 -144.065262 13.259498 0.000000 0.163619
454.000000 45.575000 1.000000 -7.000000 -8.000000 69.489361 19.151670 601.212349 1367.228004 21.953385 0.000000 0.103725
455.000000 46.654000 2.000000 -7.000000 -8.000000 71.582589 12.436685 737.638827 1308.010798 21.445402 0.000000 0.108642
456.000000 46.841000 3.000000 -7.000000 -8.000000 72.898795 5.673522 868.073869 1273.766229 21.359819 0.000000 0.115335
457.000000 46.184000 4.000000 -7.000000 -8.000000 73.436723 -0.953002 992.903681 1261.150537 21.663177 0.000000 0.118707
458.000000 47.975000 -1.000000 -6.000000 -8.000000 70.683688 34.431243 237.183543 1398.389067 20.853291 0.000000 0.142435
459.000000 51.206000 0.000000 -3.000000 -4.000000 74.645725 27.720396 409.444035 1274.853999 9.768396 0.000000 0.117928
460.000000 53.507000 1.000000 -6.000000 -8.000000 77.884362 20.493469 572.729896 1187.655060 18.696182 0.000000 0.124586
461.000000 54.685000 1.000000 -3.000000 -4.000000 80.204110 12.938993 727.724677 1131.670087 9.146504 0.000000 0.138593
462.000000 54.685000 3.000000 -6.000000 -8.000000 81.501054 5.305857 875.044229 1102.525119 18.292849 0.000000 0.148126
463.000000 53.595000 2.000000 -3.000000 -4.000000 81.785971 -2.141411 1015.244887 1096.473961 9.332404 0.000000 0.150292
464.000000 51.615000 5.000000 -6.000000 -8.000000 81.173267 -9.174520 1148.830484 1110.299196 19.381063 0.000000 0.145653
465.000000 48.998000 3.000000 -3.000000 -4.000000 79.843133 -15.637113 1276.258405 1141.230428 10.208250 0.000000 0.136431
466.000000 45.998000 7.000000 -6.000000 -8.000000 77.996528 -21.453036 1397.944819 1186.876482 21.748390 0.000000 0.126385
468.000000 50.927000 -2.000000 -5.000000 -8.000000 73.482816 44.264636 -74.015440 1386.682852 19.642737 0.000000 0.221093
469.000000 55.701000 -1.000000 -5.000000 -8.000000 78.787129 37.733631 142.135667 1210.784884 17.958293 0.000000 0.134907
470.000000 59.656000 0.000000 -5.000000 -8.000000 83.519407 30.347126 344.876296 1082.670634 16.766652 0.000000 0.113164
471.000000 62.402000 1.000000 -5.000000 -8.000000 87.332938 22.216222 535.416920 995.157087 16.028263 0.000000 0.131893
472.000000 63.674000 2.000000 -5.000000 -8.000000 89.938383 13.589460 714.826584 942.190807 15.707697 0.000000 0.153563
473.000000 63.409000 3.000000 -5.000000 -8.000000 91.185295 4.830028 884.052977 918.651836 15.773127 0.000000 0.165539
474.000000 61.754000 4.000000 -5.000000 -8.000000 91.105125 -3.664923 1043.939173 920.195238 16.195875 0.000000 0.166333
475.000000 59.007000 5.000000 -5.000000 -8.000000 89.889312 -11.564555 1195.237684 943.122354 16.950036 0.000000 0.157601
476.000000 55.529000 6.000000 -5.000000 -8.000000 87.818499 -18.667362 1338.622297 984.275663 18.012152 0.000000 0.142519
477.000000 51.662000 7.000000 -5.000000 -8.000000 85.185242 -24.904333 1474.698109 1040.952509 19.360926 0.000000 0.126244
478.000000 47.684000 8.000000 -5.000000 -8.000000 82.242043 -30.302955 1604.010063 1110.833961 20.976980 0.000000 0.117113
481.000000 58.151000 -1.000000 -2.000000 -4.000000 81.201675 48.842766 -256.294214 1194.122521 8.600006 0.000000 0.264558
482.000000 63.947000 -1.000000 -4.000000 -8.000000 87.570074 41.892824 9.539671 1002.356183 15.639806 0.000000 0.133454
483.000000 71.981000 1.000000 -4.000000 -8.000000 97.860811 24.504013 484.413395 777.693434 13.892275 0.000000 0.115165
484.000000 72.723000 3.000000 -4.000000 -8.000000 102.000932 4.190178 896.147389 711.595098 13.750013 0.000000 0.162364
485.000000 66.723000 5.000000 -4.000000 -8.000000 99.369831 -14.659592 1256.549363 757.426893 14.987107 0.000000 0.148373
486.000000 62.254000 3.000000 -2.000000 -4.000000 96.336474 -22.481565 1420.410030 811.652356 8.031821 0.000000 0.126661
487.000000 57.416000 7.000000 -4.000000 -8.000000 92.724680 -29.124294 1574.655586 882.365155 17.418138 0.000000 0.105158
488.000000 52.549000 4.000000 -2.000000 -4.000000 88.866555 -34.694484 1720.108210 966.899338 9.516161 0.000000 0.099571
489.000000 47.879000 9.000000 -4.000000 -8.000000 84.991047 -39.349767 1857.498942 1062.989234 20.889491 0.000000 0.123661
492.000000 72.246000 -1.000000 -3.000000 -8.000000 96.831610 47.225513 -188.330763 751.131283 13.840613 0.000000 0.192481
493.000000 77.920000 0.000000 -3.000000 -8.000000 103.808905 38.308578 124.732336 603.869708 12.831538 0.000000 0.058824
494.000000 81.693000 1.000000 -3.000000 -8.000000 109.393527 27.676677 410.491622 513.161528 12.238076 0.000000 0.062227
495.000000 83.104000 2.000000 -3.000000 -8.000000 112.894799 15.704811 672.369796 468.844603 12.029734 0.000000 0.110655
496.000000 82.086000 3.000000 -3.000000 -8.000000 113.926588 3.284127 913.240427 462.668830 12.178929 0.000000 0.132496
497.000000 78.964000 4.000000 -3.000000 -8.000000 112.605830 -8.483367 1135.533834 487.895902 12.660651 0.000000 0.130480
498.000000 74.321000 5.000000 -3.000000 -8.000000 109.473182 -18.796132 1341.319381 538.992402 13.452171 0.000000 0.110191
499.000000 68.799000 6.000000 -3.000000 -8.000000 105.213227 -27.377846 1532.370081 611.392201 14.532784 0.000000 0.079710
500.000000 62.952000 7.000000 -3.000000 -8.000000 100.419713 -34.336881 1710.213823 701.310895 15.883588 0.000000 0.061267
501.000000 57.183000 8.000000 -3.000000 -8.000000 95.509470 -39.939223 1876.174311 805.599717 17.487298 0.000000 0.091472
502.000000 51.741000 9.000000 -3.000000 -8.000000 90.735872 -44.465657 2031.404070 921.629666 19.328068 0.000000 0.154229
503.000000 46.753000 10.000000 -3.000000 -8.000000 86.234005 -48.156011 2176.911256 1047.198964 21.391353 0.000000 0.230255
505.000000 90.690000 1.000000 -2.000000 -8.000000 121.687698 32.332966 293.727947 154.669035 11.021633 0.000000 0.044495
506.000000 90.694000 3.000000 -2.000000 -8.000000 126.835281 1.903055 939.238183 134.349969 11.020477 0.000000 0.071762
507.000000 81.204000 5.000000 -2.000000 -8.000000 119.902239 -24.530848 1466.195550 260.636303 12.309579 0.000000 0.034105
508.000000 67.897000 7.000000 -2.000000 -8.000000 107.965167 -40.814657 1904.512893 479.883355 14.724716 0.000000 0.089928
509.000000 61.300000 4.000000 -1.000000 -4.000000 101.909654 -46.194628 2097.138671 613.064968 8.155346 0.000000 0.172675
510.000000 55.158000 9.000000 -2.000000 -8.000000 96.202531 -50.374120 2274.820436 757.594201 18.128404 0.000000 0.264946
512.000000 86.699000 5.000000 -1.000000 -8.000000 130.120970 -32.793801 1668.459536 -137.955722 11.527532 0.000000 0.117504
513.000000 79.381000 6.000000 -1.000000 -8.000000 122.550290 -42.249868 1952.632353 12.891848 12.591490 0.000000 0.190620
517.000000 45.512000 2.000000 -7.000000 -7.000000 64.414118 10.299689 779.410223 1464.788083 21.986256 0.000000 0.071482
518.000000 45.606000 3.000000 -7.000000 -7.000000 65.665956 3.388577 911.271673 1428.588072 21.940900 0.000000 0.073285
519.000000 47.462000 -1.000000 -6.000000 -7.000000 63.807899 32.959004 277.140685 1571.965752 21.081470 0.000000 0.155645
520.000000 51.053000 0.000000 -6.000000 -7.000000 67.774922 25.911155 452.120592 1429.927787 19.597826 0.000000 0.113547
521.000000 53.551000 1.000000 -6.000000 -7.000000 70.977302 18.360531 617.787833 1331.978284 18.683302 0.000000 0.107592
522.000000 54.719000 2.000000 -6.000000 -7.000000 73.209155 10.533659 774.866584 1271.331609 18.284202 0.000000 0.115879
523.000000 54.512000 3.000000 -6.000000 -7.000000 74.378140 2.712504 924.007837 1242.287027 18.353379 0.000000 0.122750
524.000000 53.078000 4.000000 -6.000000 -7.000000 74.524910 -4.822172 1065.798410 1240.037428 18.849266 0.000000 0.123784
525.000000 50.696000 5.000000 -6.000000 -7.000000 73.799155 -11.846873 1200.768670 1260.515357 19.735073 0.000000 0.119907
526.000000 47.692000 6.000000 -6.000000 -7.000000 72.408504 -18.225535 1329.399159 1300.268342 20.978124 0.000000 0.114911
527.000000 51.125000 -2.000000 -5.000000 -7.000000 66.862181 43.159148 -34.264453 1571.494501 19.568975 0.000000 0.242001
528.000000 56.637000 -1.000000 -5.000000 -7.000000 72.280967 36.232620 186.330283 1367.324216 17.663569 0.000000 0.147805
529.000000 61.185000 0.000000 -5.000000 -7.000000 77.086386 28.406734 392.886354 1221.554264 16.349805 0.000000 0.118184
530.000000 64.238000 1.000000 -5.000000 -7.000000 80.880859 19.838052 586.702564 1124.662557 15.572306 0.000000 0.130918
531.000000 65.455000 2.000000 -5.000000 -7.000000 83.350659 10.839217 768.922296 1068.750075 15.282392 0.000000 0.148417
532.000000 64.798000 3.000000 -5.000000 -7.000000 84.365716 1.832972 940.556085 1047.236181 15.437105 0.000000 0.156664
533.000000 62.525000 4.000000 -5.000000 -7.000000 84.015532 -6.755908 1102.500369 1054.617022 15.998388 0.000000 0.154150
534.000000 59.077000 5.000000 -5.000000 -7.000000 82.558691 -14.609944 1255.553147 1086.272703 16.932408 0.000000 0.143431
535.000000 54.936000 6.000000 -5.000000 -7.000000 80.324652 -21.567414 1400.427131 1138.312474 18.208983 0.000000 0.129669
536.000000 50.520000 7.000000 -5.000000 -7.000000 77.626299 -27.603670 1537.760846 1207.449729 19.801106 0.000000 0.121376
537.000000 46.134000 8.000000 -5.000000 -7.000000 74.713093 -32.781329 1668.128034 1290.900541 21.684534 0.000000 0.129012
539.000000 59.899000 -2.000000 -4.000000 -7.000000 75.046460 47.852718 -214.184202 1369.376159 16.699770 0.000000 0.273332
540.000000 66.850000 -1.000000 -4.000000 -7.000000 81.684887 40.415584 58.496886 1147.609089 14.962229 0.000000 0.142190
541.000000 72.565000 0.000000 -4.000000 -7.000000 87.602095 31.694042 310.421703 993.970377 13.782982 0.000000 0.104934
542.000000 76.275000 1.000000 -4.000000 -7.000000 92.197026 21.829352 543.873284 896.519436 13.111739 0.000000 0.132417
543.000000 77.501000 2.000000 -4.000000 -7.000000 94.973308 11.255125 760.811682 845.505098 12.904071 0.000000 0.158915
544.000000 76.221000 3.000000 -4.000000 -7.000000 95.733811 0.642557 962.929137 832.923249 13.120586 0.000000 0.168651
545.000000 72.859000 4.000000 -4.000000 -7.000000 94.655903 -9.323036 1151.694300 852.173069 13.726230 0.000000 0.162319
546.000000 68.083000 5.000000 -4.000000 -7.000000 92.184517 -18.176958 1328.387985 897.787824 14.689708 0.000000 0.144366
547.000000 62.576000 6.000000 -4.000000 -7.000000 88.838733 -25.749548 1494.132266 965.222507 15.982995 0.000000 0.122522
548.000000 56.891000 7.000000 -4.000000 -7.000000 85.065375 -32.090685 1649.914327 1050.685207 17.580916 0.000000 0.110989
549.000000 51.398000 8.000000 -4.000000 -7.000000 81.184106 -37.356873 1796.606148 1151.002346 19.460796 0.000000 0.126994
550.000000 46.305000 9.000000 -4.000000 -7.000000 77.394778 -41.730778 1934.980827 1263.510361 21.602155 0.000000 0.171624
553.000000 77.553000 -1.000000 -3.000000 -7.000000 91.840595 45.878031 -134.797743 891.319084 12.894694 0.000000 0.174278
554.000000 84.589000 0.000000 -3.000000 -7.000000 99.225991 36.184192 187.727593 724.400204 11.821028 0.000000 0.063553
555.000000 89.027000 1.000000 -3.000000 -7.000000 104.928343 24.650121 481.094680 625.278894 11.230829 0.000000 0.096995
556.000000 90.209000 2.000000 -3.000000 -7.000000 108.130235 11.854251 749.086633 580.904411 11.083308 0.000000 0.137794
557.000000 88.151000 3.000000 -3.000000 -7.000000 108.499013 -1.057073 994.859249 580.836285 11.342135 0.000000 0.150644
558.000000 83.496000 4.000000 -3.000000 -7.000000 106.370790 -12.877821 1221.065857 616.667769 11.974851 0.000000 0.139578
559.000000 77.199000 5.000000 -3.000000 -7.000000 102.516803 -22.913957 1429.953494 681.590263 12.952366 0.000000 0.112337
560.000000 70.181000 6.000000 -3.000000 -7.000000 97.746965 -31.067811 1623.437805 770.060847 14.248530 0.000000 0.083988
561.000000 63.135000 7.000000 -3.000000 -7.000000 92.675183 -37.576728 1803.161963 877.546160 15.839772 0.000000 0.089467
562.000000 56.488000 8.000000 -3.000000 -7.000000 87.682919 -42.768000 1970.543450 1000.323373 17.704790 0.000000 0.142296
563.000000 50.452000 9.000000 -3.000000 -7.000000 82.972607 -46.941184 2126.811516 1135.324311 19.824285 0.000000 0.218645
565.000000 85.644000 5.000000 -2.000000 -7.000000 113.190309 -29.398605 1581.426131 411.763071 11.672651 0.000000 0.030197
566.000000 77.142000 6.000000 -2.000000 -7.000000 106.675501 -37.917136 1813.389332 532.327092 12.960301 0.000000 0.052449
567.000000 68.794000 7.000000 -2.000000 -7.000000 100.124119 -44.295749 2025.155688 672.489822 14.534591 0.000000 0.137021
568.000000 61.066000 8.000000 -2.000000 -7.000000 93.936962 -49.139787 2219.252940 827.777482 16.375434 0.000000 0.235653
571.000000 82.762000 6.000000 -1.000000 -7.000000 115.034238 -46.764703 2119.722973 207.174627 12.078420 0.000000 0.231611
575.000000 45.497000 -1.000000 -6.000000 -6.000000 55.691011 31.363877 318.958190 1801.128372 21.994579 0.000000 0.183617
576.000000 49.433000 0.000000 -2.000000 -2.000000 59.621770 23.958862 496.728577 1631.394821 6.747651 0.000000 0.113470
577.000000 52.116000 1.000000 -6.000000 -6.000000 62.768718 16.076120 664.829513 1517.424437 19.200632 0.000000 0.078282
578.000000 53.262000 1.000000 -3.000000 -3.000000 64.919712 7.984739 824.029033 1449.652959 9.393607 0.000000 0.071401
579.000000 52.849000 1.000000 -2.000000 -2.000000 65.998471 -0.000848 975.015935 1420.231494 6.311336 0.000000 0.075340
580.000000 51.099000 2.000000 -3.000000 -3.000000 66.076941 -7.589613 1118.409733 1422.686091 9.790984 0.000000 0.080080
581.000000 48.386000 5.000000 -6.000000 -6.000000 65.335681 -14.570858 1254.769163 1451.652199 20.680074 0.000000 0.086338
582.000000 49.936000 -2.000000 -5.000000 -6.000000 58.943653 41.946009 7.735177 1812.425209 20.037101 0.000000 0.277409
583.000000 56.231000 -1.000000 -5.000000 -6.000000 64.413011 34.584625 232.940502 1566.993432 17.793503 0.000000 0.165179
584.000000 61.417000 0.000000 -5.000000 -6.000000 69.244037 26.284056 443.434851 1395.935444 16.290481 0.000000 0.114681
585.000000 64.778000 1.000000 -5.000000 -6.000000 72.987001 17.259112 640.614073 1285.850893 15.444884 0.000000 0.113780
586.000000 65.882000 2.000000 -5.000000 -6.000000 75.309572 7.897336 825.702834 1225.870098 15.185559 0.000000 0.125518
587.000000 64.749000 3.000000 -5.000000 -6.000000 76.114982 -1.318918 999.780083 1207.127764 15.451264 0.000000 0.130710
588.000000 61.798000 4.000000 -5.000000 -6.000000 75.561028 -9.949415 1163.800099 1222.357304 16.189000 0.000000 0.127157
589.000000 57.655000 5.000000 -5.000000 -6.000000 73.971564 -17.705830 1318.609989 1265.575553 17.352670 0.000000 0.119462
590.000000 52.930000 6.000000 -5.000000 -6.000000 71.711449 -24.476579 1464.964324 1331.835862 18.901986 0.000000 0.116813
591.000000 48.097000 7.000000 -5.000000 -6.000000 69.096539 -30.284197 1603.537438 1417.033363 20.801592 0.000000 0.129997
593.000000 60.514000 -1.000000 -2.000000 -3.000000 67.523692 46.750864 -169.169074 1590.901569 8.266067 0.000000 0.296330
594.000000 68.840000 -1.000000 -4.000000 -6.000000 74.384263 38.765828 110.693546 1326.816344 14.531654 0.000000 0.157513
595.000000 79.884000 1.000000 -4.000000 -6.000000 85.029314 18.877691 606.970240 1039.930009 12.521301 0.000000 0.138444
596.000000 78.619000 3.000000 -4.000000 -6.000000 87.889018 -3.111613 1033.508805 980.731078 12.722326 0.000000 0.162990
597.000000 67.954000 5.000000 -4.000000 -6.000000 83.572682 -21.733742 1404.043908 1071.523713 14.719738 0.000000 0.132813
598.000000 61.406000 3.000000 -2.000000 -3.000000 80.071846 -29.001944 1571.647392 1156.398738 8.144968 0.000000 0.120022
599.000000 54.975000 7.000000 -4.000000 -6.000000 76.313225 -35.010585 1728.925745 1261.017509 18.196269 0.000000 0.132304
600.000000 49.015000 4.000000 -2.000000 -3.000000 72.581595 -39.958941 1876.804570 1381.531963 10.204952 0.000000 0.175441
602.000000 82.798000 -1.000000 -3.000000 -6.000000 85.495504 44.339945 -76.777539 1059.554962 12.079319 0.000000 0.169673
603.000000 87.067000 4.000000 -3.000000 -6.000000 98.447634 -17.400130 1312.292858 773.486811 11.485402 0.000000 0.141743
604.000000 78.728000 5.000000 -3.000000 -6.000000 93.970209 -27.036193 1524.255990 857.135788 12.702687 0.000000 0.111501
605.000000 61.855000 7.000000 -3.000000 -6.000000 83.721886 -40.726303 1901.619108 1097.244952 16.169896 0.000000 0.137673
606.000000 54.472000 8.000000 -3.000000 -6.000000 78.848629 -45.501654 2070.308266 1243.705505 18.362808 0.000000 0.212186
607.000000 48.025000 3.000000 -1.000000 -2.000000 74.381320 -49.326706 2227.487909 1402.660728 6.943008 0.000000 0.304013
608.000000 88.998000 5.000000 -2.000000 -6.000000 104.737134 -34.180346 1705.909256 598.783946 11.234354 0.000000 0.043861
609.000000 68.202000 7.000000 -2.000000 -6.000000 90.975533 -47.622228 2154.611350 913.809186 14.662797 0.000000 0.207466
610.000000 59.451000 4.000000 -1.000000 -3.000000 84.884430 -51.945627 2349.902417 1097.311023 8.411259 0.000000 0.324348
616.000000 45.573000 0.000000 -6.000000 -5.000000 49.938229 21.850962 543.402142 1916.157320 21.960360 0.000000 0.156226
617.000000 48.420000 1.000000 -6.000000 -5.000000 53.017787 13.631585 713.988890 1775.015368 20.669316 0.000000 0.084766
618.000000 49.571000 2.000000 -6.000000 -5.000000 55.121360 5.289994 875.344772 1694.446007 20.189344 0.000000 0.031552
619.000000 49.033000 3.000000 -6.000000 -5.000000 56.189712 -2.829725 1028.199306 1662.676094 20.410518 0.000000 0.016347
620.000000 47.113000 4.000000 -6.000000 -5.000000 56.319971 -10.434508 1173.207112 1670.318207 21.241916 0.000000 0.052269
622.000000 53.517000 -1.000000 -5.000000 -5.000000 54.835668 32.770115 282.169935 1842.754137 18.698391 0.000000 0.201856
623.000000 62.967000 1.000000 -5.000000 -5.000000 63.283242 14.464715 697.358415 1500.447682 15.891657 0.000000 0.075137
624.000000 63.931000 2.000000 -5.000000 -5.000000 65.478951 4.760240 885.373161 1433.672554 15.651841 0.000000 0.072550
625.000000 62.325000 3.000000 -5.000000 -5.000000 66.155745 -4.617442 1061.926356 1418.244646 16.055060 0.000000 0.078205
626.000000 58.783000 4.000000 -5.000000 -5.000000 65.538827 -13.229894 1228.035059 1443.963850 17.022214 0.000000 0.084737
627.000000 54.127000 2.000000 -2.000000 -2.000000 64.000267 -20.835051 1384.599453 1502.665896 7.394666 0.000000 0.099213
628.000000 49.070000 6.000000 -5.000000 -5.000000 61.915036 -27.379906 1532.419164 1587.778997 20.391875 0.000000 0.128817
631.000000 68.814000 -1.000000 -4.000000 -5.000000 65.201408 36.914745 166.462176 1562.972416 14.539458 0.000000 0.180899
632.000000 76.911000 0.000000 -4.000000 -5.000000 71.355841 26.832895 430.548811 1347.954893 13.008188 0.000000 0.116244
633.000000 81.633000 1.000000 -4.000000 -5.000000 75.844323 15.621961 674.048503 1222.871063 12.255238 0.000000 0.123557
634.000000 82.123000 2.000000 -4.000000 -5.000000 78.085207 4.024365 899.278232 1168.662366 12.181841 0.000000 0.137633
635.000000 78.740000 3.000000 -4.000000 -5.000000 78.055320 -7.055979 1108.219862 1170.425033 12.705265 0.000000 0.137230
636.000000 72.728000 4.000000 -4.000000 -5.000000 76.243935 -16.928039 1302.578611 1216.422001 13.755682 0.000000 0.126182
637.000000 65.501000 5.000000 -4.000000 -5.000000 73.336146 -25.302947 1483.829695 1297.351999 15.273751 0.000000 0.119081
638.000000 58.137000 6.000000 -4.000000 -5.000000 69.929734 -32.218185 1653.255844 1405.803054 17.208715 0.000000 0.136104
639.000000 51.263000 7.000000 -4.000000 -5.000000 66.429225 -37.870337 1811.977701 1535.839859 19.516907 0.000000 0.183746
642.000000 87.059000 -1.000000 -3.000000 -5.000000 77.240726 42.570506 -13.681291 1271.946000 11.489845 0.000000 0.181396
643.000000 88.440000 4.000000 -3.000000 -5.000000 88.409556 -21.997808 1409.803208 973.230400 11.309064 0.000000 0.134079
644.000000 77.860000 5.000000 -3.000000 -5.000000 83.555586 -31.120540 1624.788592 1083.008191 12.846539 0.000000 0.114579
645.000000 67.672000 6.000000 -3.000000 -5.000000 78.419641 -38.231372 1822.914741 1221.766285 14.781483 0.000000 0.140449
646.000000 58.589000 7.000000 -3.000000 -5.000000 73.496755 -43.771170 2006.089991 1382.594637 17.074009 0.000000 0.212878
647.000000 50.809000 8.000000 -3.000000 -5.000000 69.000059 -48.133113 2175.945136 1560.041009 19.689395 0.000000 0.309588
649.000000 90.061000 5.000000 -2.000000 -5.000000 94.190807 -38.814325 1840.805950 839.785433 11.103674 0.000000 0.088803
650.000000 76.838000 6.000000 -2.000000 -5.000000 86.957648 -45.714425 2078.475369 1022.926542 13.015901 0.000000 0.184225
651.000000 65.489000 7.000000 -2.000000 -5.000000 80.435328 -50.783301 2293.882145 1227.844658 15.272780 0.000000 0.309543
657.000000 53.340000 0.000000 -5.000000 -4.000000 47.796002 21.409574 552.997409 1989.406360 18.763363 0.000000 0.174506
658.000000 57.241000 1.000000 -5.000000 -4.000000 51.363734 11.441742 757.164897 1818.754073 17.484526 0.000000 0.088322
659.000000 58.156000 2.000000 -5.000000 -4.000000 53.515759 1.428531 948.159647 1737.205292 17.209222 0.000000 0.035949
660.000000 56.318000 3.000000 -5.000000 -4.000000 54.239424 -8.049763 1127.216662 1723.836109 17.770725 0.000000 0.050173
661.000000 52.570000 4.000000 -5.000000 -4.000000 53.802587 -16.578681 1295.421241 1762.817631 19.037304 0.000000 0.095004
662.000000 47.875000 5.000000 -5.000000 -4.000000 52.586860 -23.979289 1453.730993 1842.047545 20.903499 0.000000 0.146726
664.000000 64.797000 -1.000000 -4.000000 -4.000000 53.520800 34.827758 226.182428 1910.469971 15.443558 0.000000 0.231895
665.000000 79.333000 1.000000 -4.000000 -4.000000 63.977093 12.037147 745.497167 1478.290188 12.613235 0.000000 0.072342
666.000000 74.756000 3.000000 -4.000000 -4.000000 65.794989 -11.165366 1187.435991 1434.153187 13.385111 0.000000 0.082735
667.000000 59.756000 5.000000 -4.000000 -4.000000 61.345212 -28.857004 1568.092995 1612.537359 16.744983 0.000000 0.138749
668.000000 52.176000 3.000000 -2.000000 -2.000000 58.383832 -35.379059 1739.290649 1753.617854 9.588960 0.000000 0.201377
671.000000 88.192000 -1.000000 -3.000000 -4.000000 66.239325 40.517548 55.187608 1564.277836 11.344387 0.000000 0.211970
672.000000 85.664000 4.000000 -3.000000 -4.000000 75.820057 -26.612818 1514.269218 1245.168939 11.678056 0.000000 0.121104
673.000000 73.223000 5.000000 -3.000000 -4.000000 71.053079 -35.126983 1732.189781 1392.757503 13.662850 0.000000 0.147110
674.000000 62.153000 6.000000 -3.000000 -4.000000 66.335399 -41.655976 1932.460780 1572.289345 16.097068 0.000000 0.223358
676.000000 87.073000 5.000000 -2.000000 -4.000000 81.239820 -43.250096 1987.479967 1168.704782 11.487170 0.000000 0.171938
681.000000 46.892000 2.000000 -5.000000 -3.000000 39.167527 -2.091867 1014.312940 2263.076321 21.345809 0.000000 0.231877
682.000000 45.506000 3.000000 -5.000000 -3.000000 40.239999 -11.598176 1195.895785 2239.330017 21.995537 0.000000 0.226075
684.000000 63.759000 0.000000 -4.000000 -3.000000 44.445703 20.734622 567.558877 2114.318706 15.697709 0.000000 0.209174
685.000000 69.368000 1.000000 -4.000000 -3.000000 48.669741 8.103282 821.757739 1897.101323 14.428424 0.000000 0.105350
686.000000 69.137000 2.000000 -4.000000 -3.000000 50.707844 -4.285374 1055.650672 1824.159719 14.476469 0.000000 0.071496
687.000000 64.324000 3.000000 -4.000000 -3.000000 50.764410 -15.405765 1271.577344 1852.675717 15.559145 0.000000 0.110760
688.000000 57.289000 4.000000 -4.000000 -3.000000 49.512445 -24.765488 1471.531284 1952.902654 17.469243 0.000000 0.175642
689.000000 49.910000 5.000000 -4.000000 -3.000000 47.619444 -32.369040 1657.221600 2103.801319 20.051422 0.000000 0.253462
691.000000 81.523000 -1.000000 -3.000000 -3.000000 51.264290 38.113782 130.659341 2038.344881 12.275115 0.000000 0.289318
692.000000 76.211000 4.000000 -3.000000 -3.000000 60.371591 -31.185808 1626.462662 1656.525029 13.129648 0.000000 0.157360
693.000000 63.429000 5.000000 -3.000000 -3.000000 56.409900 -39.020007 1847.188366 1861.061901 15.775695 0.000000 0.252841
696.000000 77.979000 5.000000 -2.000000 -3.000000 65.746653 -47.450751 2147.544061 1658.086456 12.829669 0.000000 0.316757
704.000000 85.547000 1.000000 -3.000000 -2.000000 43.634601 2.449497 928.958437 2070.886892 11.700233 0.000000 0.163768
705.000000 81.168000 2.000000 -3.000000 -2.000000 45.193079 -13.345594 1230.329687 2039.735493 12.331018 0.000000 0.162087
706.000000 69.965000 3.000000 -3.000000 -2.000000 44.202889 -26.074483 1501.676893 2173.061003 14.304795 0.000000 0.238035
#UB matrix in q= (UB) B0 G* 
#[[-0.167497623 -0.2152095    0.96115279 ]
# [-0.96876306  -0.144967046 -0.201277528]
# [ 0.182873401 -0.966072852 -0.184385232]]
#B0 matrix in q= UB (B0) G*
#[[ 0.19670273 -0.          0.03056101]
# [ 0.          0.19187965 -0.        ]
# [ 0.          0.          0.18806537]]
#UBB0 matrix in q= (UB B0) G* i.e. recip. basis vectors are columns in LT frame: astar = UBB0[:,0], bstar = UBB0[:,1], cstar = UBB0[:,2]. (abcstar as columns on xyzlab1, xlab1 = ui, ui = unit vector along incident beam)
#[[-0.03294724 -0.04129432  0.17564066]
# [-0.19055834 -0.02781623 -0.06745971]
# [ 0.0359717  -0.18536972 -0.02908768]]
#Euler angles phi theta psi (deg)
#[ 10.723 100.611 101.806]
#deviatoric strain in direct crystal frame (10-3 unit)
#[[ 2.86  0.13 -0.5 ]
# [ 0.13  2.48 -0.4 ]
# [-0.5  -0.4  -5.35]]
#deviatoric strain in sample2 frame (10-3 unit)
#[[-0.11  1.35  3.48]
# [ 1.35  2.34 -1.66]
# [ 3.48 -1.66 -2.23]]
#new lattice parameters
#[ 5.1505     5.2096224  5.3214072 90.0263135 99.2532682 89.9854104]
#CCDLabel
#sCMOS
#DetectorParameters
#[79.0, 975.0, 941.0, 0.0, 0.0]
#pixelsize
#0.0734
#Frame dimensions
#[2018, 2016]
#
