#Strain and Orientation Refinement from experimental file: /home/micha/LaueProjects/DepthEffects/testZrO2_143.cor
#File created at Wed Jun 28 14:26:57 2023 with indexingSpotsSet.py
#Number of indexed spots: 546
#Element
#ZrO2
#grainIndex
#G_0
#Mean Deviation(pixel): 0.118
##spot_index intensity h k l 2theta Chi Xexp Yexp Energy GrainIndex PixDev
0.000000 45.518000 -5.000000 6.000000 -10.000000 92.221616 41.970165 6.914634 884.841166 21.976941 0.000000 0.122744
1.000000 45.497000 -2.000000 3.000000 -5.000000 87.895815 37.279653 155.687331 990.698636 10.994545 0.000000 0.106536
2.000000 45.651000 -5.000000 7.000000 -10.000000 96.979138 37.767875 141.106704 774.327270 21.911303 0.000000 0.077447
3.000000 45.641000 -4.000000 7.000000 -10.000000 92.637860 33.061418 274.404885 881.833154 21.918065 0.000000 0.092400
6.000000 46.723000 -4.000000 3.000000 -9.000000 74.058972 50.143302 -314.212213 1420.698022 21.416015 0.000000 0.334483
7.000000 45.775000 -1.000000 1.000000 -3.000000 68.603379 45.153767 -107.086843 1539.011895 7.287292 0.000000 0.267615
9.000000 48.867000 -5.000000 4.000000 -9.000000 85.670475 50.789709 -344.183352 1069.897211 20.472491 0.000000 0.298604
10.000000 49.053000 -4.000000 4.000000 -9.000000 81.209102 45.762486 -130.328810 1179.583564 20.396542 0.000000 0.211997
11.000000 48.374000 -3.000000 4.000000 -9.000000 75.858962 40.644936 51.039025 1298.380280 20.685413 0.000000 0.171447
12.000000 46.616000 -2.000000 4.000000 -9.000000 69.597468 35.517164 206.800176 1432.834350 21.468174 0.000000 0.155797
14.000000 49.187000 -6.000000 5.000000 -9.000000 95.596909 51.447190 -375.530387 771.765559 20.335796 0.000000 0.298853
15.000000 50.082000 -5.000000 5.000000 -9.000000 92.002451 46.382979 -154.548207 886.449073 19.973782 0.000000 0.186785
16.000000 50.369000 -4.000000 5.000000 -9.000000 87.583379 41.216942 32.213285 1001.385068 19.861897 0.000000 0.130735
17.000000 49.849000 -3.000000 5.000000 -9.000000 82.285869 36.031158 192.131821 1121.278843 20.071343 0.000000 0.120095
18.000000 48.334000 -2.000000 5.000000 -9.000000 76.100405 30.909587 330.606545 1251.436308 20.703175 0.000000 0.122562
19.000000 45.687000 -1.000000 5.000000 -9.000000 69.075221 25.930145 451.679615 1398.597592 21.905791 0.000000 0.115848
22.000000 49.630000 -2.000000 2.000000 -3.000000 101.191028 47.015439 -179.808016 628.684848 6.717458 0.000000 0.192044
23.000000 50.504000 -5.000000 6.000000 -9.000000 97.575728 41.801159 12.642689 748.979249 19.805339 0.000000 0.107444
24.000000 50.805000 -4.000000 6.000000 -9.000000 93.143156 36.557011 176.925573 867.421366 19.689777 0.000000 0.087739
25.000000 50.361000 -1.000000 2.000000 -3.000000 87.856177 31.369898 318.803057 988.187995 6.621854 0.000000 0.107231
26.000000 49.012000 -2.000000 6.000000 -9.000000 81.720778 26.321222 442.566109 1115.731533 20.415162 0.000000 0.122412
27.000000 46.643000 -1.000000 6.000000 -9.000000 74.795087 21.479751 551.475733 1255.354649 21.455414 0.000000 0.119435
29.000000 48.289000 -7.000000 7.000000 -9.000000 109.010461 47.660058 -206.176751 390.439852 20.709289 0.000000 0.224026
30.000000 49.478000 -6.000000 7.000000 -9.000000 106.069088 42.397856 -7.717863 521.182025 20.213119 0.000000 0.112728
31.000000 50.271000 -5.000000 7.000000 -9.000000 102.380207 37.095047 161.151292 644.813674 19.895553 0.000000 0.057579
32.000000 50.529000 -4.000000 7.000000 -9.000000 97.893284 31.841511 306.589237 765.346422 19.795824 0.000000 0.081314
33.000000 50.106000 -3.000000 7.000000 -9.000000 92.589680 26.722260 433.156337 886.499152 19.965558 0.000000 0.115755
34.000000 48.868000 -2.000000 7.000000 -9.000000 86.490913 21.809700 544.301625 1012.088634 20.474101 0.000000 0.134822
35.000000 46.723000 -1.000000 7.000000 -9.000000 79.663640 17.158668 642.681890 1146.445557 21.416821 0.000000 0.134600
37.000000 47.792000 -7.000000 8.000000 -9.000000 113.300132 43.007304 -28.917183 307.129414 20.923320 0.000000 0.145827
38.000000 48.850000 -6.000000 8.000000 -9.000000 110.236306 37.645595 144.776542 439.899014 20.471611 0.000000 0.053946
39.000000 49.530000 -5.000000 8.000000 -9.000000 106.437576 32.324780 293.943308 565.229272 20.192124 0.000000 0.046161
40.000000 49.712000 -4.000000 8.000000 -9.000000 101.872563 27.133604 423.435616 686.745609 20.119968 0.000000 0.093976
41.000000 49.276000 -3.000000 8.000000 -9.000000 96.540726 22.148292 536.905112 807.765518 20.300487 0.000000 0.129335
42.000000 48.114000 -2.000000 8.000000 -9.000000 90.477092 17.427015 637.152418 931.606501 20.793286 0.000000 0.148049
43.000000 46.156000 -1.000000 8.000000 -9.000000 83.754096 13.007909 726.361396 1061.897895 21.678321 0.000000 0.149357
44.000000 45.779000 -8.000000 9.000000 -9.000000 119.482418 43.629773 -51.008194 100.310849 21.841467 0.000000 0.193040
45.000000 46.953000 -7.000000 9.000000 -9.000000 116.938459 38.208992 127.766373 244.929846 21.296114 0.000000 0.087363
46.000000 47.863000 -2.000000 3.000000 -3.000000 113.721206 32.820071 280.841927 378.234155 6.964165 0.000000 0.013409
47.000000 48.415000 -5.000000 9.000000 -9.000000 109.793698 27.555610 413.388271 504.080813 20.655960 0.000000 0.062284
48.000000 48.509000 -4.000000 9.000000 -9.000000 105.143210 22.495848 529.275690 625.733025 20.618277 0.000000 0.109262
49.000000 48.044000 -1.000000 3.000000 -3.000000 99.785015 17.702491 631.459123 746.155349 6.939940 0.000000 0.141255
50.000000 46.939000 -2.000000 9.000000 -9.000000 93.764317 13.216337 722.233668 868.259222 21.312683 0.000000 0.158406
51.000000 45.862000 -7.000000 10.000000 -9.000000 119.955187 33.327762 267.260037 198.634616 21.802232 0.000000 0.044540
52.000000 46.621000 -6.000000 10.000000 -9.000000 116.570111 27.988653 402.997561 331.440279 21.448375 0.000000 0.025866
53.000000 47.044000 -5.000000 10.000000 -9.000000 112.510835 22.852701 521.402180 456.951065 21.257256 0.000000 0.080673
54.000000 47.047000 -4.000000 10.000000 -9.000000 107.781052 17.985369 625.594615 578.099306 21.257873 0.000000 0.121752
55.000000 46.551000 -3.000000 10.000000 -9.000000 102.408347 13.430307 717.988836 697.539095 21.486549 0.000000 0.149869
56.000000 45.492000 -2.000000 10.000000 -9.000000 96.444292 9.210216 800.481419 817.843927 21.989401 0.000000 0.165287
57.000000 45.510000 -5.000000 11.000000 -9.000000 114.660502 18.275939 619.551052 420.608624 21.972893 0.000000 0.095086
63.000000 53.759000 -4.000000 3.000000 -8.000000 79.194412 51.000340 -354.128860 1267.422614 18.611479 0.000000 0.329191
64.000000 53.237000 -3.000000 3.000000 -8.000000 73.552941 45.380670 -115.691822 1393.355497 18.796197 0.000000 0.242746
65.000000 51.228000 -2.000000 3.000000 -8.000000 66.757477 39.655646 82.849831 1541.402471 19.535875 0.000000 0.204606
66.000000 47.437000 -1.000000 3.000000 -8.000000 58.827420 33.937545 250.736052 1725.819902 21.100295 0.000000 0.192721
68.000000 55.231000 -5.000000 4.000000 -8.000000 91.275708 51.737294 -389.650214 902.296272 18.111494 0.000000 0.310930
69.000000 56.022000 -2.000000 2.000000 -4.000000 86.820688 46.071249 -142.312516 1027.174001 8.928808 0.000000 0.195698
70.000000 55.772000 -3.000000 4.000000 -8.000000 81.279112 40.283943 62.754524 1157.422419 17.939853 0.000000 0.146335
71.000000 54.147000 -1.000000 2.000000 -4.000000 74.597682 34.490937 235.534080 1300.745229 9.240359 0.000000 0.135105
72.000000 50.880000 -1.000000 4.000000 -8.000000 66.810141 28.808467 383.095076 1467.199685 19.670497 0.000000 0.127095
73.000000 45.872000 0.000000 1.000000 -2.000000 58.057791 23.340007 510.583258 1671.839400 5.455411 0.000000 0.118882
76.000000 56.173000 -5.000000 5.000000 -8.000000 97.918435 46.776851 -170.209443 722.407609 17.806212 0.000000 0.186518
77.000000 57.000000 -4.000000 5.000000 -8.000000 93.471422 40.927504 41.779945 854.584679 17.549434 0.000000 0.108743
78.000000 56.864000 -3.000000 5.000000 -8.000000 87.952389 35.058906 219.720362 988.009885 17.593604 0.000000 0.102849
79.000000 55.478000 -2.000000 5.000000 -8.000000 81.332518 29.292169 371.205229 1129.125532 18.035906 0.000000 0.118241
80.000000 52.614000 -1.000000 5.000000 -8.000000 73.664296 23.736302 501.726275 1285.609994 19.020421 0.000000 0.117241
81.000000 48.190000 0.000000 5.000000 -8.000000 65.093283 18.477178 615.353612 1467.915038 20.770283 0.000000 0.092678
83.000000 54.768000 -3.000000 3.000000 -4.000000 107.171305 47.497753 -199.476634 448.743153 9.130005 0.000000 0.214059
84.000000 56.167000 -5.000000 6.000000 -8.000000 103.633251 41.586724 19.867094 591.987910 17.806660 0.000000 0.098632
85.000000 56.921000 -2.000000 3.000000 -4.000000 99.118059 35.641922 203.257214 728.439694 8.786118 0.000000 0.066378
86.000000 56.791000 -3.000000 6.000000 -8.000000 93.565719 29.789431 358.864081 863.719763 17.614608 0.000000 0.101484
87.000000 55.540000 -1.000000 3.000000 -4.000000 86.974918 24.144056 492.556782 1003.331408 9.007007 0.000000 0.128420
88.000000 52.987000 -1.000000 6.000000 -8.000000 79.416556 18.797113 608.660059 1153.431024 18.885015 0.000000 0.131832
89.000000 49.067000 0.000000 3.000000 -4.000000 71.038035 13.810335 710.430913 1321.807509 10.198533 0.000000 0.108423
92.000000 54.195000 -6.000000 7.000000 -8.000000 112.104640 42.262002 -3.048429 350.332867 18.451858 0.000000 0.127416
93.000000 55.420000 -5.000000 7.000000 -8.000000 108.423443 36.240464 186.103791 496.479854 18.045404 0.000000 0.039391
94.000000 56.039000 -4.000000 7.000000 -8.000000 103.789952 30.300752 346.045443 635.039271 17.847574 0.000000 0.068912
95.000000 55.855000 -3.000000 7.000000 -8.000000 98.174612 24.563729 483.057943 771.005841 17.908807 0.000000 0.116191
96.000000 54.676000 -2.000000 7.000000 -8.000000 91.602077 19.126497 601.742170 909.138488 18.297227 0.000000 0.143433
97.000000 52.367000 -1.000000 7.000000 -8.000000 84.157588 14.055341 705.545242 1054.529871 19.107135 0.000000 0.148539
98.000000 48.882000 0.000000 7.000000 -8.000000 75.986131 9.385481 797.100847 1213.271805 20.472926 0.000000 0.130141
100.000000 51.679000 -7.000000 8.000000 -8.000000 119.199481 42.953735 -27.037054 119.160519 19.347810 0.000000 0.178327
101.000000 53.110000 -3.000000 4.000000 -4.000000 116.199081 36.855025 168.215750 279.152589 9.413789 0.000000 0.064963
102.000000 54.132000 -5.000000 8.000000 -8.000000 112.332882 30.826653 332.721054 426.115768 18.473483 0.000000 0.026301
103.000000 54.591000 -2.000000 4.000000 -4.000000 107.558560 24.995804 473.211689 565.241945 9.159987 0.000000 0.087649
104.000000 54.326000 -3.000000 8.000000 -8.000000 101.875064 19.465733 594.588474 700.957815 18.411734 0.000000 0.131001
105.000000 53.189000 -1.000000 4.000000 -4.000000 95.327995 14.307617 700.503644 837.411754 9.403888 0.000000 0.155511
106.000000 51.079000 -1.000000 8.000000 -8.000000 88.010954 9.559823 793.734667 978.905412 19.587701 0.000000 0.161108
107.000000 47.968000 0.000000 2.000000 -2.000000 80.062044 5.232637 876.431350 1130.367387 5.215381 0.000000 0.147032
110.000000 50.457000 -7.000000 9.000000 -8.000000 122.734933 37.486109 149.544868 69.046786 19.815718 0.000000 0.114813
111.000000 51.664000 -6.000000 9.000000 -8.000000 119.501210 31.367674 318.860382 227.792929 19.353829 0.000000 0.021624
112.000000 52.480000 -5.000000 9.000000 -8.000000 115.434699 25.440789 462.998605 374.173566 19.054489 0.000000 0.050784
113.000000 52.777000 -4.000000 9.000000 -8.000000 110.521369 19.815244 587.186706 512.777687 18.949103 0.000000 0.104503
114.000000 52.427000 -3.000000 9.000000 -8.000000 104.783544 14.567482 695.298531 647.526916 19.077725 0.000000 0.141797
115.000000 51.319000 -2.000000 9.000000 -8.000000 98.281014 9.739289 790.265949 782.059172 19.492251 0.000000 0.163281
116.000000 49.378000 -1.000000 9.000000 -8.000000 91.109636 5.342561 874.348761 920.062060 20.261148 0.000000 0.168918
117.000000 46.591000 0.000000 9.000000 -8.000000 83.397110 1.366966 949.316835 1065.621980 21.476641 0.000000 0.158170
119.000000 47.726000 -4.000000 5.000000 -4.000000 128.269889 38.134232 130.038604 -138.486931 10.474007 0.000000 0.167287
120.000000 48.990000 -7.000000 10.000000 -8.000000 125.555961 31.924374 304.430386 34.604353 20.408358 0.000000 0.069779
121.000000 49.981000 -3.000000 5.000000 -4.000000 122.079286 25.899215 452.397802 191.063151 10.002436 0.000000 0.018194
122.000000 50.602000 -5.000000 10.000000 -8.000000 117.820083 20.175478 579.523735 335.925234 19.760787 0.000000 0.071354
123.000000 50.750000 -2.000000 5.000000 -4.000000 112.787845 14.835273 689.921819 473.243992 9.852466 0.000000 0.116398
124.000000 50.326000 -3.000000 10.000000 -8.000000 107.021503 9.924105 786.689935 606.496872 19.873533 0.000000 0.148304
125.000000 49.244000 -1.000000 5.000000 -4.000000 100.588244 5.455646 872.205497 738.890030 10.156379 0.000000 0.167109
126.000000 47.453000 -1.000000 10.000000 -8.000000 93.581165 1.419820 948.323392 873.619815 21.082358 0.000000 0.172643
127.000000 46.311000 -8.000000 11.000000 -8.000000 130.709473 32.497337 289.395252 -156.997079 21.587355 0.000000 0.116329
128.000000 47.368000 -7.000000 11.000000 -8.000000 127.723507 26.371638 441.386775 11.732414 21.106530 0.000000 0.040681
129.000000 48.161000 -6.000000 11.000000 -8.000000 124.015483 20.546905 571.585485 165.258429 20.760522 0.000000 0.039020
130.000000 48.608000 -5.000000 11.000000 -8.000000 119.588279 15.111345 684.364878 307.981847 20.571023 0.000000 0.085511
131.000000 48.628000 -4.000000 11.000000 -8.000000 114.468512 10.114510 783.001568 443.486622 20.564639 0.000000 0.123649
132.000000 48.142000 -3.000000 11.000000 -8.000000 108.704900 5.572030 869.998868 574.861869 20.774373 0.000000 0.151137
133.000000 47.089000 -2.000000 11.000000 -8.000000 102.366358 1.474147 947.302215 704.945648 21.241664 0.000000 0.167717
134.000000 45.662000 -7.000000 12.000000 -8.000000 129.310371 20.930022 563.356851 -2.517771 21.894782 0.000000 0.028827
135.000000 46.278000 -3.000000 6.000000 -4.000000 125.398491 15.396075 678.618493 147.691116 10.802360 0.000000 0.054385
136.000000 46.575000 -5.000000 12.000000 -8.000000 120.838435 10.310755 779.195469 287.873855 21.468432 0.000000 0.094404
137.000000 46.488000 -1.000000 3.000000 -2.000000 115.667405 5.691858 867.726023 421.205685 5.377644 0.000000 0.127102
138.000000 45.957000 -3.000000 12.000000 -8.000000 109.938141 1.530009 946.252125 550.437118 21.761392 0.000000 0.151025
143.000000 55.896000 -2.000000 2.000000 -7.000000 62.613967 44.896443 -97.410676 1728.094875 17.905059 0.000000 0.304002
144.000000 50.890000 -1.000000 2.000000 -7.000000 53.684553 38.403155 121.843166 1950.448410 19.669420 0.000000 0.280603
146.000000 62.408000 -4.000000 3.000000 -7.000000 85.276196 52.104868 -407.803247 1085.798219 16.030326 0.000000 0.335363
147.000000 62.669000 -3.000000 3.000000 -7.000000 79.523247 45.674810 -126.950090 1225.842109 15.965674 0.000000 0.217979
148.000000 61.004000 -2.000000 3.000000 -7.000000 72.293733 39.098815 100.356338 1383.774117 16.403905 0.000000 0.172644
149.000000 56.869000 -1.000000 3.000000 -7.000000 63.573488 32.546477 288.096882 1575.550845 17.599770 0.000000 0.157544
150.000000 50.015000 0.000000 3.000000 -7.000000 53.532204 26.183824 445.774940 1827.444356 20.015048 0.000000 0.164068
152.000000 64.404000 -4.000000 4.000000 -7.000000 93.407912 46.472593 -158.091517 847.936737 15.531623 0.000000 0.185650
153.000000 64.881000 -3.000000 4.000000 -7.000000 87.725913 39.814055 77.818019 996.643036 15.419471 0.000000 0.119268
154.000000 63.604000 -2.000000 4.000000 -7.000000 80.593459 33.160619 271.748823 1153.993644 15.731551 0.000000 0.118725
155.000000 60.105000 -1.000000 4.000000 -7.000000 72.029159 26.686833 433.990238 1331.725961 16.650163 0.000000 0.118157
156.000000 54.166000 0.000000 4.000000 -7.000000 62.215291 20.540489 571.722921 1546.599894 18.479514 0.000000 0.096194
157.000000 45.990000 1.000000 4.000000 -7.000000 51.499157 14.825891 690.110418 1826.633635 21.768088 0.000000 0.110145
159.000000 63.176000 -5.000000 5.000000 -7.000000 104.696278 47.290205 -190.968911 524.824410 15.830524 0.000000 0.203025
160.000000 64.781000 -4.000000 5.000000 -7.000000 100.296990 40.549483 54.149089 683.661390 15.439693 0.000000 0.088511
161.000000 65.250000 -3.000000 5.000000 -7.000000 94.572127 33.793694 254.655309 837.432153 15.330575 0.000000 0.084956
162.000000 64.147000 -2.000000 5.000000 -7.000000 87.461253 27.206185 421.712987 994.657592 15.596652 0.000000 0.119113
163.000000 61.098000 -1.000000 5.000000 -7.000000 79.021348 20.944383 563.047592 1164.565732 16.377907 0.000000 0.128134
164.000000 55.933000 0.000000 5.000000 -7.000000 69.446167 15.120737 684.175571 1359.036076 17.893853 0.000000 0.102286
165.000000 48.809000 1.000000 5.000000 -7.000000 59.056742 9.797439 789.141232 1595.802960 20.509357 0.000000 0.049442
167.000000 60.452000 -6.000000 6.000000 -7.000000 113.882544 48.128049 -225.731590 227.024731 16.541227 0.000000 0.257620
168.000000 62.538000 -5.000000 6.000000 -7.000000 110.500824 41.305711 29.262283 405.285843 15.990770 0.000000 0.105685
169.000000 63.915000 -4.000000 6.000000 -7.000000 105.937065 34.446429 236.764161 568.306887 15.647697 0.000000 0.041091
170.000000 64.250000 -3.000000 6.000000 -7.000000 100.098075 27.742601 408.911648 724.424236 15.568055 0.000000 0.095677
171.000000 63.196000 -2.000000 6.000000 -7.000000 92.973053 21.361867 554.031005 880.977758 15.830092 0.000000 0.135772
172.000000 60.471000 -1.000000 6.000000 -7.000000 84.653007 15.425474 678.024260 1045.499587 16.546447 0.000000 0.147077
173.000000 55.954000 0.000000 6.000000 -7.000000 75.335723 10.001479 785.191630 1226.989500 17.885383 0.000000 0.127256
174.000000 49.774000 1.000000 6.000000 -7.000000 65.310973 5.110715 878.740410 1437.765269 20.109959 0.000000 0.073232
175.000000 59.318000 -6.000000 7.000000 -7.000000 118.821308 42.083360 3.061122 143.044369 16.856359 0.000000 0.160079
176.000000 61.086000 -5.000000 7.000000 -7.000000 115.185347 35.119576 218.018216 322.224411 16.369595 0.000000 0.038639
177.000000 62.180000 -4.000000 7.000000 -7.000000 110.399027 28.296835 395.551933 486.431186 16.083199 0.000000 0.054378
178.000000 62.330000 -3.000000 7.000000 -7.000000 104.420356 21.793592 544.652621 642.944118 16.046607 0.000000 0.114746
179.000000 61.268000 -2.000000 7.000000 -7.000000 97.282133 15.740591 671.644423 798.106100 16.326974 0.000000 0.150422
180.000000 58.791000 -1.000000 7.000000 -7.000000 89.098591 10.212306 781.105426 958.206853 17.017893 0.000000 0.161487
181.000000 49.461000 1.000000 7.000000 -7.000000 70.427667 0.788132 960.194103 1323.701841 20.235186 0.000000 0.105068
184.000000 57.654000 -6.000000 8.000000 -7.000000 122.762817 35.813913 198.354714 86.865582 17.342081 0.000000 0.092923
185.000000 59.092000 -5.000000 8.000000 -7.000000 118.827483 28.869682 381.596491 264.562134 16.921352 0.000000 0.008074
186.000000 59.897000 -4.000000 8.000000 -7.000000 113.805240 22.240248 534.890217 428.016647 16.695351 0.000000 0.078585
187.000000 59.858000 -3.000000 8.000000 -7.000000 107.699371 16.066605 665.023083 583.562421 16.708272 0.000000 0.129252
188.000000 58.775000 -2.000000 8.000000 -7.000000 100.574399 10.430260 776.875407 736.698834 17.018776 0.000000 0.159596
189.000000 56.501000 -1.000000 8.000000 -7.000000 92.555170 5.358519 874.046356 892.758779 17.706439 0.000000 0.169837
190.000000 52.993000 0.000000 8.000000 -7.000000 83.820466 0.838463 959.248456 1057.546484 18.881985 0.000000 0.159341
191.000000 48.337000 1.000000 8.000000 -7.000000 74.590192 -3.167658 1034.564778 1238.113029 20.704181 0.000000 0.126988
193.000000 54.097000 -7.000000 9.000000 -7.000000 129.030932 36.530243 177.704598 -144.851879 18.480457 0.000000 0.151112
194.000000 55.646000 -6.000000 9.000000 -7.000000 125.779221 29.461976 367.004569 50.141533 17.967017 0.000000 0.048982
195.000000 56.771000 -5.000000 9.000000 -7.000000 121.540630 22.702566 524.719713 224.913943 17.612279 0.000000 0.038783
196.000000 57.313000 -4.000000 9.000000 -7.000000 116.304996 16.404071 658.146264 386.368588 17.447407 0.000000 0.095890
197.000000 57.108000 -3.000000 9.000000 -7.000000 110.109505 10.655700 772.493845 540.015196 17.512293 0.000000 0.137881
198.000000 56.007000 -2.000000 9.000000 -7.000000 103.036942 5.488556 871.581619 690.639018 17.858846 0.000000 0.163677
199.000000 53.912000 -1.000000 9.000000 -7.000000 95.211900 0.890370 958.273169 842.812289 18.555890 0.000000 0.173078
200.000000 50.798000 0.000000 9.000000 -7.000000 86.794657 -3.177900 1034.757767 1001.367704 19.696653 0.000000 0.165539
201.000000 46.739000 1.000000 9.000000 -7.000000 77.971605 -6.768374 1102.737823 1171.940462 21.410649 0.000000 0.140432
204.000000 52.194000 -7.000000 10.000000 -7.000000 131.569454 30.074589 351.731608 -162.053024 19.153897 0.000000 0.098872
205.000000 53.444000 -6.000000 10.000000 -7.000000 127.970245 23.181321 514.114974 27.232307 18.707038 0.000000 0.028341
206.000000 54.290000 -5.000000 10.000000 -7.000000 123.457505 16.753578 650.998889 198.235928 18.416866 0.000000 0.059163
207.000000 54.606000 -4.000000 10.000000 -7.000000 118.054273 10.889012 767.952448 356.899026 18.312152 0.000000 0.106335
208.000000 54.265000 -3.000000 10.000000 -7.000000 111.818619 5.622954 869.033072 508.023863 18.429171 0.000000 0.141546
209.000000 53.161000 -2.000000 10.000000 -7.000000 104.839885 0.943928 957.266825 655.790399 18.814319 0.000000 0.163711
210.000000 51.226000 -1.000000 10.000000 -7.000000 97.234968 -3.188449 1034.956533 804.153173 19.527905 0.000000 0.172418
211.000000 48.451000 0.000000 10.000000 -7.000000 89.143746 -6.828623 1103.885671 957.200748 20.649793 0.000000 0.167182
214.000000 50.171000 -7.000000 11.000000 -7.000000 133.366073 23.677334 503.047583 -169.035433 19.925765 0.000000 0.062705
215.000000 51.156000 -6.000000 11.000000 -7.000000 129.451869 17.115754 643.564669 14.244934 19.543290 0.000000 0.031420
216.000000 51.763000 -5.000000 11.000000 -7.000000 124.715541 11.130607 763.242306 181.010868 19.315478 0.000000 0.071772
217.000000 51.893000 -4.000000 11.000000 -7.000000 119.201196 5.761936 866.396367 336.395290 19.269000 0.000000 0.111412
218.000000 51.450000 -3.000000 11.000000 -7.000000 112.976296 0.999217 956.227919 484.596188 19.437033 0.000000 0.141373
219.000000 50.357000 -2.000000 11.000000 -7.000000 106.128416 -3.199318 1035.161340 629.279438 19.861373 0.000000 0.160697
220.000000 48.570000 -1.000000 11.000000 -7.000000 98.762749 -6.890582 1105.066413 773.890280 20.595429 0.000000 0.168889
221.000000 46.086000 0.000000 11.000000 -7.000000 90.999171 -10.135656 1167.408326 921.931202 21.708556 0.000000 0.165525
223.000000 47.077000 -8.000000 12.000000 -7.000000 137.938876 24.191478 491.486589 -366.618071 21.234353 0.000000 0.098911
224.000000 48.105000 -7.000000 12.000000 -7.000000 134.521679 17.491271 635.825984 -168.785660 20.781482 0.000000 0.039250
225.000000 48.862000 -6.000000 12.000000 -7.000000 130.345063 11.380927 758.353838 8.442830 20.460821 0.000000 0.040696
226.000000 49.270000 -5.000000 12.000000 -7.000000 125.445516 5.905739 863.666848 170.741775 20.292756 0.000000 0.078669
227.000000 49.252000 -4.000000 12.000000 -7.000000 119.877299 1.056324 955.154842 322.565552 20.302092 0.000000 0.112456
228.000000 48.736000 -3.000000 12.000000 -7.000000 113.708927 -3.210522 1035.372469 467.596806 20.519315 0.000000 0.138324
229.000000 47.666000 -2.000000 12.000000 -7.000000 107.021330 -6.954326 1106.281482 609.063571 20.982323 0.000000 0.155441
230.000000 46.014000 -1.000000 12.000000 -7.000000 99.906631 -10.239051 1169.413312 749.986275 21.738824 0.000000 0.163295
231.000000 46.049000 -7.000000 13.000000 -7.000000 135.143258 11.640440 753.276721 -163.404121 21.709213 0.000000 0.026955
232.000000 46.613000 -6.000000 13.000000 -7.000000 130.766139 6.054616 860.839526 7.871950 21.447626 0.000000 0.047616
233.000000 46.860000 -5.000000 13.000000 -7.000000 125.764159 1.115337 954.045882 165.628198 21.336515 0.000000 0.081349
234.000000 46.727000 -4.000000 13.000000 -7.000000 120.193714 -3.222077 1035.590217 313.748270 21.399010 0.000000 0.110504
235.000000 46.162000 -3.000000 13.000000 -7.000000 114.119325 -7.019932 1107.532400 455.474940 21.663242 0.000000 0.133159
241.000000 63.215000 -1.000000 2.000000 -6.000000 58.706513 37.544979 147.787142 1766.135674 15.833629 0.000000 0.230097
242.000000 53.282000 0.000000 1.000000 -3.000000 46.940783 30.021502 353.062548 2102.582986 9.394310 0.000000 0.258699
244.000000 73.865000 -2.000000 3.000000 -6.000000 79.179005 38.347711 123.537786 1203.314643 13.546160 0.000000 0.140399
245.000000 69.550000 -1.000000 3.000000 -6.000000 69.522488 30.683561 336.360823 1408.359451 14.389437 0.000000 0.130528
246.000000 49.072000 1.000000 3.000000 -6.000000 45.328611 16.517298 655.833636 2050.816455 20.402400 0.000000 0.189240
248.000000 76.105000 -3.000000 4.000000 -6.000000 95.464799 39.177355 97.903921 808.171334 13.143540 0.000000 0.089289
249.000000 71.939000 -1.000000 4.000000 -6.000000 78.350914 23.870925 498.705308 1183.648915 13.909898 0.000000 0.123502
250.000000 64.831000 0.000000 2.000000 -3.000000 67.192366 16.897187 648.054510 1414.022617 7.719170 0.000000 0.095585
251.000000 54.479000 1.000000 4.000000 -6.000000 54.885472 10.576968 774.024768 1710.921642 18.375654 0.000000 0.062600
252.000000 71.128000 -5.000000 5.000000 -6.000000 112.477707 47.986986 -219.800038 275.639851 14.058881 0.000000 0.246876
253.000000 73.823000 -4.000000 5.000000 -6.000000 108.240252 40.034919 70.763490 477.727698 13.546715 0.000000 0.081095
254.000000 75.210000 -3.000000 5.000000 -6.000000 102.337233 32.081666 300.321706 663.170287 13.298647 0.000000 0.064589
255.000000 74.627000 -2.000000 5.000000 -6.000000 94.658635 24.422484 486.261906 844.675799 13.404796 0.000000 0.122515
256.000000 71.460000 -1.000000 5.000000 -6.000000 85.269685 17.291967 639.937187 1034.276704 14.001546 0.000000 0.144396
257.000000 65.386000 0.000000 5.000000 -6.000000 74.440145 10.831367 769.075154 1246.130050 15.305603 0.000000 0.123254
258.000000 56.606000 1.000000 5.000000 -6.000000 62.625221 5.090766 879.118125 1500.504051 17.683347 0.000000 0.054512
259.000000 45.910000 2.000000 5.000000 -6.000000 50.390661 0.052715 974.009760 1831.683986 21.807004 0.000000 0.076005
260.000000 69.591000 -5.000000 6.000000 -6.000000 118.291479 40.921434 41.979655 174.308902 14.368301 0.000000 0.136866
261.000000 69.192000 -1.000000 6.000000 -6.000000 90.527836 11.095692 763.923494 930.895497 14.459287 0.000000 0.161377
262.000000 56.527000 1.000000 6.000000 -6.000000 68.784038 0.097066 973.176617 1358.812628 17.706451 0.000000 0.095233
263.000000 47.471000 1.000000 3.000000 -3.000000 57.155886 -4.370292 1057.254996 1637.823837 10.544027 0.000000 0.016970
266.000000 67.205000 -5.000000 7.000000 -6.000000 122.736195 33.586378 260.280565 110.405336 14.877493 0.000000 0.066427
267.000000 68.897000 -4.000000 7.000000 -6.000000 117.774029 25.592077 459.509161 312.496698 14.513343 0.000000 0.038092
268.000000 69.491000 -3.000000 7.000000 -6.000000 111.348708 18.129674 622.595724 498.339991 14.391165 0.000000 0.109027
269.000000 68.613000 -2.000000 7.000000 -6.000000 103.514577 11.370524 758.557159 677.136054 14.577495 0.000000 0.152911
270.000000 65.964000 -1.000000 7.000000 -6.000000 94.433654 5.379898 873.641211 857.178471 15.165721 0.000000 0.170384
271.000000 61.420000 0.000000 7.000000 -6.000000 84.365989 0.143003 972.313708 1047.176985 16.291157 0.000000 0.160753
272.000000 55.118000 1.000000 7.000000 -6.000000 73.646277 -4.401864 1057.851552 1257.760601 18.157540 0.000000 0.122497
273.000000 47.470000 2.000000 7.000000 -6.000000 62.645734 -8.336449 1132.713685 1503.754669 21.086539 0.000000 0.059034
275.000000 62.396000 -3.000000 4.000000 -3.000000 129.965235 34.381910 238.544968 -151.953760 8.011270 0.000000 0.131617
276.000000 64.321000 -5.000000 8.000000 -6.000000 125.940854 26.212573 445.104159 71.282195 15.544045 0.000000 0.028631
277.000000 65.543000 -2.000000 4.000000 -3.000000 120.601065 18.574502 613.320107 269.474763 7.627740 0.000000 0.065647
278.000000 65.787000 -3.000000 8.000000 -6.000000 113.966763 11.656489 752.962444 452.475766 15.200780 0.000000 0.121696
279.000000 64.784000 -1.000000 4.000000 -3.000000 106.137562 5.532860 870.741624 628.121419 7.719278 0.000000 0.157608
280.000000 62.331000 -1.000000 8.000000 -6.000000 97.284637 0.190610 971.419407 803.416076 16.048799 0.000000 0.172795
281.000000 58.362000 0.000000 4.000000 -3.000000 87.640086 -4.434503 1058.468340 985.488975 8.571792 0.000000 0.166524
282.000000 52.990000 1.000000 8.000000 -6.000000 77.480111 -8.428501 1134.480410 1182.610195 18.884974 0.000000 0.138003
283.000000 46.518000 1.000000 4.000000 -3.000000 67.100264 -11.880565 1201.429515 1405.590714 10.758183 0.000000 0.089971
285.000000 59.724000 -2.000000 3.000000 -2.000000 132.554448 26.858643 429.941242 -166.609922 5.579575 0.000000 0.079038
286.000000 61.198000 -5.000000 9.000000 -6.000000 128.080029 19.038033 603.602832 48.886532 16.336756 0.000000 0.030318
287.000000 62.021000 -4.000000 9.000000 -6.000000 122.428514 11.954261 747.124453 242.053415 16.121516 0.000000 0.081702
288.000000 60.898000 -2.000000 9.000000 -6.000000 107.915475 0.239980 970.491970 593.042318 16.423197 0.000000 0.156981
289.000000 58.628000 -1.000000 9.000000 -6.000000 99.335329 -4.468266 1059.106409 763.529132 17.061851 0.000000 0.170421
290.000000 55.142000 0.000000 3.000000 -2.000000 90.126004 -8.523478 1136.304164 938.606601 6.047886 0.000000 0.166701
291.000000 50.535000 1.000000 9.000000 -6.000000 80.512218 -12.019588 1204.158021 1124.905821 19.801183 0.000000 0.145434
294.000000 56.927000 -3.000000 5.000000 -3.000000 134.201121 19.521407 593.411585 -169.528232 8.780445 0.000000 0.045780
295.000000 58.017000 -5.000000 10.000000 -6.000000 129.348025 12.264571 741.026967 37.945471 17.232165 0.000000 0.043648
296.000000 58.516000 -2.000000 5.000000 -3.000000 123.476373 5.857254 864.587301 225.519101 8.543488 0.000000 0.089600
297.000000 58.267000 -3.000000 10.000000 -6.000000 116.675576 0.291215 969.529521 400.248121 17.161816 0.000000 0.127176
298.000000 57.138000 -1.000000 5.000000 -3.000000 109.064899 -4.503210 1059.766878 567.886138 8.751769 0.000000 0.152540
299.000000 55.041000 -1.000000 10.000000 -6.000000 100.789187 -8.621521 1138.187751 733.552263 18.173317 0.000000 0.164725
300.000000 51.964000 0.000000 5.000000 -3.000000 92.014925 -12.162741 1206.970544 902.264788 9.626282 0.000000 0.163067
301.000000 47.986000 1.000000 10.000000 -6.000000 82.923735 -15.218168 1267.789200 1079.462201 20.852061 0.000000 0.147435
303.000000 52.935000 -7.000000 11.000000 -6.000000 139.275297 20.025854 582.710821 -389.671612 18.884078 0.000000 0.079840
304.000000 54.120000 -6.000000 11.000000 -6.000000 135.072230 12.588208 734.652290 -164.587881 18.471450 0.000000 0.028276
305.000000 54.895000 -5.000000 11.000000 -6.000000 129.935730 6.029439 861.317761 34.924938 18.212285 0.000000 0.052487
306.000000 55.139000 -4.000000 11.000000 -6.000000 123.939285 0.344420 968.530038 216.675493 18.133433 0.000000 0.091773
307.000000 54.737000 -3.000000 11.000000 -6.000000 117.176194 -4.539400 1060.450948 386.686266 18.268390 0.000000 0.123467
308.000000 53.597000 -2.000000 11.000000 -6.000000 109.755824 -8.722782 1140.134166 549.924053 18.659504 0.000000 0.145450
309.000000 51.663000 -1.000000 11.000000 -6.000000 101.802389 -12.310210 1209.871025 710.810984 19.361090 0.000000 0.156789
310.000000 48.934000 0.000000 11.000000 -6.000000 93.453301 -15.397704 1271.414433 873.633436 20.443991 0.000000 0.156897
314.000000 50.481000 -7.000000 12.000000 -6.000000 139.863402 12.926027 727.981081 -368.672276 19.801897 0.000000 0.046368
315.000000 51.380000 -2.000000 4.000000 -2.000000 135.335239 6.208838 857.909051 -154.388638 6.485500 0.000000 0.023869
316.000000 51.900000 -5.000000 12.000000 -6.000000 130.014069 0.399712 967.491343 37.409430 19.263102 0.000000 0.056451
317.000000 51.949000 -2.000000 6.000000 -3.000000 123.977970 -4.576903 1061.159908 213.311782 9.623374 0.000000 0.089922
318.000000 51.443000 -1.000000 4.000000 -2.000000 117.313855 -8.827419 1142.146606 378.490564 6.479436 0.000000 0.117113
319.000000 50.316000 -1.000000 6.000000 -3.000000 110.117078 -12.462191 1212.863655 537.255636 9.938131 0.000000 0.136569
320.000000 48.533000 -1.000000 12.000000 -6.000000 102.491992 -15.582280 1275.147975 693.450617 20.609223 0.000000 0.147400
321.000000 46.101000 0.000000 4.000000 -2.000000 94.551441 -18.274696 1330.423050 850.770628 7.233161 0.000000 0.149092
324.000000 48.090000 -7.000000 13.000000 -6.000000 139.896829 6.395908 854.352092 -345.001195 20.786627 0.000000 0.022101
325.000000 48.753000 -6.000000 13.000000 -6.000000 135.142665 0.457215 966.411081 -140.702015 20.504908 0.000000 0.025555
326.000000 49.072000 -5.000000 13.000000 -6.000000 129.725595 -4.615791 1061.895141 43.720661 20.373528 0.000000 0.056654
327.000000 48.974000 -4.000000 13.000000 -6.000000 123.718544 -8.935605 1144.228489 213.872812 20.415895 0.000000 0.085242
328.000000 48.399000 -3.000000 13.000000 -6.000000 117.197736 -12.618891 1215.952897 374.223012 20.660545 0.000000 0.108943
329.000000 47.302000 -2.000000 13.000000 -6.000000 110.244119 -15.772108 1278.994753 528.530267 21.142625 0.000000 0.126529
330.000000 45.659000 -1.000000 13.000000 -6.000000 102.944567 -18.486481 1334.840668 680.154424 21.905924 0.000000 0.137131
331.000000 45.793000 -7.000000 14.000000 -6.000000 139.513673 0.517066 965.286707 -319.839163 21.829151 0.000000 0.004911
332.000000 46.266000 -3.000000 7.000000 -3.000000 134.623301 -4.656143 1062.658135 -124.751211 10.803828 0.000000 0.027655
333.000000 46.426000 -5.000000 14.000000 -6.000000 129.182956 -9.047522 1146.383470 52.676519 21.534679 0.000000 0.054125
334.000000 46.221000 -2.000000 7.000000 -3.000000 123.256347 -12.780532 1219.143506 217.248818 10.816071 0.000000 0.078588
335.000000 45.605000 -3.000000 14.000000 -6.000000 116.908288 -15.967410 1282.959997 372.848743 21.926501 0.000000 0.099560
341.000000 86.506000 -2.000000 2.000000 -5.000000 76.393516 45.517597 -120.918085 1312.793315 11.566784 0.000000 0.230275
342.000000 81.125000 -1.000000 2.000000 -5.000000 65.382848 36.332389 183.446145 1553.164567 12.336758 0.000000 0.179364
343.000000 68.390000 0.000000 2.000000 -5.000000 51.620242 27.330828 418.749525 1900.556357 14.637528 0.000000 0.188299
346.000000 90.075000 -3.000000 3.000000 -5.000000 95.857319 46.634516 -164.523575 780.199034 11.104792 0.000000 0.185215
347.000000 86.944000 -1.000000 3.000000 -5.000000 77.119656 28.066695 401.116116 1219.916128 11.509285 0.000000 0.120101
348.000000 76.566000 0.000000 3.000000 -5.000000 63.775575 19.435816 595.220560 1503.210112 13.072850 0.000000 0.093089
349.000000 60.296000 1.000000 3.000000 -5.000000 48.710352 11.676212 752.576148 1906.175580 16.604248 0.000000 0.125520
350.000000 86.315000 -4.000000 4.000000 -5.000000 110.430192 47.790458 -211.590023 344.260267 11.585567 0.000000 0.232746
351.000000 89.830000 -3.000000 4.000000 -5.000000 104.826806 38.266131 126.026566 578.125825 11.133598 0.000000 0.059779
352.000000 90.580000 -2.000000 4.000000 -5.000000 96.722060 28.836058 382.419850 796.188160 11.043287 0.000000 0.098709
353.000000 87.139000 -1.000000 4.000000 -5.000000 86.041163 19.976842 583.753496 1020.253461 11.481990 0.000000 0.139200
354.000000 78.561000 0.000000 4.000000 -5.000000 73.130282 12.009319 746.043620 1274.685067 12.739144 0.000000 0.117407
355.000000 65.162000 1.000000 4.000000 -5.000000 58.757526 5.063013 879.643580 1596.475493 15.362440 0.000000 0.029961
356.000000 48.772000 2.000000 4.000000 -5.000000 43.936367 -0.880608 991.543422 2058.147265 20.528526 0.000000 0.167166
357.000000 84.126000 -4.000000 5.000000 -5.000000 117.499560 39.293684 94.261443 217.049125 11.885868 0.000000 0.106405
358.000000 86.839000 -3.000000 5.000000 -5.000000 111.451341 29.640958 362.561646 454.418701 11.515921 0.000000 0.039532
359.000000 87.111000 -2.000000 5.000000 -5.000000 103.083004 20.543781 571.652410 673.887823 11.481985 0.000000 0.123846
360.000000 83.944000 -1.000000 5.000000 -5.000000 92.486768 12.358128 739.185798 893.148233 11.917710 0.000000 0.160047
361.000000 65.786000 1.000000 5.000000 -5.000000 66.471288 -0.847516 990.921637 1409.678811 15.214997 0.000000 0.080074
362.000000 52.293000 2.000000 5.000000 -5.000000 52.510304 -5.987340 1087.882648 1771.090344 19.144624 0.000000 0.055881
364.000000 80.455000 -4.000000 6.000000 -5.000000 122.577339 30.483576 341.429712 142.973157 12.427356 0.000000 0.034591
365.000000 82.331000 -3.000000 6.000000 -5.000000 116.011734 21.138419 558.863226 377.892926 12.145788 0.000000 0.074755
366.000000 82.102000 -2.000000 6.000000 -5.000000 107.409822 12.723750 731.977764 595.010836 12.181569 0.000000 0.140527
367.000000 79.108000 -1.000000 6.000000 -5.000000 96.972185 5.410024 873.070252 808.789085 12.645379 0.000000 0.169968
368.000000 73.003000 0.000000 6.000000 -5.000000 85.094723 -0.813018 990.273476 1033.380129 13.706135 0.000000 0.162461
369.000000 64.011000 1.000000 6.000000 -5.000000 72.322348 -6.055704 1089.181146 1285.951715 15.635101 0.000000 0.115919
370.000000 52.972000 2.000000 6.000000 -5.000000 59.265612 -10.463336 1173.767042 1591.751933 18.897234 0.000000 0.047791
372.000000 73.622000 -5.000000 7.000000 -5.000000 131.124117 31.366235 318.897440 -159.545745 13.579151 0.000000 0.107889
373.000000 76.034000 -4.000000 7.000000 -5.000000 125.919572 21.762701 545.325534 101.499012 13.149490 0.000000 0.027170
374.000000 77.180000 -3.000000 7.000000 -5.000000 118.902842 13.107397 724.391988 330.888558 12.955735 0.000000 0.095849
375.000000 76.552000 -2.000000 7.000000 -5.000000 110.183360 5.595715 869.549691 543.461282 13.064269 0.000000 0.146819
376.000000 73.719000 -1.000000 7.000000 -5.000000 100.003567 -0.777025 989.597223 751.133734 13.568958 0.000000 0.170986
377.000000 68.495000 0.000000 7.000000 -5.000000 88.717234 -6.126777 1090.531442 965.239076 14.607021 0.000000 0.167152
378.000000 61.068000 1.000000 7.000000 -5.000000 76.757756 -10.608097 1176.580437 1198.683872 16.387316 0.000000 0.134343
379.000000 52.013000 2.000000 7.000000 -5.000000 64.588651 -14.373301 1250.810867 1468.845492 19.244122 0.000000 0.080881
381.000000 69.663000 -5.000000 8.000000 -5.000000 133.645081 22.418739 530.971643 -169.486244 14.350439 0.000000 0.057068
382.000000 71.360000 -4.000000 8.000000 -5.000000 127.858373 13.510400 716.397979 80.572749 14.010427 0.000000 0.047868
383.000000 71.932000 -3.000000 8.000000 -5.000000 120.533596 5.790303 865.858043 302.908183 13.900771 0.000000 0.104928
384.000000 71.025000 -2.000000 8.000000 -5.000000 111.834628 -0.739437 988.891012 509.722348 14.080432 0.000000 0.145569
385.000000 68.368000 -1.000000 8.000000 -5.000000 101.998213 -6.200722 1091.936697 710.915590 14.630371 0.000000 0.165985
386.000000 63.866000 0.000000 8.000000 -5.000000 91.320718 -10.758164 1179.499739 915.742139 15.664866 0.000000 0.164886
387.000000 57.673000 1.000000 8.000000 -5.000000 80.140508 -14.573678 1254.825721 1134.278161 17.350611 0.000000 0.141873
388.000000 50.192000 2.000000 8.000000 -5.000000 68.809239 -17.788032 1320.312322 1379.217144 19.940661 0.000000 0.102817
391.000000 65.614000 -5.000000 9.000000 -5.000000 134.951879 13.934217 707.961870 -166.065699 15.235816 0.000000 0.030599
392.000000 66.739000 -4.000000 9.000000 -5.000000 128.736842 5.994439 861.982525 72.841770 14.980321 0.000000 0.059558
393.000000 66.884000 -3.000000 9.000000 -5.000000 121.264638 -0.700146 988.152808 287.463520 14.949740 0.000000 0.105941
394.000000 65.806000 -2.000000 9.000000 -5.000000 112.706634 -6.277717 1093.400337 487.913010 15.196869 0.000000 0.139290
395.000000 63.335000 -1.000000 9.000000 -5.000000 103.270528 -10.913830 1182.531044 682.483529 15.792432 0.000000 0.157140
396.000000 59.430000 0.000000 9.000000 -5.000000 93.195925 -14.780813 1258.983654 878.845852 16.833397 0.000000 0.158286
397.000000 54.214000 1.000000 9.000000 -5.000000 82.745355 -18.027652 1325.283587 1085.084071 18.456392 0.000000 0.142677
398.000000 47.976000 2.000000 9.000000 -5.000000 72.187235 -20.775872 1383.327289 1310.875950 20.860288 0.000000 0.115035
400.000000 60.316000 -6.000000 10.000000 -5.000000 140.667821 14.380454 699.045944 -414.953714 16.572785 0.000000 0.056939
401.000000 62.340000 -4.000000 10.000000 -5.000000 128.861380 -0.659032 987.380384 73.679793 16.037311 0.000000 0.063525
402.000000 62.181000 -3.000000 10.000000 -5.000000 121.382543 -6.357956 1094.926077 280.414237 16.080384 0.000000 0.101654
403.000000 61.013000 -2.000000 10.000000 -5.000000 113.053234 -11.075412 1185.680923 474.266733 16.390553 0.000000 0.129780
404.000000 58.731000 -1.000000 10.000000 -5.000000 104.045966 -14.995047 1263.292455 662.240097 17.030228 0.000000 0.145955
405.000000 50.885000 1.000000 10.000000 -5.000000 84.773835 -21.042248 1389.061498 1046.479882 19.662882 0.000000 0.139373
406.000000 45.631000 2.000000 10.000000 -5.000000 74.920114 -23.398620 1440.723347 1256.986594 21.930944 0.000000 0.120804
408.000000 56.956000 -6.000000 11.000000 -5.000000 140.724263 6.434286 853.622055 -383.454051 17.550752 0.000000 0.024524
409.000000 57.893000 -5.000000 11.000000 -5.000000 135.061277 -0.615967 986.571307 -137.661239 17.267806 0.000000 0.026030
410.000000 58.245000 -4.000000 11.000000 -5.000000 128.478478 -6.441645 1096.517955 80.101588 17.165016 0.000000 0.062176
411.000000 57.876000 -3.000000 11.000000 -5.000000 121.099452 -11.243252 1188.956473 279.047804 17.276376 0.000000 0.093916
412.000000 56.675000 -2.000000 11.000000 -5.000000 113.054013 -15.216745 1267.760485 466.299170 17.645007 0.000000 0.118277
413.000000 54.576000 -1.000000 11.000000 -5.000000 104.481968 -18.529503 1335.739395 647.814002 18.326441 0.000000 0.133456
414.000000 51.582000 0.000000 11.000000 -5.000000 95.534656 -21.316207 1394.980373 829.048800 19.393430 0.000000 0.138470
415.000000 47.773000 1.000000 11.000000 -5.000000 86.372085 -23.682424 1447.066427 1015.516507 20.943184 0.000000 0.133645
418.000000 53.752000 -6.000000 12.000000 -5.000000 140.189098 -0.570807 985.722903 -350.372901 18.596984 0.000000 0.001603
419.000000 54.375000 -5.000000 12.000000 -5.000000 134.347900 -6.529014 1098.180367 -117.937536 18.385225 0.000000 0.028218
420.000000 54.482000 -4.000000 12.000000 -5.000000 127.772102 -11.417717 1192.365367 90.141153 18.350922 0.000000 0.057292
421.000000 53.974000 -3.000000 12.000000 -5.000000 120.565057 -15.446298 1272.396737 281.547923 18.525469 0.000000 0.083973
422.000000 52.777000 -2.000000 12.000000 -5.000000 112.832545 -18.792436 1341.241913 462.331003 18.948127 0.000000 0.105630
423.000000 50.851000 -1.000000 12.000000 -5.000000 104.687085 -21.598064 1401.092983 637.596494 19.668659 0.000000 0.120358
424.000000 48.206000 0.000000 12.000000 -5.000000 96.249330 -23.973663 1453.604395 812.011842 20.751086 0.000000 0.127219
427.000000 50.740000 -6.000000 13.000000 -5.000000 139.259335 -6.620308 1099.918108 -316.900342 19.701157 0.000000 0.015304
428.000000 51.120000 -5.000000 13.000000 -5.000000 133.359581 -11.599205 1195.915917 -96.552465 19.555945 0.000000 0.028989
429.000000 51.048000 -4.000000 13.000000 -5.000000 126.872487 -15.684123 1277.210895 102.482522 19.585303 0.000000 0.050138
430.000000 50.454000 -3.000000 13.000000 -5.000000 119.881623 -19.063878 1346.940557 286.676249 19.818296 0.000000 0.072666
431.000000 49.285000 -2.000000 13.000000 -5.000000 112.472456 -21.888151 1407.408996 461.203457 20.290826 0.000000 0.092439
432.000000 47.519000 -1.000000 13.000000 -5.000000 104.735811 -24.272617 1460.346373 630.469409 21.047754 0.000000 0.107175
435.000000 47.933000 -6.000000 14.000000 -5.000000 138.085462 -11.788143 1199.617140 -283.768188 20.854931 0.000000 0.028315
436.000000 48.128000 -5.000000 14.000000 -5.000000 132.213474 -15.930667 1282.213397 -74.381574 20.771930 0.000000 0.029154
437.000000 47.928000 -4.000000 14.000000 -5.000000 125.868457 -19.344235 1352.846004 116.233781 20.860484 0.000000 0.041656
438.000000 47.283000 -3.000000 14.000000 -5.000000 119.117453 -22.186819 1413.938737 293.575877 21.147573 0.000000 0.060570
439.000000 46.157000 -2.000000 14.000000 -5.000000 112.029760 -24.579579 1467.302061 462.102918 21.666144 0.000000 0.079135
442.000000 63.100000 1.000000 2.000000 -4.000000 38.730569 13.340946 719.762536 2320.185337 15.867486 0.000000 0.279541
443.000000 75.398000 1.000000 3.000000 -4.000000 52.726666 5.021761 880.424529 1763.281483 13.277941 0.000000 0.057202
445.000000 78.230000 1.000000 4.000000 -4.000000 62.984268 -2.215488 1016.638424 1490.182147 12.795388 0.000000 0.054447
446.000000 56.442000 1.000000 2.000000 -2.000000 45.632010 -8.247190 1131.001353 2004.809416 8.869362 0.000000 0.146454
447.000000 89.893000 0.000000 5.000000 -4.000000 86.115456 -2.208771 1016.512058 1014.137040 11.130539 0.000000 0.164473
448.000000 76.083000 1.000000 5.000000 -4.000000 70.342871 -8.382118 1133.590088 1329.612022 13.154808 0.000000 0.105780
449.000000 59.016000 2.000000 5.000000 -4.000000 54.372072 -13.353252 1230.481656 1733.777844 16.962955 0.000000 0.069706
451.000000 89.873000 -1.000000 6.000000 -4.000000 103.717241 -2.201694 1016.378919 678.090513 11.129174 0.000000 0.165801
452.000000 71.815000 1.000000 6.000000 -4.000000 75.627112 -13.585544 1235.095560 1224.741595 13.934986 0.000000 0.128656
453.000000 58.414000 1.000000 3.000000 -2.000000 61.000709 -17.670905 1317.887205 1567.125509 8.567941 0.000000 0.079197
455.000000 83.279000 -4.000000 7.000000 -4.000000 134.722955 15.993129 666.517270 -167.854268 12.004043 0.000000 0.035167
456.000000 85.055000 -3.000000 7.000000 -4.000000 126.854868 5.942472 862.969389 129.861555 11.754724 0.000000 0.070583
457.000000 84.713000 -2.000000 7.000000 -4.000000 116.979389 -2.194227 1016.238448 392.686247 11.804253 0.000000 0.125715
458.000000 81.661000 -1.000000 7.000000 -4.000000 105.466050 -8.671740 1139.152910 639.760201 12.247887 0.000000 0.156650
459.000000 75.639000 0.000000 7.000000 -4.000000 92.782792 -13.827838 1239.917777 887.122991 13.226174 0.000000 0.160236
460.000000 66.909000 1.000000 7.000000 -4.000000 79.468695 -17.967064 1324.025329 1151.345382 14.955512 0.000000 0.136137
461.000000 56.270000 2.000000 7.000000 -4.000000 66.078993 -21.330540 1395.290635 1453.529748 17.787295 0.000000 0.099945
463.000000 77.983000 -3.000000 8.000000 -4.000000 127.080145 -2.186337 1016.090021 126.998622 12.820680 0.000000 0.073828
464.000000 74.260000 -1.000000 8.000000 -4.000000 106.351201 -14.080785 1244.962737 615.443418 13.468231 0.000000 0.143106
465.000000 62.048000 1.000000 8.000000 -4.000000 82.309594 -21.666471 1402.580109 1097.386050 16.126220 0.000000 0.135234
466.000000 53.480000 1.000000 4.000000 -2.000000 70.026624 -24.447979 1464.315894 1370.700900 9.356831 0.000000 0.112518
468.000000 69.815000 -5.000000 9.000000 -4.000000 141.917985 6.492474 852.514963 -441.402403 14.317859 0.000000 0.028301
469.000000 71.237000 -4.000000 9.000000 -4.000000 134.916811 -2.177987 1015.932944 -132.949234 14.033323 0.000000 0.026707
470.000000 71.550000 -3.000000 9.000000 -4.000000 126.556604 -8.991085 1145.296603 133.009365 13.973549 0.000000 0.069332
471.000000 70.458000 -2.000000 9.000000 -4.000000 117.070587 -14.345092 1250.246240 373.226838 14.192347 0.000000 0.104374
472.000000 67.750000 -1.000000 9.000000 -4.000000 106.706299 -18.594460 1337.097194 600.175986 14.762194 0.000000 0.127334
473.000000 63.381000 0.000000 9.000000 -4.000000 95.735201 -22.014113 1410.159533 824.402744 15.783096 0.000000 0.135690
474.000000 57.512000 1.000000 9.000000 -4.000000 84.449583 -24.806915 1472.475426 1056.223306 17.397031 0.000000 0.129890
475.000000 50.510000 2.000000 9.000000 -4.000000 73.144570 -27.120492 1526.253427 1307.371511 19.812550 0.000000 0.118386
477.000000 65.040000 -5.000000 10.000000 -4.000000 141.120120 -2.169136 1015.766438 -394.782137 15.369113 0.000000 0.005556
478.000000 65.893000 -2.000000 5.000000 -2.000000 133.879791 -9.163365 1148.615470 -107.389422 7.585786 0.000000 0.028749
479.000000 65.802000 -3.000000 10.000000 -4.000000 125.613483 -14.621532 1255.785615 144.263007 15.194399 0.000000 0.060272
480.000000 64.571000 -1.000000 5.000000 -2.000000 116.503802 -18.927068 1344.066070 373.612943 7.743120 0.000000 0.089402
481.000000 62.077000 -1.000000 10.000000 -4.000000 106.740594 -22.374061 1418.046559 590.909535 16.111194 0.000000 0.110710
482.000000 58.309000 0.000000 5.000000 -2.000000 96.529770 -25.177143 1480.941292 804.872726 8.577742 0.000000 0.121545
483.000000 53.395000 1.000000 10.000000 -4.000000 86.091087 -27.490994 1535.068343 1023.903807 18.737904 0.000000 0.122460
484.000000 47.591000 1.000000 5.000000 -2.000000 75.646231 -29.427507 1582.141607 1257.219101 10.513394 0.000000 0.120133
487.000000 60.625000 -5.000000 11.000000 -4.000000 139.780196 -9.344954 1152.117160 -348.847750 16.488762 0.000000 0.025087
488.000000 61.065000 -4.000000 11.000000 -4.000000 132.509881 -14.910944 1261.599908 -79.962441 16.371255 0.000000 0.029106
489.000000 60.708000 -3.000000 11.000000 -4.000000 124.459879 -19.273287 1351.349642 158.539532 16.469425 0.000000 0.048641
490.000000 59.425000 -2.000000 11.000000 -4.000000 115.769243 -22.746951 1426.260298 377.590492 16.827442 0.000000 0.073397
491.000000 57.142000 -1.000000 11.000000 -4.000000 106.583870 -25.559170 1489.731073 585.703383 17.502415 0.000000 0.094156
492.000000 53.868000 0.000000 11.000000 -4.000000 97.062005 -27.872057 1544.196603 790.167714 18.569516 0.000000 0.107681
493.000000 49.701000 1.000000 11.000000 -4.000000 87.371896 -29.801880 1591.446438 997.932667 20.129726 0.000000 0.114439
496.000000 56.588000 -5.000000 12.000000 -4.000000 138.155412 -15.214248 1267.710109 -304.540585 17.665189 0.000000 0.041166
497.000000 56.734000 -2.000000 6.000000 -2.000000 130.989639 -19.633941 1358.969719 -52.001215 8.810673 0.000000 0.029871
498.000000 56.208000 -3.000000 12.000000 -4.000000 123.222391 -23.133460 1434.821483 174.455762 17.788322 0.000000 0.035787
499.000000 54.925000 -1.000000 6.000000 -2.000000 114.960105 -25.953534 1498.863721 383.837568 9.103191 0.000000 0.057155
500.000000 52.842000 -1.000000 12.000000 -4.000000 106.316455 -28.264102 1553.655217 583.285129 18.926736 0.000000 0.078385
501.000000 49.975000 0.000000 3.000000 -1.000000 97.415064 -30.185965 1601.065331 778.951985 5.003884 0.000000 0.094873
502.000000 46.403000 1.000000 12.000000 -4.000000 88.387100 -31.806183 1642.491533 976.661157 21.559755 0.000000 0.106831
505.000000 52.922000 -5.000000 13.000000 -4.000000 136.411553 -20.009922 1366.950174 -262.316939 18.889265 0.000000 0.054274
506.000000 52.860000 -4.000000 13.000000 -4.000000 129.429363 -23.534310 1443.752634 -24.294308 18.913308 0.000000 0.032874
507.000000 52.231000 -3.000000 13.000000 -4.000000 121.974866 -26.360804 1508.359696 191.139280 19.143244 0.000000 0.022941
508.000000 50.979000 -2.000000 13.000000 -4.000000 114.131078 -28.667574 1563.462449 391.489291 19.615909 0.000000 0.041297
509.000000 49.080000 -1.000000 13.000000 -4.000000 105.988127 -30.580110 1611.014458 582.800012 20.377485 0.000000 0.064102
510.000000 46.553000 0.000000 13.000000 -4.000000 97.644225 -32.188165 1652.468226 770.311827 21.486660 0.000000 0.083799
513.000000 49.603000 -5.000000 14.000000 -4.000000 134.649142 -23.950274 1453.078263 -222.360222 20.153720 0.000000 0.065693
514.000000 49.395000 -2.000000 7.000000 -2.000000 127.892646 -26.781580 1518.241122 2.698711 10.120216 0.000000 0.038626
515.000000 48.708000 -3.000000 14.000000 -4.000000 120.758697 -29.082936 1573.637934 208.036799 20.528108 0.000000 0.012972
516.000000 47.505000 -1.000000 7.000000 -2.000000 113.313499 -30.984676 1621.311124 399.971810 10.525285 0.000000 0.026664
517.000000 45.773000 -1.000000 14.000000 -4.000000 105.629773 -32.579283 1662.770708 583.662128 21.849671 0.000000 0.052228
521.000000 46.600000 -5.000000 15.000000 -4.000000 132.926085 -27.216498 1528.531952 -184.700084 21.452690 0.000000 0.076173
522.000000 46.292000 -4.000000 15.000000 -4.000000 126.414192 -29.510677 1584.202810 28.720246 21.597366 0.000000 0.046540
523.000000 45.578000 -3.000000 15.000000 -4.000000 119.595736 -31.400040 1631.973861 224.798258 21.938131 0.000000 0.014850
524.000000 83.946000 1.000000 2.000000 -3.000000 42.106194 4.953997 881.707175 2136.365108 11.927147 0.000000 0.202315
526.000000 64.099000 2.000000 4.000000 -3.000000 46.782420 -17.479533 1313.931645 2001.288817 15.619094 0.000000 0.159171
527.000000 86.547000 1.000000 5.000000 -3.000000 73.702296 -17.867101 1321.951234 1271.629691 11.563258 0.000000 0.120006
528.000000 65.211000 2.000000 5.000000 -3.000000 55.565816 -22.200823 1414.245604 1737.981777 15.350836 0.000000 0.111429
529.000000 79.095000 1.000000 6.000000 -3.000000 78.200680 -22.653584 1424.199496 1184.632387 12.651566 0.000000 0.127371
530.000000 63.083000 2.000000 6.000000 -3.000000 61.997622 -26.034538 1500.747163 1577.966327 15.866896 0.000000 0.114500
531.000000 46.500000 1.000000 2.000000 -1.000000 46.717253 -28.706579 1564.414548 2096.680157 7.176366 0.000000 0.225623
533.000000 89.094000 -1.000000 7.000000 -3.000000 110.206677 -18.703866 1339.386454 522.771160 11.224995 0.000000 0.115789
534.000000 82.153000 0.000000 7.000000 -3.000000 96.035910 -23.126686 1434.671032 817.250147 12.176386 0.000000 0.131000
535.000000 71.999000 1.000000 7.000000 -3.000000 81.364346 -26.517769 1512.037365 1123.677780 13.897442 0.000000 0.124570
536.000000 59.706000 2.000000 7.000000 -3.000000 66.816936 -29.183155 1576.105350 1468.937255 16.762819 0.000000 0.122566
537.000000 46.695000 3.000000 7.000000 -3.000000 52.932068 -31.324681 1630.032370 1892.785459 21.437445 0.000000 0.190911
540.000000 83.490000 -3.000000 8.000000 -3.000000 132.990463 -13.119589 1225.849459 -89.216028 11.973956 0.000000 0.029055
541.000000 82.705000 -2.000000 8.000000 -3.000000 121.984697 -19.156319 1348.885512 229.455861 12.089631 0.000000 0.061647
542.000000 79.490000 -1.000000 8.000000 -3.000000 109.826240 -23.621465 1445.701670 517.466589 12.581115 0.000000 0.093514
543.000000 73.711000 0.000000 8.000000 -3.000000 96.907914 -27.019987 1523.872332 794.626275 13.570657 0.000000 0.112220
544.000000 65.652000 1.000000 8.000000 -3.000000 83.659590 -29.676026 1588.310700 1078.646266 15.239981 0.000000 0.117790
545.000000 55.998000 2.000000 8.000000 -3.000000 70.514997 -31.800477 1642.343143 1389.080984 17.871452 0.000000 0.127283
546.000000 45.645000 3.000000 8.000000 -3.000000 57.858827 -33.533981 1688.301968 1752.264613 21.928960 0.000000 0.177910
548.000000 75.212000 -4.000000 9.000000 -3.000000 140.391980 -13.481426 1233.026406 -396.499637 13.290684 0.000000 0.043589
549.000000 74.490000 -2.000000 9.000000 -3.000000 120.517886 -24.139366 1457.337413 245.765709 13.423129 0.000000 0.042267
550.000000 71.501000 -1.000000 9.000000 -3.000000 109.232612 -27.542250 1536.292467 517.514013 13.986981 0.000000 0.071740
551.000000 60.104000 1.000000 9.000000 -3.000000 85.372678 -32.290768 1655.162284 1044.050070 16.646086 0.000000 0.110376
552.000000 52.362000 2.000000 9.000000 -3.000000 73.416647 -34.001907 1701.021789 1327.621788 19.111168 0.000000 0.129397
554.000000 68.947000 -4.000000 10.000000 -3.000000 138.016066 -20.138820 1369.694862 -332.905195 14.498720 0.000000 0.064385
555.000000 68.882000 -3.000000 10.000000 -3.000000 128.912331 -24.681956 1469.629460 -15.201335 14.514048 0.000000 0.034501
556.000000 67.551000 -2.000000 10.000000 -3.000000 119.031239 -28.085692 1549.342269 263.900806 14.802288 0.000000 0.022194
557.000000 64.815000 -1.000000 10.000000 -3.000000 108.557928 -30.713789 1614.407176 520.712590 15.429783 0.000000 0.052152
558.000000 60.673000 0.000000 10.000000 -3.000000 97.699909 -32.796149 1668.521946 767.887412 16.486276 0.000000 0.080606
559.000000 55.286000 1.000000 10.000000 -3.000000 86.683781 -34.482633 1714.236315 1016.657635 18.096221 0.000000 0.104262
560.000000 48.962000 2.000000 10.000000 -3.000000 75.739536 -35.874084 1753.365428 1278.592114 20.437367 0.000000 0.130421
563.000000 63.430000 -4.000000 11.000000 -3.000000 135.609729 -25.250941 1482.634948 -274.601964 15.760108 0.000000 0.081036
564.000000 63.052000 -3.000000 11.000000 -3.000000 126.899203 -28.651523 1563.070868 20.164479 15.856520 0.000000 0.043714
565.000000 61.659000 -2.000000 11.000000 -3.000000 117.606054 -31.260362 1628.377743 282.593382 16.217030 0.000000 0.003787
566.000000 59.174000 -1.000000 11.000000 -3.000000 107.869364 -33.317247 1682.457053 525.752647 16.900761 0.000000 0.037409
567.000000 55.614000 0.000000 11.000000 -3.000000 97.846678 -34.976618 1727.974980 759.977433 17.985911 0.000000 0.070931
568.000000 51.100000 1.000000 11.000000 -3.000000 87.709553 -36.341425 1766.815449 994.443453 19.578112 0.000000 0.100527
569.000000 45.850000 2.000000 11.000000 -3.000000 77.632418 -37.482498 1800.347418 1238.402185 21.823624 0.000000 0.131434
572.000000 58.581000 -4.000000 12.000000 -3.000000 133.298011 -29.241039 1577.532640 -221.285046 17.065134 0.000000 0.095437
573.000000 58.011000 -1.000000 4.000000 -1.000000 125.011289 -31.826594 1643.022546 53.637911 5.744948 0.000000 0.055799
574.000000 56.622000 -2.000000 12.000000 -3.000000 116.276022 -33.854715 1697.005602 301.135344 17.660040 0.000000 0.017824
575.000000 54.372000 -1.000000 12.000000 -3.000000 107.200203 -35.484344 1742.269597 531.834480 18.393722 0.000000 0.032426
576.000000 51.283000 0.000000 4.000000 -1.000000 97.906441 -36.820408 1780.769074 754.281523 6.501551 0.000000 0.066963
577.000000 47.450000 1.000000 12.000000 -3.000000 88.527678 -37.934548 1813.914994 976.074189 21.083660 0.000000 0.099610
580.000000 54.314000 -4.000000 13.000000 -3.000000 131.134379 -32.413451 1658.391602 -172.535704 18.406311 0.000000 0.108559
581.000000 53.632000 -3.000000 13.000000 -3.000000 123.269440 -34.409239 1712.209012 85.057512 18.642520 0.000000 0.069174
582.000000 52.283000 -2.000000 13.000000 -3.000000 115.051262 -36.006308 1757.154611 319.137484 19.125879 0.000000 0.036226
583.000000 50.246000 -1.000000 13.000000 -3.000000 106.565941 -37.311404 1795.255125 538.460749 19.904165 0.000000 0.039036
584.000000 47.544000 0.000000 13.000000 -3.000000 97.910911 -38.396838 1827.963635 750.172132 21.038316 0.000000 0.068695
587.000000 50.549000 -4.000000 14.000000 -3.000000 129.135836 -34.981534 1728.112516 -127.911962 19.777770 0.000000 0.120868
588.000000 49.807000 -3.000000 14.000000 -3.000000 121.674973 -36.543027 1772.667369 114.418744 20.074524 0.000000 0.082923
589.000000 48.518000 -2.000000 14.000000 -3.000000 113.930575 -37.814796 1810.304670 336.395868 20.610421 0.000000 0.053764
590.000000 46.671000 -1.000000 14.000000 -3.000000 105.972716 -38.869660 1842.519387 545.318650 21.428738 0.000000 0.051673
593.000000 47.215000 -4.000000 15.000000 -3.000000 127.301515 -37.095037 1788.848437 -86.989374 21.174849 0.000000 0.132575
594.000000 46.448000 -1.000000 5.000000 -1.000000 120.220227 -38.330977 1825.951239 141.797952 7.175640 0.000000 0.096554
596.000000 69.414000 2.000000 5.000000 -2.000000 55.533067 -32.474670 1660.006329 1816.743319 14.420436 0.000000 0.182774
597.000000 84.524000 1.000000 6.000000 -2.000000 79.365158 -33.188527 1678.999470 1182.494548 11.838040 0.000000 0.118237
598.000000 65.994000 1.000000 3.000000 -1.000000 61.829365 -35.418024 1740.392229 1648.279079 7.583040 0.000000 0.173402
600.000000 87.064000 0.000000 7.000000 -2.000000 97.786785 -33.933632 1699.157164 763.606022 11.488924 0.000000 0.075108
601.000000 75.493000 1.000000 7.000000 -2.000000 81.959237 -36.106322 1760.029207 1129.191047 13.253505 0.000000 0.115649
602.000000 61.681000 2.000000 7.000000 -2.000000 66.489492 -37.769201 1808.933158 1533.321401 16.225338 0.000000 0.171955
603.000000 47.347000 3.000000 7.000000 -2.000000 51.928697 -39.080824 1849.082678 2027.047363 21.141478 0.000000 0.277952
605.000000 83.407000 -1.000000 8.000000 -2.000000 111.773334 -34.711815 1720.589903 418.016882 11.989636 0.000000 0.016901
606.000000 67.952000 1.000000 8.000000 -2.000000 83.848864 -38.424751 1828.817604 1089.060522 14.723590 0.000000 0.115927
607.000000 57.331000 1.000000 4.000000 -1.000000 70.049084 -39.684580 1868.067524 1448.678941 8.727639 0.000000 0.172846
608.000000 46.112000 3.000000 8.000000 -2.000000 56.897767 -40.699198 1900.732907 1866.533518 21.706035 0.000000 0.258318
611.000000 77.484000 -2.000000 9.000000 -2.000000 122.454132 -35.525021 1743.422616 99.991939 12.903832 0.000000 0.076039
612.000000 74.164000 -1.000000 9.000000 -2.000000 110.395662 -37.561526 1802.707426 436.171053 13.484072 0.000000 0.039953
613.000000 68.794000 0.000000 9.000000 -2.000000 97.899012 -39.101656 1849.732293 748.572381 14.539840 0.000000 0.071326
614.000000 61.647000 1.000000 9.000000 -2.000000 85.275029 -40.305570 1887.943829 1057.652402 16.229076 0.000000 0.119869
615.000000 53.260000 2.000000 9.000000 -2.000000 72.842248 -41.271739 1919.607418 1383.128607 18.788368 0.000000 0.175145
616.000000 71.154000 -3.000000 10.000000 -2.000000 130.739480 -36.375317 1767.797102 -210.401528 14.050237 0.000000 0.151340
617.000000 66.667000 -1.000000 10.000000 -2.000000 109.182472 -39.800780 1871.759423 453.627282 15.000685 0.000000 0.064879
618.000000 62.155000 0.000000 5.000000 -1.000000 97.827280 -40.944390 1908.775890 745.121449 8.046337 0.000000 0.083751
619.000000 56.335000 1.000000 10.000000 -2.000000 86.383263 -41.858874 1939.310046 1032.341568 17.758814 0.000000 0.126913
620.000000 49.564000 1.000000 5.000000 -1.000000 75.084570 -42.606468 1964.927569 1330.513732 10.094277 0.000000 0.178685
622.000000 64.721000 -3.000000 11.000000 -2.000000 128.040048 -39.130123 1850.620611 -144.586470 15.447232 0.000000 0.167309
623.000000 63.186000 -2.000000 11.000000 -2.000000 118.275070 -40.523017 1894.990173 179.407374 15.824712 0.000000 0.116249
624.000000 60.485000 -1.000000 11.000000 -2.000000 108.118258 -41.601654 1930.634344 470.049519 16.534117 0.000000 0.088039
625.000000 56.647000 0.000000 11.000000 -2.000000 97.724046 -42.461041 1959.896515 743.123558 17.657397 0.000000 0.099492
626.000000 51.819000 1.000000 11.000000 -2.000000 87.265558 -43.161568 1984.349869 1011.473323 19.305894 0.000000 0.136073
627.000000 46.249000 2.000000 11.000000 -2.000000 76.919859 -43.743393 2005.089792 1287.142285 21.634828 0.000000 0.183320
629.000000 59.252000 -3.000000 12.000000 -2.000000 125.668379 -41.269289 1919.525968 -86.777081 16.873506 0.000000 0.181863
630.000000 57.737000 -1.000000 6.000000 -1.000000 116.577764 -42.277991 1953.596961 213.262093 8.659350 0.000000 0.134730
631.000000 55.312000 -1.000000 12.000000 -2.000000 107.183481 -43.078687 1981.427661 485.330153 18.080606 0.000000 0.109203
632.000000 52.011000 0.000000 6.000000 -1.000000 97.606934 -43.729466 2004.588652 742.081439 9.615573 0.000000 0.115991
633.000000 47.945000 1.000000 12.000000 -2.000000 87.982410 -44.268698 2024.164261 993.949611 20.865801 0.000000 0.146442
636.000000 54.564000 -3.000000 13.000000 -2.000000 123.580628 -42.974047 1977.749573 -35.630281 18.323671 0.000000 0.195299
637.000000 53.106000 -2.000000 13.000000 -2.000000 115.090142 -43.712265 2003.970035 243.803165 18.829230 0.000000 0.151887
638.000000 50.928000 -1.000000 13.000000 -2.000000 106.359376 -44.310494 2025.696510 499.472447 19.637434 0.000000 0.128487
639.000000 48.061000 0.000000 13.000000 -2.000000 97.485561 -44.805004 2043.993158 741.677846 20.811911 0.000000 0.132142
642.000000 50.513000 -3.000000 14.000000 -2.000000 121.735679 -44.362240 2027.596591 9.921793 19.793583 0.000000 0.207772
643.000000 49.130000 -1.000000 7.000000 -1.000000 113.779294 -44.904989 2047.730650 271.435858 10.176633 0.000000 0.167743
644.000000 47.169000 -1.000000 14.000000 -2.000000 105.629431 -45.352562 2064.622142 512.531716 21.202590 0.000000 0.146069
648.000000 45.685000 -2.000000 15.000000 -2.000000 112.617717 -45.911627 2086.100635 296.519054 21.888475 0.000000 0.182369
652.000000 86.576000 1.000000 6.000000 -1.000000 78.447015 -44.722725 2040.927217 1250.648035 11.557063 0.000000 0.188835
653.000000 66.169000 2.000000 6.000000 -1.000000 60.141900 -45.444771 2068.135304 1821.634081 15.125645 0.000000 0.304368
655.000000 89.314000 0.000000 7.000000 -1.000000 97.365181 -45.727934 2078.996008 741.704935 11.199119 0.000000 0.147509
656.000000 76.550000 1.000000 7.000000 -1.000000 80.837260 -46.322165 2102.150286 1192.379592 13.070148 0.000000 0.201608
657.000000 61.627000 2.000000 7.000000 -1.000000 64.866699 -46.771308 2119.987422 1678.227626 16.239105 0.000000 0.294147
660.000000 85.349000 -1.000000 8.000000 -1.000000 111.582703 -46.772078 2120.018263 319.364986 11.716516 0.000000 0.195861
661.000000 78.194000 0.000000 8.000000 -1.000000 97.137262 -47.228451 2138.450421 742.538796 12.791764 0.000000 0.175419
662.000000 68.466000 1.000000 8.000000 -1.000000 82.617700 -47.571709 2152.524452 1147.691816 14.612836 0.000000 0.215431
663.000000 57.143000 2.000000 8.000000 -1.000000 68.480197 -47.839252 2163.622609 1573.278299 17.512492 0.000000 0.290696
665.000000 75.346000 -1.000000 9.000000 -1.000000 109.820884 -48.164603 2177.273991 359.385125 13.272338 0.000000 0.219837
666.000000 69.506000 0.000000 9.000000 -1.000000 96.932303 -48.395033 2187.047764 743.916533 14.390550 0.000000 0.199659
667.000000 61.854000 1.000000 9.000000 -1.000000 83.992470 -48.573969 2194.698698 1112.186670 16.174417 0.000000 0.229283
668.000000 53.000000 2.000000 9.000000 -1.000000 71.325177 -48.716936 2200.850655 1492.363622 18.880505 0.000000 0.290978
671.000000 67.389000 -1.000000 10.000000 -1.000000 108.380096 -49.241923 2223.744968 393.230714 14.839823 0.000000 0.240407
672.000000 62.539000 0.000000 10.000000 -1.000000 96.750908 -49.327276 2227.513159 745.514657 15.993679 0.000000 0.220695
673.000000 56.366000 1.000000 10.000000 -1.000000 85.084587 -49.395275 2230.524508 1083.220965 17.748789 0.000000 0.242606
674.000000 49.269000 2.000000 10.000000 -1.000000 73.619076 -49.450722 2232.986224 1427.664217 20.309135 0.000000 0.293459
677.000000 60.919000 -1.000000 11.000000 -1.000000 107.181778 -50.099618 2262.216054 422.189166 16.416096 0.000000 0.258191
678.000000 56.832000 0.000000 11.000000 -1.000000 96.590999 -50.088972 2261.730135 747.171010 17.599990 0.000000 0.239035
679.000000 51.749000 1.000000 11.000000 -1.000000 85.972299 -50.080311 2261.334981 1059.097542 19.332225 0.000000 0.255144
680.000000 45.943000 2.000000 11.000000 -1.000000 75.505569 -50.073127 2261.007334 1374.519717 21.778928 0.000000 0.297254
684.000000 52.072000 0.000000 12.000000 -1.000000 96.449865 -50.722788 2291.042225 748.803648 19.208704 0.000000 0.255122
685.000000 47.815000 1.000000 12.000000 -1.000000 86.707620 -50.660238 2288.114384 1038.670594 20.922315 0.000000 0.266804
689.000000 48.044000 0.000000 13.000000 -1.000000 96.324870 -51.258313 2316.433543 750.372124 20.819275 0.000000 0.269326
#UB matrix in q= (UB) B0 G* 
#[[ 0.675494034 -0.733579122  0.066250581]
# [-0.564683343 -0.573616515 -0.593919139]
# [ 0.474173526  0.364077902 -0.802459832]]
#B0 matrix in q= UB (B0) G*
#[[ 0.19670273 -0.          0.03056101]
# [ 0.          0.19187965 -0.        ]
# [ 0.          0.          0.18806537]]
#UBB0 matrix in q= (UB B0) G* i.e. recip. basis vectors are columns in LT frame: astar = UBB0[:,0], bstar = UBB0[:,1], cstar = UBB0[:,2]. (abcstar as columns on xyzlab1, xlab1 = ui, ui = unit vector along incident beam)
#[[ 0.13287152 -0.14075891  0.03310322]
# [-0.11107476 -0.11006534 -0.12895291]
# [ 0.09327123  0.06985914 -0.13642369]]
#Euler angles phi theta psi (deg)
#[127.485 143.305 173.619]
#deviatoric strain in direct crystal frame (10-3 unit)
#[[-2.84 -0.51  0.5 ]
# [-0.51 -2.64 -0.08]
# [ 0.5  -0.08  5.48]]
#deviatoric strain in sample2 frame (10-3 unit)
#[[-1.16  2.33  1.92]
# [ 2.33  0.11  3.56]
# [ 1.92  3.56  1.05]]
#new lattice parameters
#[ 5.1505     5.2126939  5.3148426 89.9956631 99.2041067 90.058361 ]
#CCDLabel
#sCMOS
#DetectorParameters
#[79.0, 975.0, 941.0, 0.0, 0.0]
#pixelsize
#0.0734
#Frame dimensions
#[2018, 2016]
#
