#Strain and Orientation Refinement from experimental file: /home/micha/LaueProjects/DepthEffects/testZrO2_9.cor
#File created at Wed Jun 28 14:18:12 2023 with indexingSpotsSet.py
#Number of indexed spots: 516
#Element
#ZrO2
#grainIndex
#G_0
#Mean Deviation(pixel): 0.117
##spot_index intensity h k l 2theta Chi Xexp Yexp Energy GrainIndex PixDev
4.000000 45.504000 -7.000000 -1.000000 -1.000000 47.677704 31.332584 319.764179 2088.460204 21.994474 0.000000 0.279360
9.000000 46.071000 -7.000000 1.000000 -1.000000 48.309083 14.478349 697.085252 1931.079959 21.725434 0.000000 0.166054
10.000000 50.615000 -6.000000 1.000000 -1.000000 45.797626 13.221931 722.122783 2016.240316 19.776001 0.000000 0.197275
11.000000 55.531000 -5.000000 1.000000 -1.000000 42.335818 11.542672 755.190562 2146.732307 18.025688 0.000000 0.249767
14.000000 47.577000 -6.000000 2.000000 -1.000000 44.500773 4.052398 898.749012 2038.960523 21.039460 0.000000 0.198030
15.000000 50.947000 -5.000000 2.000000 -1.000000 40.671443 1.022772 955.785303 2193.769392 19.648238 0.000000 0.266125
23.000000 45.558000 -9.000000 -2.000000 0.000000 61.533956 37.370609 152.985386 1675.283783 21.963599 0.000000 0.215671
24.000000 50.600000 -4.000000 -1.000000 0.000000 61.065538 39.062535 101.487324 1707.288465 9.887571 0.000000 0.237052
25.000000 56.780000 -7.000000 -2.000000 0.000000 60.409462 41.194499 32.958102 1753.229805 17.622615 0.000000 0.268244
26.000000 64.455000 -3.000000 -1.000000 0.000000 59.450240 43.954776 -62.724792 1823.422834 7.762097 0.000000 0.316943
28.000000 47.329000 -9.000000 -1.000000 0.000000 62.987419 30.358436 344.590972 1576.889926 21.142318 0.000000 0.151437
29.000000 53.056000 -8.000000 -1.000000 0.000000 62.845510 31.252691 321.819424 1586.769022 18.860229 0.000000 0.157857
30.000000 60.327000 -7.000000 -1.000000 0.000000 62.645636 32.396058 292.066760 1600.443411 16.587003 0.000000 0.166717
31.000000 69.842000 -6.000000 -1.000000 0.000000 62.349482 33.908023 251.541473 1620.429706 14.327099 0.000000 0.179678
32.000000 82.775000 -5.000000 -1.000000 0.000000 61.880309 35.997453 193.099530 1651.917683 12.088565 0.000000 0.200245
33.000000 48.071000 -3.000000 0.000000 0.000000 63.673489 23.100138 515.918526 1519.979844 6.938873 0.000000 0.111730
34.000000 47.696000 -9.000000 1.000000 0.000000 63.532385 15.820406 670.025368 1497.958214 20.980767 0.000000 0.083795
35.000000 53.519000 -8.000000 1.000000 0.000000 63.457298 14.920572 688.206396 1497.381596 18.698174 0.000000 0.080590
36.000000 60.929000 -7.000000 1.000000 0.000000 63.342675 13.769153 711.251104 1497.302287 16.424213 0.000000 0.076482
37.000000 70.657000 -6.000000 1.000000 0.000000 63.158878 12.244972 741.412499 1498.324575 14.163176 0.000000 0.070985
38.000000 83.935000 -5.000000 1.000000 0.000000 62.844130 10.135781 782.589252 1501.845450 11.922763 0.000000 0.063156
39.000000 102.976000 -4.000000 1.000000 0.000000 62.253710 7.035857 842.163905 1511.472676 9.718310 0.000000 0.050904
40.000000 131.935000 -3.000000 1.000000 0.000000 60.989604 2.074494 936.013852 1538.246404 7.585362 0.000000 0.028583
41.000000 177.787000 -2.000000 1.000000 0.000000 57.678704 -6.921935 1105.664020 1626.964850 5.629339 0.000000 0.026433
42.000000 46.268000 -9.000000 2.000000 0.000000 62.598639 8.747860 809.383626 1505.497086 21.629110 0.000000 0.057801
43.000000 57.920000 -7.000000 2.000000 0.000000 61.751839 4.875733 883.188214 1521.369389 17.278210 0.000000 0.041652
44.000000 76.139000 -5.000000 2.000000 0.000000 59.768583 -1.681114 1006.588582 1568.478621 13.144296 0.000000 0.009418
45.000000 103.700000 -3.000000 2.000000 0.000000 53.804212 -14.576018 1254.872642 1754.799304 9.651482 0.000000 0.091632
46.000000 114.699000 -2.000000 2.000000 0.000000 46.000605 -26.223649 1505.154360 2099.589967 8.726269 0.000000 0.246060
48.000000 48.319000 -8.000000 3.000000 0.000000 60.245453 -0.296441 980.568649 1556.274425 20.711981 0.000000 0.016549
49.000000 53.394000 -7.000000 3.000000 0.000000 59.198906 -3.227668 1035.695566 1583.647442 18.743561 0.000000 0.005153
50.000000 65.794000 -5.000000 3.000000 0.000000 55.388713 -11.674989 1197.399887 1699.490882 15.211692 0.000000 0.064253
51.000000 72.288000 -4.000000 3.000000 0.000000 51.804103 -17.914392 1322.932166 1830.984252 13.845569 0.000000 0.127847
53.000000 48.091000 -7.000000 4.000000 0.000000 56.056808 -10.366704 1171.890511 1677.439545 20.811307 0.000000 0.053014
54.000000 55.274000 -5.000000 4.000000 0.000000 50.609088 -19.771740 1361.890222 1880.157685 18.107734 0.000000 0.150483
60.000000 45.866000 -10.000000 -3.000000 1.000000 70.458463 43.572947 -48.972578 1468.281581 21.812343 0.000000 0.233809
61.000000 50.707000 -9.000000 -3.000000 1.000000 70.763038 45.803218 -131.902058 1479.761513 19.729659 0.000000 0.265497
62.000000 56.532000 -8.000000 -3.000000 1.000000 71.023863 48.542992 -243.370319 1500.009278 17.696609 0.000000 0.314858
65.000000 48.162000 -10.000000 -2.000000 1.000000 72.600036 37.144524 159.689482 1364.137761 20.772845 0.000000 0.159535
66.000000 53.797000 -9.000000 -2.000000 1.000000 73.368392 38.762050 110.810293 1353.315123 18.596336 0.000000 0.168119
67.000000 60.818000 -8.000000 -2.000000 1.000000 74.258715 40.787293 46.384162 1341.678441 16.449127 0.000000 0.181730
68.000000 69.752000 -7.000000 -2.000000 1.000000 75.287497 43.388988 -42.409122 1329.893576 14.341791 0.000000 0.205353
69.000000 81.390000 -6.000000 -2.000000 1.000000 76.455945 46.836911 -172.617674 1320.008061 12.290683 0.000000 0.250574
72.000000 49.706000 -10.000000 -1.000000 1.000000 74.076796 30.315481 345.674226 1296.700581 20.127706 0.000000 0.127591
73.000000 55.903000 -9.000000 -1.000000 1.000000 75.179622 31.177624 323.747377 1273.854041 17.896111 0.000000 0.128034
74.000000 63.794000 -8.000000 -1.000000 1.000000 76.538293 32.271758 295.337318 1245.703809 15.681922 0.000000 0.128189
75.000000 74.149000 -7.000000 -1.000000 1.000000 78.250100 33.704831 257.069831 1210.101569 13.491394 0.000000 0.127897
76.000000 88.257000 -6.000000 -1.000000 1.000000 80.465437 35.660182 202.737723 1163.498309 11.334186 0.000000 0.127226
77.000000 108.417000 -5.000000 -1.000000 1.000000 83.424289 38.478446 119.537755 1099.485481 9.226042 0.000000 0.128257
78.000000 139.019000 -4.000000 -1.000000 1.000000 87.512758 42.863019 -23.860574 1004.783159 7.194484 0.000000 0.146305
79.000000 188.960000 -3.000000 -1.000000 1.000000 93.279044 50.482220 -329.824181 844.092763 5.292343 0.000000 0.267591
80.000000 50.010000 -10.000000 1.000000 1.000000 74.607120 16.168480 662.949588 1249.519823 20.006055 0.000000 0.120317
81.000000 56.278000 -9.000000 1.000000 1.000000 75.773057 15.336735 679.817365 1223.959653 17.777563 0.000000 0.124268
82.000000 64.268000 -8.000000 1.000000 1.000000 77.211678 14.279960 701.056910 1193.086319 15.567007 0.000000 0.129318
83.000000 74.767000 -7.000000 1.000000 1.000000 79.027919 12.893669 728.620869 1155.063630 13.380779 0.000000 0.135761
84.000000 89.093000 -6.000000 1.000000 1.000000 81.385131 10.998021 765.828169 1107.110744 11.228717 0.000000 0.143892
85.000000 109.605000 -5.000000 1.000000 1.000000 84.546929 8.256903 818.812360 1044.821909 9.126790 0.000000 0.153777
86.000000 140.827000 -4.000000 1.000000 1.000000 88.946521 3.969807 900.308096 960.839308 7.102758 0.000000 0.164327
87.000000 191.983000 -3.000000 1.000000 1.000000 95.235352 -3.551514 1041.800329 842.190166 5.209507 0.000000 0.169034
88.000000 48.754000 -10.000000 2.000000 1.000000 73.637361 9.268833 799.351160 1261.188711 20.522428 0.000000 0.115872
89.000000 54.523000 -9.000000 2.000000 1.000000 74.522848 7.663221 830.182756 1241.706270 18.350688 0.000000 0.119678
90.000000 61.727000 -8.000000 2.000000 1.000000 75.558669 5.648910 868.540744 1219.525727 16.208826 0.000000 0.124179
91.000000 70.920000 -7.000000 2.000000 1.000000 76.772198 3.054657 917.564205 1194.353579 14.107443 0.000000 0.129291
92.000000 82.938000 -6.000000 2.000000 1.000000 78.181113 -0.394979 982.419745 1166.225240 12.062834 0.000000 0.134598
93.000000 99.040000 -5.000000 2.000000 1.000000 79.756050 -5.163211 1072.253694 1136.300798 10.101392 0.000000 0.138778
94.000000 120.984000 -4.000000 2.000000 1.000000 81.297987 -12.059296 1204.937867 1109.452291 8.268868 0.000000 0.138101
95.000000 150.382000 -3.000000 2.000000 1.000000 82.038795 -22.496258 1420.733327 1103.917494 6.652109 0.000000 0.123553
96.000000 183.934000 -2.000000 2.000000 1.000000 79.462292 -38.572180 1833.339146 1197.083597 5.438558 0.000000 0.131691
98.000000 46.715000 -10.000000 3.000000 1.000000 71.960948 2.735468 923.575495 1291.920294 21.418927 0.000000 0.105174
99.000000 51.737000 -9.000000 3.000000 1.000000 72.421854 0.493152 965.735976 1281.981497 19.339807 0.000000 0.106923
100.000000 57.803000 -8.000000 3.000000 1.000000 72.871459 -2.267820 1017.622987 1272.958331 17.309976 0.000000 0.108441
101.000000 65.196000 -7.000000 3.000000 1.000000 73.253155 -5.732302 1083.041317 1266.490829 15.346857 0.000000 0.109255
102.000000 74.240000 -6.000000 3.000000 1.000000 73.447608 -10.170186 1168.077771 1265.990069 13.477175 0.000000 0.108551
103.000000 85.195000 -5.000000 3.000000 1.000000 73.204292 -15.974979 1283.113826 1278.914004 11.744135 0.000000 0.105498
104.000000 97.876000 -4.000000 3.000000 1.000000 71.999972 -23.698412 1447.424588 1322.915283 10.222428 0.000000 0.103512
105.000000 110.516000 -3.000000 3.000000 1.000000 68.780783 -34.012019 1701.298192 1445.128582 9.053315 0.000000 0.138481
107.000000 48.244000 -9.000000 4.000000 1.000000 69.698143 -6.023159 1088.562957 1341.383301 20.740783 0.000000 0.088451
108.000000 53.040000 -8.000000 4.000000 1.000000 69.495799 -9.296291 1151.178409 1348.856605 18.865413 0.000000 0.087079
109.000000 58.541000 -7.000000 4.000000 1.000000 69.010639 -13.287046 1229.168261 1365.278971 17.092727 0.000000 0.085527
110.000000 64.708000 -6.000000 4.000000 1.000000 68.048924 -18.205760 1328.987447 1397.641607 15.463671 0.000000 0.086111
111.000000 71.248000 -5.000000 4.000000 1.000000 66.285953 -24.314452 1461.292364 1459.792037 14.044304 0.000000 0.097834
112.000000 77.278000 -4.000000 4.000000 1.000000 63.193768 -31.903430 1645.023593 1581.589754 12.948524 0.000000 0.144199
113.000000 80.757000 -3.000000 4.000000 1.000000 57.985573 -41.205227 1917.397880 1835.418668 12.390956 0.000000 0.270368
115.000000 47.948000 -8.000000 5.000000 1.000000 65.762963 -15.402562 1271.512610 1443.593716 20.870165 0.000000 0.072378
116.000000 51.744000 -7.000000 5.000000 1.000000 64.507686 -19.642531 1359.151639 1485.897388 19.338862 0.000000 0.080200
117.000000 55.549000 -6.000000 5.000000 1.000000 62.615603 -24.688925 1469.788023 1554.617600 18.014404 0.000000 0.102470
118.000000 58.894000 -5.000000 5.000000 1.000000 59.788620 -30.691503 1613.840906 1669.787137 16.991414 0.000000 0.151343
119.000000 60.898000 -4.000000 5.000000 1.000000 55.624079 -37.776181 1809.143006 1872.529344 16.432616 0.000000 0.247143
122.000000 47.380000 -6.000000 6.000000 1.000000 57.502806 -29.905230 1594.027398 1731.909609 21.121600 0.000000 0.158803
123.000000 48.639000 -5.000000 6.000000 1.000000 54.018391 -35.612931 1745.918502 1902.224230 20.575200 0.000000 0.237398
128.000000 46.737000 -11.000000 -3.000000 2.000000 79.715835 43.209448 -36.041651 1208.938546 21.402849 0.000000 0.182114
129.000000 51.636000 -10.000000 -3.000000 2.000000 80.860255 45.344357 -114.310085 1187.370746 19.371685 0.000000 0.205124
130.000000 57.522000 -9.000000 -3.000000 2.000000 82.128764 47.954610 -218.443219 1163.178933 17.388846 0.000000 0.243824
131.000000 64.663000 -8.000000 -3.000000 2.000000 83.512990 51.203336 -363.799705 1136.322660 15.467927 0.000000 0.311097
133.000000 48.687000 -11.000000 -2.000000 2.000000 81.831983 36.929941 166.015564 1134.255942 20.545275 0.000000 0.127168
134.000000 61.002000 -9.000000 -2.000000 2.000000 85.295820 40.405572 58.821266 1057.309168 16.396469 0.000000 0.132755
135.000000 80.366000 -7.000000 -2.000000 2.000000 90.151201 46.090382 -143.059535 936.904535 12.444463 0.000000 0.181889
137.000000 49.983000 -11.000000 -1.000000 2.000000 83.280317 30.274785 346.699630 1087.836273 20.012685 0.000000 0.118973
138.000000 55.932000 -10.000000 -1.000000 2.000000 85.189581 31.106958 325.559509 1046.787896 17.883333 0.000000 0.115451
139.000000 63.364000 -9.000000 -1.000000 2.000000 87.498513 32.155684 298.383347 996.539476 15.785279 0.000000 0.109776
140.000000 72.859000 -8.000000 -1.000000 2.000000 90.341018 33.517058 262.155454 933.316311 13.727274 0.000000 0.100774
141.000000 85.319000 -7.000000 -1.000000 2.000000 93.913174 35.352846 211.449816 850.731943 11.721662 0.000000 0.087237
142.000000 102.181000 -6.000000 -1.000000 2.000000 98.507306 37.956540 135.420686 736.817165 9.786444 0.000000 0.072999
143.000000 125.787000 -5.000000 -1.000000 2.000000 104.556701 41.915119 8.783613 565.416035 7.948930 0.000000 0.098474
144.000000 159.888000 -4.000000 -1.000000 2.000000 112.638735 48.562296 -244.197900 262.746165 6.252659 0.000000 0.255504
145.000000 45.540000 -12.000000 0.000000 2.000000 82.247984 23.372035 509.869434 1100.612247 21.966083 0.000000 0.130153
146.000000 50.514000 -11.000000 0.000000 2.000000 83.951077 23.400649 509.231403 1065.273838 19.802611 0.000000 0.131353
147.000000 56.632000 -10.000000 0.000000 2.000000 85.993656 23.435994 508.442909 1023.159329 17.662555 0.000000 0.132222
148.000000 64.315000 -9.000000 0.000000 2.000000 88.486667 23.480760 507.443612 972.001505 15.551886 0.000000 0.132380
149.000000 74.203000 -8.000000 0.000000 2.000000 91.594185 23.539296 506.135932 908.326852 13.478793 0.000000 0.131104
150.000000 87.307000 -7.000000 0.000000 2.000000 95.568488 23.619108 504.351072 826.471922 11.454817 0.000000 0.126975
151.000000 105.298000 -6.000000 0.000000 2.000000 100.815791 23.734372 501.769557 716.380401 9.496764 0.000000 0.117075
152.000000 131.041000 -5.000000 0.000000 2.000000 108.026593 23.915449 497.704785 557.842291 7.630098 0.000000 0.095045
153.000000 169.571000 -4.000000 0.000000 2.000000 118.448451 24.241222 490.363131 301.483713 5.895331 0.000000 0.047419
154.000000 50.236000 -11.000000 1.000000 2.000000 83.796801 16.498609 656.215532 1063.007231 19.912607 0.000000 0.143455
155.000000 56.238000 -10.000000 1.000000 2.000000 85.765777 15.729036 671.878711 1023.784378 17.786908 0.000000 0.147729
156.000000 63.739000 -9.000000 1.000000 2.000000 88.149856 14.757795 691.478787 976.952861 15.692943 0.000000 0.152286
157.000000 73.331000 -8.000000 1.000000 2.000000 91.089703 13.494524 716.713398 919.946356 13.639524 0.000000 0.156844
158.000000 85.929000 -7.000000 1.000000 2.000000 94.792683 11.786243 750.420091 848.815900 11.639061 0.000000 0.160722
159.000000 102.995000 -6.000000 1.000000 2.000000 99.571296 9.353079 797.726084 757.067763 9.709603 0.000000 0.162317
160.000000 126.919000 -5.000000 1.000000 2.000000 105.898109 5.627789 868.941372 632.963162 7.878454 0.000000 0.157691
161.000000 161.540000 -4.000000 1.000000 2.000000 114.434722 -0.709148 988.321933 451.947130 6.188971 0.000000 0.136258
162.000000 49.182000 -11.000000 2.000000 2.000000 82.843360 9.764360 789.781094 1078.126635 20.340256 0.000000 0.148635
163.000000 61.727000 -9.000000 2.000000 2.000000 86.555975 6.376119 854.728484 1006.176788 16.205139 0.000000 0.159147
164.000000 81.519000 -7.000000 2.000000 2.000000 91.809492 0.795404 960.057464 906.994332 12.269598 0.000000 0.168357
165.000000 115.128000 -5.000000 2.000000 2.000000 99.248185 -9.774726 1160.419401 763.167729 8.686429 0.000000 0.161020
166.000000 140.372000 -4.000000 2.000000 2.000000 103.571576 -19.120722 1348.136297 666.011134 7.123621 0.000000 0.130103
167.000000 171.861000 -3.000000 2.000000 2.000000 106.891895 -33.601874 1690.138957 548.593132 5.817852 0.000000 0.041434
168.000000 47.451000 -11.000000 3.000000 2.000000 81.183166 3.366629 911.685399 1108.231578 21.083160 0.000000 0.146114
169.000000 52.487000 -10.000000 3.000000 2.000000 82.476948 1.244259 951.623078 1083.170914 19.059790 0.000000 0.150162
170.000000 58.551000 -9.000000 3.000000 2.000000 83.925292 -1.358596 1000.525836 1055.574383 17.085205 0.000000 0.153815
171.000000 65.929000 -8.000000 3.000000 2.000000 85.528514 -4.610441 1061.793996 1025.440501 15.172869 0.000000 0.156336
172.000000 74.975000 -7.000000 3.000000 2.000000 87.255017 -8.757218 1140.796340 993.212344 13.341698 0.000000 0.156279
173.000000 86.086000 -6.000000 3.000000 2.000000 88.996298 -14.159531 1246.535585 960.447181 11.619139 0.000000 0.150765
174.000000 99.556000 -5.000000 3.000000 2.000000 90.467407 -21.333246 1395.349218 931.573728 10.046585 0.000000 0.134187
175.000000 115.099000 -4.000000 3.000000 2.000000 91.003041 -30.944704 1620.289930 919.028766 8.689523 0.000000 0.100490
176.000000 130.600000 -3.000000 3.000000 2.000000 89.229129 -43.597447 1999.849734 960.996609 7.658053 0.000000 0.139179
178.000000 54.579000 -9.000000 4.000000 2.000000 80.557592 -8.274620 1131.527476 1121.880958 18.329910 0.000000 0.139453
179.000000 67.362000 -7.000000 4.000000 2.000000 81.862385 -16.715780 1298.226900 1101.690592 14.850701 0.000000 0.133327
180.000000 83.699000 -5.000000 4.000000 2.000000 81.449491 -29.692940 1588.731663 1127.283830 11.951618 0.000000 0.111378
181.000000 97.863000 -3.000000 4.000000 2.000000 75.145135 -49.212169 2222.434465 1377.996234 10.221960 0.000000 0.288337
182.000000 46.148000 -10.000000 5.000000 2.000000 76.599808 -10.902294 1182.306301 1202.126312 21.679842 0.000000 0.122482
183.000000 50.184000 -9.000000 5.000000 2.000000 76.755065 -14.326635 1249.876874 1202.464588 19.936059 0.000000 0.120462
184.000000 54.681000 -8.000000 5.000000 2.000000 76.681056 -18.383766 1332.696783 1209.503954 18.296316 0.000000 0.116736
185.000000 59.580000 -7.000000 5.000000 2.000000 76.227432 -23.212794 1436.584829 1228.054738 16.792008 0.000000 0.111986
186.000000 64.677000 -6.000000 5.000000 2.000000 75.162564 -28.965456 1570.751665 1266.886173 15.468577 0.000000 0.111603
187.000000 69.503000 -5.000000 5.000000 2.000000 73.144500 -35.780557 1750.692823 1342.954248 14.394351 0.000000 0.135747
188.000000 73.150000 -4.000000 5.000000 2.000000 69.708348 -43.731222 2004.651850 1491.733861 13.677032 0.000000 0.225759
190.000000 45.686000 -9.000000 6.000000 2.000000 72.771809 -19.556117 1357.322541 1295.180334 21.900495 0.000000 0.103571
191.000000 52.217000 -7.000000 6.000000 2.000000 70.738020 -28.490050 1559.138129 1368.934128 19.161087 0.000000 0.111021
192.000000 57.610000 -5.000000 6.000000 2.000000 65.865179 -40.317072 1888.315409 1573.459473 17.367732 0.000000 0.205363
194.000000 45.578000 -7.000000 7.000000 2.000000 65.603679 -32.793387 1668.448530 1521.690588 21.953469 0.000000 0.141129
195.000000 47.170000 -6.000000 7.000000 2.000000 63.049477 -38.001311 1815.932920 1635.456146 21.212880 0.000000 0.196838
196.000000 47.957000 -5.000000 7.000000 2.000000 59.617042 -43.788159 2006.702200 1815.116917 20.864833 0.000000 0.294843
199.000000 48.320000 -11.000000 -4.000000 3.000000 86.168936 51.018829 -355.006212 1055.572460 20.698468 0.000000 0.297091
202.000000 50.958000 -11.000000 -3.000000 3.000000 89.220124 44.908928 -97.878136 961.686470 19.626703 0.000000 0.166293
203.000000 56.436000 -10.000000 -3.000000 3.000000 91.137148 47.399020 -195.421040 909.437950 17.720674 0.000000 0.202784
205.000000 47.963000 -12.000000 -2.000000 3.000000 89.556509 36.726008 171.994728 951.394330 20.852591 0.000000 0.101992
206.000000 53.051000 -11.000000 -2.000000 3.000000 91.677929 38.210352 127.725002 900.874123 18.851849 0.000000 0.098069
207.000000 59.191000 -10.000000 -2.000000 3.000000 94.144478 40.047047 70.374803 839.121597 16.895454 0.000000 0.098453
208.000000 66.695000 -9.000000 -2.000000 3.000000 97.032146 42.372888 -6.858193 761.289754 14.993574 0.000000 0.111938
209.000000 75.984000 -8.000000 -2.000000 3.000000 100.428867 45.401414 -116.481968 658.864203 13.159749 0.000000 0.153892
210.000000 87.612000 -7.000000 -2.000000 3.000000 104.420841 49.479807 -284.279705 515.025045 11.412402 0.000000 0.247674
212.000000 49.032000 -12.000000 -1.000000 3.000000 90.948615 30.236175 347.671698 920.372524 20.398100 0.000000 0.108297
213.000000 54.437000 -11.000000 -1.000000 3.000000 93.359345 31.040317 327.265951 867.264064 18.371852 0.000000 0.100422
214.000000 61.030000 -10.000000 -1.000000 3.000000 96.217778 32.047047 301.227203 802.657467 16.386227 0.000000 0.088889
215.000000 69.201000 -9.000000 -1.000000 3.000000 99.652775 33.343018 266.849478 721.868378 14.450516 0.000000 0.072121
216.000000 79.502000 -8.000000 -1.000000 3.000000 103.841869 35.071645 219.363170 616.969869 12.577078 0.000000 0.049980
217.000000 92.723000 -7.000000 -1.000000 3.000000 109.029961 37.487464 149.504417 473.156501 10.782720 0.000000 0.046439
218.000000 109.967000 -6.000000 -1.000000 3.000000 115.545030 41.084830 36.590359 258.527889 9.090894 0.000000 0.118304
220.000000 49.243000 -12.000000 1.000000 3.000000 91.451984 16.812126 649.799027 912.500716 20.311086 0.000000 0.150259
221.000000 54.687000 -11.000000 1.000000 3.000000 93.919300 16.099435 664.355115 864.251451 18.288305 0.000000 0.151951
222.000000 61.331000 -10.000000 1.000000 3.000000 96.848500 15.205691 682.462526 807.045895 16.306435 0.000000 0.152790
223.000000 69.568000 -9.000000 1.000000 3.000000 100.374449 14.052523 705.601478 737.880487 14.374786 0.000000 0.152054
224.000000 79.959000 -8.000000 1.000000 3.000000 104.684550 12.509324 736.207547 652.091197 12.505720 0.000000 0.148459
225.000000 93.304000 -7.000000 1.000000 3.000000 110.041018 10.341915 778.590706 541.904381 10.716022 0.000000 0.139663
226.000000 110.723000 -6.000000 1.000000 3.000000 116.804772 7.088069 841.168053 393.024309 9.029070 0.000000 0.121230
227.000000 133.662000 -5.000000 1.000000 3.000000 125.425081 1.709055 942.886085 175.067450 7.478420 0.000000 0.084501
228.000000 163.464000 -4.000000 1.000000 3.000000 136.185532 -8.568954 1137.177720 -193.445666 6.114027 0.000000 0.018779
229.000000 48.378000 -12.000000 2.000000 3.000000 90.543221 10.236190 780.642178 930.630297 20.675028 0.000000 0.161323
230.000000 53.541000 -11.000000 2.000000 3.000000 92.770466 8.819425 808.007177 888.293361 18.680739 0.000000 0.164547
231.000000 59.776000 -10.000000 2.000000 3.000000 95.367179 7.061126 841.681977 839.109467 16.731267 0.000000 0.167095
232.000000 67.405000 -9.000000 2.000000 3.000000 98.418261 4.825780 884.133337 781.149508 14.836785 0.000000 0.168221
233.000000 76.859000 -8.000000 2.000000 3.000000 102.025008 1.899423 939.306483 711.609515 13.010790 0.000000 0.166538
234.000000 88.711000 -7.000000 2.000000 3.000000 106.293950 -2.071402 1013.928006 626.187172 11.271594 0.000000 0.159358
235.000000 103.666000 -6.000000 2.000000 3.000000 111.290443 -7.697942 1120.481338 517.762995 9.644676 0.000000 0.141084
236.000000 122.416000 -5.000000 2.000000 3.000000 116.883647 -16.069792 1285.041742 373.162830 8.166566 0.000000 0.098777
237.000000 145.048000 -4.000000 2.000000 3.000000 122.282279 -29.044502 1572.692956 163.253695 6.891572 0.000000 0.013391
239.000000 51.664000 -11.000000 3.000000 3.000000 90.796717 1.959387 938.178805 926.024046 19.359998 0.000000 0.167240
240.000000 57.275000 -10.000000 3.000000 3.000000 92.885211 -0.496516 984.327220 886.753763 17.462887 0.000000 0.169125
241.000000 72.092000 -8.000000 3.000000 3.000000 97.851478 -7.429498 1115.349722 791.324184 13.872257 0.000000 0.165236
242.000000 81.869000 -7.000000 3.000000 3.000000 100.686729 -12.459844 1212.817424 732.991135 12.214915 0.000000 0.154451
243.000000 107.224000 -5.000000 3.000000 3.000000 106.065477 -28.057759 1548.668305 589.766982 9.325252 0.000000 0.078780
244.000000 121.993000 -4.000000 3.000000 3.000000 107.197887 -39.950046 1876.520220 506.453625 8.195899 0.000000 0.066407
246.000000 49.216000 -11.000000 4.000000 3.000000 88.169355 -4.339991 1056.682481 975.499079 20.324120 0.000000 0.161823
247.000000 54.070000 -10.000000 4.000000 3.000000 89.654937 -7.299043 1112.858196 947.534992 18.499048 0.000000 0.161638
248.000000 59.723000 -9.000000 4.000000 3.000000 91.207929 -10.889559 1182.058208 917.889695 16.747397 0.000000 0.158727
249.000000 66.293000 -8.000000 4.000000 3.000000 92.758964 -15.298275 1269.405963 887.227692 15.087088 0.000000 0.151161
250.000000 73.852000 -7.000000 4.000000 3.000000 94.166098 -20.766118 1383.117702 857.155210 13.542392 0.000000 0.135709
251.000000 82.332000 -6.000000 4.000000 3.000000 95.158966 -27.582351 1537.250980 831.366440 12.147016 0.000000 0.107890
252.000000 91.337000 -5.000000 4.000000 3.000000 95.257690 -36.036368 1758.017840 818.519326 10.949178 0.000000 0.077223
253.000000 99.802000 -4.000000 4.000000 3.000000 93.694547 -46.281343 2100.543634 840.441220 10.020363 0.000000 0.165962
255.000000 46.373000 -11.000000 5.000000 3.000000 85.078633 -10.012389 1165.019700 1035.108563 21.571161 0.000000 0.150399
256.000000 50.425000 -10.000000 5.000000 3.000000 85.941344 -13.292226 1229.270991 1019.471389 19.837527 0.000000 0.147641
257.000000 54.988000 -9.000000 5.000000 3.000000 86.708444 -17.174287 1307.639507 1005.788444 18.190846 0.000000 0.141738
258.000000 60.067000 -8.000000 5.000000 3.000000 87.270739 -21.793814 1405.352210 996.257107 16.652283 0.000000 0.131259
259.000000 65.587000 -7.000000 5.000000 3.000000 87.451719 -27.302643 1530.579779 994.906087 15.250477 0.000000 0.115358
260.000000 71.316000 -6.000000 5.000000 3.000000 86.977385 -33.848946 1696.848485 1009.430548 14.025165 0.000000 0.100924
261.000000 76.744000 -5.000000 5.000000 3.000000 85.448988 -41.531739 1928.288162 1055.442654 13.033128 0.000000 0.131371
262.000000 80.935000 -4.000000 5.000000 3.000000 82.346949 -50.325023 2272.555373 1167.528136 12.358427 0.000000 0.278788
264.000000 46.581000 -10.000000 6.000000 3.000000 81.978730 -18.503792 1335.202246 1100.939204 21.476122 0.000000 0.130678
265.000000 53.884000 -8.000000 6.000000 3.000000 81.763833 -27.118430 1526.204550 1116.031858 18.564878 0.000000 0.114863
266.000000 57.704000 -7.000000 6.000000 3.000000 80.982519 -32.455826 1659.509059 1143.422130 17.335666 0.000000 0.110660
267.000000 64.240000 -5.000000 6.000000 3.000000 76.910149 -45.480182 2069.487509 1297.925677 15.571959 0.000000 0.212956
269.000000 48.046000 -8.000000 7.000000 3.000000 76.472223 -31.491894 1634.344554 1244.674261 20.821940 0.000000 0.114346
270.000000 50.540000 -7.000000 7.000000 3.000000 74.979736 -36.561075 1773.192735 1300.552000 19.794497 0.000000 0.134586
271.000000 52.614000 -6.000000 7.000000 3.000000 72.756326 -42.213971 1951.402397 1392.052635 19.014392 0.000000 0.190684
272.000000 53.902000 -5.000000 7.000000 3.000000 69.601122 -48.428518 2188.475420 1544.185721 18.560607 0.000000 0.304959
277.000000 49.400000 -12.000000 -3.000000 4.000000 96.184962 44.495225 -82.495135 777.484344 20.243226 0.000000 0.142548
278.000000 54.305000 -11.000000 -3.000000 4.000000 98.504633 46.873650 -174.093458 705.569918 18.413725 0.000000 0.182178
279.000000 60.066000 -10.000000 -3.000000 4.000000 101.092605 49.803974 -298.801482 614.048117 16.646889 0.000000 0.249990
281.000000 46.540000 -13.000000 -2.000000 4.000000 96.059245 36.531957 177.654748 798.815964 21.487648 0.000000 0.079242
282.000000 56.473000 -11.000000 -2.000000 4.000000 101.316458 39.709691 81.135699 661.019867 17.706497 0.000000 0.075431
283.000000 70.613000 -9.000000 -2.000000 4.000000 108.306157 44.763776 -92.455781 439.492199 14.158954 0.000000 0.153345
285.000000 47.416000 -13.000000 -1.000000 4.000000 97.382202 30.199494 348.594487 779.656009 21.090514 0.000000 0.093786
286.000000 52.200000 -12.000000 -1.000000 4.000000 100.089708 30.977366 328.875689 717.622002 19.156827 0.000000 0.081663
287.000000 57.903000 -11.000000 -1.000000 4.000000 103.243897 31.945155 303.888366 642.477601 17.269114 0.000000 0.064863
288.000000 64.773000 -10.000000 -1.000000 4.000000 106.955318 33.181259 271.195458 548.932130 15.436273 0.000000 0.042109
289.000000 73.138000 -9.000000 -1.000000 4.000000 111.368273 34.813393 226.582815 428.089345 13.669658 0.000000 0.023870
290.000000 83.418000 -8.000000 -1.000000 4.000000 116.668923 37.063638 162.078276 263.542596 11.983986 0.000000 0.065301
291.000000 96.126000 -7.000000 -1.000000 4.000000 123.086061 40.351835 60.560758 20.818765 10.398685 0.000000 0.156487
293.000000 47.775000 -13.000000 0.000000 4.000000 97.998738 23.670980 503.189886 775.867634 20.932432 0.000000 0.123027
294.000000 58.476000 -11.000000 0.000000 4.000000 104.115579 23.813601 499.992440 645.155362 17.099870 0.000000 0.108206
295.000000 74.136000 -9.000000 0.000000 4.000000 112.723693 24.051215 494.649688 447.399687 13.485647 0.000000 0.075561
296.000000 98.052000 -7.000000 0.000000 4.000000 125.538653 24.526082 483.912606 95.943280 10.194281 0.000000 0.024867
297.000000 114.586000 -6.000000 0.000000 4.000000 134.468502 25.000417 473.106198 -224.732654 8.722152 0.000000 0.080229
299.000000 47.595000 -13.000000 1.000000 4.000000 97.873115 17.110237 643.678129 785.274198 21.012056 0.000000 0.146773
300.000000 52.407000 -12.000000 1.000000 4.000000 100.634321 16.449689 657.214855 730.284798 19.081485 0.000000 0.145147
301.000000 58.147000 -11.000000 1.000000 4.000000 103.855268 15.626326 673.960097 665.347242 17.197071 0.000000 0.141763
302.000000 65.064000 -10.000000 1.000000 4.000000 107.651854 14.571999 695.207959 587.123541 15.367707 0.000000 0.135696
303.000000 73.489000 -9.000000 1.000000 4.000000 112.177043 13.174812 723.056588 490.415687 13.604729 0.000000 0.125507
304.000000 83.848000 -8.000000 1.000000 4.000000 117.631926 11.237930 761.147451 366.548761 11.922814 0.000000 0.108955
305.000000 96.661000 -7.000000 1.000000 4.000000 124.273076 8.382421 816.404098 199.622638 10.341311 0.000000 0.082732
306.000000 112.475000 -6.000000 1.000000 4.000000 132.392041 3.784482 903.805403 -43.664780 8.886257 0.000000 0.043136
307.000000 131.606000 -5.000000 1.000000 4.000000 142.156190 -4.669247 1062.905932 -448.974664 7.593545 0.000000 0.008483
308.000000 46.891000 -13.000000 2.000000 4.000000 97.022468 10.685924 771.905920 806.079492 21.328050 0.000000 0.161969
309.000000 56.950000 -11.000000 2.000000 4.000000 102.503816 7.707321 829.339262 700.140183 17.559040 0.000000 0.161197
310.000000 71.292000 -9.000000 2.000000 4.000000 109.844341 2.925411 919.998708 552.062191 14.024733 0.000000 0.150265
311.000000 92.248000 -7.000000 2.000000 4.000000 119.728181 -5.806606 1084.451362 323.220992 10.836859 0.000000 0.110796
312.000000 106.013000 -6.000000 2.000000 4.000000 125.643608 -13.313781 1229.698549 147.893326 9.428812 0.000000 0.064703
313.000000 122.015000 -5.000000 2.000000 4.000000 131.659496 -24.901203 1474.626627 -114.724473 8.191437 0.000000 0.045358
315.000000 45.712000 -13.000000 3.000000 4.000000 95.513107 4.546697 889.411114 836.788203 21.879087 0.000000 0.169097
316.000000 49.991000 -12.000000 3.000000 4.000000 97.723310 2.640853 925.356739 794.878211 20.005210 0.000000 0.169698
317.000000 54.995000 -11.000000 3.000000 4.000000 100.206607 0.321632 968.958117 747.212916 18.184111 0.000000 0.168649
318.000000 60.878000 -10.000000 3.000000 4.000000 102.992738 -2.551033 1022.952543 692.415210 16.425914 0.000000 0.164879
319.000000 67.821000 -9.000000 3.000000 4.000000 106.097725 -6.180841 1091.558840 628.573791 14.743510 0.000000 0.156570
320.000000 76.014000 -8.000000 3.000000 4.000000 109.499479 -10.867910 1181.636517 552.914713 13.153569 0.000000 0.140481
321.000000 85.612000 -7.000000 3.000000 4.000000 113.085057 -17.052514 1305.135166 461.157722 11.678041 0.000000 0.110437
322.000000 96.624000 -6.000000 3.000000 4.000000 116.542930 -25.349114 1484.891182 346.091999 10.346414 0.000000 0.053467
323.000000 108.666000 -5.000000 3.000000 4.000000 119.170846 -36.474771 1770.682679 193.844091 9.199268 0.000000 0.062216
325.000000 52.442000 -11.000000 4.000000 4.000000 97.173722 -6.367038 1095.098804 804.693138 19.070634 0.000000 0.166675
326.000000 63.456000 -9.000000 4.000000 4.000000 101.414286 -13.949694 1242.346791 717.098357 15.758928 0.000000 0.150008
327.000000 77.741000 -7.000000 4.000000 4.000000 105.519659 -25.570387 1489.990001 609.667321 12.862003 0.000000 0.095186
328.000000 94.208000 -5.000000 4.000000 4.000000 107.080054 -43.428386 1993.811466 485.635518 10.613020 0.000000 0.115782
329.000000 45.637000 -12.000000 5.000000 4.000000 92.272673 -9.155607 1148.465950 897.734499 21.916199 0.000000 0.162112
330.000000 49.471000 -11.000000 5.000000 4.000000 93.633204 -12.297613 1209.623139 871.054132 20.216973 0.000000 0.157736
331.000000 53.782000 -10.000000 5.000000 4.000000 94.982457 -16.012272 1283.871913 843.381149 18.595887 0.000000 0.149577
332.000000 58.591000 -9.000000 5.000000 4.000000 96.239055 -20.430370 1375.919793 815.436351 17.068879 0.000000 0.135654
333.000000 63.875000 -8.000000 5.000000 4.000000 97.266661 -25.702300 1493.038670 788.690454 15.656535 0.000000 0.113242
334.000000 69.514000 -7.000000 5.000000 4.000000 97.847165 -31.982497 1647.086221 766.117943 14.385925 0.000000 0.081683
335.000000 75.226000 -6.000000 5.000000 4.000000 97.651846 -39.391075 1858.797334 753.896449 13.293362 0.000000 0.076868
336.000000 80.459000 -5.000000 5.000000 4.000000 96.228019 -47.944128 2168.004285 765.655246 12.428727 0.000000 0.193352
338.000000 46.261000 -11.000000 6.000000 4.000000 89.794938 -17.485998 1314.065122 945.038706 21.621504 0.000000 0.144354
339.000000 53.568000 -9.000000 6.000000 4.000000 90.917118 -25.789890 1495.066708 921.864613 18.671273 0.000000 0.119234
340.000000 61.559000 -7.000000 6.000000 4.000000 90.527405 -36.870544 1782.239693 928.615502 16.247015 0.000000 0.091941
341.000000 68.305000 -5.000000 6.000000 4.000000 86.794684 -51.076957 2307.768974 1036.936122 14.642477 0.000000 0.281323
342.000000 45.752000 -10.000000 7.000000 4.000000 85.909087 -25.852283 1496.513155 1026.538772 21.862887 0.000000 0.119414
343.000000 48.641000 -9.000000 7.000000 4.000000 85.683698 -30.223322 1602.004858 1035.014315 20.564040 0.000000 0.108514
344.000000 51.526000 -8.000000 7.000000 4.000000 85.026915 -35.153339 1732.930141 1055.545614 19.412396 0.000000 0.104956
345.000000 54.236000 -7.000000 7.000000 4.000000 83.775664 -40.669037 1899.747652 1095.762836 18.442515 0.000000 0.130493
346.000000 56.509000 -6.000000 7.000000 4.000000 81.735933 -46.760663 2119.561237 1169.195947 17.700692 0.000000 0.211287
349.000000 47.704000 -7.000000 8.000000 4.000000 77.662663 -43.681209 2002.854011 1266.507421 20.969693 0.000000 0.185015
352.000000 45.645000 -13.000000 -4.000000 5.000000 99.293938 49.969717 -306.301612 667.158117 21.906818 0.000000 0.252561
355.000000 47.410000 -13.000000 -3.000000 5.000000 102.035679 44.101703 -68.063749 621.445332 21.090785 0.000000 0.131485
356.000000 51.724000 -12.000000 -3.000000 5.000000 104.593687 46.376184 -154.280012 534.827076 19.330700 0.000000 0.176538
357.000000 56.702000 -11.000000 -3.000000 5.000000 107.428719 49.165059 -270.362695 424.266611 17.632690 0.000000 0.248333
359.000000 48.777000 -13.000000 -2.000000 5.000000 104.213528 37.715909 142.667787 596.377717 20.499453 0.000000 0.054273
360.000000 53.435000 -12.000000 -2.000000 5.000000 107.203491 39.391706 91.182818 509.802250 18.711207 0.000000 0.066614
361.000000 58.873000 -11.000000 -2.000000 5.000000 110.604496 41.486661 23.221877 400.827230 16.981759 0.000000 0.103130
362.000000 65.248000 -10.000000 -2.000000 5.000000 114.480005 44.172078 -70.630412 257.776815 15.321577 0.000000 0.167733
364.000000 45.483000 -14.000000 -1.000000 5.000000 102.824834 30.164602 349.471650 657.605559 21.984805 0.000000 0.076642
365.000000 49.667000 -13.000000 -1.000000 5.000000 105.694081 30.917809 330.396716 588.498718 20.131640 0.000000 0.060761
366.000000 54.554000 -12.000000 -1.000000 5.000000 108.986118 31.849399 306.383894 505.057469 18.327174 0.000000 0.039650
367.000000 60.300000 -11.000000 -1.000000 5.000000 112.791509 33.030528 275.230719 401.573187 16.579576 0.000000 0.015021
368.000000 67.097000 -10.000000 -1.000000 5.000000 117.223160 34.575400 233.196139 268.539964 14.898953 0.000000 0.037683
369.000000 75.169000 -9.000000 -1.000000 5.000000 122.418832 36.678854 173.372713 88.709827 13.297953 0.000000 0.097847
372.000000 45.635000 -14.000000 1.000000 5.000000 103.303897 17.394035 637.832871 674.301801 21.912285 0.000000 0.137252
373.000000 49.841000 -13.000000 1.000000 5.000000 106.224170 16.781373 650.429362 613.884459 20.061880 0.000000 0.132412
374.000000 54.755000 -12.000000 1.000000 5.000000 109.579284 16.022073 665.928792 542.716118 18.260286 0.000000 0.125232
375.000000 60.535000 -11.000000 1.000000 5.000000 113.464578 15.056729 685.465355 457.195457 16.515660 0.000000 0.114785
376.000000 67.374000 -10.000000 1.000000 5.000000 118.000592 13.789166 710.852556 351.726691 14.838083 0.000000 0.099817
377.000000 75.498000 -9.000000 1.000000 5.000000 123.338017 12.053226 745.181373 217.023302 13.240163 0.000000 0.078816
378.000000 85.153000 -8.000000 1.000000 5.000000 129.658207 9.536482 794.185525 36.265509 11.737884 0.000000 0.050962
379.000000 96.545000 -7.000000 1.000000 5.000000 137.154144 5.580740 869.833685 -224.954209 10.351809 0.000000 0.022993
381.000000 49.118000 -13.000000 2.000000 5.000000 105.250395 9.859944 787.931855 643.161244 20.357611 0.000000 0.152903
382.000000 53.830000 -12.000000 2.000000 5.000000 108.357428 8.317761 817.644885 580.055750 18.574857 0.000000 0.148278
383.000000 59.332000 -11.000000 2.000000 5.000000 111.903856 6.380494 854.645268 505.551086 16.851056 0.000000 0.140679
384.000000 65.787000 -10.000000 2.000000 5.000000 115.964013 3.880764 901.988637 415.688260 15.196617 0.000000 0.128647
385.000000 73.372000 -9.000000 2.000000 5.000000 120.610975 0.547418 964.716512 304.173975 13.624557 0.000000 0.109898
386.000000 82.260000 -8.000000 2.000000 5.000000 125.889594 -4.080555 1051.782600 160.211436 12.151366 0.000000 0.080804
387.000000 92.560000 -7.000000 2.000000 5.000000 131.741981 -10.822951 1180.760966 -36.750900 10.798247 0.000000 0.037356
388.000000 104.181000 -6.000000 2.000000 5.000000 137.808696 -21.155647 1391.508823 -332.155577 9.592938 0.000000 0.061104
389.000000 47.909000 -13.000000 3.000000 5.000000 103.537494 3.290800 913.114664 681.431555 20.872214 0.000000 0.163843
390.000000 52.298000 -12.000000 3.000000 5.000000 106.251757 1.098813 954.356401 627.195315 19.119737 0.000000 0.159758
391.000000 57.366000 -11.000000 3.000000 5.000000 109.275477 -1.604854 1005.154872 564.456472 17.429458 0.000000 0.152460
392.000000 63.229000 -10.000000 3.000000 5.000000 112.626400 -5.005475 1069.267185 490.682619 15.812339 0.000000 0.140207
393.000000 69.999000 -9.000000 3.000000 5.000000 116.292108 -9.376034 1152.716859 402.046479 14.282078 0.000000 0.120081
394.000000 77.758000 -8.000000 3.000000 5.000000 120.190467 -15.119838 1265.806300 292.367362 12.856021 0.000000 0.086990
395.000000 86.496000 -7.000000 3.000000 5.000000 124.090601 -22.813763 1427.736697 150.728556 11.556461 0.000000 0.033299
396.000000 95.993000 -6.000000 3.000000 5.000000 127.470722 -33.183408 1678.862177 -44.749377 10.412539 0.000000 0.081465
398.000000 46.287000 -13.000000 4.000000 5.000000 101.207844 -2.795906 1027.562490 727.480701 21.604548 0.000000 0.166934
399.000000 50.266000 -12.000000 4.000000 5.000000 103.436890 -5.476212 1078.184365 682.679116 19.893662 0.000000 0.162084
400.000000 54.792000 -11.000000 4.000000 5.000000 105.834829 -8.711807 1139.923167 632.169576 18.249461 0.000000 0.153553
401.000000 59.931000 -10.000000 4.000000 5.000000 108.370892 -12.666521 1216.892633 574.655960 16.683673 0.000000 0.139325
402.000000 65.730000 -9.000000 4.000000 5.000000 110.969912 -17.556513 1315.521762 508.344543 15.210947 0.000000 0.116009
403.000000 72.186000 -8.000000 4.000000 5.000000 113.477853 -23.654913 1446.450338 430.626205 13.849827 0.000000 0.077553
404.000000 79.191000 -7.000000 4.000000 5.000000 115.609077 -31.271004 1628.651360 337.431010 12.624128 0.000000 0.013132
405.000000 86.440000 -6.000000 4.000000 5.000000 116.881647 -40.663772 1899.575743 221.727250 11.564966 0.000000 0.106955
407.000000 47.859000 -12.000000 5.000000 5.000000 100.107627 -11.341110 1190.868024 745.313968 20.895377 0.000000 0.157413
408.000000 51.787000 -11.000000 5.000000 5.000000 101.851069 -14.895882 1261.296930 707.295273 19.309666 0.000000 0.146889
409.000000 60.935000 -9.000000 5.000000 5.000000 105.161346 -24.163330 1457.878104 621.349866 16.409401 0.000000 0.103772
410.000000 66.082000 -8.000000 5.000000 5.000000 106.444868 -30.181727 1600.958777 573.492186 15.130779 0.000000 0.063850
411.000000 71.423000 -7.000000 5.000000 5.000000 107.152664 -37.312628 1795.291470 523.323756 13.998954 0.000000 0.041572
412.000000 76.630000 -6.000000 5.000000 5.000000 106.902747 -45.609037 2074.422355 473.471915 13.047561 0.000000 0.154057
413.000000 48.526000 -11.000000 6.000000 5.000000 97.564087 -20.208409 1371.178533 788.703230 20.608688 0.000000 0.135270
414.000000 52.121000 -10.000000 6.000000 5.000000 98.534950 -24.503794 1465.581629 763.487614 19.186929 0.000000 0.116683
415.000000 55.942000 -9.000000 6.000000 5.000000 99.245282 -29.478735 1583.410797 739.751350 17.875691 0.000000 0.090599
416.000000 59.891000 -8.000000 6.000000 5.000000 99.528563 -35.213464 1734.620937 719.874613 16.696894 0.000000 0.064233
417.000000 63.779000 -7.000000 6.000000 5.000000 99.159155 -41.753225 1935.738210 708.386468 15.678663 0.000000 0.093015
418.000000 67.303000 -6.000000 6.000000 5.000000 97.854365 -49.073644 2216.353807 714.351943 14.857693 0.000000 0.216659
420.000000 48.046000 -10.000000 7.000000 5.000000 93.484493 -28.987632 1571.295990 866.077432 20.815760 0.000000 0.104245
421.000000 51.005000 -9.000000 7.000000 5.000000 93.467827 -33.778657 1694.935772 862.531488 19.608082 0.000000 0.086553
422.000000 53.924000 -8.000000 7.000000 5.000000 92.971165 -39.154730 1851.389071 868.959870 18.546202 0.000000 0.090384
423.000000 56.627000 -7.000000 7.000000 5.000000 91.817289 -45.117489 2055.717390 892.606671 17.661003 0.000000 0.151761
424.000000 58.854000 -6.000000 7.000000 5.000000 89.804769 -51.618880 2333.865007 946.906689 16.992757 0.000000 0.287587
426.000000 46.295000 -9.000000 8.000000 5.000000 87.972705 -37.291821 1794.673731 988.888784 21.604858 0.000000 0.100256
427.000000 48.373000 -8.000000 8.000000 5.000000 86.887348 -42.297766 1954.275736 1020.129050 20.676755 0.000000 0.133198
428.000000 50.151000 -7.000000 8.000000 5.000000 85.179043 -47.737765 2159.399302 1075.977048 19.943745 0.000000 0.214995
432.000000 49.018000 -13.000000 -3.000000 6.000000 109.682532 45.904523 -135.824989 387.726166 20.396061 0.000000 0.180923
434.000000 50.380000 -13.000000 -2.000000 6.000000 112.097936 39.091486 100.584899 377.966835 19.844360 0.000000 0.072400
435.000000 60.267000 -11.000000 -2.000000 6.000000 119.420998 43.621643 -50.716709 102.526511 16.586855 0.000000 0.187486
436.000000 47.082000 -14.000000 -1.000000 6.000000 110.412039 30.861377 331.836169 474.407949 21.235326 0.000000 0.039157
437.000000 51.265000 -13.000000 -1.000000 6.000000 113.744533 31.759242 308.728784 384.165431 19.501506 0.000000 0.014877
438.000000 56.083000 -12.000000 -1.000000 6.000000 117.539708 32.889738 278.987432 272.641939 17.824837 0.000000 0.020907
439.000000 61.650000 -11.000000 -1.000000 6.000000 121.884938 34.355379 239.276444 129.978177 16.214221 0.000000 0.065550
440.000000 68.086000 -10.000000 -1.000000 6.000000 126.882012 36.327987 183.573552 -61.404718 14.680503 0.000000 0.128258
442.000000 47.376000 -14.000000 0.000000 6.000000 111.057390 24.001200 495.775901 487.391572 21.103673 0.000000 0.082913
443.000000 51.622000 -13.000000 0.000000 6.000000 114.503401 24.107107 493.390078 403.553056 19.366472 0.000000 0.067219
444.000000 62.199000 -11.000000 0.000000 6.000000 122.997578 24.416542 486.396523 173.466113 16.071049 0.000000 0.026835
445.000000 68.779000 -10.000000 0.000000 6.000000 128.282620 24.655502 480.972307 6.310622 14.532386 0.000000 0.035916
447.000000 47.229000 -14.000000 1.000000 6.000000 110.928355 17.095906 643.972836 510.364714 21.169554 0.000000 0.116761
448.000000 51.433000 -13.000000 1.000000 6.000000 114.320536 16.395045 658.330510 433.952644 19.438242 0.000000 0.106526
449.000000 56.276000 -12.000000 1.000000 6.000000 118.190817 15.510025 676.314374 342.316290 17.764131 0.000000 0.092919
450.000000 61.873000 -11.000000 1.000000 6.000000 122.633321 14.357934 699.496731 229.577894 16.156099 0.000000 0.075184
451.000000 68.345000 -10.000000 1.000000 6.000000 127.761090 12.797949 730.512454 86.071942 14.624955 0.000000 0.053311
452.000000 75.808000 -9.000000 1.000000 6.000000 133.704222 10.571088 774.139076 -105.441050 13.184005 0.000000 0.032247
453.000000 84.336000 -8.000000 1.000000 6.000000 140.594967 7.147693 840.030564 -379.328132 11.849812 0.000000 0.031084
455.000000 50.710000 -13.000000 2.000000 6.000000 113.220215 8.895206 806.549069 473.628949 19.715801 0.000000 0.132058
456.000000 60.702000 -11.000000 2.000000 6.000000 120.854266 4.772054 885.149694 295.780816 16.468138 0.000000 0.105949
457.000000 73.830000 -9.000000 2.000000 6.000000 130.549974 -2.501788 1022.025665 19.254533 13.537842 0.000000 0.054674
459.000000 45.677000 -14.000000 3.000000 6.000000 108.461735 3.911208 901.414097 580.837230 21.890227 0.000000 0.153308
460.000000 49.501000 -13.000000 3.000000 6.000000 111.298729 1.837763 940.465998 521.181973 20.198145 0.000000 0.146508
461.000000 58.786000 -11.000000 3.000000 6.000000 117.885661 -3.898039 1048.337370 370.155753 17.005943 0.000000 0.121005
462.000000 64.382000 -10.000000 3.000000 6.000000 121.642974 -7.976913 1125.821078 271.265731 15.526683 0.000000 0.098342
463.000000 77.643000 -8.000000 3.000000 6.000000 129.711379 -20.444600 1376.224219 -13.010655 12.873063 0.000000 0.025604
464.000000 85.144000 -7.000000 3.000000 6.000000 133.450800 -30.081711 1598.447049 -237.315655 11.738285 0.000000 0.096142
465.000000 47.877000 -13.000000 4.000000 6.000000 108.701662 -4.624298 1062.055979 575.469807 20.884274 0.000000 0.152156
466.000000 56.267000 -11.000000 4.000000 6.000000 114.037368 -11.445306 1192.904802 451.222128 17.768300 0.000000 0.124288
467.000000 66.650000 -9.000000 4.000000 6.000000 119.707489 -21.833132 1406.209118 279.454029 14.998625 0.000000 0.059560
468.000000 78.646000 -7.000000 4.000000 6.000000 124.222678 -37.995700 1815.763171 12.042055 12.709814 0.000000 0.114733
469.000000 45.925000 -13.000000 5.000000 6.000000 105.595211 -10.421072 1172.946152 635.551854 21.773195 0.000000 0.150939
470.000000 49.440000 -12.000000 5.000000 6.000000 107.599486 -13.823281 1239.826991 589.406878 20.224363 0.000000 0.138261
471.000000 53.314000 -11.000000 5.000000 6.000000 109.623286 -17.863036 1321.866928 537.819558 18.754001 0.000000 0.119202
472.000000 57.543000 -10.000000 5.000000 6.000000 111.579406 -22.684366 1424.878610 479.621710 17.374849 0.000000 0.090482
473.000000 62.087000 -9.000000 5.000000 6.000000 113.324576 -28.446600 1558.081933 413.201441 16.102566 0.000000 0.046776
474.000000 66.842000 -8.000000 5.000000 6.000000 114.636691 -35.298953 1737.029299 336.207921 14.956611 0.000000 0.026887
475.000000 71.604000 -7.000000 5.000000 6.000000 115.195621 -43.325955 1990.169355 244.929051 13.961474 0.000000 0.142095
477.000000 50.092000 -11.000000 6.000000 6.000000 104.911890 -23.259374 1437.621125 629.025867 19.961850 0.000000 0.109006
478.000000 64.541000 -7.000000 6.000000 6.000000 106.735208 -47.100053 2133.232721 465.584698 15.491374 0.000000 0.183573
479.000000 46.749000 -11.000000 7.000000 6.000000 100.109096 -27.784670 1542.097625 724.099060 21.390657 0.000000 0.097479
480.000000 49.605000 -10.000000 7.000000 6.000000 100.575125 -32.437407 1659.023206 702.913907 20.158776 0.000000 0.071327
481.000000 52.491000 -9.000000 7.000000 6.000000 100.653054 -37.672201 1806.020909 685.220403 19.050125 0.000000 0.060375
482.000000 55.285000 -8.000000 7.000000 6.000000 100.184925 -43.501093 1996.404164 674.424452 18.087050 0.000000 0.113787
483.000000 57.808000 -7.000000 7.000000 6.000000 98.984920 -49.890393 2252.705674 676.851908 17.297643 0.000000 0.235824
485.000000 47.870000 -9.000000 8.000000 6.000000 94.743751 -40.936864 1908.528109 822.769691 20.890808 0.000000 0.095989
486.000000 51.607000 -7.000000 8.000000 6.000000 91.973983 -52.027926 2353.978689 880.708947 19.378426 0.000000 0.294715
489.000000 46.359000 -14.000000 -3.000000 7.000000 113.982182 45.456771 -118.593316 258.416796 21.564808 0.000000 0.191042
492.000000 47.453000 -14.000000 -2.000000 7.000000 116.216908 38.807599 109.402129 260.866900 21.067062 0.000000 0.086900
493.000000 51.365000 -13.000000 -2.000000 7.000000 119.642104 40.707256 49.003709 133.051404 19.461231 0.000000 0.137243
494.000000 55.777000 -12.000000 -2.000000 7.000000 123.449933 43.108391 -32.474048 -32.933292 17.920829 0.000000 0.207770
496.000000 48.161000 -14.000000 -1.000000 7.000000 117.739092 31.674206 310.936275 275.932363 20.756954 0.000000 0.009841
497.000000 52.227000 -13.000000 -1.000000 7.000000 121.465564 32.757936 282.493478 157.774498 19.139869 0.000000 0.045330
498.000000 56.835000 -12.000000 -1.000000 7.000000 125.672771 34.151375 244.885675 7.384224 17.587066 0.000000 0.091932
499.000000 62.049000 -11.000000 -1.000000 7.000000 130.436569 36.006764 192.832290 -192.798266 16.107886 0.000000 0.154337
501.000000 48.303000 -14.000000 1.000000 7.000000 118.298885 16.747122 651.131148 335.834672 20.696347 0.000000 0.087575
502.000000 52.387000 -13.000000 1.000000 7.000000 122.096079 15.934796 667.702715 238.968790 19.081485 0.000000 0.072137
503.000000 57.017000 -12.000000 1.000000 7.000000 126.394157 14.885909 688.903655 120.107078 17.530905 0.000000 0.053930
504.000000 62.258000 -11.000000 1.000000 7.000000 131.278807 13.480662 716.988783 -30.611710 16.053914 0.000000 0.036364
505.000000 68.165000 -10.000000 1.000000 7.000000 136.845350 11.503291 755.961067 -230.487866 14.661706 0.000000 0.033314
508.000000 47.732000 -14.000000 2.000000 7.000000 117.309156 9.442153 796.007006 377.632624 20.944205 0.000000 0.114649
509.000000 51.681000 -13.000000 2.000000 7.000000 120.864456 7.754257 828.441326 291.821516 19.342673 0.000000 0.101508
510.000000 56.136000 -12.000000 2.000000 7.000000 124.835599 5.605124 869.371244 188.365217 17.806546 0.000000 0.084275
511.000000 61.151000 -11.000000 2.000000 7.000000 129.265969 2.785275 922.637703 60.089706 16.345278 0.000000 0.061912
512.000000 66.763000 -10.000000 2.000000 7.000000 134.179525 -1.054339 994.807862 -105.079457 14.970236 0.000000 0.033538
513.000000 72.973000 -9.000000 2.000000 7.000000 139.543335 -6.525613 1098.115651 -329.340735 13.695213 0.000000 0.009625
515.000000 46.769000 -14.000000 3.000000 7.000000 115.558402 2.541007 927.236167 425.780042 21.376415 0.000000 0.131231
516.000000 50.499000 -13.000000 3.000000 7.000000 118.727887 0.139614 972.377356 351.063295 19.796264 0.000000 0.118717
517.000000 54.675000 -12.000000 3.000000 7.000000 122.191541 -2.853568 1028.648298 262.602032 18.283374 0.000000 0.101440
518.000000 59.331000 -11.000000 3.000000 7.000000 125.942500 -6.663681 1100.743902 155.368114 16.847453 0.000000 0.077600
519.000000 64.484000 -10.000000 3.000000 7.000000 129.930874 -11.625553 1196.431759 21.223655 15.500168 0.000000 0.045534
520.000000 70.109000 -9.000000 3.000000 7.000000 134.019717 -18.233145 1329.557617 -154.063113 14.255671 0.000000 0.029292
523.000000 45.461000 -14.000000 4.000000 7.000000 113.168637 -3.809154 1046.660095 479.377115 21.992170 0.000000 0.139418
524.000000 48.908000 -13.000000 4.000000 7.000000 115.859887 -6.730405 1102.014590 415.690325 20.441374 0.000000 0.126311
525.000000 52.725000 -12.000000 4.000000 7.000000 118.714824 -10.282701 1170.260139 341.759700 18.960423 0.000000 0.107708
526.000000 56.929000 -11.000000 4.000000 7.000000 121.686023 -14.656800 1256.493330 254.283186 17.559379 0.000000 0.081200
527.000000 61.512000 -10.000000 4.000000 7.000000 124.675238 -20.101757 1368.905198 148.127647 16.250333 0.000000 0.043910
528.000000 66.423000 -9.000000 4.000000 7.000000 127.500098 -26.921790 1521.550028 14.744906 15.047949 0.000000 0.031459
529.000000 71.545000 -8.000000 4.000000 7.000000 129.849492 -35.430143 1740.735062 -161.461350 13.970176 0.000000 0.124200
531.000000 46.989000 -13.000000 5.000000 7.000000 112.453343 -12.792651 1219.382896 484.889105 21.277128 0.000000 0.126500
532.000000 50.399000 -12.000000 5.000000 7.000000 114.669613 -16.655422 1296.991197 425.003099 19.836735 0.000000 0.105827
533.000000 54.097000 -11.000000 5.000000 7.000000 116.858873 -21.263822 1393.846889 356.117217 18.480004 0.000000 0.075991
534.000000 58.054000 -10.000000 5.000000 7.000000 118.902639 -26.776601 1518.123780 275.418578 17.219573 0.000000 0.032286
535.000000 62.202000 -9.000000 5.000000 7.000000 120.616385 -33.351806 1683.387113 178.488223 16.070761 0.000000 0.035949
536.000000 66.409000 -8.000000 5.000000 7.000000 121.731336 -41.100157 1913.916549 57.798998 15.052318 0.000000 0.143102
538.000000 47.813000 -12.000000 6.000000 7.000000 110.289846 -22.055756 1411.069929 511.664214 20.911359 0.000000 0.098441
539.000000 50.988000 -11.000000 6.000000 7.000000 111.754784 -26.681403 1515.881997 460.313049 19.608285 0.000000 0.065995
540.000000 54.315000 -10.000000 6.000000 7.000000 112.966714 -32.036371 1648.493692 402.937161 18.406736 0.000000 0.021720
541.000000 57.712000 -9.000000 6.000000 7.000000 113.760147 -38.190005 1821.656088 338.163367 17.322832 0.000000 0.057782
542.000000 61.047000 -8.000000 6.000000 7.000000 113.919047 -45.160096 2057.325920 263.993929 16.376298 0.000000 0.170019
544.000000 47.742000 -11.000000 7.000000 7.000000 106.588882 -31.129798 1625.025905 566.431668 20.943182 0.000000 0.057136
545.000000 50.470000 -10.000000 7.000000 7.000000 107.100034 -36.222379 1763.374102 530.562526 19.810676 0.000000 0.036744
546.000000 53.174000 -9.000000 7.000000 7.000000 107.156227 -41.913333 1941.155815 494.497071 18.802895 0.000000 0.092452
547.000000 55.730000 -8.000000 7.000000 7.000000 106.589796 -48.182568 2178.032807 460.093956 17.940707 0.000000 0.206855
548.000000 46.660000 -10.000000 8.000000 7.000000 101.445150 -39.599452 1865.370723 658.201440 21.430260 0.000000 0.068371
549.000000 48.754000 -9.000000 8.000000 7.000000 100.923599 -44.844424 2045.465123 648.032006 20.509691 0.000000 0.134139
550.000000 50.645000 -8.000000 8.000000 7.000000 99.815686 -50.508255 2281.032695 648.199025 19.744143 0.000000 0.251594
552.000000 45.904000 -8.000000 9.000000 7.000000 93.610182 -52.347599 2369.955602 829.835957 21.785219 0.000000 0.301677
557.000000 48.748000 -14.000000 -1.000000 8.000000 124.758399 32.634291 285.773136 54.099156 20.504740 0.000000 0.068430
558.000000 52.605000 -13.000000 -1.000000 8.000000 128.804859 33.961705 250.076534 -102.527218 19.000359 0.000000 0.115281
561.000000 45.525000 -15.000000 0.000000 8.000000 121.796970 24.367849 487.499303 208.492914 21.957454 0.000000 0.031217
562.000000 52.936000 -13.000000 0.000000 8.000000 129.737377 24.729438 479.289816 -44.081999 18.881499 0.000000 0.044965
564.000000 48.884000 -14.000000 1.000000 8.000000 125.369563 16.333610 659.584064 144.845251 20.448100 0.000000 0.053928
565.000000 52.757000 -13.000000 1.000000 8.000000 129.501093 15.377246 678.998975 20.794354 18.945653 0.000000 0.038638
566.000000 57.068000 -12.000000 1.000000 8.000000 134.137207 14.108627 704.481280 -135.840405 17.513369 0.000000 0.033134
567.000000 61.840000 -11.000000 1.000000 8.000000 139.349302 12.347150 739.401908 -342.167428 16.160772 0.000000 0.045214
570.000000 52.081000 -13.000000 2.000000 8.000000 128.130494 6.385179 854.556164 90.878544 19.192027 0.000000 0.064759
571.000000 60.815000 -11.000000 2.000000 8.000000 137.075584 0.275885 969.817495 -216.254662 16.433717 0.000000 0.018359
573.000000 47.395000 -14.000000 3.000000 8.000000 122.344411 0.944684 957.252622 259.334104 21.091403 0.000000 0.101205
574.000000 50.947000 -13.000000 3.000000 8.000000 125.768942 -1.867480 1010.092817 165.226589 19.619835 0.000000 0.082782
575.000000 54.856000 -12.000000 3.000000 8.000000 129.458379 -5.429923 1077.306912 51.090500 18.220884 0.000000 0.058881
576.000000 59.125000 -11.000000 3.000000 8.000000 133.372591 -10.046646 1165.683328 -91.660812 16.904376 0.000000 0.030160
577.000000 63.730000 -10.000000 3.000000 8.000000 137.403808 -16.170120 1287.083818 -277.835666 15.681991 0.000000 0.034891
579.000000 49.417000 -13.000000 4.000000 8.000000 122.624653 -9.175476 1148.848904 243.098484 20.228291 0.000000 0.091122
580.000000 56.882000 -11.000000 4.000000 8.000000 128.704682 -18.457155 1334.228301 31.813331 17.571817 0.000000 0.032372
582.000000 47.566000 -13.000000 5.000000 8.000000 118.921042 -15.495959 1273.401066 323.906001 21.016615 0.000000 0.091686
583.000000 50.790000 -12.000000 5.000000 8.000000 121.252918 -19.899950 1364.612028 246.333991 19.681886 0.000000 0.061919
584.000000 54.222000 -11.000000 5.000000 8.000000 123.485203 -25.170812 1480.796108 154.315473 18.435116 0.000000 0.023330
585.000000 57.816000 -10.000000 5.000000 8.000000 125.463403 -31.472218 1633.836345 42.087585 17.288726 0.000000 0.050658
586.000000 61.481000 -9.000000 5.000000 8.000000 126.960863 -38.935967 1844.576104 -100.197031 16.257593 0.000000 0.147914
588.000000 45.476000 -13.000000 6.000000 8.000000 114.861819 -20.891976 1385.824110 407.175733 21.984034 0.000000 0.086607
589.000000 51.283000 -11.000000 6.000000 8.000000 118.026659 -30.517244 1609.422172 275.957578 19.493352 0.000000 0.006596
590.000000 57.371000 -9.000000 6.000000 8.000000 119.787795 -43.257249 1987.733249 95.045834 17.423867 0.000000 0.166938
591.000000 45.674000 -12.000000 7.000000 8.000000 111.709296 -29.855893 1592.794632 446.913110 21.889614 0.000000 0.043864
592.000000 48.191000 -11.000000 7.000000 8.000000 112.545412 -34.805991 1723.210923 396.826168 20.745612 0.000000 0.019824
593.000000 50.719000 -10.000000 7.000000 8.000000 113.000462 -40.355826 1889.568325 341.462706 19.711306 0.000000 0.084624
594.000000 53.169000 -9.000000 7.000000 8.000000 112.924583 -46.498011 2109.098665 279.753368 18.802898 0.000000 0.192614
596.000000 49.027000 -9.000000 8.000000 8.000000 106.466053 -49.003695 2213.296209 456.069583 20.393591 0.000000 0.225637
601.000000 45.627000 -15.000000 -1.000000 9.000000 127.555521 32.518069 288.847646 -40.388003 21.906454 0.000000 0.089265
602.000000 48.890000 -14.000000 -1.000000 9.000000 131.434161 33.784912 254.894146 -202.047495 20.443150 0.000000 0.135624
605.000000 45.743000 -15.000000 1.000000 9.000000 128.148469 16.708741 651.917264 58.339115 21.851160 0.000000 0.040079
606.000000 49.019000 -14.000000 1.000000 9.000000 132.106908 15.835566 669.717700 -70.115279 20.389559 0.000000 0.033029
607.000000 52.616000 -13.000000 1.000000 9.000000 136.502229 14.688042 692.879560 -231.585170 18.994765 0.000000 0.041238
610.000000 48.491000 -14.000000 2.000000 9.000000 130.896660 7.116859 840.618837 1.556540 20.611889 0.000000 0.048209
611.000000 51.979000 -13.000000 2.000000 9.000000 134.980032 4.714110 886.245653 -138.195082 19.227680 0.000000 0.029386
612.000000 55.772000 -12.000000 2.000000 9.000000 139.433636 1.501296 946.791883 -316.658758 17.919220 0.000000 0.013020
615.000000 47.598000 -14.000000 3.000000 9.000000 128.780276 -0.935551 992.575767 76.131745 20.999431 0.000000 0.065686
616.000000 50.910000 -13.000000 3.000000 9.000000 132.377952 -4.269684 1055.354286 -43.765556 19.632242 0.000000 0.042575
617.000000 58.311000 -11.000000 3.000000 9.000000 140.117435 -14.245906 1248.262055 -387.895341 17.138756 0.000000 0.038182
619.000000 46.381000 -14.000000 4.000000 9.000000 125.930734 -8.120538 1128.572992 153.112603 21.551534 0.000000 0.075359
620.000000 49.462000 -13.000000 4.000000 9.000000 128.948700 -12.037035 1204.500635 51.470427 20.207749 0.000000 0.049985
621.000000 52.763000 -12.000000 4.000000 9.000000 132.023154 -16.895475 1301.910366 -72.639784 18.942786 0.000000 0.026165
622.000000 56.253000 -11.000000 4.000000 9.000000 135.032348 -22.980215 1431.421246 -229.392997 17.766668 0.000000 0.055073
625.000000 47.705000 -13.000000 5.000000 9.000000 124.950830 -18.590881 1337.022350 147.332074 20.953504 0.000000 0.049256
626.000000 50.685000 -12.000000 5.000000 9.000000 127.296900 -23.627979 1445.847444 46.158367 19.720582 0.000000 0.022771
627.000000 53.797000 -11.000000 5.000000 9.000000 129.446050 -29.660568 1587.926097 -78.051779 18.579085 0.000000 0.063400
630.000000 45.711000 -13.000000 6.000000 9.000000 120.608650 -24.060181 1455.552299 243.677005 21.868813 0.000000 0.042245
631.000000 51.064000 -11.000000 6.000000 9.000000 123.678236 -34.805610 1723.200296 67.520098 19.575191 0.000000 0.071696
632.000000 53.790000 -10.000000 6.000000 9.000000 124.633214 -41.394527 1923.698327 -49.978974 18.582759 0.000000 0.168235
633.000000 45.848000 -12.000000 7.000000 9.000000 117.177966 -33.423563 1685.320552 278.883034 21.804440 0.000000 0.017069
634.000000 48.167000 -11.000000 7.000000 9.000000 117.935942 -38.829950 1841.289500 208.361162 20.754174 0.000000 0.085931
635.000000 50.449000 -10.000000 7.000000 9.000000 118.239329 -44.839099 2045.266181 125.792187 19.815177 0.000000 0.187011
637.000000 47.074000 -10.000000 8.000000 9.000000 112.130299 -47.516063 2150.230409 292.922347 21.237513 0.000000 0.211220
644.000000 45.730000 -15.000000 1.000000 10.000000 134.321244 16.264035 661.002770 -153.907795 21.855403 0.000000 0.037552
645.000000 48.769000 -14.000000 1.000000 10.000000 138.489308 15.224222 682.088667 -319.301616 20.492473 0.000000 0.052834
648.000000 51.458000 -13.000000 2.000000 10.000000 141.386707 2.632813 925.508084 -408.033187 19.420891 0.000000 0.018116
650.000000 47.430000 -14.000000 3.000000 10.000000 134.835155 -3.177453 1034.749337 -130.766535 21.071821 0.000000 0.028780
651.000000 50.463000 -13.000000 3.000000 10.000000 138.520379 -7.184835 1110.678179 -286.036493 19.804392 0.000000 0.011581
654.000000 49.112000 -13.000000 4.000000 10.000000 134.793175 -15.412754 1271.718602 -167.414544 20.350123 0.000000 0.024951
656.000000 47.465000 -13.000000 5.000000 10.000000 130.503700 -22.146579 1413.057380 -51.593456 21.057459 0.000000 0.027932
657.000000 50.169000 -12.000000 5.000000 10.000000 132.759395 -27.916666 1545.269379 -185.313184 19.921936 0.000000 0.073096
659.000000 45.588000 -13.000000 6.000000 10.000000 125.894933 -27.617912 1538.101546 61.868552 21.925773 0.000000 0.025849
661.000000 45.655000 -12.000000 7.000000 10.000000 122.136052 -37.336847 1796.010918 90.646360 21.894632 0.000000 0.091685
662.000000 47.748000 -11.000000 7.000000 10.000000 122.733003 -43.207966 1985.989222 -8.196923 20.934753 0.000000 0.185769
669.000000 46.951000 -14.000000 3.000000 11.000000 140.484509 -5.887145 1085.980138 -370.849275 21.285308 0.000000 0.008660
672.000000 45.876000 -14.000000 4.000000 11.000000 137.133087 -14.004990 1243.449871 -254.097429 21.784971 0.000000 0.026362
675.000000 46.912000 -13.000000 5.000000 11.000000 135.546989 -26.239832 1505.532174 -282.080181 21.304058 0.000000 0.079837
#UB matrix in q= (UB) B0 G* 
#[[ 0.527186555 -0.018843496 -0.848566995]
# [-0.333321565 -0.924250915 -0.186557441]
# [-0.781646385  0.381656388 -0.494168917]]
#B0 matrix in q= UB (B0) G*
#[[ 0.19670273 -0.          0.03056101]
# [ 0.          0.19187965 -0.        ]
# [ 0.          0.          0.18806537]]
#UBB0 matrix in q= (UB B0) G* i.e. recip. basis vectors are columns in LT frame: astar = UBB0[:,0], bstar = UBB0[:,1], cstar = UBB0[:,2]. (abcstar as columns on xyzlab1, xlab1 = ui, ui = unit vector along incident beam)
#[[ 0.10369904 -0.00361568 -0.14347472]
# [-0.06556526 -0.17734494 -0.04527164]
# [-0.15375198  0.0732321  -0.11682396]]
#Euler angles phi theta psi (deg)
#[243.986 119.569 102.379]
#deviatoric strain in direct crystal frame (10-3 unit)
#[[  6.77   0.07  -1.12]
# [  0.07   6.46   0.2 ]
# [ -1.12   0.2  -13.23]]
#deviatoric strain in sample2 frame (10-3 unit)
#[[-12.3   -3.75   2.16]
# [ -3.76   5.78   0.6 ]
# [  2.14   0.59   6.51]]
#new lattice parameters
#[ 5.1505     5.209962   5.3187805 89.989301  99.2954018 89.9914605]
#CCDLabel
#sCMOS
#DetectorParameters
#[79.0, 975.0, 941.0, 0.0, 0.0]
#pixelsize
#0.0734
#Frame dimensions
#[2018, 2016]
#
