#Strain and Orientation Refinement from experimental file: /home/micha/LaueProjects/DepthEffects/testZrO2_47.cor
#File created at Wed Jun 28 14:21:08 2023 with indexingSpotsSet.py
#Number of indexed spots: 526
#Element
#ZrO2
#grainIndex
#G_0
#Mean Deviation(pixel): 0.112
##spot_index intensity h k l 2theta Chi Xexp Yexp Energy GrainIndex PixDev
19.000000 165.858000 2.000000 1.000000 0.000000 53.487066 32.597087 286.758179 1886.769801 6.031700 0.000000 0.233848
22.000000 181.577000 2.000000 2.000000 0.000000 76.424509 49.565164 -288.084774 1341.713210 5.507067 0.000000 0.312480
23.000000 119.471000 3.000000 2.000000 0.000000 62.837380 38.618109 115.248466 1647.817287 8.372211 0.000000 0.222957
24.000000 60.926000 5.000000 2.000000 0.000000 46.994187 28.865652 381.695203 2087.286189 16.421641 0.000000 0.274839
25.000000 91.137000 4.000000 3.000000 0.000000 66.836250 41.506319 22.563638 1555.908745 10.974219 0.000000 0.232012
26.000000 70.052000 5.000000 3.000000 0.000000 59.317917 36.245187 185.967390 1732.824153 14.279424 0.000000 0.221648
28.000000 73.273000 5.000000 4.000000 0.000000 69.031133 43.193658 -35.483430 1506.781454 13.649096 0.000000 0.241209
29.000000 49.396000 7.000000 4.000000 0.000000 57.719967 35.212956 215.393375 1773.151839 20.251090 0.000000 0.223076
31.000000 61.151000 6.000000 5.000000 0.000000 70.413030 44.298395 -75.252747 1476.096835 16.354466 0.000000 0.249038
32.000000 51.775000 7.000000 5.000000 0.000000 65.175716 40.279741 62.890157 1593.606395 19.317936 0.000000 0.227188
34.000000 52.427000 7.000000 6.000000 0.000000 71.361571 45.077316 -104.202931 1455.077545 19.075476 0.000000 0.255528
37.000000 45.862000 8.000000 7.000000 0.000000 72.052434 45.655837 -126.220321 1439.765632 21.805572 0.000000 0.260915
40.000000 123.746000 3.000000 1.000000 1.000000 62.499354 12.234093 741.626491 1514.318834 8.084057 0.000000 0.054347
41.000000 82.344000 4.000000 1.000000 1.000000 52.099904 12.610958 734.203581 1799.588569 12.150533 0.000000 0.115281
42.000000 59.346000 5.000000 1.000000 1.000000 45.399924 12.836107 729.758555 2029.577194 16.860464 0.000000 0.208366
43.000000 140.298000 3.000000 2.000000 1.000000 81.891254 25.007779 472.937831 1110.210395 7.127533 0.000000 0.114016
44.000000 98.768000 4.000000 2.000000 1.000000 68.759895 22.138293 537.124045 1392.629463 10.127090 0.000000 0.096629
45.000000 72.981000 5.000000 2.000000 1.000000 59.711366 20.427455 574.142571 1611.834758 13.707389 0.000000 0.098476
46.000000 56.249000 6.000000 2.000000 1.000000 53.189630 19.293258 598.229285 1794.402054 17.786577 0.000000 0.137179
47.000000 180.033000 2.000000 3.000000 1.000000 111.175136 48.412604 -237.796680 312.868252 5.551041 0.000000 0.246773
48.000000 136.627000 3.000000 3.000000 1.000000 94.514206 37.553535 147.531449 833.814822 7.316917 0.000000 0.083058
49.000000 103.488000 4.000000 3.000000 1.000000 81.469854 31.692989 310.449021 1130.724896 9.662482 0.000000 0.109932
50.000000 79.886000 5.000000 3.000000 1.000000 71.587789 28.096724 400.391467 1347.153936 12.519746 0.000000 0.113421
51.000000 63.186000 6.000000 3.000000 1.000000 64.040570 25.682550 457.418205 1522.441913 15.830950 0.000000 0.114251
52.000000 51.179000 7.000000 3.000000 1.000000 58.166655 23.955540 496.803305 1672.181623 19.546713 0.000000 0.127971
53.000000 124.599000 3.000000 4.000000 1.000000 101.808853 48.805303 -254.670688 599.341345 8.021940 0.000000 0.231255
54.000000 100.700000 4.000000 4.000000 1.000000 90.415659 40.769387 46.970773 930.689957 9.928028 0.000000 0.116922
55.000000 81.386000 5.000000 4.000000 1.000000 80.867139 35.575709 205.138960 1153.735145 12.286550 0.000000 0.119454
56.000000 66.430000 6.000000 4.000000 1.000000 73.076376 31.997199 302.529860 1327.154994 15.054918 0.000000 0.125036
57.000000 54.970000 7.000000 4.000000 1.000000 66.733865 29.400423 368.528874 1472.182502 18.195728 0.000000 0.127482
58.000000 46.149000 8.000000 4.000000 1.000000 61.532968 27.437537 416.207157 1598.543072 21.675993 0.000000 0.133768
59.000000 94.357000 4.000000 5.000000 1.000000 96.378548 48.998415 -263.065744 757.611195 10.594003 0.000000 0.234740
60.000000 79.420000 5.000000 5.000000 1.000000 87.808359 42.633615 -15.869332 996.987226 12.588707 0.000000 0.144980
61.000000 66.866000 6.000000 5.000000 1.000000 80.333949 38.091274 131.342163 1173.924144 14.954463 0.000000 0.133887
62.000000 56.623000 7.000000 5.000000 1.000000 73.952228 34.725613 229.026470 1317.685470 17.662105 0.000000 0.135808
63.000000 48.352000 8.000000 5.000000 1.000000 68.533724 32.148233 298.578627 1440.875780 20.685443 0.000000 0.137940
65.000000 75.612000 5.000000 6.000000 1.000000 92.848875 49.113263 -268.089433 859.174885 13.221160 0.000000 0.241567
66.000000 65.446000 6.000000 6.000000 1.000000 86.012298 43.847979 -58.860621 1045.037343 15.276913 0.000000 0.166687
67.000000 56.663000 7.000000 6.000000 1.000000 79.894238 39.847445 76.754432 1190.857495 17.647175 0.000000 0.148595
68.000000 49.238000 8.000000 6.000000 1.000000 74.511256 36.732888 171.793527 1313.152536 20.310724 0.000000 0.146223
70.000000 62.948000 6.000000 7.000000 1.000000 90.374953 49.189408 -271.433018 930.222803 15.881628 0.000000 0.248312
71.000000 55.602000 7.000000 7.000000 1.000000 84.702455 44.701149 -90.124680 1081.405654 17.981984 0.000000 0.183651
72.000000 49.125000 8.000000 7.000000 1.000000 79.534525 41.140762 34.739393 1204.988565 20.355274 0.000000 0.162052
74.000000 53.855000 7.000000 8.000000 1.000000 88.546306 49.243593 -273.818585 982.837432 18.563770 0.000000 0.254268
75.000000 48.306000 8.000000 8.000000 1.000000 83.705918 45.333152 -113.884051 1109.868130 20.698137 0.000000 0.197182
78.000000 47.024000 8.000000 9.000000 1.000000 87.140261 49.284121 -275.606281 1023.421912 21.260804 0.000000 0.259383
84.000000 142.658000 2.000000 0.000000 2.000000 62.891963 -20.481453 1377.012886 1529.136897 7.012105 0.000000 0.096902
85.000000 95.494000 3.000000 0.000000 2.000000 52.866200 -11.119201 1186.535134 1771.585195 10.477213 0.000000 0.097116
86.000000 67.828000 4.000000 0.000000 2.000000 45.908761 -5.618512 1080.882671 1988.716062 14.752158 0.000000 0.177503
87.000000 50.877000 5.000000 0.000000 2.000000 40.992075 -2.059910 1013.711832 2180.281686 19.668182 0.000000 0.261937
88.000000 188.944000 2.000000 1.000000 2.000000 93.204390 -7.823880 1122.890999 880.176899 5.291510 0.000000 0.158728
89.000000 127.951000 3.000000 1.000000 2.000000 75.985273 -1.103339 995.728649 1209.693991 7.816644 0.000000 0.117503
90.000000 90.753000 4.000000 1.000000 2.000000 64.397337 2.464414 928.677705 1457.212753 11.022845 0.000000 0.043411
91.000000 67.571000 5.000000 1.000000 2.000000 56.318556 4.660298 887.263299 1660.674840 14.806343 0.000000 0.041543
92.000000 52.431000 6.000000 1.000000 2.000000 50.443809 6.143954 859.142149 1835.138608 19.083432 0.000000 0.115469
93.000000 193.381000 2.000000 2.000000 2.000000 115.059874 9.148473 801.671531 431.261734 5.167913 0.000000 0.118407
94.000000 140.485000 3.000000 2.000000 2.000000 94.653365 10.706735 771.501047 851.842239 7.116554 0.000000 0.153077
95.000000 103.696000 4.000000 2.000000 2.000000 80.368431 11.474357 756.527051 1127.376555 9.644023 0.000000 0.128687
96.000000 78.878000 5.000000 2.000000 2.000000 70.109854 11.931154 747.577937 1339.001883 12.680811 0.000000 0.086002
97.000000 49.884000 7.000000 2.000000 2.000000 56.676606 12.449691 737.382601 1665.662387 20.055842 0.000000 0.071091
98.000000 174.936000 2.000000 3.000000 2.000000 126.723043 28.823051 382.738202 24.544289 5.711579 0.000000 0.047861
99.000000 137.369000 3.000000 3.000000 2.000000 107.500093 23.624582 504.228571 570.600985 7.275964 0.000000 0.090939
100.000000 107.034000 4.000000 3.000000 2.000000 92.823016 21.074858 560.235130 884.122581 9.340773 0.000000 0.127464
101.000000 84.342000 5.000000 3.000000 2.000000 81.663325 19.566278 592.462472 1108.383624 11.856421 0.000000 0.122038
102.000000 67.672000 6.000000 3.000000 2.000000 73.061007 18.570543 613.402859 1286.808960 14.779663 0.000000 0.101001
103.000000 55.348000 7.000000 3.000000 2.000000 66.303809 17.864524 628.102208 1437.304375 18.072614 0.000000 0.081183
104.000000 46.096000 8.000000 3.000000 2.000000 60.892841 17.337983 638.988767 1568.756983 21.701943 0.000000 0.077958
106.000000 126.686000 3.000000 4.000000 2.000000 115.097400 36.444368 180.200214 314.331442 7.888298 0.000000 0.052894
107.000000 103.917000 4.000000 4.000000 2.000000 101.708895 30.763023 334.340918 681.408887 9.619029 0.000000 0.069155
108.000000 85.073000 5.000000 4.000000 2.000000 90.758489 27.311447 419.210747 924.963365 11.752292 0.000000 0.107400
109.000000 58.494000 7.000000 4.000000 2.000000 74.680510 23.365894 510.006324 1262.173522 17.097844 0.000000 0.106685
111.000000 97.535000 4.000000 5.000000 2.000000 107.576706 40.008744 71.601933 495.878603 10.247142 0.000000 0.078847
112.000000 82.694000 5.000000 5.000000 2.000000 97.557184 34.890052 224.444504 766.919436 12.088525 0.000000 0.069176
113.000000 70.081000 6.000000 5.000000 2.000000 88.989264 31.385906 318.390521 963.243162 14.266641 0.000000 0.098340
114.000000 59.671000 7.000000 5.000000 2.000000 81.743514 28.853884 381.983416 1119.317151 16.757922 0.000000 0.109748
115.000000 51.179000 8.000000 5.000000 2.000000 75.619097 26.945587 427.887552 1250.570921 19.540949 0.000000 0.110049
116.000000 78.619000 5.000000 6.000000 2.000000 102.424483 42.059020 3.890907 621.626064 12.713616 0.000000 0.104818
117.000000 59.360000 7.000000 6.000000 2.000000 87.545379 34.230006 242.726885 996.804020 16.843505 0.000000 0.099024
119.000000 73.824000 5.000000 7.000000 2.000000 105.778734 48.649269 -247.934549 480.663166 13.538410 0.000000 0.234471
120.000000 65.552000 6.000000 7.000000 2.000000 98.702998 43.387767 -42.365709 714.291648 15.248976 0.000000 0.126793
121.000000 58.029000 7.000000 7.000000 2.000000 92.211084 39.407361 90.690309 887.216957 17.228176 0.000000 0.100327
122.000000 51.376000 8.000000 7.000000 2.000000 86.370702 36.318481 183.848644 1025.726432 19.461207 0.000000 0.105722
123.000000 45.588000 9.000000 7.000000 2.000000 81.165422 33.864974 252.714928 1142.461683 21.934338 0.000000 0.113599
125.000000 56.062000 7.000000 8.000000 2.000000 95.898961 44.317954 -75.970225 785.572274 17.831083 0.000000 0.144986
127.000000 53.746000 7.000000 9.000000 2.000000 98.772659 48.915914 -259.471273 688.258222 18.598109 0.000000 0.232113
128.000000 48.893000 8.000000 9.000000 2.000000 93.714466 45.005184 -101.489039 842.174716 20.446367 0.000000 0.160116
135.000000 157.839000 2.000000 1.000000 3.000000 97.493401 -22.308499 1416.606972 787.975960 6.333599 0.000000 0.124450
136.000000 118.967000 3.000000 1.000000 3.000000 83.788086 -12.516692 1213.937691 1061.001521 8.405538 0.000000 0.141534
137.000000 90.430000 4.000000 1.000000 3.000000 73.029470 -6.720090 1101.818136 1271.723117 11.060483 0.000000 0.104478
138.000000 70.315000 5.000000 1.000000 3.000000 64.794260 -2.959582 1030.644881 1448.273955 14.226717 0.000000 0.049732
139.000000 56.067000 6.000000 1.000000 3.000000 58.436414 -0.343401 981.450824 1602.209970 17.843824 0.000000 0.012181
140.000000 45.768000 7.000000 1.000000 3.000000 53.439921 1.574458 945.416557 1739.465210 21.860545 0.000000 0.069129
141.000000 165.876000 2.000000 2.000000 3.000000 118.821738 -10.034827 1165.454358 339.569672 6.024435 0.000000 0.101445
142.000000 129.636000 3.000000 2.000000 3.000000 101.631269 -2.632142 1024.479287 719.222319 7.711092 0.000000 0.159677
143.000000 101.000000 4.000000 2.000000 3.000000 88.277835 1.310586 950.376498 973.368879 9.900027 0.000000 0.155746
144.000000 79.750000 5.000000 2.000000 3.000000 78.026757 3.737805 904.686003 1169.734687 12.540471 0.000000 0.125058
145.000000 64.167000 6.000000 2.000000 3.000000 70.071063 5.377015 873.695852 1332.952754 15.588278 0.000000 0.083874
146.000000 52.637000 7.000000 2.000000 3.000000 63.788662 6.556596 851.294693 1474.355412 19.004872 0.000000 0.043135
147.000000 157.437000 2.000000 3.000000 3.000000 133.300613 6.756319 847.491813 -80.363022 6.345926 0.000000 0.032492
148.000000 104.148000 4.000000 3.000000 3.000000 100.651080 10.320015 779.015754 735.255257 9.598361 0.000000 0.151101
149.000000 84.394000 5.000000 3.000000 3.000000 89.330697 11.014720 765.502602 953.809317 11.847611 0.000000 0.148867
150.000000 57.404000 7.000000 3.000000 3.000000 73.180040 11.800932 750.132136 1273.386886 17.423675 0.000000 0.100639
151.000000 48.338000 8.000000 3.000000 3.000000 67.329698 12.044906 745.344776 1400.688643 20.693737 0.000000 0.072318
153.000000 121.518000 3.000000 4.000000 3.000000 123.867458 22.196042 535.859180 160.834379 8.222781 0.000000 0.031646
154.000000 101.900000 4.000000 4.000000 3.000000 109.872522 19.987382 583.529321 527.036756 9.808196 0.000000 0.101294
155.000000 85.033000 5.000000 4.000000 3.000000 98.427139 18.690346 610.896609 772.668662 11.756395 0.000000 0.131609
156.000000 71.210000 6.000000 4.000000 3.000000 89.082154 17.837889 628.654438 959.113884 14.041005 0.000000 0.135507
157.000000 60.104000 7.000000 4.000000 3.000000 81.408430 17.235120 641.108182 1111.257313 16.638147 0.000000 0.124882
158.000000 51.220000 8.000000 4.000000 3.000000 75.049806 16.786443 650.325466 1241.180997 19.526154 0.000000 0.107261
159.000000 111.422000 3.000000 5.000000 3.000000 128.714845 35.288632 213.261717 -115.943240 8.967028 0.000000 0.126453
160.000000 96.579000 4.000000 5.000000 3.000000 116.180017 29.806574 358.436440 331.191174 10.347257 0.000000 0.012103
161.000000 82.899000 5.000000 5.000000 3.000000 105.353012 26.509601 438.154261 610.767829 12.057130 0.000000 0.081597
162.000000 71.025000 6.000000 5.000000 3.000000 96.162385 24.321816 488.541061 813.473476 14.075406 0.000000 0.112956
163.000000 61.032000 7.000000 5.000000 3.000000 88.392489 22.768240 523.269415 973.757348 16.382632 0.000000 0.122319
164.000000 52.739000 8.000000 5.000000 3.000000 81.809012 21.609577 548.656835 1107.635563 18.960958 0.000000 0.119124
165.000000 45.889000 9.000000 5.000000 3.000000 76.201094 20.712905 568.025237 1223.607976 21.793973 0.000000 0.109374
166.000000 89.936000 4.000000 6.000000 3.000000 120.100182 39.223508 96.460219 135.626892 11.110678 0.000000 0.117686
167.000000 79.147000 5.000000 6.000000 3.000000 110.355238 34.187826 243.885432 458.271050 12.627425 0.000000 0.023958
168.000000 60.597000 7.000000 6.000000 3.000000 94.155758 28.298906 395.501754 852.182501 16.497891 0.000000 0.099335
169.000000 53.126000 8.000000 6.000000 3.000000 87.592947 26.447272 439.615611 991.531185 18.820527 0.000000 0.112049
171.000000 74.628000 5.000000 7.000000 3.000000 113.778276 41.469418 23.798927 308.130547 13.391044 0.000000 0.118605
172.000000 66.580000 6.000000 7.000000 3.000000 105.910412 37.004648 163.817178 556.818847 15.011849 0.000000 0.047400
173.000000 59.210000 7.000000 7.000000 3.000000 98.794604 33.725999 256.495118 740.789696 16.882668 0.000000 0.066954
174.000000 52.644000 8.000000 7.000000 3.000000 92.443882 31.231279 322.369678 887.278925 18.990822 0.000000 0.092025
175.000000 46.888000 9.000000 7.000000 3.000000 86.808236 29.276200 371.599565 1009.807633 21.324472 0.000000 0.105637
177.000000 63.388000 6.000000 8.000000 3.000000 108.991483 42.917497 -25.767042 435.194740 15.766788 0.000000 0.125918
178.000000 57.217000 7.000000 8.000000 3.000000 102.445798 38.959329 104.698344 635.517739 17.469503 0.000000 0.068803
179.000000 51.542000 8.000000 8.000000 3.000000 96.441364 35.897767 195.956801 790.996379 19.395274 0.000000 0.072926
180.000000 46.428000 9.000000 8.000000 3.000000 90.994893 33.471978 263.373110 918.593112 21.533876 0.000000 0.090602
182.000000 54.881000 7.000000 9.000000 3.000000 105.260418 43.927566 -61.738946 533.287333 18.211712 0.000000 0.135824
183.000000 50.028000 8.000000 9.000000 3.000000 99.684651 40.392084 59.258157 699.835493 19.980560 0.000000 0.087576
185.000000 52.392000 7.000000 10.000000 3.000000 107.385996 48.581972 -245.042144 431.586667 19.075968 0.000000 0.237189
186.000000 48.267000 8.000000 10.000000 3.000000 102.279105 44.671824 -89.034866 611.589156 20.708408 0.000000 0.146247
188.000000 46.378000 8.000000 11.000000 3.000000 104.326928 48.707944 -250.462700 524.446296 21.550632 0.000000 0.232717
193.000000 64.754000 3.000000 -1.000000 4.000000 50.037745 -32.753749 1667.395320 2013.421709 15.449726 0.000000 0.254230
194.000000 53.350000 4.000000 -1.000000 4.000000 46.572636 -25.360626 1485.155996 2068.425174 18.753942 0.000000 0.235941
196.000000 108.923000 2.000000 0.000000 4.000000 76.016260 -38.233635 1822.983627 1282.219650 9.181026 0.000000 0.153792
197.000000 88.467000 3.000000 0.000000 4.000000 69.238529 -27.863945 1544.001623 1402.527376 11.305826 0.000000 0.123234
198.000000 57.958000 5.000000 0.000000 4.000000 57.431056 -15.122176 1265.853423 1653.158001 17.261332 0.000000 0.081584
199.000000 155.178000 1.000000 1.000000 4.000000 107.675942 -48.842893 2206.299729 419.836224 6.440558 0.000000 0.238738
200.000000 130.862000 2.000000 1.000000 4.000000 98.227853 -32.373322 1657.334343 756.729721 7.638897 0.000000 0.079729
201.000000 106.311000 3.000000 1.000000 4.000000 87.948105 -21.702184 1403.357026 982.502871 9.405143 0.000000 0.132019
202.000000 85.632000 4.000000 1.000000 4.000000 78.771830 -14.679690 1256.952780 1161.871750 11.678637 0.000000 0.127226
203.000000 69.426000 5.000000 1.000000 4.000000 71.101088 -9.842025 1161.721386 1314.978983 14.407061 0.000000 0.096379
204.000000 57.016000 6.000000 1.000000 4.000000 64.806069 -6.352612 1094.824448 1450.454574 17.545053 0.000000 0.055483
205.000000 47.519000 7.000000 1.000000 4.000000 59.639446 -3.734622 1045.253947 1572.804123 21.053088 0.000000 0.020476
207.000000 139.660000 2.000000 2.000000 4.000000 117.877569 -24.109861 1456.672015 317.258062 7.155336 0.000000 0.047559
208.000000 115.589000 3.000000 2.000000 4.000000 104.671828 -13.910841 1241.572037 650.690552 8.647564 0.000000 0.138928
209.000000 77.381000 5.000000 2.000000 4.000000 83.727558 -3.862606 1047.668712 1059.569366 12.923030 0.000000 0.145955
210.000000 53.538000 7.000000 2.000000 4.000000 69.641060 0.920330 957.710218 1340.444024 18.683263 0.000000 0.081700
211.000000 137.388000 2.000000 3.000000 4.000000 133.417598 -12.244785 1208.583821 -101.135442 7.271978 0.000000 0.029673
212.000000 116.863000 3.000000 3.000000 4.000000 118.313454 -4.171130 1053.492879 359.609233 8.551255 0.000000 0.112797
213.000000 97.765000 4.000000 3.000000 4.000000 105.428955 0.147644 972.226514 643.952919 10.224111 0.000000 0.154454
214.000000 81.542000 5.000000 3.000000 4.000000 94.773497 2.808159 922.206786 851.014326 12.260781 0.000000 0.161767
215.000000 68.328000 6.000000 3.000000 4.000000 86.016285 4.604504 888.318272 1016.197129 14.634432 0.000000 0.149736
216.000000 57.739000 7.000000 3.000000 4.000000 78.791910 5.896559 863.841133 1155.404344 17.320804 0.000000 0.127128
217.000000 49.276000 8.000000 3.000000 4.000000 72.783992 6.869632 845.332858 1276.909821 20.297913 0.000000 0.099253
219.000000 112.621000 3.000000 4.000000 4.000000 128.350499 7.560734 832.142362 81.984325 8.871824 0.000000 0.057916
220.000000 82.405000 5.000000 4.000000 4.000000 103.932925 10.087064 783.533484 669.795545 12.130106 0.000000 0.147072
221.000000 60.145000 7.000000 4.000000 4.000000 86.894619 11.146333 762.935454 1000.514028 16.625113 0.000000 0.145027
222.000000 105.474000 3.000000 5.000000 4.000000 134.799603 20.721754 567.835225 -201.714086 9.472096 0.000000 0.050369
223.000000 92.811000 4.000000 5.000000 4.000000 122.073416 18.875853 607.008801 228.204694 10.766452 0.000000 0.055610
224.000000 80.841000 5.000000 5.000000 4.000000 111.134634 17.799694 629.446055 504.027539 12.363053 0.000000 0.106442
225.000000 70.177000 6.000000 5.000000 4.000000 101.802785 17.095332 643.984627 705.699527 14.244209 0.000000 0.132369
226.000000 60.985000 7.000000 5.000000 4.000000 93.851193 16.598611 654.171157 865.396208 16.393586 0.000000 0.140382
227.000000 53.198000 8.000000 5.000000 4.000000 87.057930 16.229559 661.705381 998.610873 18.796074 0.000000 0.136841
228.000000 46.648000 9.000000 5.000000 4.000000 81.226448 15.944583 667.503862 1113.756794 21.437680 0.000000 0.126167
230.000000 77.735000 5.000000 6.000000 4.000000 116.494202 25.690979 457.223241 345.663649 12.855681 0.000000 0.042380
231.000000 60.591000 7.000000 6.000000 4.000000 99.653790 22.162545 536.592989 743.313326 16.498152 0.000000 0.116891
232.000000 47.411000 9.000000 6.000000 4.000000 86.869099 20.234619 578.262290 1003.744539 21.090162 0.000000 0.127960
234.000000 73.799000 5.000000 7.000000 4.000000 120.247722 33.468642 263.463173 188.628711 13.540217 0.000000 0.046018
235.000000 66.273000 6.000000 7.000000 4.000000 111.872091 30.128370 350.381814 441.454190 15.080104 0.000000 0.031676
236.000000 59.306000 7.000000 7.000000 4.000000 104.363880 27.735399 409.084342 629.599788 16.853889 0.000000 0.077597
237.000000 53.031000 8.000000 7.000000 4.000000 97.686490 25.942543 451.391628 779.459834 18.850583 0.000000 0.103561
238.000000 47.474000 9.000000 7.000000 4.000000 91.765376 24.551719 483.330653 904.529731 21.059873 0.000000 0.116174
239.000000 69.531000 5.000000 8.000000 4.000000 122.687445 40.864344 43.856391 27.775793 14.370587 0.000000 0.160472
240.000000 57.433000 7.000000 8.000000 4.000000 108.088123 33.213457 270.331675 520.816792 17.402262 0.000000 0.032392
241.000000 46.989000 9.000000 8.000000 4.000000 95.946388 28.847210 382.146830 813.013062 21.274991 0.000000 0.093741
243.000000 60.182000 6.000000 9.000000 4.000000 117.373134 42.436901 -9.063638 185.929469 16.604502 0.000000 0.153174
244.000000 55.210000 7.000000 9.000000 4.000000 110.956385 38.503188 118.779099 414.262388 18.101614 0.000000 0.065135
245.000000 50.487000 8.000000 9.000000 4.000000 104.974047 35.470648 208.118350 587.530995 19.797366 0.000000 0.042949
246.000000 46.100000 9.000000 9.000000 4.000000 99.464461 33.073858 274.072138 726.882387 21.683856 0.000000 0.066588
247.000000 52.816000 7.000000 10.000000 4.000000 113.104445 43.529818 -47.430215 307.666283 18.921492 0.000000 0.151293
250.000000 46.914000 8.000000 11.000000 4.000000 109.613216 44.332962 -76.521107 404.811226 21.303109 0.000000 0.153061
256.000000 62.705000 3.000000 -1.000000 5.000000 56.292409 -37.460130 1799.680339 1845.542841 15.953067 0.000000 0.247431
257.000000 53.614000 4.000000 -1.000000 5.000000 53.019878 -30.202829 1601.489379 1878.761828 18.659591 0.000000 0.205156
258.000000 45.686000 5.000000 -1.000000 5.000000 49.821319 -24.451456 1464.394714 1939.396859 21.899179 0.000000 0.193336
260.000000 110.008000 2.000000 1.000000 5.000000 97.702422 -39.372904 1858.225994 752.693819 9.086893 0.000000 0.084268
261.000000 94.026000 3.000000 1.000000 5.000000 90.040775 -28.907560 1569.331668 940.125028 10.633330 0.000000 0.111317
262.000000 79.189000 4.000000 1.000000 5.000000 82.489002 -21.397991 1396.751579 1093.413059 12.627731 0.000000 0.128602
263.000000 66.540000 5.000000 1.000000 5.000000 75.681579 -15.920737 1282.011681 1226.670229 15.030319 0.000000 0.117475
264.000000 56.175000 6.000000 1.000000 5.000000 69.770994 -11.818261 1200.207621 1346.207466 17.805889 0.000000 0.091705
265.000000 47.810000 7.000000 1.000000 5.000000 64.710175 -8.660561 1138.938049 1455.393390 20.923173 0.000000 0.060030
267.000000 118.217000 2.000000 2.000000 5.000000 115.357029 -33.783508 1695.067664 327.300216 8.453421 0.000000 0.022020
268.000000 102.035000 3.000000 2.000000 5.000000 105.477664 -22.911958 1429.909244 617.441580 9.795984 0.000000 0.104105
269.000000 86.670000 4.000000 2.000000 5.000000 96.030583 -15.693898 1277.409005 822.893084 11.534949 0.000000 0.145925
270.000000 73.307000 5.000000 2.000000 5.000000 87.661529 -10.699033 1178.349098 985.729881 13.639883 0.000000 0.150376
271.000000 62.179000 6.000000 2.000000 5.000000 80.466840 -7.087815 1108.827091 1123.142203 16.083393 0.000000 0.135527
272.000000 53.086000 7.000000 2.000000 5.000000 74.342299 -4.375089 1057.345624 1243.557139 18.840752 0.000000 0.110348
273.000000 45.696000 8.000000 2.000000 5.000000 69.130920 -2.271331 1017.689043 1351.654053 21.889584 0.000000 0.079713
274.000000 119.079000 2.000000 3.000000 5.000000 130.527190 -25.882596 1497.216469 -81.713865 8.390350 0.000000 0.055790
275.000000 104.459000 3.000000 3.000000 5.000000 118.827199 -15.300016 1269.441125 326.870315 9.566515 0.000000 0.086163
276.000000 90.059000 4.000000 3.000000 5.000000 107.935901 -8.929066 1144.102614 588.347812 11.098376 0.000000 0.142081
277.000000 77.126000 5.000000 3.000000 5.000000 98.389548 -4.768551 1064.784058 781.715959 12.961884 0.000000 0.161182
278.000000 66.063000 6.000000 3.000000 5.000000 90.206960 -1.866337 1010.071323 937.110209 15.135110 0.000000 0.159021
279.000000 56.825000 7.000000 3.000000 5.000000 83.239147 0.263390 970.052216 1068.595912 17.598018 0.000000 0.144444
280.000000 49.189000 8.000000 3.000000 5.000000 77.300788 1.888692 939.508297 1183.669663 20.332261 0.000000 0.122637
282.000000 102.556000 3.000000 4.000000 5.000000 129.568862 -5.718163 1082.773049 47.148946 9.742405 0.000000 0.053861
283.000000 89.998000 4.000000 4.000000 5.000000 117.816722 -1.023552 994.229341 373.042280 11.103886 0.000000 0.116620
284.000000 78.280000 5.000000 4.000000 5.000000 107.568179 1.871772 939.826479 600.055222 12.768528 0.000000 0.149618
285.000000 67.921000 6.000000 4.000000 5.000000 98.758656 3.826643 903.009898 774.805493 14.718381 0.000000 0.160769
286.000000 59.033000 7.000000 4.000000 5.000000 91.216263 5.232250 876.438691 918.053594 16.936884 0.000000 0.157706
287.000000 51.522000 8.000000 4.000000 5.000000 84.750496 6.290397 856.358584 1040.487132 19.408732 0.000000 0.145613
289.000000 97.924000 3.000000 5.000000 5.000000 137.450242 5.945176 862.918047 -237.863702 10.202106 0.000000 0.016029
290.000000 87.485000 4.000000 5.000000 5.000000 125.507062 7.960345 824.496252 165.615085 11.421375 0.000000 0.072572
291.000000 68.078000 6.000000 5.000000 5.000000 105.999758 9.931384 786.549024 627.687517 14.682363 0.000000 0.143482
292.000000 59.879000 7.000000 5.000000 5.000000 98.164978 10.485988 775.792896 783.952332 16.695202 0.000000 0.152772
293.000000 52.774000 8.000000 5.000000 5.000000 91.384606 10.899372 767.750634 914.507373 18.945347 0.000000 0.151166
294.000000 46.681000 9.000000 5.000000 5.000000 85.499121 11.219352 761.510197 1027.373459 21.420721 0.000000 0.142277
296.000000 83.487000 4.000000 6.000000 5.000000 131.040044 17.740327 630.675790 -42.707807 11.967231 0.000000 0.028450
297.000000 74.993000 5.000000 6.000000 5.000000 120.871089 16.894390 648.111894 268.567765 13.324821 0.000000 0.069948
298.000000 66.948000 6.000000 6.000000 5.000000 111.910952 16.342926 659.394033 489.865256 14.928353 0.000000 0.109389
299.000000 59.619000 7.000000 6.000000 5.000000 104.049958 15.955034 667.291508 660.861090 16.765975 0.000000 0.132026
300.000000 53.101000 8.000000 6.000000 5.000000 97.160147 15.667362 673.128761 800.575563 18.826582 0.000000 0.141771
301.000000 47.386000 9.000000 6.000000 5.000000 91.114000 15.445522 677.618949 919.286823 21.099765 0.000000 0.142388
303.000000 78.757000 4.000000 7.000000 5.000000 134.616764 27.811893 407.248862 -259.690432 12.685270 0.000000 0.096076
304.000000 71.770000 5.000000 7.000000 5.000000 125.122263 24.855393 476.418940 106.659041 13.922160 0.000000 0.021404
305.000000 64.938000 6.000000 7.000000 5.000000 116.555832 22.916010 520.001046 356.976196 15.389056 0.000000 0.059838
306.000000 58.532000 7.000000 7.000000 5.000000 108.897525 21.548784 549.977462 544.866357 17.075743 0.000000 0.097105
307.000000 52.687000 8.000000 7.000000 5.000000 102.080291 20.534127 571.859202 695.021066 18.972601 0.000000 0.119293
308.000000 47.446000 9.000000 7.000000 5.000000 96.019438 19.751691 588.535003 820.413126 21.070563 0.000000 0.130226
310.000000 68.114000 5.000000 8.000000 5.000000 128.012653 32.732113 283.179176 -59.081110 14.668690 0.000000 0.092329
311.000000 62.388000 6.000000 8.000000 5.000000 120.056507 29.481770 366.513982 225.542115 16.017010 0.000000 0.010321
312.000000 56.873000 7.000000 8.000000 5.000000 112.779807 27.163276 422.731641 432.984350 17.572403 0.000000 0.048967
313.000000 51.717000 8.000000 8.000000 5.000000 106.184469 25.431356 463.215898 595.107079 19.326457 0.000000 0.085147
314.000000 46.994000 9.000000 8.000000 5.000000 100.233661 24.090661 493.760832 728.152365 21.271208 0.000000 0.107353
316.000000 59.556000 6.000000 9.000000 5.000000 122.569277 35.872446 196.681432 92.566037 16.777780 0.000000 0.088619
317.000000 54.854000 7.000000 9.000000 5.000000 115.798425 32.692245 284.237065 322.803187 18.217970 0.000000 0.014190
318.000000 50.359000 8.000000 9.000000 5.000000 109.537480 30.288147 346.363064 498.697321 19.846443 0.000000 0.041489
319.000000 46.155000 9.000000 9.000000 5.000000 103.796383 28.413040 392.733259 640.512137 21.656151 0.000000 0.075461
320.000000 56.624000 6.000000 10.000000 5.000000 124.262902 41.945705 7.745498 -44.746943 17.645779 0.000000 0.190194
321.000000 52.638000 7.000000 10.000000 5.000000 118.069807 38.038775 132.933142 212.250166 18.984100 0.000000 0.088645
322.000000 48.747000 8.000000 10.000000 5.000000 112.219271 35.037025 220.333645 404.043491 20.501312 0.000000 0.028507
324.000000 50.342000 7.000000 11.000000 5.000000 119.713258 43.124541 -33.043399 99.428329 19.849212 0.000000 0.179747
325.000000 46.990000 8.000000 11.000000 5.000000 114.316298 39.619256 84.002490 309.642377 21.267188 0.000000 0.092309
331.000000 59.126000 3.000000 -1.000000 6.000000 60.835024 -41.230637 1918.241483 1739.680106 16.917032 0.000000 0.259143
332.000000 52.053000 4.000000 -1.000000 6.000000 57.910205 -34.251314 1707.858830 1757.489148 19.217547 0.000000 0.204334
333.000000 45.493000 5.000000 -1.000000 6.000000 54.892980 -28.524078 1559.965895 1802.159891 21.990458 0.000000 0.177770
335.000000 81.913000 2.000000 0.000000 6.000000 80.099673 -47.336138 2142.846007 1218.188812 12.206929 0.000000 0.238926
336.000000 63.335000 4.000000 0.000000 6.000000 71.495269 -30.933537 1620.004775 1360.954424 15.791262 0.000000 0.131341
337.000000 54.883000 5.000000 0.000000 6.000000 67.038155 -25.124731 1479.739706 1444.668454 18.224962 0.000000 0.114664
339.000000 94.119000 2.000000 1.000000 6.000000 96.795274 -44.384483 2028.414366 761.544186 10.620903 0.000000 0.140406
340.000000 83.302000 3.000000 1.000000 6.000000 91.010793 -34.544956 1715.960619 917.945476 12.001787 0.000000 0.097061
341.000000 72.545000 4.000000 1.000000 6.000000 84.864683 -26.999245 1523.381468 1049.556790 13.783319 0.000000 0.120413
342.000000 62.761000 5.000000 1.000000 6.000000 78.970040 -21.215153 1392.794538 1166.046336 15.934266 0.000000 0.123742
343.000000 54.278000 6.000000 1.000000 6.000000 73.592560 -16.725030 1298.416326 1271.921524 18.426559 0.000000 0.110907
344.000000 47.104000 7.000000 1.000000 6.000000 68.804953 -13.178714 1227.020726 1369.649042 21.234902 0.000000 0.089075
345.000000 101.347000 2.000000 2.000000 6.000000 112.575071 -40.486937 1893.817844 352.654242 9.860901 0.000000 0.095333
346.000000 90.170000 3.000000 2.000000 6.000000 105.154517 -29.938099 1594.849353 604.608159 11.084845 0.000000 0.066569
347.000000 68.560000 5.000000 2.000000 6.000000 90.283817 -16.716880 1298.249422 935.433225 14.583397 0.000000 0.143911
348.000000 51.738000 7.000000 2.000000 6.000000 78.052467 -9.278169 1150.828887 1171.762516 19.329821 0.000000 0.126639
349.000000 103.623000 2.000000 3.000000 6.000000 126.777899 -35.163344 1733.211323 -43.110530 9.642204 0.000000 0.111438
350.000000 82.274000 4.000000 3.000000 6.000000 108.925012 -16.704352 1297.992876 555.718468 12.148286 0.000000 0.119507
351.000000 72.082000 5.000000 3.000000 6.000000 100.624680 -11.555595 1195.062340 734.920041 13.868213 0.000000 0.150837
352.000000 55.091000 7.000000 3.000000 6.000000 86.677375 -5.016894 1069.483328 1003.725476 18.150415 0.000000 0.152540
353.000000 48.357000 8.000000 3.000000 6.000000 80.970859 -2.838452 1028.363639 1112.239543 20.680336 0.000000 0.137690
355.000000 92.729000 3.000000 4.000000 6.000000 128.759535 -16.682622 1297.547958 38.919064 10.774892 0.000000 0.035186
356.000000 73.475000 5.000000 4.000000 6.000000 109.726650 -5.676976 1081.991658 553.163774 13.603029 0.000000 0.141843
357.000000 57.155000 7.000000 4.000000 6.000000 94.512087 -0.396208 982.442839 856.063311 17.492233 0.000000 0.162606
359.000000 89.986000 3.000000 5.000000 6.000000 137.518526 -7.271035 1112.323487 -243.859833 11.102068 0.000000 0.021887
360.000000 81.530000 4.000000 5.000000 6.000000 126.975820 -2.202101 1016.386587 130.067127 12.255381 0.000000 0.071136
361.000000 73.115000 5.000000 5.000000 6.000000 117.427199 0.929074 957.545923 382.380217 13.668060 0.000000 0.118218
362.000000 65.210000 6.000000 5.000000 6.000000 108.935410 3.043668 917.771222 571.237201 15.327276 0.000000 0.145712
363.000000 58.047000 7.000000 5.000000 6.000000 101.444679 4.563806 889.087680 722.414387 17.221034 0.000000 0.158077
364.000000 51.699000 8.000000 5.000000 6.000000 94.855548 5.707787 867.423816 849.114574 19.338103 0.000000 0.159680
365.000000 46.146000 9.000000 5.000000 6.000000 89.057836 6.599202 850.483696 958.818093 21.667959 0.000000 0.153793
366.000000 71.463000 5.000000 6.000000 6.000000 123.663805 8.199266 819.917702 216.779937 13.982571 0.000000 0.081725
367.000000 57.960000 7.000000 6.000000 6.000000 107.420043 9.819998 788.704806 598.274835 17.245028 0.000000 0.140549
369.000000 75.083000 4.000000 7.000000 6.000000 137.824181 16.580941 654.532543 -298.537403 13.305547 0.000000 0.046522
370.000000 68.954000 5.000000 7.000000 6.000000 128.462768 15.974534 666.895226 51.676192 14.490164 0.000000 0.037525
371.000000 62.883000 6.000000 7.000000 6.000000 120.015314 15.580737 674.883273 295.497255 15.891086 0.000000 0.079095
372.000000 57.112000 7.000000 7.000000 6.000000 112.434367 15.304437 680.469616 480.289902 17.499331 0.000000 0.111254
373.000000 51.773000 8.000000 7.000000 6.000000 105.650442 15.099884 684.595855 628.688443 19.306406 0.000000 0.131332
374.000000 46.923000 9.000000 7.000000 6.000000 99.585017 14.942347 687.768270 752.887049 21.304278 0.000000 0.141707
375.000000 65.946000 5.000000 8.000000 6.000000 131.925913 24.002678 495.742625 -117.078445 15.150246 0.000000 0.050796
376.000000 55.714000 7.000000 8.000000 6.000000 116.526003 20.926938 563.423251 365.829241 17.936773 0.000000 0.071010
377.000000 46.541000 9.000000 8.000000 6.000000 103.858456 19.264122 598.843560 659.722800 21.477317 0.000000 0.120738
379.000000 62.704000 5.000000 9.000000 6.000000 134.214081 31.977857 303.034912 -293.496577 15.932861 0.000000 0.132133
380.000000 53.950000 7.000000 9.000000 6.000000 119.764939 26.582456 436.444113 252.717328 18.522244 0.000000 0.021480
381.000000 49.749000 8.000000 9.000000 6.000000 113.361661 24.913668 475.088717 428.399938 20.088739 0.000000 0.061504
383.000000 51.964000 7.000000 10.000000 6.000000 122.242147 32.162229 298.211804 139.051536 19.229070 0.000000 0.045703
385.000000 49.868000 7.000000 11.000000 6.000000 124.059582 37.565926 147.161046 23.070167 20.036620 0.000000 0.120913
386.000000 46.671000 8.000000 11.000000 6.000000 118.400423 34.596799 232.603042 234.023583 21.411279 0.000000 0.047401
393.000000 55.169000 3.000000 -1.000000 7.000000 64.224638 -44.294478 2025.109101 1667.123408 18.129412 0.000000 0.278530
394.000000 49.673000 4.000000 -1.000000 7.000000 61.671300 -37.654553 1805.491895 1673.871362 20.136808 0.000000 0.213541
395.000000 81.865000 2.000000 1.000000 7.000000 95.827019 -48.097364 2174.438560 776.537877 12.210755 0.000000 0.207743
396.000000 74.261000 3.000000 1.000000 7.000000 91.377788 -38.995950 1846.439962 907.692119 13.462506 0.000000 0.103531
397.000000 66.320000 4.000000 1.000000 7.000000 86.371211 -31.657075 1638.619496 1021.189476 15.076401 0.000000 0.111218
398.000000 58.728000 5.000000 1.000000 7.000000 81.322167 -25.793669 1495.154271 1123.447897 17.027282 0.000000 0.122151
399.000000 51.839000 6.000000 1.000000 7.000000 76.517328 -21.093128 1390.159099 1217.583145 19.292267 0.000000 0.119328
400.000000 45.774000 7.000000 1.000000 7.000000 72.087820 -17.288422 1309.989764 1305.347151 21.850498 0.000000 0.106412
401.000000 88.101000 2.000000 2.000000 7.000000 109.976423 -45.284940 2062.052986 384.934229 11.343869 0.000000 0.168438
402.000000 80.144000 3.000000 2.000000 7.000000 104.315698 -35.421739 1740.497312 603.958191 12.471552 0.000000 0.048580
403.000000 71.783000 4.000000 2.000000 7.000000 98.113182 -27.807918 1542.655695 767.535727 13.926229 0.000000 0.100152
404.000000 63.731000 5.000000 2.000000 7.000000 91.973909 -21.945045 1408.650745 901.007972 15.687664 0.000000 0.130998
405.000000 56.374000 6.000000 2.000000 7.000000 86.208541 -17.380009 1311.877825 1015.738462 17.737255 0.000000 0.139361
406.000000 49.857000 7.000000 2.000000 7.000000 80.943615 -13.767338 1238.712750 1117.628715 20.057876 0.000000 0.133742
407.000000 90.916000 2.000000 3.000000 7.000000 123.072336 -41.575748 1929.764401 4.084101 10.990480 0.000000 0.174981
408.000000 83.211000 3.000000 3.000000 7.000000 116.265538 -30.955152 1620.556773 321.654163 12.009548 0.000000 0.004610
409.000000 74.996000 4.000000 3.000000 7.000000 108.977107 -23.212581 1436.580100 538.282666 13.326925 0.000000 0.091083
410.000000 66.971000 5.000000 3.000000 7.000000 101.875032 -17.510311 1314.567232 703.682396 14.925969 0.000000 0.134001
411.000000 59.540000 6.000000 3.000000 7.000000 95.271925 -13.214287 1227.725707 838.985958 16.791249 0.000000 0.151467
412.000000 52.880000 7.000000 3.000000 7.000000 89.279420 -9.895876 1162.763586 954.741176 18.908444 0.000000 0.153372
413.000000 47.027000 8.000000 3.000000 7.000000 83.906689 -7.271759 1112.337309 1056.827202 21.264242 0.000000 0.145406
415.000000 83.757000 3.000000 4.000000 7.000000 126.906623 -25.295034 1483.647853 46.982033 11.929291 0.000000 0.029992
416.000000 76.121000 4.000000 4.000000 7.000000 118.687941 -17.710448 1318.705591 322.738611 13.127829 0.000000 0.077366
417.000000 68.518000 5.000000 4.000000 7.000000 110.799610 -12.411330 1211.861773 522.379291 14.586812 0.000000 0.126608
418.000000 61.350000 6.000000 4.000000 7.000000 103.524253 -8.560566 1137.016574 679.206074 16.293233 0.000000 0.151794
419.000000 54.825000 7.000000 4.000000 7.000000 96.946646 -5.659879 1081.667322 809.222492 18.234935 0.000000 0.161069
420.000000 49.011000 8.000000 4.000000 7.000000 91.057540 -3.406927 1039.074253 921.096814 20.400543 0.000000 0.159738
422.000000 82.337000 3.000000 5.000000 7.000000 136.001985 -18.057107 1325.895593 -231.353314 12.133564 0.000000 0.048867
423.000000 75.531000 4.000000 5.000000 7.000000 127.048602 -11.140341 1186.947623 112.918091 13.228628 0.000000 0.057796
424.000000 68.606000 5.000000 5.000000 7.000000 118.587739 -6.587432 1099.292260 350.586117 14.565932 0.000000 0.108801
425.000000 61.946000 6.000000 5.000000 7.000000 110.834552 -3.400495 1038.952989 530.688841 16.134356 0.000000 0.140621
426.000000 55.770000 7.000000 5.000000 7.000000 103.836600 -1.058304 994.882373 675.862421 17.923452 0.000000 0.157136
427.000000 50.178000 8.000000 5.000000 7.000000 97.566502 0.730202 961.282505 798.020481 19.923390 0.000000 0.162641
429.000000 73.679000 4.000000 6.000000 7.000000 133.933049 -3.387068 1038.699883 -97.752021 13.559951 0.000000 0.032022
430.000000 67.556000 5.000000 6.000000 7.000000 125.145383 -0.019482 975.365966 183.293347 14.790761 0.000000 0.081570
431.000000 61.542000 6.000000 6.000000 7.000000 117.126019 2.255822 932.602741 389.187864 16.238389 0.000000 0.118968
432.000000 55.856000 7.000000 6.000000 7.000000 109.882989 3.891373 901.788416 550.848811 17.893758 0.000000 0.142595
433.000000 50.617000 8.000000 6.000000 7.000000 103.374957 5.121892 878.528766 684.061671 19.748288 0.000000 0.155127
434.000000 45.871000 9.000000 6.000000 7.000000 97.539607 6.080441 860.348926 797.740240 21.793867 0.000000 0.159274
436.000000 70.991000 4.000000 7.000000 7.000000 139.279487 5.537157 870.660139 -315.263698 14.072291 0.000000 0.013204
437.000000 65.692000 5.000000 7.000000 7.000000 130.439618 7.239790 838.272965 16.345865 15.209235 0.000000 0.046992
438.000000 60.376000 6.000000 7.000000 7.000000 122.372616 8.358190 816.869124 251.359331 16.550356 0.000000 0.087910
439.000000 50.445000 8.000000 7.000000 7.000000 108.455823 9.736358 790.322642 576.550083 19.813699 0.000000 0.138171
440.000000 46.020000 9.000000 7.000000 7.000000 102.502019 10.190683 781.524778 698.526352 21.721197 0.000000 0.149083
442.000000 63.300000 5.000000 8.000000 7.000000 134.494701 15.040256 685.797162 -153.985900 15.783027 0.000000 0.029127
443.000000 58.673000 6.000000 8.000000 7.000000 126.593479 14.808848 690.452968 114.407206 17.029611 0.000000 0.049634
444.000000 54.127000 7.000000 8.000000 7.000000 119.376987 14.646875 693.705861 314.757520 18.462080 0.000000 0.085388
445.000000 49.787000 8.000000 8.000000 7.000000 112.810244 14.527164 696.106915 473.391092 20.073736 0.000000 0.112523
446.000000 45.728000 9.000000 8.000000 7.000000 106.847027 14.435084 697.951998 604.459085 21.858197 0.000000 0.130555
448.000000 60.608000 5.000000 9.000000 7.000000 137.389398 23.132691 515.195579 -331.324752 16.483302 0.000000 0.080334
449.000000 56.622000 6.000000 9.000000 7.000000 129.846581 21.464633 551.803670 -24.157884 17.645451 0.000000 0.029867
450.000000 52.635000 7.000000 9.000000 7.000000 122.873822 20.296997 576.930779 199.360840 18.984175 0.000000 0.045119
451.000000 48.764000 8.000000 9.000000 7.000000 116.462995 19.434623 595.245762 372.876437 20.493489 0.000000 0.078716
453.000000 54.374000 6.000000 10.000000 7.000000 132.221358 28.152049 399.055265 -166.697507 18.374256 0.000000 0.081483
454.000000 50.904000 7.000000 10.000000 7.000000 125.613149 25.992860 450.222226 83.319828 19.628709 0.000000 0.024859
455.000000 47.481000 8.000000 10.000000 7.000000 119.457383 24.389442 487.010385 273.555447 21.045924 0.000000 0.037503
458.000000 49.036000 7.000000 11.000000 7.000000 127.674147 31.623278 312.256412 -35.001927 20.375866 0.000000 0.078739
459.000000 46.027000 8.000000 11.000000 7.000000 121.850038 29.318233 370.561376 174.143269 21.709784 0.000000 0.019668
461.000000 47.106000 7.000000 12.000000 7.000000 129.145361 37.084475 161.463392 -157.212862 21.209887 0.000000 0.152899
463.000000 51.312000 3.000000 -1.000000 8.000000 66.820041 -46.819821 2121.931865 1614.473935 19.491000 0.000000 0.302641
464.000000 47.008000 4.000000 -1.000000 8.000000 64.611060 -40.536310 1895.422428 1613.120238 21.277056 0.000000 0.226949
465.000000 59.743000 3.000000 0.000000 8.000000 79.159250 -44.879379 2046.772093 1231.868419 16.737282 0.000000 0.205064
466.000000 49.199000 5.000000 0.000000 8.000000 72.633995 -32.605445 1663.463022 1340.559043 20.328003 0.000000 0.135516
467.000000 72.234000 2.000000 1.000000 8.000000 94.909896 -50.936476 2301.103859 794.283206 13.838911 0.000000 0.274684
468.000000 66.706000 3.000000 1.000000 8.000000 91.421659 -42.559452 1963.298496 904.736018 14.987141 0.000000 0.130529
469.000000 60.722000 4.000000 1.000000 8.000000 87.316853 -35.543145 1743.936741 1002.989475 16.465638 0.000000 0.107974
470.000000 54.780000 5.000000 1.000000 8.000000 83.005313 -29.744522 1590.016347 1093.089357 18.253709 0.000000 0.117743
471.000000 49.184000 6.000000 1.000000 8.000000 78.753207 -24.963692 1476.054152 1177.081426 20.332353 0.000000 0.121346
472.000000 71.758000 3.000000 2.000000 8.000000 103.276805 -39.747053 1870.050857 610.692396 13.929155 0.000000 0.074215
473.000000 59.122000 5.000000 2.000000 8.000000 93.018333 -26.458131 1510.638881 877.608899 16.910073 0.000000 0.115242
474.000000 47.700000 7.000000 2.000000 8.000000 83.176308 -17.844647 1321.485671 1076.300927 20.963864 0.000000 0.134399
476.000000 74.753000 3.000000 3.000000 8.000000 114.426018 -36.285786 1765.205738 334.582360 13.368674 0.000000 0.046175
477.000000 68.444000 4.000000 3.000000 8.000000 108.487550 -28.609196 1562.038798 531.089455 14.602719 0.000000 0.061053
478.000000 62.092000 5.000000 3.000000 8.000000 102.451646 -22.670925 1424.582036 683.443698 16.098646 0.000000 0.113346
479.000000 56.028000 6.000000 3.000000 8.000000 96.639636 -18.032976 1325.394194 809.241747 17.843243 0.000000 0.139431
480.000000 50.435000 7.000000 3.000000 8.000000 91.210306 -14.355104 1250.446610 917.528321 19.824172 0.000000 0.148829
481.000000 75.824000 3.000000 4.000000 8.000000 124.625872 -31.958355 1646.456050 65.028447 13.177780 0.000000 0.060543
482.000000 63.712000 5.000000 4.000000 8.000000 111.118600 -18.300739 1330.965707 503.145057 15.686879 0.000000 0.106250
483.000000 52.272000 7.000000 4.000000 8.000000 98.684250 -10.513537 1174.742391 773.799625 19.124831 0.000000 0.154548
485.000000 75.294000 3.000000 5.000000 8.000000 133.689493 -26.466682 1510.839313 -207.524194 13.268945 0.000000 0.082652
486.000000 69.813000 4.000000 5.000000 8.000000 126.229085 -18.711598 1339.548363 108.426985 14.312276 0.000000 0.037853
487.000000 64.129000 5.000000 5.000000 8.000000 118.875341 -13.265857 1228.748066 331.185450 15.582864 0.000000 0.092678
488.000000 58.546000 6.000000 5.000000 8.000000 111.924088 -9.297629 1151.204224 502.039901 17.070975 0.000000 0.129886
489.000000 53.260000 7.000000 5.000000 8.000000 105.497093 -6.303885 1093.897871 640.760593 18.767427 0.000000 0.151143
490.000000 48.379000 8.000000 5.000000 8.000000 99.625946 -3.976650 1049.821069 758.016518 20.663544 0.000000 0.160904
492.000000 63.559000 5.000000 6.000000 8.000000 125.621192 -7.499466 1116.686621 163.193377 15.720868 0.000000 0.072820
493.000000 53.501000 7.000000 6.000000 8.000000 111.578713 -1.722734 1007.371110 515.134951 18.680838 0.000000 0.139171
495.000000 66.782000 4.000000 7.000000 8.000000 139.353986 -4.577483 1061.170884 -316.706714 14.959249 0.000000 0.016204
496.000000 62.240000 5.000000 7.000000 8.000000 131.295359 -0.973427 993.287467 -4.529623 16.052635 0.000000 0.047243
497.000000 57.628000 6.000000 7.000000 8.000000 123.793257 1.463361 947.504958 220.432198 17.339383 0.000000 0.088398
498.000000 53.122000 7.000000 7.000000 8.000000 116.889480 3.215103 914.541218 394.352801 18.812388 0.000000 0.119340
499.000000 48.838000 8.000000 7.000000 8.000000 110.577771 4.532809 889.673649 535.656255 20.464889 0.000000 0.140081
500.000000 60.395000 5.000000 8.000000 8.000000 135.874539 6.270425 856.738303 -175.340944 16.541936 0.000000 0.021131
501.000000 52.257000 7.000000 8.000000 8.000000 121.418022 8.471532 814.693421 276.310091 19.122231 0.000000 0.092346
503.000000 58.213000 5.000000 9.000000 8.000000 139.374091 14.091724 704.818831 -352.510873 17.161047 0.000000 0.042466
504.000000 54.637000 6.000000 9.000000 8.000000 132.003473 14.027359 706.103747 -58.008187 18.286166 0.000000 0.029538
505.000000 51.033000 7.000000 9.000000 8.000000 125.178241 13.982410 707.000630 159.205270 19.579666 0.000000 0.059352
506.000000 47.504000 8.000000 9.000000 8.000000 118.883268 13.949244 707.662193 329.222120 21.036131 0.000000 0.089968
508.000000 49.559000 7.000000 10.000000 8.000000 128.206011 19.658957 590.500472 41.422268 20.160662 0.000000 0.028682
511.000000 47.928000 7.000000 11.000000 8.000000 130.555482 25.394416 464.066453 -78.558854 20.846134 0.000000 0.050310
512.000000 46.209000 7.000000 12.000000 8.000000 132.294682 31.075262 326.371413 -202.235561 21.620735 0.000000 0.108114
515.000000 47.738000 3.000000 -1.000000 9.000000 68.854175 -48.929501 2210.062431 1574.645091 20.949208 0.000000 0.330035
517.000000 60.377000 3.000000 1.000000 9.000000 91.293967 -45.455983 2068.563244 906.341937 16.557881 0.000000 0.168368
518.000000 55.778000 4.000000 1.000000 9.000000 87.898795 -38.806422 1840.561448 991.673954 17.924754 0.000000 0.114934
519.000000 51.073000 5.000000 1.000000 9.000000 84.212152 -33.157794 1678.175446 1071.314871 19.577782 0.000000 0.114500
520.000000 46.509000 6.000000 1.000000 9.000000 80.465297 -28.387360 1556.643320 1146.489498 21.500944 0.000000 0.120214
522.000000 64.738000 3.000000 2.000000 9.000000 102.193552 -43.209345 1986.038013 621.902728 15.439768 0.000000 0.118100
523.000000 59.862000 4.000000 2.000000 9.000000 98.048012 -36.178731 1762.114960 752.463111 16.698957 0.000000 0.072537
524.000000 54.865000 5.000000 2.000000 9.000000 93.622102 -30.347781 1605.140230 862.050351 18.221850 0.000000 0.100110
525.000000 50.004000 6.000000 2.000000 9.000000 89.181165 -25.527236 1488.994205 958.046875 19.995009 0.000000 0.121942
527.000000 62.648000 4.000000 3.000000 9.000000 107.706653 -33.082166 1676.150126 530.889397 15.953639 0.000000 0.038522
528.000000 57.577000 5.000000 3.000000 9.000000 102.581531 -27.117986 1526.194016 671.115507 17.360600 0.000000 0.091400
529.000000 47.921000 7.000000 3.000000 9.000000 92.614582 -18.399332 1333.021513 889.203422 20.863489 0.000000 0.140490
531.000000 68.910000 3.000000 4.000000 9.000000 122.251466 -37.136987 1790.087705 89.100325 14.500401 0.000000 0.102210
532.000000 64.159000 4.000000 4.000000 9.000000 116.702117 -29.402871 1581.531704 319.585667 15.575695 0.000000 0.014491
533.000000 59.211000 5.000000 4.000000 9.000000 110.938086 -23.392593 1440.588946 492.302989 16.879285 0.000000 0.082706
534.000000 54.319000 6.000000 4.000000 9.000000 105.271043 -18.683772 1338.965771 630.796375 18.401313 0.000000 0.122591
535.000000 49.654000 7.000000 4.000000 9.000000 99.873545 -14.941890 1262.222529 747.112882 20.132477 0.000000 0.144312
537.000000 68.962000 3.000000 5.000000 9.000000 131.075704 -32.947386 1672.549340 -176.899254 14.487804 0.000000 0.120843
538.000000 64.527000 4.000000 5.000000 9.000000 124.895137 -24.999979 1476.883780 112.697095 15.484936 0.000000 0.021731
539.000000 59.853000 5.000000 5.000000 9.000000 118.568032 -19.087884 1347.445446 320.868068 16.696101 0.000000 0.071779
540.000000 55.178000 6.000000 5.000000 9.000000 112.407346 -14.606151 1255.477051 482.401114 18.112707 0.000000 0.114936
541.000000 50.669000 7.000000 5.000000 9.000000 106.574826 -11.131010 1186.765547 614.515879 19.726620 0.000000 0.141216
542.000000 46.430000 8.000000 5.000000 9.000000 101.142607 -8.376349 1133.479377 726.722365 21.530126 0.000000 0.155370
543.000000 63.951000 4.000000 6.000000 9.000000 132.176731 -19.707232 1360.522423 -94.796568 15.622931 0.000000 0.036636
544.000000 59.650000 5.000000 6.000000 9.000000 125.376737 -14.118799 1245.721894 152.970191 16.751154 0.000000 0.058053
545.000000 51.037000 7.000000 6.000000 9.000000 112.649682 -6.948753 1106.175242 488.563296 19.582207 0.000000 0.131343
546.000000 46.990000 8.000000 6.000000 9.000000 106.916038 -4.547511 1060.604270 612.633962 21.271031 0.000000 0.149858
548.000000 62.650000 4.000000 7.000000 9.000000 138.460247 -13.347342 1230.364383 -307.555350 15.946090 0.000000 0.041341
549.000000 58.773000 5.000000 7.000000 9.000000 131.295885 -8.412617 1134.175504 -14.693799 16.999587 0.000000 0.041219
550.000000 54.792000 6.000000 7.000000 9.000000 124.459144 -4.943777 1068.099412 199.654886 18.236735 0.000000 0.082495
551.000000 50.853000 7.000000 7.000000 9.000000 118.051896 -2.389332 1019.909342 366.974064 19.651153 0.000000 0.115151
552.000000 47.062000 8.000000 7.000000 9.000000 112.109092 -0.436977 983.208727 503.750537 21.236753 0.000000 0.137746
555.000000 57.393000 5.000000 8.000000 9.000000 136.280485 -1.932274 1011.311296 -185.150236 17.407139 0.000000 0.020467
556.000000 53.812000 6.000000 8.000000 9.000000 129.288311 0.666550 962.478379 60.370368 18.567458 0.000000 0.058672
557.000000 50.222000 7.000000 8.000000 9.000000 122.756674 2.535150 927.346404 247.848598 19.896483 0.000000 0.093170
558.000000 46.723000 8.000000 8.000000 9.000000 116.699948 3.940636 900.858681 398.398773 21.388750 0.000000 0.119525
560.000000 55.663000 5.000000 9.000000 9.000000 140.308684 5.291581 875.314708 -361.352873 17.947193 0.000000 0.013144
561.000000 49.247000 7.000000 9.000000 9.000000 126.759131 7.789298 827.770828 129.538537 20.289297 0.000000 0.066180
562.000000 46.056000 8.000000 9.000000 9.000000 120.683683 8.556441 813.062656 295.169490 21.696817 0.000000 0.095673
565.000000 50.904000 6.000000 10.000000 9.000000 136.509968 13.236386 721.836246 -224.536761 19.625798 0.000000 0.029264
566.000000 48.020000 7.000000 10.000000 9.000000 130.072819 13.311117 720.354311 10.551122 20.806685 0.000000 0.037506
568.000000 49.178000 6.000000 11.000000 9.000000 138.953305 19.967387 583.954559 -374.156726 20.313967 0.000000 0.070021
569.000000 46.620000 7.000000 11.000000 9.000000 132.728288 19.012820 604.132760 -110.525331 21.430246 0.000000 0.033582
574.000000 50.192000 3.000000 0.000000 10.000000 80.797221 -49.389576 2230.271803 1208.893531 19.921046 0.000000 0.275407
575.000000 46.963000 4.000000 0.000000 10.000000 78.564131 -43.464008 1995.080923 1240.970064 21.292171 0.000000 0.189779
577.000000 55.042000 3.000000 1.000000 10.000000 91.077910 -47.845377 2163.878031 910.825974 18.162970 0.000000 0.210326
578.000000 51.440000 4.000000 1.000000 10.000000 88.242962 -41.568679 1929.527144 985.129677 19.436245 0.000000 0.131936
579.000000 47.669000 5.000000 1.000000 10.000000 85.078947 -36.116348 1760.317775 1055.715115 20.975472 0.000000 0.115431
580.000000 58.828000 3.000000 2.000000 10.000000 101.139620 -46.024351 2090.483695 635.775320 16.991057 0.000000 0.165305
581.000000 50.999000 5.000000 2.000000 10.000000 93.927771 -33.705561 1692.949992 852.169046 19.602862 0.000000 0.089497
583.000000 61.448000 3.000000 3.000000 10.000000 110.811627 -43.849622 2008.919966 373.725735 16.263982 0.000000 0.144299
584.000000 57.561000 4.000000 3.000000 10.000000 106.786166 -36.807371 1780.386977 535.495562 17.363847 0.000000 0.045086
585.000000 53.472000 5.000000 3.000000 10.000000 102.423220 -30.946291 1620.330460 664.551516 18.693288 0.000000 0.071447
586.000000 49.385000 6.000000 3.000000 10.000000 97.976265 -26.087656 1501.983629 773.084498 20.242301 0.000000 0.108199
587.000000 62.915000 3.000000 4.000000 10.000000 119.947803 -41.215609 1917.742477 116.667488 15.882472 0.000000 0.146679
588.000000 55.077000 5.000000 4.000000 10.000000 110.441236 -27.773108 1541.820159 487.618052 18.146241 0.000000 0.058012
589.000000 47.073000 7.000000 4.000000 10.000000 100.640718 -18.952378 1344.597498 727.194578 21.235789 0.000000 0.131442
590.000000 63.337000 3.000000 5.000000 10.000000 128.430850 -37.975259 1815.145049 -142.381602 15.774749 0.000000 0.161550
591.000000 59.725000 4.000000 5.000000 10.000000 123.301244 -30.188750 1601.135347 123.035767 16.730409 0.000000 0.035402
592.000000 51.942000 6.000000 5.000000 10.000000 112.452598 -19.332238 1352.592894 469.650036 19.240904 0.000000 0.096949
593.000000 48.098000 7.000000 5.000000 10.000000 107.200800 -15.527575 1274.040735 595.193459 20.780844 0.000000 0.128315
595.000000 55.932000 5.000000 6.000000 10.000000 124.648400 -19.871471 1364.007053 150.078207 17.864756 0.000000 0.039546
596.000000 48.564000 7.000000 6.000000 10.000000 113.228163 -11.748151 1198.833299 469.189865 20.579078 0.000000 0.120051
598.000000 58.708000 4.000000 7.000000 10.000000 136.959799 -20.696799 1381.629013 -291.075436 17.016821 0.000000 0.067692
599.000000 55.403000 5.000000 7.000000 10.000000 130.688165 -14.969785 1262.783939 -16.880784 18.033697 0.000000 0.033084
600.000000 51.974000 6.000000 7.000000 10.000000 124.545666 -10.771915 1179.767390 186.728681 19.225453 0.000000 0.071758
601.000000 48.543000 7.000000 7.000000 10.000000 118.675081 -7.594319 1118.499706 347.145459 20.586329 0.000000 0.106858
603.000000 54.406000 5.000000 8.000000 10.000000 135.946347 -9.326425 1151.759682 -186.351123 18.362753 0.000000 0.025459
604.000000 48.114000 7.000000 8.000000 10.000000 123.509717 -3.057925 1032.497363 227.337656 20.768140 0.000000 0.089080
606.000000 53.063000 5.000000 9.000000 10.000000 140.385397 -2.895519 1029.438332 -361.003605 18.826403 0.000000 0.012005
607.000000 50.243000 6.000000 9.000000 10.000000 133.873127 -0.134337 977.523515 -93.772114 19.884756 0.000000 0.032816
608.000000 47.360000 7.000000 9.000000 10.000000 127.715192 1.851680 940.204301 108.254450 21.097235 0.000000 0.067187
609.000000 46.359000 7.000000 10.000000 10.000000 131.288858 7.101906 840.904108 -11.484490 21.551739 0.000000 0.042591
611.000000 47.512000 6.000000 11.000000 10.000000 140.308809 12.436061 737.651105 -386.966503 21.026115 0.000000 0.039069
614.000000 50.505000 3.000000 1.000000 11.000000 90.819785 -49.843600 2250.589943 917.118512 19.794335 0.000000 0.253251
615.000000 47.636000 4.000000 1.000000 11.000000 88.430357 -43.926760 2011.709757 981.949497 20.988006 0.000000 0.156024
617.000000 53.814000 3.000000 2.000000 11.000000 100.147306 -48.347606 2185.028934 651.154461 18.574236 0.000000 0.212349
618.000000 50.766000 4.000000 2.000000 11.000000 97.269147 -42.076375 1946.700688 756.039369 19.690866 0.000000 0.109319
619.000000 47.518000 5.000000 2.000000 11.000000 94.033098 -36.614680 1774.754607 846.456610 21.038602 0.000000 0.087291
621.000000 56.221000 3.000000 3.000000 11.000000 109.175153 -46.584548 2112.534600 396.418207 17.776585 0.000000 0.192255
622.000000 53.103000 4.000000 3.000000 11.000000 105.815403 -39.933076 1875.977910 543.405829 18.821668 0.000000 0.074434
623.000000 49.772000 5.000000 3.000000 11.000000 102.084528 -34.248704 1707.787054 662.228127 20.082970 0.000000 0.059076
624.000000 46.384000 6.000000 3.000000 11.000000 98.195010 -29.424491 1582.066925 763.043629 21.551674 0.000000 0.092506
626.000000 57.719000 3.000000 4.000000 11.000000 117.787288 -44.480339 2031.945697 146.090867 17.312945 0.000000 0.191675
627.000000 54.633000 4.000000 4.000000 11.000000 113.959057 -37.429029 1798.753523 338.718523 18.291990 0.000000 0.058416
628.000000 51.321000 5.000000 4.000000 11.000000 109.754454 -31.539980 1635.587475 487.480383 19.474250 0.000000 0.036304
629.000000 47.934000 6.000000 4.000000 11.000000 105.409795 -26.644871 1515.022706 609.093854 20.851995 0.000000 0.084819
631.000000 55.402000 4.000000 5.000000 11.000000 121.606960 -34.477260 1714.087784 137.554671 18.036202 0.000000 0.065215
632.000000 52.194000 5.000000 5.000000 11.000000 116.955683 -28.423377 1557.517796 318.624247 19.146190 0.000000 0.021208
633.000000 48.892000 6.000000 5.000000 11.000000 112.191590 -23.512449 1443.264154 462.203909 20.441083 0.000000 0.076958
634.000000 45.610000 7.000000 5.000000 11.000000 107.484497 -19.503692 1356.213837 581.327872 21.914367 0.000000 0.113266
636.000000 55.493000 4.000000 6.000000 11.000000 128.682759 -30.966657 1620.850674 -63.986559 18.004563 0.000000 0.081872
637.000000 52.457000 5.000000 6.000000 11.000000 123.615920 -24.822545 1472.831787 152.646541 19.048396 0.000000 0.021331
638.000000 49.306000 6.000000 6.000000 11.000000 118.474782 -19.978224 1366.275905 319.854120 20.267670 0.000000 0.067939
639.000000 46.148000 7.000000 6.000000 11.000000 113.429216 -16.112042 1285.901455 455.525092 21.656566 0.000000 0.106089
641.000000 55.018000 4.000000 7.000000 11.000000 135.123499 -26.757394 1517.671172 -269.571047 18.158693 0.000000 0.095599
642.000000 52.196000 5.000000 7.000000 11.000000 129.676299 -20.651232 1380.651141 -13.111755 19.141859 0.000000 0.030273
643.000000 49.242000 6.000000 7.000000 11.000000 124.206880 -15.992238 1283.464634 179.907191 20.291945 0.000000 0.057451
644.000000 46.256000 7.000000 7.000000 11.000000 118.876444 -12.364818 1210.945898 333.335420 21.603720 0.000000 0.095313
647.000000 51.509000 5.000000 8.000000 11.000000 135.088578 -15.818447 1279.934892 -181.121707 19.395909 0.000000 0.036553
648.000000 48.780000 6.000000 8.000000 11.000000 129.347292 -11.508649 1194.143737 40.473363 20.482525 0.000000 0.045294
649.000000 45.997000 7.000000 8.000000 11.000000 123.791851 -8.240421 1130.871533 213.191082 21.723614 0.000000 0.081096
651.000000 50.490000 5.000000 9.000000 11.000000 139.812281 -10.240423 1169.439936 -353.801819 19.786103 0.000000 0.034793
652.000000 48.000000 6.000000 9.000000 11.000000 133.865981 -6.494009 1097.514251 -100.191601 20.814335 0.000000 0.030944
655.000000 46.975000 6.000000 10.000000 11.000000 137.742831 -0.939016 992.640883 -243.768844 21.267101 0.000000 0.013531
657.000000 45.774000 6.000000 11.000000 11.000000 140.968385 5.127549 878.421644 -391.948402 21.824250 0.000000 0.013469
660.000000 46.615000 3.000000 1.000000 12.000000 90.545566 -51.535580 2329.813399 924.523739 21.446249 0.000000 0.295702
661.000000 49.526000 3.000000 2.000000 12.000000 99.228236 -50.291636 2271.017731 667.292938 20.182881 0.000000 0.258132
663.000000 49.192000 4.000000 3.000000 12.000000 104.845503 -42.578430 1963.955790 553.571288 20.318299 0.000000 0.109447
664.000000 46.450000 5.000000 3.000000 12.000000 101.637599 -37.108650 1789.250432 663.044349 21.519248 0.000000 0.061007
665.000000 53.202000 3.000000 4.000000 12.000000 115.795152 -47.136644 2134.717126 176.300357 18.783351 0.000000 0.236153
666.000000 47.928000 5.000000 4.000000 12.000000 108.962510 -34.787184 1722.687028 490.713024 20.852888 0.000000 0.031167
668.000000 51.528000 4.000000 5.000000 12.000000 119.907154 -38.043677 1817.215332 154.913499 19.392523 0.000000 0.098488
669.000000 48.845000 5.000000 5.000000 12.000000 115.906569 -32.128779 1650.911717 323.688916 20.459122 0.000000 0.008289
670.000000 46.052000 6.000000 5.000000 12.000000 111.723530 -27.198804 1528.111723 458.866974 21.701824 0.000000 0.056085
671.000000 49.244000 5.000000 6.000000 12.000000 122.408043 -29.068683 1573.287419 159.284411 20.291475 0.000000 0.021432
673.000000 51.601000 4.000000 7.000000 12.000000 133.134578 -31.736430 1640.678641 -244.684764 19.361412 0.000000 0.124920
674.000000 49.186000 5.000000 7.000000 12.000000 128.415536 -25.530470 1489.068813 -4.896536 20.313469 0.000000 0.039746
675.000000 46.638000 6.000000 7.000000 12.000000 123.569129 -20.621580 1380.015148 177.850044 21.425184 0.000000 0.040733
677.000000 48.745000 5.000000 8.000000 12.000000 133.885872 -21.426909 1397.378328 -171.093127 20.496071 0.000000 0.052570
679.000000 47.993000 5.000000 9.000000 12.000000 138.781380 -16.664424 1297.175449 -341.499179 20.815887 0.000000 0.057195
683.000000 45.827000 3.000000 2.000000 13.000000 98.383896 -51.938727 2349.561351 683.703614 21.812186 0.000000 0.302225
686.000000 45.750000 4.000000 3.000000 13.000000 103.904691 -44.837201 2045.195267 565.249756 21.846985 0.000000 0.145603
688.000000 47.165000 4.000000 4.000000 13.000000 111.241463 -43.074863 1981.293033 368.261981 21.188982 0.000000 0.132128
690.000000 48.062000 4.000000 5.000000 13.000000 118.255409 -41.034491 1911.746454 174.151778 20.791595 0.000000 0.132832
691.000000 45.802000 5.000000 5.000000 13.000000 114.799572 -35.320968 1737.650317 331.498670 21.818747 0.000000 0.036442
693.000000 48.476000 4.000000 6.000000 13.000000 124.892716 -38.651294 1835.773147 -20.161015 20.612087 0.000000 0.142791
694.000000 46.293000 5.000000 6.000000 13.000000 121.113117 -32.712626 1666.303631 168.947777 21.585430 0.000000 0.043042
696.000000 48.461000 4.000000 7.000000 13.000000 131.108810 -35.841693 1752.439128 -217.597162 20.616582 0.000000 0.155269
697.000000 46.387000 5.000000 7.000000 13.000000 127.017244 -29.708920 1589.129525 6.626844 21.539856 0.000000 0.058230
699.000000 46.138000 5.000000 8.000000 13.000000 132.474248 -26.233471 1505.383647 -157.497345 21.654527 0.000000 0.072024
701.000000 45.603000 5.000000 9.000000 13.000000 137.451000 -22.198251 1414.189237 -325.418535 21.907067 0.000000 0.079897
#UB matrix in q= (UB) B0 G* 
#[[-0.137166406 -0.744296519 -0.65175928 ]
# [ 0.235023887  0.615251648 -0.752082926]
# [ 0.962262516 -0.256793097  0.090630061]]
#B0 matrix in q= UB (B0) G*
#[[ 0.19670273 -0.          0.03056101]
# [ 0.          0.19187965 -0.        ]
# [ 0.          0.          0.18806537]]
#UBB0 matrix in q= (UB B0) G* i.e. recip. basis vectors are columns in LT frame: astar = UBB0[:,0], bstar = UBB0[:,1], cstar = UBB0[:,2]. (abcstar as columns on xyzlab1, xlab1 = ui, ui = unit vector along incident beam)
#[[-0.02698101 -0.14281536 -0.12676529]
# [ 0.04622984  0.11805427 -0.13425819]
# [ 0.18927967 -0.04927337  0.04645209]]
#Euler angles phi theta psi (deg)
#[ 75.069  84.802 139.036]
#deviatoric strain in direct crystal frame (10-3 unit)
#[[-0.06  0.13 -0.07]
# [ 0.13  0.72  0.9 ]
# [-0.07  0.9  -0.65]]
#deviatoric strain in sample2 frame (10-3 unit)
#[[ 0.76 -0.24 -0.52]
# [-0.24 -0.87  0.54]
# [-0.52  0.54  0.11]]
#new lattice parameters
#[ 5.1505     5.2156645  5.320972  89.948856  99.2279194 89.9849364]
#CCDLabel
#sCMOS
#DetectorParameters
#[79.0, 975.0, 941.0, 0.0, 0.0]
#pixelsize
#0.0734
#Frame dimensions
#[2018, 2016]
#
