#Strain and Orientation Refinement from experimental file: /home/micha/LaueProjects/DepthEffects/testZrO2_43.cor
#File created at Wed Jun 28 14:20:57 2023 with indexingSpotsSet.py
#Number of indexed spots: 505
#Element
#ZrO2
#grainIndex
#G_0
#Mean Deviation(pixel): 0.116
##spot_index intensity h k l 2theta Chi Xexp Yexp Energy GrainIndex PixDev
5.000000 168.210000 0.000000 1.000000 2.000000 52.826526 -2.003464 1012.650176 1757.665954 5.950796 0.000000 0.053353
6.000000 181.207000 1.000000 1.000000 2.000000 67.517877 -27.491247 1535.074367 1443.121142 5.522335 0.000000 0.113935
7.000000 150.921000 2.000000 1.000000 2.000000 70.954927 -46.485091 2108.586611 1480.610473 6.629484 0.000000 0.265473
12.000000 111.148000 -1.000000 1.000000 3.000000 49.277925 20.093545 581.269719 1927.527855 9.005713 0.000000 0.160312
13.000000 149.730000 0.000000 1.000000 3.000000 68.055274 1.428182 948.166218 1374.778531 6.683673 0.000000 0.088188
14.000000 155.526000 1.000000 1.000000 3.000000 79.320805 -18.777465 1340.928150 1155.372968 6.433071 0.000000 0.128128
15.000000 138.712000 2.000000 1.000000 3.000000 82.705505 -36.188292 1762.390638 1111.703290 7.211942 0.000000 0.114409
16.000000 116.633000 3.000000 1.000000 3.000000 81.789371 -49.061420 2215.818865 1178.009198 8.576805 0.000000 0.260662
18.000000 78.954000 0.000000 2.000000 3.000000 39.380829 -4.648156 1062.507112 2256.522928 12.679683 0.000000 0.259394
19.000000 93.226000 1.000000 2.000000 3.000000 50.690054 -20.005721 1366.860784 1878.839355 10.737001 0.000000 0.142078
20.000000 92.584000 2.000000 2.000000 3.000000 57.430929 -33.527602 1688.129525 1765.717130 10.809648 0.000000 0.189584
21.000000 84.506000 3.000000 2.000000 3.000000 60.698754 -44.366789 2027.763773 1785.925784 11.841697 0.000000 0.297965
30.000000 161.989000 -1.000000 -1.000000 4.000000 103.097413 45.304544 -112.797167 584.968922 6.173128 0.000000 0.145977
31.000000 181.760000 0.000000 -1.000000 4.000000 124.625135 27.433867 416.294654 103.651732 5.499910 0.000000 0.023104
32.000000 178.865000 1.000000 -1.000000 4.000000 137.058582 -1.543271 1003.997175 -215.972527 5.588032 0.000000 0.017173
35.000000 106.013000 -2.000000 0.000000 4.000000 63.400324 42.117000 1.913274 1667.580225 9.438987 0.000000 0.246015
36.000000 142.660000 -1.000000 0.000000 4.000000 83.898892 29.842322 357.544228 1073.630822 7.012303 0.000000 0.120473
37.000000 163.998000 0.000000 0.000000 4.000000 101.566337 12.373686 738.879505 715.488993 6.098215 0.000000 0.157299
38.000000 163.252000 1.000000 0.000000 4.000000 111.554122 -9.173478 1148.810384 510.353655 6.124954 0.000000 0.137446
39.000000 147.543000 2.000000 0.000000 4.000000 113.051128 -29.771094 1590.678655 413.367214 6.776680 0.000000 0.032982
40.000000 127.135000 3.000000 0.000000 4.000000 109.467461 -45.450866 2068.367928 398.680916 7.864696 0.000000 0.167893
43.000000 106.061000 -1.000000 1.000000 4.000000 61.691709 18.708800 610.510223 1553.066661 9.436159 0.000000 0.091196
44.000000 126.683000 0.000000 1.000000 4.000000 76.214924 3.547871 908.268359 1205.573052 7.898408 0.000000 0.132753
45.000000 130.573000 1.000000 1.000000 4.000000 85.580103 -12.970712 1222.902685 1026.370559 7.661633 0.000000 0.150676
46.000000 121.707000 2.000000 1.000000 4.000000 89.354535 -28.356304 1555.889796 954.778792 8.218837 0.000000 0.111742
47.000000 107.597000 3.000000 1.000000 4.000000 89.294468 -40.947665 1908.883723 958.547807 9.296176 0.000000 0.116280
48.000000 93.195000 4.000000 1.000000 4.000000 87.355250 -50.566547 2283.743413 1019.271515 10.732752 0.000000 0.276042
50.000000 66.095000 -1.000000 2.000000 4.000000 40.647683 10.860421 768.509343 2217.484108 15.146145 0.000000 0.245516
51.000000 92.002000 1.000000 2.000000 4.000000 61.967735 -15.224286 1267.912628 1534.896109 10.878288 0.000000 0.067154
52.000000 83.926000 3.000000 2.000000 4.000000 70.164097 -37.970040 1814.987292 1433.497492 11.922304 0.000000 0.164629
55.000000 58.022000 1.000000 3.000000 4.000000 42.135030 -16.712218 1298.153940 2183.162909 17.253216 0.000000 0.238124
56.000000 61.640000 2.000000 3.000000 4.000000 48.670250 -26.907883 1521.221451 2002.456554 16.238566 0.000000 0.207680
57.000000 60.818000 3.000000 3.000000 4.000000 53.077822 -35.865496 1753.119772 1938.978329 16.456382 0.000000 0.246340
66.000000 110.950000 -2.000000 -1.000000 5.000000 85.759367 48.987391 -262.584782 1062.613075 9.015459 0.000000 0.240904
67.000000 132.558000 -1.000000 -1.000000 5.000000 104.260986 38.929076 105.637830 589.341627 7.543708 0.000000 0.058490
68.000000 144.094000 0.000000 -1.000000 5.000000 120.459482 23.714470 502.215608 249.663250 6.938069 0.000000 0.044562
69.000000 143.612000 1.000000 -1.000000 5.000000 130.805690 2.364657 930.554964 10.989234 6.960355 0.000000 0.053109
70.000000 134.125000 2.000000 -1.000000 5.000000 133.302025 -21.300051 1394.630704 -147.687501 7.452382 0.000000 0.045686
73.000000 76.199000 -2.000000 1.000000 5.000000 55.720558 28.478779 391.135937 1775.627559 13.134720 0.000000 0.163790
74.000000 95.700000 -1.000000 1.000000 5.000000 69.484906 17.744039 630.598940 1363.849137 10.456538 0.000000 0.107934
75.000000 108.072000 0.000000 1.000000 5.000000 81.233259 4.983599 881.146886 1107.609323 9.257718 0.000000 0.150978
76.000000 111.002000 1.000000 1.000000 5.000000 89.297145 -8.901274 1143.567710 954.364667 9.011938 0.000000 0.162180
77.000000 106.226000 2.000000 1.000000 5.000000 93.288918 -22.404976 1418.725836 874.100049 9.416074 0.000000 0.130885
78.000000 97.263000 3.000000 1.000000 5.000000 94.061373 -34.240869 1707.571686 848.557357 10.283231 0.000000 0.083257
79.000000 87.032000 4.000000 1.000000 5.000000 92.869236 -43.911372 2011.152655 866.121686 11.491904 0.000000 0.137360
80.000000 77.176000 5.000000 1.000000 5.000000 90.722230 -51.552307 2330.625798 919.179925 12.959682 0.000000 0.293999
83.000000 69.012000 -1.000000 2.000000 5.000000 51.552366 11.059527 764.628898 1811.688280 14.504517 0.000000 0.094775
84.000000 80.630000 0.000000 2.000000 5.000000 61.768735 -0.058780 976.104173 1518.860628 12.412826 0.000000 0.039904
85.000000 85.630000 1.000000 2.000000 5.000000 69.513915 -11.598479 1195.901716 1351.494077 11.686445 0.000000 0.095501
86.000000 84.613000 2.000000 2.000000 5.000000 74.431391 -22.668233 1424.522650 1265.974915 11.825503 0.000000 0.113332
87.000000 79.736000 3.000000 2.000000 5.000000 76.915403 -32.569396 1662.509159 1237.837109 12.547605 0.000000 0.118961
88.000000 73.126000 4.000000 2.000000 5.000000 77.682077 -40.995161 1910.448775 1252.385428 13.681166 0.000000 0.159851
89.000000 66.183000 5.000000 2.000000 5.000000 77.398898 -47.967405 2168.979223 1300.347074 15.115915 0.000000 0.258169
92.000000 54.921000 0.000000 3.000000 5.000000 44.533455 -3.667401 1043.985928 2037.211385 18.227608 0.000000 0.170286
93.000000 61.131000 1.000000 3.000000 5.000000 51.986036 -13.483242 1233.062472 1806.161191 16.374204 0.000000 0.096142
94.000000 63.089000 2.000000 3.000000 5.000000 57.522657 -22.853253 1428.610029 1684.434567 15.864363 0.000000 0.110559
95.000000 61.808000 3.000000 3.000000 5.000000 61.241009 -31.360957 1630.966580 1632.756777 16.191443 0.000000 0.150944
96.000000 58.605000 4.000000 3.000000 5.000000 63.502637 -38.804243 1840.494063 1629.521120 17.075090 0.000000 0.204855
97.000000 54.537000 5.000000 3.000000 5.000000 64.720805 -45.166834 2057.580528 1661.924244 18.347592 0.000000 0.282242
100.000000 45.544000 3.000000 4.000000 5.000000 47.375443 -30.447303 1607.653130 2090.008325 21.977604 0.000000 0.250404
103.000000 114.850000 -1.000000 -2.000000 6.000000 116.116568 47.023454 -180.131946 166.967529 8.704988 0.000000 0.230328
104.000000 121.653000 0.000000 -2.000000 6.000000 130.839692 34.603160 232.426692 -189.273977 8.216548 0.000000 0.132645
110.000000 80.440000 -3.000000 -1.000000 6.000000 74.555890 50.834328 -346.282638 1411.818603 12.437156 0.000000 0.332813
111.000000 97.788000 -2.000000 -1.000000 6.000000 89.722564 43.990525 -64.021406 948.243883 10.228373 0.000000 0.144553
112.000000 111.550000 -1.000000 -1.000000 6.000000 104.652698 34.513956 234.897371 599.476885 8.964463 0.000000 0.048465
113.000000 118.995000 0.000000 -1.000000 6.000000 117.529476 21.455900 551.993083 338.241154 8.401964 0.000000 0.072116
114.000000 119.370000 1.000000 -1.000000 6.000000 126.358708 4.569729 888.975703 146.157366 8.374439 0.000000 0.077755
115.000000 114.054000 2.000000 -1.000000 6.000000 129.963833 -14.221627 1247.776629 10.522365 8.764249 0.000000 0.038910
116.000000 105.378000 3.000000 -1.000000 6.000000 128.946776 -31.346172 1630.585729 -77.584423 9.485892 0.000000 0.084535
119.000000 87.610000 -2.000000 0.000000 6.000000 77.116506 34.464104 236.275833 1239.585444 11.419707 0.000000 0.129636
120.000000 101.418000 -1.000000 0.000000 6.000000 90.375101 24.625012 481.665569 933.248725 9.862923 0.000000 0.131661
121.000000 110.472000 1.000000 0.000000 6.000000 109.247470 -1.798376 1008.793371 565.009336 9.051630 0.000000 0.153440
122.000000 106.077000 2.000000 0.000000 6.000000 112.875469 -16.429435 1292.371562 467.567618 9.425925 0.000000 0.111817
123.000000 89.330000 4.000000 0.000000 6.000000 110.981351 -40.826238 1904.892763 395.538012 11.192941 0.000000 0.092340
124.000000 80.291000 5.000000 0.000000 6.000000 107.781992 -49.525637 2236.321085 409.212830 12.453440 0.000000 0.254418
125.000000 57.384000 -3.000000 1.000000 6.000000 51.198794 34.432269 237.155228 1990.230318 17.441466 0.000000 0.250179
126.000000 72.668000 -2.000000 1.000000 6.000000 63.224748 26.546501 437.288369 1548.097056 13.771631 0.000000 0.123718
127.000000 85.586000 -1.000000 1.000000 6.000000 74.783229 17.033722 645.251014 1247.192917 11.691037 0.000000 0.125275
128.000000 93.677000 0.000000 1.000000 6.000000 84.613587 6.019224 861.511781 1043.044863 10.679551 0.000000 0.159532
129.000000 95.982000 1.000000 1.000000 6.000000 91.704015 -5.918606 1086.577449 908.809246 10.421687 0.000000 0.167943
130.000000 93.346000 2.000000 1.000000 6.000000 95.738532 -17.821069 1320.996920 827.389061 10.714974 0.000000 0.144981
131.000000 87.551000 3.000000 1.000000 6.000000 97.130189 -28.745516 1565.365688 787.440539 11.423508 0.000000 0.097720
132.000000 80.314000 4.000000 1.000000 6.000000 96.659869 -38.146399 1820.330893 781.201269 12.452673 0.000000 0.075598
133.000000 72.818000 5.000000 1.000000 6.000000 95.087860 -45.924417 2086.597042 803.239918 13.734570 0.000000 0.164119
134.000000 65.715000 6.000000 1.000000 6.000000 92.972968 -52.247589 2364.932508 849.702372 15.219206 0.000000 0.310421
136.000000 66.960000 -1.000000 2.000000 6.000000 59.302257 11.212337 761.647154 1592.433148 14.947283 0.000000 0.058053
137.000000 78.339000 1.000000 2.000000 6.000000 74.813414 -8.775401 1141.146017 1236.612573 12.772895 0.000000 0.122096
138.000000 74.336000 3.000000 2.000000 6.000000 81.792912 -28.025016 1547.878735 1116.852283 13.458298 0.000000 0.116037
139.000000 63.813000 5.000000 2.000000 6.000000 82.566356 -43.176749 1984.885973 1133.567202 15.676244 0.000000 0.162522
141.000000 48.680000 -1.000000 3.000000 6.000000 44.946701 6.692932 848.699080 2026.697579 20.564070 0.000000 0.167899
142.000000 60.369000 1.000000 3.000000 6.000000 59.324914 -10.863101 1181.542851 1591.073061 16.579233 0.000000 0.044920
143.000000 61.594000 2.000000 3.000000 6.000000 64.200404 -19.474838 1355.603938 1492.864909 16.247977 0.000000 0.085755
144.000000 57.660000 4.000000 3.000000 6.000000 69.538590 -34.698157 1720.210279 1429.448430 17.353820 0.000000 0.143703
145.000000 54.119000 5.000000 3.000000 6.000000 70.585740 -41.020488 1911.284246 1443.765773 18.488372 0.000000 0.191571
147.000000 47.163000 3.000000 4.000000 6.000000 54.590931 -27.080010 1525.293845 1800.347822 21.221659 0.000000 0.156036
151.000000 90.586000 -2.000000 -2.000000 7.000000 101.892531 49.614815 -290.304235 591.167912 11.039173 0.000000 0.237937
152.000000 99.426000 -1.000000 -2.000000 7.000000 115.387876 41.661326 17.359198 257.300511 10.055594 0.000000 0.120449
153.000000 104.210000 0.000000 -2.000000 7.000000 127.409056 30.352123 344.750234 -12.904449 9.592414 0.000000 0.061334
154.000000 104.664000 1.000000 -2.000000 7.000000 136.469883 14.640731 693.829141 -230.007137 9.549654 0.000000 0.034047
155.000000 101.453000 2.000000 -2.000000 7.000000 141.185562 -4.876421 1066.824801 -401.810038 9.851406 0.000000 0.016181
160.000000 74.556000 -3.000000 -1.000000 7.000000 79.424633 46.794588 -170.920073 1234.513602 13.417893 0.000000 0.224956
161.000000 86.699000 -2.000000 -1.000000 7.000000 92.348016 40.095170 68.831128 883.309415 11.536288 0.000000 0.100118
162.000000 96.021000 -1.000000 -1.000000 7.000000 104.729711 31.310500 320.332644 609.809471 10.414304 0.000000 0.065488
163.000000 101.181000 0.000000 -1.000000 7.000000 115.370947 19.943144 584.470006 398.046467 9.881585 0.000000 0.089852
164.000000 101.854000 1.000000 -1.000000 7.000000 123.058931 5.981934 862.220022 236.636010 9.815171 0.000000 0.094333
165.000000 98.739000 2.000000 -1.000000 7.000000 127.047805 -9.476848 1154.662842 117.303634 10.124086 0.000000 0.065436
166.000000 93.079000 3.000000 -1.000000 7.000000 127.507684 -24.389724 1462.996002 33.954166 10.739577 0.000000 0.028934
167.000000 86.112000 4.000000 -1.000000 7.000000 125.403541 -37.084956 1788.550812 -17.934569 11.608715 0.000000 0.122108
170.000000 56.758000 -3.000000 1.000000 7.000000 58.208215 32.286013 294.962686 1730.121375 17.632679 0.000000 0.178307
171.000000 67.822000 -2.000000 1.000000 7.000000 68.713958 25.021431 472.625525 1403.757547 14.754427 0.000000 0.116977
172.000000 76.803000 -1.000000 1.000000 7.000000 78.602823 16.489072 656.410390 1167.269391 13.027145 0.000000 0.136616
173.000000 82.444000 0.000000 1.000000 7.000000 87.039250 6.801071 846.639263 997.061373 12.134066 0.000000 0.163854
174.000000 84.304000 1.000000 1.000000 7.000000 93.367264 -3.649968 1043.657109 877.544722 11.864894 0.000000 0.170836
175.000000 82.833000 2.000000 1.000000 7.000000 97.336680 -14.224495 1247.833964 798.040029 12.074539 0.000000 0.154038
176.000000 79.000000 3.000000 1.000000 7.000000 99.143617 -24.238140 1459.567250 751.017611 12.659663 0.000000 0.115827
177.000000 73.836000 4.000000 1.000000 7.000000 99.270591 -33.199147 1679.284364 731.047184 13.544668 0.000000 0.070015
178.000000 68.158000 5.000000 1.000000 7.000000 98.265002 -40.903960 1907.445553 734.144637 14.672975 0.000000 0.089810
179.000000 62.500000 6.000000 1.000000 7.000000 96.590984 -47.377696 2144.547131 757.351517 16.001394 0.000000 0.189739
182.000000 55.011000 -2.000000 2.000000 7.000000 56.272322 19.333293 597.384848 1702.491970 18.194254 0.000000 0.103618
183.000000 63.248000 -1.000000 2.000000 7.000000 65.044998 11.333315 759.284306 1451.816190 15.823180 0.000000 0.080137
184.000000 68.885000 0.000000 2.000000 7.000000 72.682024 2.600549 926.115438 1276.944784 14.526477 0.000000 0.115813
185.000000 71.458000 1.000000 2.000000 7.000000 78.695757 -6.525162 1098.107066 1157.550520 14.001851 0.000000 0.139213
186.000000 71.203000 2.000000 2.000000 7.000000 82.892412 -15.599784 1275.502393 1080.336970 14.050692 0.000000 0.141147
187.000000 68.815000 3.000000 2.000000 7.000000 85.384031 -24.193548 1458.560146 1036.266073 14.537129 0.000000 0.125582
188.000000 65.104000 4.000000 2.000000 7.000000 86.482941 -32.000480 1647.555837 1019.003801 15.365074 0.000000 0.105356
189.000000 60.754000 5.000000 2.000000 7.000000 86.564343 -38.878170 1842.783148 1024.002360 16.464652 0.000000 0.112318
190.000000 56.247000 6.000000 2.000000 7.000000 85.968782 -44.820069 2044.555452 1047.934439 17.783832 0.000000 0.170713
191.000000 51.874000 7.000000 2.000000 7.000000 84.961260 -49.901479 2253.207489 1088.331647 19.283075 0.000000 0.267477
193.000000 49.371000 -1.000000 3.000000 7.000000 52.173228 7.222315 838.606523 1783.348567 20.274852 0.000000 0.074629
194.000000 54.815000 0.000000 3.000000 7.000000 59.151016 -0.646852 987.151560 1583.888910 18.259324 0.000000 0.015825
195.000000 57.950000 1.000000 3.000000 7.000000 64.928316 -8.702859 1139.751135 1450.389540 17.269875 0.000000 0.067178
196.000000 58.826000 2.000000 3.000000 7.000000 69.331803 -16.635013 1296.573548 1364.750000 17.011200 0.000000 0.096626
197.000000 57.868000 3.000000 3.000000 7.000000 72.397497 -24.159716 1457.796545 1315.254037 17.291390 0.000000 0.109922
198.000000 55.647000 4.000000 3.000000 7.000000 74.309211 -31.074458 1623.607988 1294.002853 17.980328 0.000000 0.119181
199.000000 52.695000 5.000000 3.000000 7.000000 75.313881 -37.276078 1794.206587 1295.495999 18.986665 0.000000 0.140807
200.000000 49.420000 6.000000 3.000000 7.000000 75.655185 -42.746742 1969.802694 1315.802910 20.244385 0.000000 0.186983
201.000000 46.094000 7.000000 3.000000 7.000000 75.538799 -47.525502 2150.619169 1352.057009 21.704595 0.000000 0.259096
202.000000 46.871000 2.000000 4.000000 7.000000 56.926499 -17.441944 1313.155671 1675.698923 21.354149 0.000000 0.081869
203.000000 47.114000 3.000000 4.000000 7.000000 60.420560 -24.133170 1457.197660 1610.418223 21.242222 0.000000 0.107991
204.000000 46.214000 4.000000 4.000000 7.000000 62.965688 -30.337914 1604.891370 1577.352635 21.654402 0.000000 0.137238
212.000000 72.453000 -3.000000 -2.000000 8.000000 91.189808 51.082595 -358.037333 905.416375 13.804350 0.000000 0.276702
213.000000 87.354000 -1.000000 -2.000000 8.000000 114.527678 37.638657 144.984402 320.798752 11.445503 0.000000 0.056388
214.000000 91.447000 1.000000 -2.000000 8.000000 132.417455 14.221430 702.227293 -73.483519 10.930520 0.000000 0.030662
215.000000 85.516000 3.000000 -2.000000 8.000000 138.286047 -17.915617 1322.957569 -327.944440 11.687640 0.000000 0.056990
218.000000 58.810000 -4.000000 -1.000000 8.000000 71.916313 48.568105 -244.447088 1472.105438 17.012203 0.000000 0.297245
219.000000 68.731000 -3.000000 -1.000000 8.000000 83.019181 43.443501 -44.349934 1122.511018 14.554361 0.000000 0.162679
220.000000 77.523000 -2.000000 -1.000000 8.000000 94.167187 36.999783 163.960486 842.809764 12.901509 0.000000 0.084607
221.000000 84.157000 -1.000000 -1.000000 8.000000 104.673132 28.894009 381.000457 619.108175 11.882508 0.000000 0.081100
222.000000 87.926000 0.000000 -1.000000 8.000000 113.719649 18.860521 607.330459 441.268097 11.371519 0.000000 0.101916
223.000000 88.678000 1.000000 -1.000000 8.000000 120.521768 6.962640 843.560002 301.749100 11.273947 0.000000 0.105914
224.000000 86.799000 2.000000 -1.000000 8.000000 124.578631 -6.117391 1090.353109 194.857806 11.517309 0.000000 0.085167
225.000000 82.993000 3.000000 -1.000000 8.000000 125.902717 -19.134894 1348.434547 116.247028 12.045132 0.000000 0.040623
226.000000 78.021000 4.000000 -1.000000 8.000000 125.010286 -30.878363 1618.596937 62.573371 12.812761 0.000000 0.051045
227.000000 72.522000 5.000000 -1.000000 8.000000 122.641036 -40.729047 1901.708883 31.258347 13.784425 0.000000 0.154934
230.000000 62.655000 -3.000000 0.000000 8.000000 73.673695 36.565413 176.680928 1333.524738 15.968803 0.000000 0.146561
231.000000 78.018000 -1.000000 0.000000 8.000000 93.431866 21.785554 544.827743 871.491254 12.820497 0.000000 0.139442
232.000000 83.087000 1.000000 0.000000 8.000000 107.706672 1.858654 940.073163 597.191688 12.035406 0.000000 0.157852
233.000000 78.279000 3.000000 0.000000 8.000000 113.199959 -19.942840 1365.523532 450.273358 12.773169 0.000000 0.095401
234.000000 68.721000 5.000000 0.000000 8.000000 111.642402 -38.292551 1824.778833 396.879562 14.549642 0.000000 0.058859
236.000000 45.699000 -4.000000 1.000000 8.000000 54.293774 36.250936 185.801348 1900.250661 21.900432 0.000000 0.242174
237.000000 54.673000 -3.000000 1.000000 8.000000 63.629946 30.507458 340.825505 1560.311752 18.303863 0.000000 0.143168
238.000000 62.876000 -2.000000 1.000000 8.000000 72.877854 23.788739 500.550335 1303.352654 15.913904 0.000000 0.120556
239.000000 69.384000 -1.000000 1.000000 8.000000 81.480345 16.058256 665.192933 1108.777255 14.419427 0.000000 0.143921
240.000000 73.513000 0.000000 1.000000 8.000000 88.862156 7.412031 834.983968 962.557195 13.607807 0.000000 0.166108
241.000000 75.044000 1.000000 1.000000 8.000000 94.575192 -1.871519 1010.168768 854.826470 13.328793 0.000000 0.172229
242.000000 74.233000 2.000000 1.000000 8.000000 98.422208 -11.348299 1191.008497 778.462643 13.473204 0.000000 0.159812
243.000000 71.642000 3.000000 1.000000 8.000000 100.490211 -20.517350 1377.781456 728.212918 13.959793 0.000000 0.129704
244.000000 67.908000 4.000000 1.000000 8.000000 101.078041 -28.966795 1570.784513 700.135810 14.726849 0.000000 0.086348
245.000000 63.590000 5.000000 1.000000 8.000000 100.571722 -36.462790 1770.334678 691.233146 15.726658 0.000000 0.058425
246.000000 59.099000 6.000000 1.000000 8.000000 99.338651 -42.946143 1976.770837 699.200954 16.921749 0.000000 0.112416
247.000000 54.702000 7.000000 1.000000 8.000000 97.673580 -48.474892 2190.455676 722.256876 18.282284 0.000000 0.212488
250.000000 45.564000 -3.000000 2.000000 8.000000 53.392499 25.243277 467.541030 1824.958800 21.966852 0.000000 0.156460
251.000000 59.159000 -1.000000 2.000000 8.000000 69.450511 11.431468 757.365783 1352.635725 16.915470 0.000000 0.102594
252.000000 65.334000 1.000000 2.000000 8.000000 81.641878 -4.694717 1063.387579 1099.661886 15.313510 0.000000 0.150187
253.000000 63.621000 3.000000 2.000000 8.000000 88.082918 -20.946743 1387.003223 979.574900 15.723340 0.000000 0.135960
254.000000 57.457000 5.000000 2.000000 8.000000 89.667876 -35.040898 1729.774881 948.620201 17.408772 0.000000 0.094606
255.000000 50.128000 7.000000 2.000000 8.000000 88.464687 -46.100514 2093.455305 982.603344 19.953765 0.000000 0.182106
256.000000 48.417000 -1.000000 3.000000 8.000000 57.849451 7.661647 830.212871 1623.575640 20.672523 0.000000 0.041272
257.000000 52.542000 0.000000 3.000000 8.000000 64.097960 0.479201 965.998057 1463.686055 19.047843 0.000000 0.059318
258.000000 54.925000 1.000000 3.000000 8.000000 69.309407 -6.896005 1105.169778 1350.457927 18.219720 0.000000 0.094108
259.000000 55.617000 2.000000 3.000000 8.000000 73.352916 -14.225613 1247.856328 1273.001185 17.991600 0.000000 0.113047
260.000000 54.895000 3.000000 3.000000 8.000000 76.243991 -21.279801 1394.192561 1223.766415 18.226686 0.000000 0.118021
261.000000 53.142000 4.000000 3.000000 8.000000 78.109939 -27.877203 1544.320321 1197.366694 18.826825 0.000000 0.115630
262.000000 50.734000 5.000000 3.000000 8.000000 79.136606 -33.905470 1698.388898 1189.865964 19.719770 0.000000 0.117715
263.000000 47.979000 6.000000 3.000000 8.000000 79.520678 -39.319723 1856.555523 1198.331828 20.851154 0.000000 0.139273
264.000000 46.117000 3.000000 4.000000 8.000000 65.167874 -21.545659 1399.954683 1476.465850 21.700392 0.000000 0.093625
267.000000 78.574000 -1.000000 -3.000000 9.000000 121.294071 43.497850 -46.288395 39.091447 12.722994 0.000000 0.191175
268.000000 81.635000 1.000000 -3.000000 9.000000 138.675959 22.604449 526.883878 -384.942186 12.243305 0.000000 0.086234
272.000000 59.074000 -4.000000 -2.000000 9.000000 82.993552 52.026195 -403.892839 1155.976469 16.933121 0.000000 0.324059
273.000000 66.576000 -3.000000 -2.000000 9.000000 93.428283 47.511392 -200.038059 845.541476 15.022597 0.000000 0.191703
274.000000 72.990000 -2.000000 -2.000000 9.000000 103.824973 41.805779 12.486483 585.677242 13.700235 0.000000 0.090389
275.000000 77.731000 -1.000000 -2.000000 9.000000 113.671284 34.537497 234.245880 368.236577 12.862747 0.000000 0.018170
276.000000 80.429000 0.000000 -2.000000 9.000000 122.347035 25.316645 465.855423 186.936175 12.429695 0.000000 0.026394
277.000000 81.022000 1.000000 -2.000000 9.000000 129.191040 13.932991 707.986309 36.874859 12.337499 0.000000 0.043920
278.000000 79.739000 2.000000 -2.000000 9.000000 133.649648 0.725431 961.372130 -85.803361 12.535243 0.000000 0.036455
279.000000 76.995000 3.000000 -2.000000 9.000000 135.508321 -13.168397 1226.816300 -184.149356 12.981672 0.000000 0.029098
280.000000 73.263000 4.000000 -2.000000 9.000000 135.042513 -26.225629 1505.200567 -260.582628 13.643002 0.000000 0.087200
284.000000 55.759000 -4.000000 -1.000000 9.000000 75.868962 45.661508 -126.438392 1328.706291 17.942173 0.000000 0.224003
285.000000 63.358000 -3.000000 -1.000000 9.000000 85.741235 40.636796 51.304597 1046.617322 15.788044 0.000000 0.127039
286.000000 69.921000 -2.000000 -1.000000 9.000000 95.476754 34.494474 235.436269 815.791253 14.303955 0.000000 0.083788
287.000000 74.834000 -1.000000 -1.000000 9.000000 104.560636 27.012394 426.307374 627.203195 13.363046 0.000000 0.092975
288.000000 77.699000 0.000000 -1.000000 9.000000 112.417637 18.047944 624.294816 474.019301 12.868581 0.000000 0.110561
289.000000 78.442000 1.000000 -1.000000 9.000000 118.513820 7.683017 829.804138 350.987093 12.745507 0.000000 0.114320
290.000000 77.290000 2.000000 -1.000000 9.000000 122.497220 -3.629565 1043.272293 254.020389 12.934702 0.000000 0.099131
291.000000 74.665000 3.000000 -1.000000 9.000000 124.323738 -15.088302 1265.170748 179.910248 13.388960 0.000000 0.064119
292.000000 71.049000 4.000000 -1.000000 9.000000 124.273280 -25.830541 1496.008957 126.119669 14.070133 0.000000 0.021128
293.000000 66.882000 5.000000 -1.000000 9.000000 122.822915 -35.274442 1736.338269 90.635289 14.947059 0.000000 0.080494
294.000000 62.505000 6.000000 -1.000000 9.000000 120.471653 -43.229652 1986.756321 71.858698 15.994032 0.000000 0.182888
297.000000 52.022000 -3.000000 1.000000 9.000000 67.918990 29.012263 378.099163 1440.273130 19.235381 0.000000 0.128099
298.000000 58.254000 -2.000000 1.000000 9.000000 76.132501 22.772575 523.173641 1229.171463 17.175749 0.000000 0.126094
299.000000 63.135000 -1.000000 1.000000 9.000000 83.723105 15.708999 672.284918 1063.978030 15.846025 0.000000 0.148755
300.000000 66.273000 0.000000 1.000000 9.000000 90.281017 7.902505 825.603862 935.670473 15.093812 0.000000 0.167269
301.000000 67.553000 1.000000 1.000000 9.000000 95.487151 -0.442428 983.311121 837.605166 14.806380 0.000000 0.172805
302.000000 67.130000 2.000000 1.000000 9.000000 99.185119 -9.006729 1145.597835 764.792575 14.898543 0.000000 0.163528
303.000000 65.345000 3.000000 1.000000 9.000000 101.406259 -17.418235 1312.666408 713.423143 15.304737 0.000000 0.139696
304.000000 62.606000 4.000000 1.000000 9.000000 102.336473 -25.342165 1484.731349 680.548235 15.973674 0.000000 0.103100
305.000000 59.298000 5.000000 1.000000 9.000000 102.245862 -32.550905 1662.020194 663.860126 16.864656 0.000000 0.062314
306.000000 55.728000 6.000000 1.000000 9.000000 101.417462 -38.942357 1844.774508 661.536988 17.944981 0.000000 0.065984
307.000000 52.118000 7.000000 1.000000 9.000000 100.100086 -44.515691 2033.250981 672.131629 19.188066 0.000000 0.135774
308.000000 48.612000 8.000000 1.000000 9.000000 98.489111 -49.332013 2227.722634 694.490291 20.572083 0.000000 0.232271
309.000000 50.507000 -2.000000 2.000000 9.000000 65.995024 18.186798 621.407226 1445.512522 19.814147 0.000000 0.097647
310.000000 55.189000 -1.000000 2.000000 9.000000 72.927633 11.512699 755.777025 1278.330143 18.131348 0.000000 0.118755
311.000000 58.394000 0.000000 2.000000 9.000000 78.993849 4.328875 893.527518 1150.929207 17.134303 0.000000 0.143673
312.000000 59.988000 1.000000 2.000000 9.000000 83.943580 -3.179500 1034.787914 1055.370809 16.677421 0.000000 0.157383
313.000000 60.069000 2.000000 2.000000 9.000000 87.656333 -10.768149 1179.694094 985.839638 16.653600 0.000000 0.157421
314.000000 58.903000 3.000000 2.000000 9.000000 90.152384 -18.177009 1328.389045 937.987138 16.982297 0.000000 0.144572
315.000000 56.827000 4.000000 2.000000 9.000000 91.565079 -25.180719 1481.023329 908.504863 17.601777 0.000000 0.121600
316.000000 54.172000 5.000000 2.000000 9.000000 92.091520 -31.623742 1637.755592 894.839164 18.463924 0.000000 0.096064
317.000000 51.212000 6.000000 2.000000 9.000000 91.944036 -37.429016 1798.753116 894.995485 19.530684 0.000000 0.089350
318.000000 48.152000 7.000000 2.000000 9.000000 91.316672 -42.585260 1964.192414 907.401130 20.771564 0.000000 0.125336
319.000000 46.705000 -1.000000 3.000000 9.000000 62.404465 8.032063 823.122456 1509.139692 21.429009 0.000000 0.058833
320.000000 51.783000 1.000000 3.000000 9.000000 72.809082 -5.365237 1076.080955 1275.447044 19.324171 0.000000 0.113957
321.000000 52.365000 2.000000 3.000000 9.000000 76.563525 -12.162545 1206.966691 1204.037842 19.107850 0.000000 0.126999
322.000000 50.474000 4.000000 3.000000 9.000000 81.168164 -25.052046 1478.075037 1125.597889 19.821298 0.000000 0.120852
323.000000 48.527000 5.000000 3.000000 9.000000 82.244251 -30.875438 1618.522338 1111.790844 20.615371 0.000000 0.112150
329.000000 62.790000 -3.000000 -3.000000 10.000000 101.334634 51.273112 -367.143615 596.149575 15.926104 0.000000 0.281394
330.000000 67.519000 -2.000000 -3.000000 10.000000 110.974474 46.276190 -150.340975 344.051395 14.808288 0.000000 0.186672
331.000000 70.987000 -1.000000 -3.000000 10.000000 120.174302 39.863476 76.243438 125.740212 14.083088 0.000000 0.120840
332.000000 72.993000 0.000000 -3.000000 10.000000 128.473456 31.583485 313.286909 -63.028022 13.694565 0.000000 0.080816
333.000000 73.511000 1.000000 -3.000000 10.000000 135.338257 21.014781 561.530727 -225.676179 13.596925 0.000000 0.054733
334.000000 72.676000 2.000000 -3.000000 10.000000 140.224749 8.101707 821.787927 -364.978089 13.752318 0.000000 0.024491
339.000000 61.342000 -3.000000 -2.000000 10.000000 95.091454 44.477050 -81.824345 806.605166 16.304013 0.000000 0.136905
340.000000 69.921000 -1.000000 -2.000000 10.000000 112.869421 32.087024 300.181486 405.181897 14.299769 0.000000 0.020963
341.000000 72.627000 1.000000 -2.000000 10.000000 126.565509 13.722431 712.181292 119.221554 13.764066 0.000000 0.058293
342.000000 69.847000 3.000000 -2.000000 10.000000 133.008739 -9.641938 1157.851982 -77.353161 14.310742 0.000000 0.033577
343.000000 63.755000 5.000000 -2.000000 10.000000 132.066802 -31.767933 1641.497062 -201.541334 15.678118 0.000000 0.112980
345.000000 46.236000 -5.000000 -1.000000 10.000000 70.279643 47.234561 -188.699334 1509.190596 21.639761 0.000000 0.281347
346.000000 52.615000 -4.000000 -1.000000 10.000000 79.019509 43.143696 -33.719093 1227.209418 19.013587 0.000000 0.176180
347.000000 58.542000 -3.000000 -1.000000 10.000000 87.850956 38.262482 126.137746 992.438350 17.086480 0.000000 0.108221
348.000000 63.574000 -2.000000 -1.000000 10.000000 96.450320 32.432544 291.105032 796.829837 15.731944 0.000000 0.088498
349.000000 67.331000 -1.000000 -1.000000 10.000000 104.427430 25.508766 461.431809 634.198047 14.852268 0.000000 0.101981
350.000000 69.579000 0.000000 -1.000000 10.000000 111.365634 17.415813 637.383571 499.720172 14.370775 0.000000 0.117013
351.000000 70.278000 1.000000 -1.000000 10.000000 116.886837 8.234416 819.243640 389.590802 14.226454 0.000000 0.120626
352.000000 69.571000 2.000000 -1.000000 10.000000 120.734526 -1.719734 1007.314692 300.777314 14.370154 0.000000 0.109290
353.000000 67.723000 3.000000 -1.000000 10.000000 122.847211 -11.905589 1201.920435 230.843539 14.761834 0.000000 0.082037
354.000000 65.048000 4.000000 -1.000000 10.000000 123.377264 -21.704502 1403.407472 177.820566 15.368544 0.000000 0.039747
355.000000 61.851000 5.000000 -1.000000 10.000000 122.632620 -30.624789 1612.147358 140.110728 16.162927 0.000000 0.032308
356.000000 58.387000 6.000000 -1.000000 10.000000 120.975700 -38.415643 1828.538886 116.415343 17.122077 0.000000 0.108370
357.000000 54.850000 7.000000 -1.000000 10.000000 118.738319 -45.045648 2053.010634 105.679767 18.226669 0.000000 0.206626
360.000000 48.616000 -4.000000 0.000000 10.000000 71.604779 37.763117 141.249742 1393.768364 20.580950 0.000000 0.160888
361.000000 54.436000 -3.000000 0.000000 10.000000 79.852944 32.684322 284.447162 1169.868746 18.378297 0.000000 0.122360
362.000000 59.435000 -2.000000 0.000000 10.000000 87.834898 26.785424 431.668266 986.581405 16.830354 0.000000 0.125952
363.000000 63.236000 -1.000000 0.000000 10.000000 95.192558 20.008266 583.085062 836.907832 15.816924 0.000000 0.143959
364.000000 66.472000 1.000000 0.000000 10.000000 106.657962 4.026166 899.244224 618.160073 15.043890 0.000000 0.159369
365.000000 65.982000 2.000000 0.000000 10.000000 110.293120 -4.747365 1064.383318 541.643505 15.154631 0.000000 0.148196
366.000000 64.377000 3.000000 0.000000 10.000000 112.459144 -13.556251 1234.513222 483.332710 15.531687 0.000000 0.123226
367.000000 61.958000 4.000000 0.000000 10.000000 113.297200 -22.000574 1409.863656 441.136810 16.137621 0.000000 0.084417
368.000000 55.800000 6.000000 0.000000 10.000000 111.999741 -36.699065 1777.217707 398.653553 17.918456 0.000000 0.040444
369.000000 52.496000 7.000000 0.000000 10.000000 110.402467 -42.745430 1969.756993 395.880528 19.046606 0.000000 0.121236
370.000000 49.236000 8.000000 0.000000 10.000000 108.471171 -47.958132 2168.590751 404.139920 20.308228 0.000000 0.218488
372.000000 49.233000 -3.000000 1.000000 10.000000 71.380907 27.739336 408.989924 1350.697099 20.323873 0.000000 0.123303
373.000000 54.075000 -2.000000 1.000000 10.000000 78.740151 21.920995 541.874286 1171.980593 18.502201 0.000000 0.131277
374.000000 57.843000 -1.000000 1.000000 10.000000 85.518814 15.420164 678.131617 1028.500447 17.295117 0.000000 0.152046
375.000000 60.302000 0.000000 1.000000 10.000000 91.416199 8.304882 817.891989 914.109464 16.588121 0.000000 0.167822
376.000000 61.387000 1.000000 1.000000 10.000000 96.197301 0.729683 961.292251 824.118852 16.293491 0.000000 0.172922
377.000000 61.197000 2.000000 1.000000 10.000000 99.736937 -7.069433 1108.476475 754.896641 16.342890 0.000000 0.165938
378.000000 59.949000 3.000000 1.000000 10.000000 102.037985 -14.811306 1259.596436 703.592346 16.682290 0.000000 0.146871
379.000000 57.912000 4.000000 1.000000 10.000000 103.216347 -22.226672 1414.812138 667.943920 17.268413 0.000000 0.116554
380.000000 55.353000 5.000000 1.000000 10.000000 103.460808 -29.109537 1574.292375 646.139704 18.066185 0.000000 0.078020
381.000000 52.503000 6.000000 1.000000 10.000000 102.986254 -35.340987 1738.215347 636.717967 19.046878 0.000000 0.049628
382.000000 49.538000 7.000000 1.000000 10.000000 101.996701 -40.883389 1906.769321 638.492652 20.186739 0.000000 0.083522
383.000000 46.587000 8.000000 1.000000 10.000000 100.664682 -45.757940 2080.153357 650.497739 21.465957 0.000000 0.157541
384.000000 51.512000 -1.000000 2.000000 10.000000 75.737042 11.581036 754.439739 1220.288883 19.424442 0.000000 0.130157
385.000000 55.343000 1.000000 2.000000 10.000000 85.785784 -1.906206 1010.821060 1020.350514 18.076452 0.000000 0.162201
386.000000 54.682000 3.000000 2.000000 10.000000 91.769229 -15.796883 1279.497345 906.449812 18.292818 0.000000 0.151257
387.000000 51.028000 5.000000 2.000000 10.000000 93.998238 -28.581943 1561.374745 855.331320 19.601031 0.000000 0.104660
388.000000 46.088000 7.000000 2.000000 10.000000 93.638343 -39.348232 1857.450697 852.499748 21.701470 0.000000 0.091031
389.000000 47.231000 0.000000 3.000000 10.000000 71.283253 2.238395 932.930616 1305.934639 21.186898 0.000000 0.108129
390.000000 48.743000 1.000000 3.000000 10.000000 75.657991 -4.053531 1051.272377 1216.874641 20.528238 0.000000 0.128218
391.000000 49.252000 2.000000 3.000000 10.000000 79.171335 -10.380503 1172.158394 1150.297849 20.314723 0.000000 0.137791
392.000000 48.884000 3.000000 3.000000 10.000000 81.817369 -16.590923 1295.671608 1102.486378 20.466032 0.000000 0.137208
393.000000 47.821000 4.000000 3.000000 10.000000 83.655303 -22.549188 1421.898602 1070.580254 20.920071 0.000000 0.128408
394.000000 46.254000 5.000000 3.000000 10.000000 84.788103 -28.151432 1550.929811 1052.347828 21.628083 0.000000 0.115293
405.000000 53.603000 -4.000000 -3.000000 11.000000 93.611098 52.093919 -407.258185 830.441016 18.657990 0.000000 0.301615
406.000000 58.129000 -3.000000 -3.000000 11.000000 102.363387 48.073830 -223.447910 587.920904 17.202773 0.000000 0.201829
407.000000 61.877000 -2.000000 -3.000000 11.000000 110.959539 43.111999 -32.601243 376.249282 16.158768 0.000000 0.125018
408.000000 64.627000 -1.000000 -3.000000 11.000000 119.096177 36.940886 165.693737 191.598487 15.469359 0.000000 0.072285
409.000000 66.254000 0.000000 -3.000000 11.000000 126.416539 29.264769 371.881744 30.844673 15.087867 0.000000 0.045195
410.000000 66.746000 1.000000 -3.000000 11.000000 132.528133 19.850249 586.443615 -108.577013 14.975464 0.000000 0.035069
411.000000 66.194000 2.000000 -3.000000 11.000000 137.051278 8.721002 809.900052 -228.781831 15.099586 0.000000 0.021715
412.000000 64.763000 3.000000 -3.000000 11.000000 139.719541 -3.605363 1042.815841 -331.518984 15.432718 0.000000 0.010799
413.000000 62.656000 4.000000 -3.000000 11.000000 140.504917 -16.107284 1285.804622 -418.235994 15.951455 0.000000 0.059386
417.000000 46.906000 -5.000000 -2.000000 11.000000 79.591694 50.042735 -309.622210 1248.837606 21.327045 0.000000 0.288374
418.000000 52.060000 -4.000000 -2.000000 11.000000 87.955618 46.327934 -152.377530 996.638113 19.213041 0.000000 0.183975
419.000000 56.725000 -3.000000 -2.000000 11.000000 96.350205 41.880692 9.950869 780.123184 17.630883 0.000000 0.101817
420.000000 60.609000 -2.000000 -2.000000 11.000000 104.514838 36.533372 177.613572 594.214120 16.498965 0.000000 0.046246
421.000000 63.477000 -1.000000 -2.000000 11.000000 112.137641 30.108611 350.877910 434.846032 15.751563 0.000000 0.039968
422.000000 65.194000 0.000000 -2.000000 11.000000 118.875272 22.461591 530.029378 298.734665 15.335152 0.000000 0.059912
423.000000 65.744000 1.000000 -2.000000 11.000000 124.389517 13.561964 715.373210 183.205462 15.205702 0.000000 0.070590
424.000000 65.221000 2.000000 -2.000000 11.000000 128.406009 3.602609 907.236108 86.066401 15.326660 0.000000 0.066694
425.000000 63.801000 3.000000 -2.000000 11.000000 130.787967 -6.937891 1105.968173 5.512147 15.667427 0.000000 0.048761
426.000000 61.694000 4.000000 -2.000000 11.000000 131.589714 -17.383267 1311.945026 -59.949041 16.202197 0.000000 0.030503
427.000000 59.115000 5.000000 -2.000000 11.000000 131.044126 -27.091671 1525.570189 -111.551594 16.909049 0.000000 0.064772
428.000000 56.254000 6.000000 -2.000000 11.000000 129.482494 -35.660725 1747.277712 -150.316371 17.769245 0.000000 0.135925
431.000000 49.569000 -4.000000 -1.000000 11.000000 81.568397 40.949576 41.053370 1152.230997 20.181337 0.000000 0.145071
432.000000 54.272000 -3.000000 -1.000000 11.000000 89.520284 36.234341 186.280599 952.172260 18.430211 0.000000 0.099944
433.000000 58.221000 -2.000000 -1.000000 11.000000 97.194062 30.710032 335.688320 782.986350 17.178221 0.000000 0.094525
434.000000 61.171000 -1.000000 -1.000000 11.000000 104.289969 24.281196 489.459678 640.252009 16.347834 0.000000 0.108948
435.000000 62.980000 0.000000 -1.000000 11.000000 110.498418 16.910142 647.788675 520.439795 15.876786 0.000000 0.121988
436.000000 63.625000 1.000000 -1.000000 11.000000 115.542667 8.669976 810.880984 420.704363 15.714498 0.000000 0.125489
437.000000 63.199000 2.000000 -1.000000 11.000000 119.230116 -0.210532 978.954843 338.732736 15.819456 0.000000 0.116902
438.000000 61.875000 3.000000 -1.000000 11.000000 121.497361 -9.351426 1152.242031 272.631772 16.157272 0.000000 0.095380
439.000000 59.866000 4.000000 -1.000000 11.000000 122.426195 -18.301854 1330.988929 220.843551 16.699213 0.000000 0.060817
440.000000 57.385000 5.000000 -1.000000 11.000000 122.216606 -26.663367 1515.457693 182.080983 17.421088 0.000000 0.018367
441.000000 54.622000 6.000000 -1.000000 11.000000 121.128846 -34.181012 1705.927537 155.278264 18.302382 0.000000 0.056313
442.000000 51.731000 7.000000 -1.000000 11.000000 119.424392 -40.759215 1902.696140 139.552410 19.325586 0.000000 0.133412
443.000000 48.826000 8.000000 -1.000000 11.000000 117.327925 -46.421786 2106.081201 134.173132 20.475662 0.000000 0.226887
445.000000 46.507000 -3.000000 1.000000 11.000000 74.224968 26.643564 435.008031 1281.176184 21.514296 0.000000 0.123259
446.000000 50.346000 -2.000000 1.000000 11.000000 80.872863 21.197309 557.591106 1126.465756 19.872037 0.000000 0.135631
447.000000 53.325000 -1.000000 1.000000 11.000000 86.988249 15.177330 683.034547 999.674087 18.759754 0.000000 0.154348
448.000000 55.300000 0.000000 1.000000 11.000000 92.344742 8.640909 811.439653 896.423741 18.088310 0.000000 0.168024
449.000000 56.230000 1.000000 1.000000 11.000000 96.764389 1.707647 942.912561 813.281368 17.787496 0.000000 0.172778
450.000000 56.183000 2.000000 1.000000 11.000000 100.145899 -5.443515 1077.564543 747.520549 17.801260 0.000000 0.167498
451.000000 55.301000 3.000000 1.000000 11.000000 102.477879 -12.596554 1215.512318 696.952982 18.084311 0.000000 0.152073
452.000000 53.767000 4.000000 1.000000 11.000000 103.832338 -19.535119 1356.878388 659.806126 18.599653 0.000000 0.126918
453.000000 51.769000 5.000000 1.000000 11.000000 104.341503 -26.079401 1501.791403 634.633056 19.316770 0.000000 0.093346
454.000000 49.480000 6.000000 1.000000 11.000000 104.167388 -32.108725 1650.386551 620.245075 20.210270 0.000000 0.057242
455.000000 47.039000 7.000000 1.000000 11.000000 103.474298 -37.564823 1802.805978 615.660673 21.258845 0.000000 0.052384
456.000000 48.175000 -1.000000 2.000000 11.000000 78.051621 11.639323 753.298598 1173.541856 20.768999 0.000000 0.138323
457.000000 50.208000 0.000000 2.000000 11.000000 83.074365 5.540243 870.601629 1072.348126 19.926537 0.000000 0.156004
458.000000 51.301000 1.000000 2.000000 11.000000 87.290337 -0.822183 990.445669 991.943913 19.500220 0.000000 0.165474
459.000000 51.502000 2.000000 2.000000 11.000000 90.619665 -7.301975 1112.914187 929.264043 19.422920 0.000000 0.165550
460.000000 50.927000 3.000000 2.000000 11.000000 93.054243 -13.736278 1238.094348 881.881143 19.641214 0.000000 0.156346
461.000000 49.732000 4.000000 2.000000 11.000000 94.650334 -19.968882 1366.077219 847.851453 20.112051 0.000000 0.138677
462.000000 48.085000 5.000000 2.000000 11.000000 95.510314 -25.871457 1496.957995 825.603516 20.800353 0.000000 0.114409
463.000000 46.139000 6.000000 2.000000 11.000000 95.760397 -31.355897 1630.836226 813.856467 21.677251 0.000000 0.088570
464.000000 45.897000 1.000000 3.000000 11.000000 78.015727 -2.918125 1029.864067 1169.761287 21.800244 0.000000 0.138586
465.000000 46.351000 2.000000 3.000000 11.000000 81.322421 -8.828566 1142.168664 1107.234714 21.585061 0.000000 0.145986
466.000000 46.102000 3.000000 3.000000 11.000000 83.870523 -14.669255 1256.743315 1060.477268 21.700426 0.000000 0.144687
473.000000 59.546000 -1.000000 -4.000000 12.000000 123.797961 41.523617 21.984056 -21.304761 16.787956 0.000000 0.174381
474.000000 61.261000 1.000000 -4.000000 12.000000 136.922057 25.928349 451.721335 -338.870830 16.315448 0.000000 0.097830
478.000000 50.324000 -4.000000 -3.000000 12.000000 95.167004 49.329854 -277.627142 791.659766 19.873273 0.000000 0.228571
479.000000 57.018000 -2.000000 -3.000000 12.000000 110.819849 40.443099 57.604840 403.226852 17.536051 0.000000 0.081480
480.000000 59.241000 -1.000000 -3.000000 12.000000 118.088542 34.551207 233.866277 243.577288 16.876016 0.000000 0.036964
481.000000 61.048000 1.000000 -3.000000 12.000000 130.135364 18.961098 605.219383 -18.524239 16.373844 0.000000 0.029826
482.000000 60.688000 2.000000 -3.000000 12.000000 134.344484 9.183639 800.993761 -124.603264 16.470035 0.000000 0.028342
483.000000 57.991000 4.000000 -3.000000 12.000000 138.235799 -12.552195 1214.637561 -293.797991 17.235220 0.000000 0.034260
484.000000 55.945000 5.000000 -3.000000 12.000000 138.018274 -23.067370 1433.354132 -359.059402 17.865413 0.000000 0.085392
487.000000 52.660000 -3.000000 -2.000000 12.000000 97.319169 39.642544 83.264970 761.473560 18.991551 0.000000 0.081056
488.000000 58.083000 -1.000000 -2.000000 12.000000 111.476944 28.481448 391.071038 459.228588 17.214680 0.000000 0.055479
489.000000 60.010000 1.000000 -2.000000 12.000000 122.557993 13.435616 717.883408 234.455442 16.659180 0.000000 0.080741
490.000000 58.642000 3.000000 -2.000000 12.000000 128.821529 -4.807379 1065.518551 71.913742 17.046261 0.000000 0.062779
491.000000 54.995000 5.000000 -2.000000 12.000000 129.929350 -23.187933 1436.032031 -39.027162 18.175981 0.000000 0.035927
492.000000 50.229000 7.000000 -2.000000 12.000000 127.270717 -38.520732 1831.759174 -105.862859 19.901215 0.000000 0.156530
493.000000 46.706000 -4.000000 -1.000000 12.000000 83.659515 39.025846 102.629910 1094.944743 21.417654 0.000000 0.125473
494.000000 50.499000 -3.000000 -1.000000 12.000000 90.865523 34.485940 235.672239 921.273362 19.806867 0.000000 0.097776
495.000000 53.660000 -2.000000 -1.000000 12.000000 97.775536 29.251974 372.197521 772.553764 18.638039 0.000000 0.100379
496.000000 56.029000 -1.000000 -1.000000 12.000000 104.155948 23.260926 512.344344 645.518027 17.848177 0.000000 0.114459
497.000000 57.515000 0.000000 -1.000000 12.000000 109.771495 16.496494 656.258744 537.506006 17.385714 0.000000 0.125928
498.000000 58.104000 1.000000 -1.000000 12.000000 114.413949 9.022693 804.094718 446.334433 17.208035 0.000000 0.129329
499.000000 57.860000 2.000000 -1.000000 12.000000 117.935080 1.010561 956.014769 370.198758 17.279611 0.000000 0.122757
500.000000 56.899000 3.000000 -1.000000 12.000000 120.275473 -7.264070 1112.190507 307.598587 17.570589 0.000000 0.105498
501.000000 55.369000 4.000000 -1.000000 12.000000 121.477009 -15.466404 1272.803292 257.280381 18.055698 0.000000 0.077301
502.000000 53.423000 5.000000 -1.000000 12.000000 121.670483 -23.278415 1438.044938 218.192957 18.713408 0.000000 0.038635
503.000000 51.201000 6.000000 -1.000000 12.000000 121.042241 -30.465711 1608.118475 189.452613 19.525256 0.000000 0.020545
504.000000 48.826000 7.000000 -1.000000 12.000000 119.794710 -36.904575 1783.238985 170.315546 20.475323 0.000000 0.080188
505.000000 46.392000 8.000000 -1.000000 12.000000 118.115486 -42.569155 1963.634506 160.155903 21.549809 0.000000 0.155630
506.000000 53.111000 -1.000000 0.000000 12.000000 96.332356 18.793216 608.741734 814.834552 18.831798 0.000000 0.146784
507.000000 55.356000 1.000000 0.000000 12.000000 105.907692 5.456417 872.190877 632.857027 18.065294 0.000000 0.159917
508.000000 51.248000 5.000000 0.000000 12.000000 113.324026 -23.348823 1439.613195 435.547280 19.510345 0.000000 0.076629
509.000000 46.956000 7.000000 0.000000 12.000000 112.219383 -35.605907 1745.718857 400.249288 21.293544 0.000000 0.029211
510.000000 47.030000 -2.000000 1.000000 12.000000 82.647582 20.574906 570.985473 1089.339474 21.272411 0.000000 0.139178
511.000000 49.435000 -1.000000 1.000000 12.000000 88.212490 14.970327 687.205157 975.769134 20.235580 0.000000 0.155991
512.000000 51.052000 0.000000 1.000000 12.000000 93.118186 8.925731 805.961581 881.648626 19.592817 0.000000 0.168019
513.000000 51.859000 1.000000 1.000000 12.000000 97.226752 2.535559 927.338715 804.388079 19.286651 0.000000 0.172487
514.000000 51.900000 2.000000 1.000000 12.000000 100.455328 -4.061577 1051.424279 741.888439 19.270271 0.000000 0.168497
515.000000 51.272000 3.000000 1.000000 12.000000 102.785783 -10.697021 1178.309949 692.433298 19.505159 0.000000 0.155891
516.000000 50.104000 4.000000 1.000000 12.000000 104.262272 -17.196252 1308.091587 654.608295 19.959336 0.000000 0.134875
517.000000 48.530000 5.000000 1.000000 12.000000 104.977698 -23.405172 1440.869483 627.240243 20.606027 0.000000 0.106107
518.000000 46.679000 6.000000 1.000000 12.000000 105.053916 -29.209251 1576.748609 609.350576 21.422646 0.000000 0.071823
519.000000 47.768000 1.000000 2.000000 12.000000 88.540310 0.111221 972.910733 968.426087 20.942068 0.000000 0.167717
520.000000 47.589000 3.000000 2.000000 12.000000 94.091439 -11.939298 1202.581889 862.309624 21.018249 0.000000 0.160206
531.000000 50.945000 -3.000000 -4.000000 13.000000 108.489775 48.526839 -242.678281 397.551066 19.626727 0.000000 0.228276
532.000000 53.325000 -2.000000 -4.000000 13.000000 115.782915 44.141081 -69.499145 216.521961 18.748751 0.000000 0.167304
533.000000 55.079000 -1.000000 -4.000000 13.000000 122.705272 38.794280 109.814068 54.281939 18.149853 0.000000 0.122791
534.000000 56.158000 0.000000 -4.000000 13.000000 129.034356 32.262021 295.593143 -90.952066 17.799585 0.000000 0.091983
535.000000 56.561000 1.000000 -4.000000 13.000000 134.521387 24.337145 488.194229 -220.693891 17.671771 0.000000 0.068894
536.000000 56.328000 2.000000 -4.000000 13.000000 138.907599 14.930824 688.000124 -336.232077 17.743786 0.000000 0.045542
537.000000 55.537000 3.000000 -4.000000 13.000000 141.965984 4.228543 895.422807 -438.664967 17.995973 0.000000 0.015366
542.000000 47.315000 -4.000000 -3.000000 13.000000 96.400396 46.879777 -174.339757 764.368359 21.136746 0.000000 0.175587
543.000000 50.334000 -3.000000 -3.000000 13.000000 103.622015 42.894679 -24.968113 584.982232 19.867004 0.000000 0.105915
544.000000 52.807000 -2.000000 -3.000000 13.000000 110.608575 38.170911 128.924392 426.180208 18.934390 0.000000 0.050508
545.000000 54.636000 -1.000000 -3.000000 13.000000 117.160325 32.567305 287.546153 285.773716 18.298863 0.000000 0.010291
546.000000 55.766000 0.000000 -3.000000 13.000000 123.057935 25.954296 451.118574 161.923001 17.926479 0.000000 0.021231
547.000000 56.196000 1.000000 -3.000000 13.000000 128.076580 18.260288 619.877097 53.074315 17.788278 0.000000 0.036190
548.000000 55.969000 2.000000 -3.000000 13.000000 132.011378 9.542342 794.072336 -42.089452 17.859397 0.000000 0.038688
549.000000 55.167000 3.000000 -3.000000 13.000000 134.716280 0.054761 973.971314 -124.687895 18.118375 0.000000 0.030194
550.000000 53.892000 4.000000 -3.000000 13.000000 136.146936 -9.745742 1159.858834 -195.674328 18.546585 0.000000 0.024426
551.000000 52.254000 5.000000 -3.000000 13.000000 136.383205 -19.305979 1352.038981 -255.860893 19.127785 0.000000 0.053401
552.000000 50.359000 6.000000 -3.000000 13.000000 135.610281 -28.147582 1550.836780 -305.938836 19.847748 0.000000 0.106843
555.000000 45.993000 -4.000000 -2.000000 13.000000 91.161889 41.926538 8.396173 911.660116 21.746788 0.000000 0.117639
556.000000 49.077000 -3.000000 -2.000000 13.000000 98.076619 37.698867 143.179242 747.971175 20.378031 0.000000 0.071154
557.000000 51.617000 -2.000000 -2.000000 13.000000 104.715631 32.792649 281.571081 604.737514 19.373140 0.000000 0.056531
558.000000 53.508000 -1.000000 -2.000000 13.000000 110.882612 27.121672 423.718592 479.647246 18.686667 0.000000 0.067766
559.000000 54.693000 0.000000 -2.000000 13.000000 116.373581 20.631283 569.776759 370.770967 18.280435 0.000000 0.081897
560.000000 55.167000 1.000000 -2.000000 13.000000 120.995912 13.333553 719.909214 276.489114 18.122132 0.000000 0.089108
561.000000 54.975000 2.000000 -2.000000 13.000000 124.594087 5.345723 874.288846 195.435524 18.184230 0.000000 0.086824
562.000000 54.202000 3.000000 -2.000000 13.000000 127.078582 -3.089833 1033.098467 126.453156 18.443131 0.000000 0.074458
563.000000 52.950000 4.000000 -2.000000 13.000000 128.447941 -11.630648 1196.531534 68.559042 18.878492 0.000000 0.052762
564.000000 51.334000 5.000000 -2.000000 13.000000 128.791419 -19.908464 1364.792933 20.916340 19.472677 0.000000 0.029958
565.000000 49.461000 6.000000 -2.000000 13.000000 128.267379 -27.617840 1538.099839 -17.188127 20.210327 0.000000 0.048986
566.000000 47.425000 7.000000 -2.000000 13.000000 127.066868 -34.571025 1716.682649 -46.362024 21.077999 0.000000 0.103831
567.000000 47.162000 -3.000000 -1.000000 13.000000 91.967203 32.965814 276.958987 896.937539 21.208205 0.000000 0.098796
568.000000 49.737000 -2.000000 -1.000000 13.000000 98.239253 28.003333 402.643859 764.484492 20.108165 0.000000 0.105627
569.000000 51.675000 -1.000000 -1.000000 13.000000 104.028810 22.400045 531.382522 650.127204 19.352206 0.000000 0.118907
570.000000 52.916000 0.000000 -1.000000 13.000000 109.153519 16.151878 663.287644 551.811249 18.896921 0.000000 0.129116
571.000000 53.452000 1.000000 -1.000000 13.000000 113.453008 9.314130 798.477501 467.824758 18.705913 0.000000 0.132423
572.000000 53.328000 2.000000 -1.000000 13.000000 116.810791 2.018005 937.076338 396.732645 18.748429 0.000000 0.127362
573.000000 52.624000 3.000000 -1.000000 13.000000 119.173371 -5.530559 1079.214744 337.325612 18.998310 0.000000 0.113336
574.000000 51.445000 4.000000 -1.000000 13.000000 120.559704 -13.078209 1225.030062 288.580222 19.433165 0.000000 0.090084
575.000000 49.903000 5.000000 -1.000000 13.000000 121.055779 -20.371775 1374.666838 249.627350 20.033712 0.000000 0.057590
576.000000 48.103000 6.000000 -1.000000 13.000000 120.795231 -27.205776 1528.277293 219.727050 20.783261 0.000000 0.018041
577.000000 46.140000 7.000000 -1.000000 13.000000 119.933356 -33.449560 1686.021841 198.248374 21.667291 0.000000 0.040551
578.000000 46.056000 -1.000000 1.000000 13.000000 89.247922 14.791773 690.796117 955.612781 21.719729 0.000000 0.157184
579.000000 47.404000 0.000000 1.000000 13.000000 93.772293 9.170210 801.252600 869.116641 21.100587 0.000000 0.167892
580.000000 48.109000 1.000000 1.000000 13.000000 97.610363 3.245214 913.973767 796.962569 20.789756 0.000000 0.172113
581.000000 48.204000 2.000000 1.000000 13.000000 100.693635 -2.873837 1029.029990 737.499978 20.747548 0.000000 0.169116
582.000000 47.757000 3.000000 1.000000 13.000000 103.001274 -9.053290 1146.494584 689.357818 20.940806 0.000000 0.158721
583.000000 46.858000 4.000000 1.000000 13.000000 104.559575 -15.151469 1266.443968 651.389735 21.341616 0.000000 0.141025
584.000000 45.608000 5.000000 1.000000 13.000000 105.433982 -21.037441 1388.957828 622.631768 21.926306 0.000000 0.116389
597.000000 47.728000 -3.000000 -4.000000 14.000000 108.741589 45.981755 -138.825321 415.481065 20.949787 0.000000 0.171832
598.000000 51.183000 -1.000000 -4.000000 14.000000 121.670674 36.503855 178.472048 114.975850 19.531733 0.000000 0.083997
599.000000 52.477000 1.000000 -4.000000 14.000000 132.407482 23.076367 516.446207 -127.551527 19.047393 0.000000 0.047420
600.000000 51.725000 3.000000 -4.000000 14.000000 139.428267 5.192778 877.186342 -321.168752 19.322949 0.000000 0.014260
603.000000 47.082000 -3.000000 -3.000000 14.000000 103.996136 40.785599 46.439662 586.684565 21.239177 0.000000 0.077421
604.000000 49.135000 -2.000000 -3.000000 14.000000 110.358445 36.218885 186.726757 445.959166 20.349570 0.000000 0.030633
605.000000 50.661000 -1.000000 -3.000000 14.000000 116.311061 30.897663 330.910781 320.786630 19.734777 0.000000 0.010663
606.000000 51.624000 0.000000 -3.000000 14.000000 121.679293 24.735297 479.156396 209.708800 19.365345 0.000000 0.032521
607.000000 52.022000 1.000000 -3.000000 14.000000 126.288304 17.693864 631.637674 111.480234 19.215885 0.000000 0.046044
608.000000 51.889000 2.000000 -3.000000 14.000000 129.981394 9.828579 788.538776 25.033548 19.264393 0.000000 0.049119
609.000000 51.282000 3.000000 -3.000000 14.000000 132.645510 1.327708 950.054699 -50.548464 19.491708 0.000000 0.042370
610.000000 50.276000 4.000000 -3.000000 14.000000 134.238281 -7.484053 1116.392081 -116.055404 19.881061 0.000000 0.029947
611.000000 48.954000 5.000000 -3.000000 14.000000 134.803773 -16.203814 1287.770081 -172.167660 20.417719 0.000000 0.034231
612.000000 47.397000 6.000000 -3.000000 14.000000 134.465048 -24.452631 1464.421350 -219.471468 21.088681 0.000000 0.070633
613.000000 45.678000 7.000000 -3.000000 14.000000 133.394716 -31.963606 1646.593075 -258.471295 21.882432 0.000000 0.125545
614.000000 45.908000 -3.000000 -2.000000 14.000000 98.676987 35.998839 193.059761 737.974152 21.784671 0.000000 0.068805
615.000000 49.584000 -1.000000 -2.000000 14.000000 110.348039 25.969594 450.763066 497.009159 20.165734 0.000000 0.077637
616.000000 51.027000 1.000000 -2.000000 14.000000 119.648374 13.249387 721.578499 311.624325 19.592781 0.000000 0.096055
617.000000 50.349000 3.000000 -2.000000 14.000000 125.529035 -1.678153 1006.532916 172.133769 19.854885 0.000000 0.084087
618.000000 48.072000 5.000000 -2.000000 14.000000 127.670602 -17.131698 1306.763269 71.445026 20.794260 0.000000 0.040455
619.000000 46.331000 -2.000000 -1.000000 14.000000 98.615451 26.922983 428.421784 758.106116 21.586319 0.000000 0.110207
620.000000 47.942000 -1.000000 -1.000000 14.000000 103.909881 21.664222 547.468814 654.187621 20.859138 0.000000 0.122562
621.000000 48.993000 0.000000 -1.000000 14.000000 108.621796 15.860363 669.214354 563.978101 20.409942 0.000000 0.131743
622.000000 49.482000 1.000000 -1.000000 14.000000 112.625197 9.558967 793.751208 486.110459 20.207280 0.000000 0.134958
623.000000 49.437000 2.000000 -1.000000 14.000000 115.826897 2.862873 921.176486 419.424583 20.224272 0.000000 0.131054
624.000000 48.919000 3.000000 -1.000000 14.000000 118.179587 -4.070452 1051.591854 362.931513 20.437809 0.000000 0.119526
625.000000 48.001000 4.000000 -1.000000 14.000000 119.688957 -11.045821 1185.103809 315.784931 20.827915 0.000000 0.100134
626.000000 46.767000 5.000000 -1.000000 14.000000 120.411628 -17.860964 1321.823963 277.258284 21.377230 0.000000 0.072777
627.000000 45.760000 -1.000000 0.000000 14.000000 97.128805 17.910777 627.142844 799.535055 21.856874 0.000000 0.148681
628.000000 47.407000 1.000000 0.000000 14.000000 105.347066 6.469731 852.947701 643.715442 21.094300 0.000000 0.160083
629.000000 47.441000 2.000000 0.000000 14.000000 108.398828 0.296982 969.421177 582.984199 21.078414 0.000000 0.156251
630.000000 47.010000 3.000000 0.000000 14.000000 110.690713 -6.013359 1088.376821 532.252499 21.270406 0.000000 0.145478
631.000000 46.188000 4.000000 0.000000 14.000000 112.235729 -12.311420 1209.894834 490.632238 21.648222 0.000000 0.127643
637.000000 46.697000 -2.000000 -5.000000 15.000000 119.247295 44.972267 -100.252860 89.084112 21.408733 0.000000 0.205901
638.000000 47.897000 -1.000000 -5.000000 15.000000 125.267077 40.264243 63.390254 -56.456179 20.870799 0.000000 0.165089
639.000000 48.992000 1.000000 -5.000000 15.000000 135.798981 27.816945 407.127549 -310.339323 20.401609 0.000000 0.104661
643.000000 46.517000 -2.000000 -4.000000 15.000000 114.962869 39.512942 87.363073 291.553782 21.493036 0.000000 0.084517
644.000000 47.764000 -1.000000 -4.000000 15.000000 120.702652 34.560181 233.617744 164.921962 20.930126 0.000000 0.053875
645.000000 48.560000 0.000000 -4.000000 15.000000 125.945493 28.767650 384.093327 50.708698 20.585674 0.000000 0.038311
646.000000 48.905000 1.000000 -4.000000 15.000000 130.535947 22.053691 538.975218 -52.071258 20.439175 0.000000 0.033408
647.000000 48.823000 2.000000 -4.000000 15.000000 134.322349 14.409726 698.459837 -144.273198 20.472615 0.000000 0.028890
648.000000 48.355000 3.000000 -4.000000 15.000000 137.176654 5.953739 862.755451 -226.640831 20.670101 0.000000 0.018338
649.000000 47.555000 4.000000 -4.000000 15.000000 139.021644 -3.035934 1032.083086 -299.821434 21.017556 0.000000 0.010428
650.000000 46.482000 5.000000 -4.000000 15.000000 139.855956 -12.147834 1206.677518 -364.378401 21.502472 0.000000 0.038682
651.000000 45.912000 -2.000000 -3.000000 15.000000 110.089709 34.527516 234.522155 463.186531 21.778432 0.000000 0.024782
652.000000 47.202000 -1.000000 -3.000000 15.000000 115.536097 29.475362 366.672827 350.352289 21.181393 0.000000 0.027245
653.000000 48.400000 1.000000 -3.000000 15.000000 124.721686 17.226640 641.282802 160.105318 20.654434 0.000000 0.055791
654.000000 48.332000 2.000000 -3.000000 15.000000 128.200252 10.062283 784.013684 80.801027 20.682458 0.000000 0.058654
655.000000 47.071000 4.000000 -3.000000 15.000000 132.499209 -5.627929 1081.061292 -49.991530 21.235083 0.000000 0.040572
656.000000 45.996000 5.000000 -3.000000 15.000000 133.303839 -13.615731 1235.695803 -102.716792 21.731084 0.000000 0.029610
657.000000 46.184000 -1.000000 -2.000000 15.000000 109.866386 24.981757 473.532893 511.961042 21.650540 0.000000 0.085702
658.000000 47.049000 0.000000 -2.000000 15.000000 114.493545 19.360347 596.814002 421.260811 21.250997 0.000000 0.096419
659.000000 47.451000 1.000000 -2.000000 15.000000 118.474335 13.178790 722.977768 341.453960 21.069770 0.000000 0.101880
660.000000 47.414000 2.000000 -2.000000 15.000000 121.712176 6.512889 852.126494 271.631238 21.085376 0.000000 0.100611
661.000000 46.980000 3.000000 -2.000000 15.000000 124.145963 -0.498653 984.367381 211.006458 21.279063 0.000000 0.092072
662.000000 46.207000 4.000000 -2.000000 15.000000 125.760394 -7.662990 1119.812828 158.897991 21.634385 0.000000 0.076171
663.000000 45.610000 0.000000 -1.000000 15.000000 108.159504 15.610566 674.279276 574.454419 21.924431 0.000000 0.133941
664.000000 46.054000 1.000000 -1.000000 15.000000 111.904751 9.767547 789.719454 501.863142 21.711494 0.000000 0.137067
665.000000 46.064000 2.000000 -1.000000 15.000000 114.959469 3.581286 907.638233 439.062161 21.705891 0.000000 0.134061
666.000000 45.680000 3.000000 -1.000000 15.000000 117.282139 -2.825318 1028.116307 385.232373 21.887060 0.000000 0.124496
668.000000 45.631000 0.000000 -5.000000 16.000000 129.380470 32.691658 284.252633 -108.756376 21.905840 0.000000 0.099198
669.000000 45.937000 1.000000 -5.000000 16.000000 133.940087 26.363130 441.585864 -216.583878 21.758941 0.000000 0.078857
670.000000 45.896000 2.000000 -5.000000 16.000000 137.805437 19.032661 603.715744 -314.868350 21.777121 0.000000 0.059216
671.000000 45.540000 3.000000 -5.000000 16.000000 140.842404 10.739421 770.865022 -404.224898 21.946972 0.000000 0.036363
672.000000 45.760000 1.000000 -4.000000 16.000000 128.869874 21.207990 557.360275 10.451031 21.844622 0.000000 0.028390
#UB matrix in q= (UB) B0 G* 
#[[-0.43250389   0.549017733 -0.714168483]
# [-0.897464861 -0.338726609  0.283111709]
# [-0.086586417  0.764256827  0.639873463]]
#B0 matrix in q= UB (B0) G*
#[[ 0.19670273 -0.          0.03056101]
# [ 0.          0.19187965 -0.        ]
# [ 0.          0.          0.18806537]]
#UBB0 matrix in q= (UB B0) G* i.e. recip. basis vectors are columns in LT frame: astar = UBB0[:,0], bstar = UBB0[:,1], cstar = UBB0[:,2]. (abcstar as columns on xyzlab1, xlab1 = ui, ui = unit vector along incident beam)
#[[-0.0850747   0.10534533 -0.14752812]
# [-0.17653379 -0.06499474  0.02581608]
# [-0.01703178  0.14664533  0.11769187]]
#Euler angles phi theta psi (deg)
#[186.464  50.272  68.412]
#deviatoric strain in direct crystal frame (10-3 unit)
#[[-2.96 -0.1   0.49]
# [-0.1  -2.99 -1.03]
# [ 0.49 -1.03  5.94]]
#deviatoric strain in sample2 frame (10-3 unit)
#[[-2.44 -0.57 -2.21]
# [-0.57 -2.36  2.3 ]
# [-2.22  2.3   4.8 ]]
#new lattice parameters
#[ 5.1505     5.2114402  5.3187804 90.0595488 99.1978113 90.0113302]
#CCDLabel
#sCMOS
#DetectorParameters
#[79.0, 975.0, 941.0, 0.0, 0.0]
#pixelsize
#0.0734
#Frame dimensions
#[2018, 2016]
#
