#Strain and Orientation Refinement from experimental file: /home/micha/LaueProjects/DepthEffects/testZrO2_36.cor
#File created at Wed Jun 28 14:20:30 2023 with indexingSpotsSet.py
#Number of indexed spots: 513
#Element
#ZrO2
#grainIndex
#G_0
#Mean Deviation(pixel): 0.116
##spot_index intensity h k l 2theta Chi Xexp Yexp Energy GrainIndex PixDev
11.000000 136.013000 0.000000 -2.000000 3.000000 70.964042 37.852338 138.564753 1411.309022 7.358727 0.000000 0.154955
12.000000 165.186000 1.000000 -2.000000 3.000000 98.668102 46.597312 -163.042325 702.202389 6.056046 0.000000 0.170464
13.000000 103.427000 -1.000000 -1.000000 3.000000 45.652508 15.181594 682.948553 2031.098424 9.681619 0.000000 0.176513
14.000000 176.179000 0.000000 -1.000000 3.000000 82.363757 19.672470 590.214195 1094.245916 5.680363 0.000000 0.135174
16.000000 101.126000 -1.000000 1.000000 3.000000 44.581790 -24.979317 1476.411340 2145.820738 9.901579 0.000000 0.251308
17.000000 173.862000 0.000000 1.000000 3.000000 81.051893 -30.085475 1598.541491 1136.855019 5.755980 0.000000 0.115113
19.000000 132.458000 0.000000 2.000000 3.000000 68.843548 -47.840841 2163.688846 1561.576471 7.556072 0.000000 0.307129
27.000000 94.387000 0.000000 -3.000000 4.000000 67.945033 41.268188 30.510667 1521.142354 10.604389 0.000000 0.201576
28.000000 112.391000 1.000000 -3.000000 4.000000 88.266168 47.529486 -200.783328 989.251268 8.902398 0.000000 0.203332
30.000000 82.789000 -1.000000 -2.000000 4.000000 51.577232 25.155517 469.554625 1884.213823 12.093791 0.000000 0.161730
31.000000 117.672000 0.000000 -2.000000 4.000000 76.982563 29.727817 360.399858 1227.538188 8.505169 0.000000 0.114362
32.000000 137.264000 1.000000 -2.000000 4.000000 100.364814 35.770751 199.587022 698.378672 7.287988 0.000000 0.056427
33.000000 140.984000 2.000000 -2.000000 4.000000 119.707730 43.905006 -60.922271 88.664169 7.093239 0.000000 0.191594
35.000000 97.130000 -1.000000 -1.000000 4.000000 56.010708 11.156025 762.746310 1680.653579 10.308151 0.000000 0.051873
36.000000 138.033000 0.000000 -1.000000 4.000000 84.510489 13.919800 708.249331 1047.565968 7.249968 0.000000 0.150069
37.000000 158.188000 1.000000 -1.000000 4.000000 110.773362 17.913443 627.087539 511.926113 6.323030 0.000000 0.115358
38.000000 158.427000 2.000000 -1.000000 4.000000 132.493098 24.108783 493.352280 -139.230319 6.311249 0.000000 0.056129
39.000000 102.651000 -1.000000 0.000000 4.000000 57.500092 -5.022464 1069.588769 1629.315481 9.753646 0.000000 0.026375
40.000000 146.057000 0.000000 0.000000 4.000000 87.259158 -5.338108 1075.566861 992.750129 6.851374 0.000000 0.166025
41.000000 166.281000 1.000000 0.000000 4.000000 114.746273 -5.812991 1084.572550 442.342215 6.014927 0.000000 0.133156
42.000000 164.933000 2.000000 0.000000 4.000000 137.644410 -6.608102 1099.685726 -247.424246 6.061921 0.000000 0.016794
44.000000 95.745000 -1.000000 1.000000 4.000000 55.143567 -21.134775 1391.058081 1744.676675 10.457019 0.000000 0.117214
45.000000 136.669000 0.000000 1.000000 4.000000 83.486129 -24.435535 1464.033846 1075.982983 7.322225 0.000000 0.127303
46.000000 156.992000 1.000000 1.000000 4.000000 109.528073 -29.150926 1575.311335 503.908438 6.371192 0.000000 0.055440
47.000000 157.457000 2.000000 1.000000 4.000000 130.923334 -36.305427 1765.773724 -216.854598 6.350182 0.000000 0.160217
48.000000 80.445000 -1.000000 2.000000 4.000000 50.014692 -34.985576 1728.225650 2042.735497 12.445794 0.000000 0.273133
49.000000 115.358000 0.000000 2.000000 4.000000 75.201914 -39.919086 1875.531053 1311.728504 8.675615 0.000000 0.158889
50.000000 135.196000 1.000000 2.000000 4.000000 98.316541 -46.345414 2103.066374 713.085159 7.399455 0.000000 0.169215
62.000000 71.981000 0.000000 -4.000000 5.000000 66.165549 43.135607 -33.433716 1592.570728 13.905532 0.000000 0.235505
63.000000 83.930000 1.000000 -4.000000 5.000000 82.165284 48.002095 -220.433813 1162.338590 11.922395 0.000000 0.232538
65.000000 66.638000 -1.000000 -3.000000 5.000000 54.229330 30.800001 333.399817 1843.732115 15.024028 0.000000 0.182828
66.000000 86.615000 0.000000 -3.000000 5.000000 73.395755 34.821098 226.368069 1331.947547 11.555339 0.000000 0.129197
67.000000 99.785000 1.000000 -3.000000 5.000000 91.352821 39.710091 81.123029 907.959914 10.026769 0.000000 0.095968
68.000000 105.463000 2.000000 -3.000000 5.000000 107.100759 45.682532 -127.247225 467.036210 9.484198 0.000000 0.164073
71.000000 78.101000 -1.000000 -2.000000 5.000000 58.961709 20.619981 570.019162 1633.014934 12.818756 0.000000 0.090246
72.000000 101.331000 0.000000 -2.000000 5.000000 80.346536 23.933294 497.303596 1141.296594 9.876384 0.000000 0.123339
73.000000 115.343000 1.000000 -2.000000 5.000000 100.339133 28.197007 397.968456 718.205226 8.673236 0.000000 0.093811
74.000000 119.746000 2.000000 -2.000000 5.000000 117.738683 33.813315 254.121500 259.780898 8.351723 0.000000 0.030821
76.000000 55.278000 -2.000000 -1.000000 5.000000 39.633269 7.015944 842.543656 2250.282875 18.116044 0.000000 0.256725
77.000000 86.991000 -1.000000 -1.000000 5.000000 62.400126 8.425035 815.586126 1509.808378 11.508556 0.000000 0.053178
78.000000 112.737000 0.000000 -1.000000 5.000000 85.546083 10.263920 780.104239 1026.198626 8.876642 0.000000 0.157454
79.000000 127.152000 1.000000 -1.000000 5.000000 107.224751 12.758309 731.295379 598.874727 7.866966 0.000000 0.143720
80.000000 130.247000 2.000000 -1.000000 5.000000 126.139410 16.317383 659.915028 122.030152 7.677498 0.000000 0.050276
83.000000 86.078000 -1.000000 1.000000 5.000000 61.673464 -18.526316 1335.672789 1552.876703 11.630380 0.000000 0.085105
84.000000 111.844000 0.000000 1.000000 5.000000 84.710196 -20.833277 1384.561317 1047.622700 8.947343 0.000000 0.137552
85.000000 126.344000 1.000000 1.000000 5.000000 106.242940 -23.938787 1452.819924 597.920872 7.917228 0.000000 0.101909
86.000000 129.556000 2.000000 1.000000 5.000000 124.954869 -28.311542 1554.804475 86.408731 7.718474 0.000000 0.032378
89.000000 76.470000 -1.000000 2.000000 5.000000 57.613997 -30.593472 1611.353152 1734.062656 13.091670 0.000000 0.166609
90.000000 99.734000 0.000000 2.000000 5.000000 78.830238 -34.257867 1708.039006 1198.130773 10.034382 0.000000 0.118481
91.000000 113.882000 1.000000 2.000000 5.000000 98.615228 -38.921058 1844.113333 731.405873 8.784436 0.000000 0.070383
92.000000 118.478000 2.000000 2.000000 5.000000 115.759507 -44.960266 2049.802506 207.018782 8.441113 0.000000 0.190690
94.000000 84.574000 0.000000 3.000000 5.000000 71.397518 -44.886610 2047.042657 1452.309118 11.833834 0.000000 0.237853
95.000000 97.896000 1.000000 3.000000 5.000000 89.153272 -50.009823 2258.124247 965.751711 10.220259 0.000000 0.260593
104.000000 58.079000 0.000000 -5.000000 6.000000 64.998056 44.310578 -75.699591 1642.445131 17.234324 0.000000 0.260158
105.000000 66.521000 1.000000 -5.000000 6.000000 78.176678 48.287746 -232.486181 1279.608692 15.043589 0.000000 0.255092
108.000000 55.173000 -1.000000 -4.000000 6.000000 55.645645 34.366321 238.974829 1832.270667 18.145205 0.000000 0.204226
109.000000 77.295000 1.000000 -4.000000 6.000000 85.490668 41.897715 9.373843 1055.037652 12.945454 0.000000 0.132554
111.000000 46.195000 -2.000000 -3.000000 6.000000 43.144663 23.878126 498.543542 2196.847327 21.676029 0.000000 0.252549
112.000000 63.772000 -1.000000 -3.000000 6.000000 60.100302 26.546599 437.286075 1632.827705 15.698464 0.000000 0.119563
113.000000 88.444000 1.000000 -3.000000 6.000000 92.946840 33.558711 261.029245 874.513045 11.312506 0.000000 0.086557
114.000000 93.363000 2.000000 -3.000000 6.000000 107.322462 38.213730 127.622201 513.753523 10.713519 0.000000 0.048898
115.000000 71.738000 -1.000000 -2.000000 6.000000 64.013533 17.196147 641.910578 1490.178372 13.954843 0.000000 0.079465
116.000000 98.578000 1.000000 -2.000000 6.000000 99.712213 22.776478 523.087396 741.210354 10.148560 0.000000 0.123506
117.000000 102.926000 2.000000 -2.000000 6.000000 115.299749 26.753960 432.409738 371.250912 9.717018 0.000000 0.046368
118.000000 102.352000 3.000000 -2.000000 6.000000 128.706626 31.973425 303.150618 -75.721676 9.769455 0.000000 0.090048
119.000000 55.620000 -2.000000 -1.000000 6.000000 47.306844 5.429811 872.695199 1938.413289 18.003280 0.000000 0.128802
120.000000 77.464000 -1.000000 -1.000000 6.000000 66.682549 6.458852 853.154689 1407.877544 12.923107 0.000000 0.080409
121.000000 95.017000 0.000000 -1.000000 6.000000 86.114198 7.754004 828.446160 1014.781059 10.531945 0.000000 0.161386
122.000000 105.774000 1.000000 -1.000000 6.000000 104.512739 9.431795 796.206942 658.578107 9.457471 0.000000 0.157482
123.000000 109.590000 2.000000 -1.000000 6.000000 121.079777 11.686469 752.375241 278.523105 9.125414 0.000000 0.092340
124.000000 108.055000 3.000000 -1.000000 6.000000 135.431588 14.864812 689.327916 -189.464644 9.253070 0.000000 0.032058
126.000000 56.855000 -2.000000 0.000000 6.000000 47.719062 -4.939527 1068.018989 1923.346397 17.612247 0.000000 0.125026
127.000000 79.373000 -1.000000 0.000000 6.000000 67.448917 -5.115221 1071.344905 1389.727417 12.612165 0.000000 0.086649
128.000000 108.224000 1.000000 0.000000 6.000000 106.025167 -5.630146 1081.103330 630.367376 9.243140 0.000000 0.160278
129.000000 111.840000 2.000000 0.000000 6.000000 122.939069 -6.029396 1088.681422 239.793512 8.941560 0.000000 0.094375
131.000000 54.998000 -2.000000 1.000000 6.000000 46.746133 -15.286561 1269.169478 1990.754569 18.206596 0.000000 0.169382
132.000000 76.821000 -1.000000 1.000000 6.000000 66.058031 -16.647523 1296.829555 1439.798467 13.031077 0.000000 0.089879
133.000000 94.390000 0.000000 1.000000 6.000000 85.409849 -18.354347 1332.083229 1032.041926 10.601800 0.000000 0.144256
134.000000 105.195000 1.000000 1.000000 6.000000 103.705921 -20.553465 1378.555065 660.665182 9.509509 0.000000 0.125842
135.000000 109.077000 2.000000 1.000000 6.000000 120.137311 -23.483289 1442.612864 259.732187 9.168334 0.000000 0.045288
136.000000 107.613000 3.000000 1.000000 6.000000 134.302665 -27.553803 1536.568544 -243.792191 9.291085 0.000000 0.094936
137.000000 70.552000 -1.000000 2.000000 6.000000 62.833470 -27.277454 1529.980654 1562.452555 14.189054 0.000000 0.122353
138.000000 97.501000 1.000000 2.000000 6.000000 98.239703 -33.574976 1689.410817 753.932422 10.260563 0.000000 0.071595
139.000000 101.965000 2.000000 2.000000 6.000000 113.629777 -37.990054 1815.592417 343.515974 9.808643 0.000000 0.062060
141.000000 62.196000 -1.000000 3.000000 6.000000 58.470087 -36.492434 1771.195951 1762.368434 16.095464 0.000000 0.214454
142.000000 86.998000 1.000000 3.000000 6.000000 90.993625 -44.006396 2014.597505 915.047032 11.500331 0.000000 0.141840
143.000000 92.058000 2.000000 3.000000 6.000000 105.173326 -48.909684 2209.200321 496.898623 10.865420 0.000000 0.235012
145.000000 75.616000 1.000000 4.000000 6.000000 83.211114 -52.051106 2355.129528 1149.353275 13.232890 0.000000 0.331966
152.000000 48.640000 0.000000 -6.000000 7.000000 64.174708 45.117381 -105.713305 1679.159622 20.578883 0.000000 0.278662
153.000000 54.900000 1.000000 -6.000000 7.000000 75.371691 48.479048 -240.633343 1364.780651 18.228914 0.000000 0.272601
154.000000 59.330000 2.000000 -6.000000 7.000000 85.821575 52.180416 -411.571362 1069.234825 16.864566 0.000000 0.318661
156.000000 46.873000 -1.000000 -5.000000 7.000000 56.499806 36.806301 169.644382 1830.745945 21.357720 0.000000 0.222758
157.000000 55.782000 0.000000 -5.000000 7.000000 69.232755 39.852573 76.591000 1472.645318 17.943269 0.000000 0.179909
158.000000 62.629000 1.000000 -5.000000 7.000000 81.411033 43.285711 -38.741749 1164.316984 15.977991 0.000000 0.162653
159.000000 67.141000 2.000000 -5.000000 7.000000 92.695213 47.154529 -185.443373 866.492828 14.901149 0.000000 0.186447
162.000000 53.380000 -1.000000 -4.000000 7.000000 60.562158 30.527958 340.306614 1646.143563 18.754079 0.000000 0.143282
163.000000 63.410000 0.000000 -4.000000 7.000000 74.432795 33.434847 264.375095 1300.302766 15.783890 0.000000 0.121964
164.000000 70.792000 1.000000 -4.000000 7.000000 87.663561 36.795627 169.957130 995.839319 14.134456 0.000000 0.097888
165.000000 75.252000 2.000000 -4.000000 7.000000 99.850406 40.696175 49.365871 694.509596 13.293665 0.000000 0.080568
166.000000 77.032000 3.000000 -4.000000 7.000000 110.718803 45.231657 -110.032958 362.929707 12.983857 0.000000 0.167716
168.000000 46.443000 -2.000000 -3.000000 7.000000 49.270174 20.946635 562.999086 1933.312524 21.559591 0.000000 0.158139
169.000000 59.839000 -1.000000 -3.000000 7.000000 64.412453 23.111776 515.660100 1501.360254 16.729394 0.000000 0.097299
170.000000 70.954000 0.000000 -3.000000 7.000000 79.419593 25.662156 457.889820 1164.042243 14.104772 0.000000 0.119191
171.000000 78.773000 1.000000 -3.000000 7.000000 93.717513 28.697240 385.813486 861.276280 12.701239 0.000000 0.105374
172.000000 83.049000 2.000000 -3.000000 7.000000 106.842231 32.346717 293.366075 555.336845 12.044340 0.000000 0.044090
173.000000 84.200000 3.000000 -3.000000 7.000000 118.492221 36.777432 170.490014 211.643181 11.877232 0.000000 0.070629
175.000000 50.693000 -2.000000 -2.000000 7.000000 51.513024 12.957396 727.360708 1819.082296 19.752157 0.000000 0.095903
176.000000 65.472000 -1.000000 -2.000000 7.000000 67.633536 14.537437 695.900970 1398.527975 15.289613 0.000000 0.090101
177.000000 77.517000 0.000000 -2.000000 7.000000 83.649207 16.440546 657.401565 1065.896389 12.909984 0.000000 0.143946
178.000000 85.645000 1.000000 -2.000000 7.000000 98.914496 18.771257 609.201948 762.693855 11.681299 0.000000 0.141107
179.000000 89.659000 2.000000 -2.000000 7.000000 112.923145 21.680826 547.107644 451.192210 11.155422 0.000000 0.089237
180.000000 90.168000 3.000000 -2.000000 7.000000 125.367308 25.393019 464.098589 95.340086 11.090141 0.000000 0.023850
182.000000 53.566000 -2.000000 -1.000000 7.000000 52.938878 4.201270 895.937907 1756.037646 18.692646 0.000000 0.053294
183.000000 69.319000 -1.000000 -1.000000 7.000000 69.734322 4.978868 881.236441 1339.905716 14.440768 0.000000 0.099644
184.000000 82.001000 0.000000 -1.000000 7.000000 86.455338 5.930670 863.193489 1008.029897 12.203641 0.000000 0.163637
185.000000 90.308000 1.000000 -1.000000 7.000000 102.410773 7.121843 840.523757 702.307621 11.077621 0.000000 0.164839
186.000000 94.092000 2.000000 -1.000000 7.000000 117.075528 8.654116 811.185825 384.476165 10.629176 0.000000 0.118632
187.000000 94.115000 3.000000 -1.000000 7.000000 130.157743 10.694955 771.730242 16.765912 10.624359 0.000000 0.044698
189.000000 53.098000 -2.000000 1.000000 7.000000 52.441532 -14.152987 1246.404840 1794.523598 18.856938 0.000000 0.099358
190.000000 68.843000 -1.000000 1.000000 7.000000 69.187177 -15.232597 1268.080325 1365.018465 14.540420 0.000000 0.100844
191.000000 81.537000 0.000000 1.000000 7.000000 85.847482 -16.550378 1294.842534 1022.518767 12.272986 0.000000 0.148728
192.000000 89.873000 1.000000 1.000000 7.000000 101.727393 -18.192916 1328.720109 705.816828 11.131145 0.000000 0.139564
193.000000 93.698000 2.000000 1.000000 7.000000 116.295898 -20.293091 1372.985797 373.962536 10.673864 0.000000 0.082124
194.000000 93.766000 3.000000 1.000000 7.000000 129.251776 -23.064160 1433.282887 -14.827333 10.663903 0.000000 0.032602
196.000000 49.811000 -2.000000 2.000000 7.000000 50.554232 -22.855045 1428.649679 1901.963723 20.100954 0.000000 0.165409
197.000000 64.576000 -1.000000 2.000000 7.000000 66.586526 -24.701145 1470.066114 1453.993680 15.501400 0.000000 0.108269
198.000000 76.642000 0.000000 2.000000 7.000000 82.497382 -26.913856 1521.362564 1099.964622 13.057143 0.000000 0.120777
199.000000 84.823000 1.000000 2.000000 7.000000 97.636706 -29.605350 1586.553186 775.021075 11.794466 0.000000 0.093711
200.000000 88.910000 2.000000 2.000000 7.000000 111.492280 -32.933062 1672.167316 436.063860 11.249424 0.000000 0.018392
201.000000 89.501000 3.000000 2.000000 7.000000 123.748674 -37.119987 1789.585322 39.138001 11.172850 0.000000 0.112954
203.000000 58.614000 -1.000000 3.000000 7.000000 62.942111 -33.155099 1678.103222 1597.682138 17.078281 0.000000 0.158384
204.000000 69.757000 0.000000 3.000000 7.000000 77.822683 -35.948345 1755.491985 1227.897737 14.346681 0.000000 0.125518
205.000000 77.641000 1.000000 3.000000 7.000000 91.975022 -39.245966 1854.242958 893.074543 12.886289 0.000000 0.093142
206.000000 82.010000 2.000000 3.000000 7.000000 104.932595 -43.169149 1984.617576 547.443312 12.196913 0.000000 0.115829
208.000000 51.929000 -1.000000 4.000000 7.000000 58.751946 -40.445337 1892.467724 1799.133703 19.277525 0.000000 0.259294
209.000000 61.986000 0.000000 4.000000 7.000000 72.492312 -43.535150 1997.620774 1409.324934 16.145956 0.000000 0.211994
210.000000 69.439000 1.000000 4.000000 7.000000 85.579595 -47.078656 2132.365658 1063.177207 14.409748 0.000000 0.208060
211.000000 73.999000 2.000000 4.000000 7.000000 97.610135 -51.149765 2311.239301 711.755447 13.518694 0.000000 0.282512
219.000000 46.641000 1.000000 -7.000000 8.000000 73.293887 48.616117 -246.508716 1429.622780 21.457435 0.000000 0.286490
220.000000 50.279000 2.000000 -7.000000 8.000000 82.487968 51.776843 -391.589153 1170.385515 19.901729 0.000000 0.318221
223.000000 52.430000 1.000000 -6.000000 8.000000 78.420430 44.243721 -73.249598 1248.842289 19.087136 0.000000 0.187213
224.000000 58.506000 3.000000 -6.000000 8.000000 97.314993 51.151415 -361.318061 720.737630 17.098919 0.000000 0.276199
225.000000 45.696000 -1.000000 -5.000000 8.000000 60.743339 33.361595 266.349327 1662.870355 21.907206 0.000000 0.163629
226.000000 52.956000 0.000000 -5.000000 8.000000 72.484587 35.990526 193.298301 1360.808038 18.900107 0.000000 0.137466
227.000000 58.590000 1.000000 -5.000000 8.000000 83.758416 38.949187 105.013379 1092.360206 17.079201 0.000000 0.117273
228.000000 62.416000 2.000000 -5.000000 8.000000 94.305261 42.284648 -3.825409 831.477000 16.028939 0.000000 0.109046
229.000000 64.503000 3.000000 -5.000000 8.000000 103.933865 46.046358 -141.341489 556.271156 15.507579 0.000000 0.164057
231.000000 50.852000 -1.000000 -4.000000 8.000000 64.362040 27.289076 419.742952 1522.240171 19.685489 0.000000 0.113695
232.000000 64.822000 1.000000 -4.000000 8.000000 89.082864 32.531219 288.500166 961.436224 15.435949 0.000000 0.098398
233.000000 70.406000 3.000000 -4.000000 8.000000 110.615162 39.530420 86.811297 416.062285 14.205936 0.000000 0.070911
235.000000 55.736000 -1.000000 -3.000000 8.000000 67.665957 20.298813 576.892015 1412.446331 17.960133 0.000000 0.096215
236.000000 64.389000 0.000000 -3.000000 8.000000 81.129048 22.372437 531.989120 1122.657704 15.542571 0.000000 0.127550
237.000000 70.660000 1.000000 -3.000000 8.000000 94.032629 24.810459 477.443795 857.406627 14.159722 0.000000 0.122613
238.000000 74.384000 2.000000 -3.000000 8.000000 106.045589 27.706524 409.776529 591.361223 13.447735 0.000000 0.079056
239.000000 75.791000 3.000000 -3.000000 8.000000 116.939895 31.183180 323.604777 301.645833 13.195458 0.000000 0.002260
240.000000 75.343000 4.000000 -3.000000 8.000000 126.588202 35.399349 210.135868 -39.185462 13.271934 0.000000 0.111216
242.000000 59.813000 -1.000000 -2.000000 8.000000 70.330751 12.421591 737.936139 1334.939162 16.735488 0.000000 0.102644
243.000000 75.491000 1.000000 -2.000000 8.000000 98.109027 15.718547 672.091366 781.690084 13.252880 0.000000 0.151893
244.000000 80.146000 3.000000 -2.000000 8.000000 122.272920 20.642355 569.539291 214.676196 12.477624 0.000000 0.050894
246.000000 50.693000 -2.000000 -1.000000 8.000000 57.223940 3.222475 914.402294 1635.085500 19.750706 0.000000 0.010841
247.000000 62.499000 -1.000000 -1.000000 8.000000 72.011770 3.826004 903.021954 1291.245392 16.015955 0.000000 0.112830
248.000000 72.068000 0.000000 -1.000000 8.000000 86.674233 4.548668 889.373852 1003.742015 13.885598 0.000000 0.165001
249.000000 78.664000 1.000000 -1.000000 8.000000 100.747151 5.429288 872.705129 735.793984 12.717804 0.000000 0.169013
250.000000 82.165000 2.000000 -1.000000 8.000000 113.867381 6.525410 851.888216 461.679654 12.172810 0.000000 0.135380
251.000000 82.959000 3.000000 -1.000000 8.000000 125.811305 7.925970 825.154568 156.939126 12.053924 0.000000 0.075230
252.000000 81.689000 4.000000 -1.000000 8.000000 136.487838 9.775596 789.563766 -209.398923 12.239392 0.000000 0.022609
254.000000 63.329000 -1.000000 0.000000 8.000000 72.440473 -5.165843 1072.303544 1282.973057 15.805989 0.000000 0.115817
255.000000 79.670000 1.000000 0.000000 8.000000 101.483369 -5.548960 1079.563661 721.321357 12.556896 0.000000 0.168338
256.000000 83.848000 3.000000 0.000000 8.000000 126.827087 -6.153207 1091.033683 130.364927 11.925858 0.000000 0.072167
258.000000 50.331000 -2.000000 1.000000 8.000000 56.777227 -13.249839 1228.430472 1665.196566 19.892793 0.000000 0.066581
259.000000 62.133000 -1.000000 1.000000 8.000000 71.525154 -14.129865 1245.942924 1311.816788 16.110094 0.000000 0.110639
260.000000 71.711000 0.000000 1.000000 8.000000 86.139974 -15.181232 1267.044128 1016.245932 13.954613 0.000000 0.151844
261.000000 78.326000 1.000000 1.000000 8.000000 100.155076 -16.458405 1292.963156 739.978456 12.772578 0.000000 0.148058
262.000000 81.854000 2.000000 1.000000 8.000000 113.203787 -18.041085 1325.562656 455.758419 12.219078 0.000000 0.106119
263.000000 82.678000 3.000000 1.000000 8.000000 125.057170 -20.050207 1367.807495 137.043275 12.094934 0.000000 0.040310
264.000000 81.439000 4.000000 1.000000 8.000000 135.615801 -22.677250 1424.721601 -250.820191 12.277085 0.000000 0.069160
266.000000 59.115000 -1.000000 2.000000 8.000000 69.391232 -22.649551 1424.110564 1379.563515 16.932830 0.000000 0.107350
267.000000 74.844000 1.000000 2.000000 8.000000 96.984155 -26.568105 1513.218838 793.583066 13.367294 0.000000 0.111189
268.000000 79.603000 3.000000 2.000000 8.000000 120.881731 -32.328693 1656.159644 179.239891 12.562673 0.000000 0.036463
270.000000 54.763000 -1.000000 3.000000 8.000000 66.330408 -30.420899 1606.985938 1488.098622 18.278810 0.000000 0.130019
271.000000 63.437000 0.000000 3.000000 8.000000 79.686718 -32.730483 1666.777540 1173.819963 15.775548 0.000000 0.115245
272.000000 69.754000 1.000000 3.000000 8.000000 92.467816 -35.427721 1740.666522 884.073632 14.343508 0.000000 0.084867
273.000000 73.542000 2.000000 3.000000 8.000000 104.339960 -38.603592 1834.304906 588.920559 13.601684 0.000000 0.055510
274.000000 75.023000 3.000000 3.000000 8.000000 115.072500 -42.372133 1956.832190 259.415361 13.330605 0.000000 0.137381
276.000000 49.671000 -1.000000 4.000000 8.000000 62.696166 -37.294664 1794.758133 1639.412597 20.152701 0.000000 0.195336
277.000000 63.716000 1.000000 4.000000 8.000000 87.174967 -42.914564 1975.664313 1013.519292 15.703705 0.000000 0.140186
279.000000 51.657000 0.000000 5.000000 8.000000 70.438518 -46.026453 2090.565622 1491.801719 19.374856 0.000000 0.262415
280.000000 57.343000 1.000000 5.000000 8.000000 81.590886 -49.124780 2218.594494 1184.130928 17.450394 0.000000 0.264639
286.000000 48.123000 2.000000 -7.000000 9.000000 84.860692 47.799016 -211.946262 1085.106331 20.792825 0.000000 0.218832
287.000000 50.275000 3.000000 -7.000000 9.000000 92.997647 50.901485 -349.449943 851.629721 19.899694 0.000000 0.270663
289.000000 49.761000 1.000000 -6.000000 9.000000 80.774673 40.481325 56.364369 1170.826269 20.110450 0.000000 0.137781
290.000000 52.999000 2.000000 -6.000000 9.000000 90.054973 43.386808 -42.331602 939.579045 18.878381 0.000000 0.133442
291.000000 56.060000 4.000000 -6.000000 9.000000 106.520505 50.139934 -314.058206 442.912061 17.842278 0.000000 0.265938
293.000000 49.984000 0.000000 -5.000000 9.000000 75.005753 32.641242 285.589003 1283.344793 20.023111 0.000000 0.118996
294.000000 54.684000 1.000000 -5.000000 9.000000 85.468219 35.194395 215.915582 1045.389115 18.298790 0.000000 0.102497
295.000000 57.971000 2.000000 -5.000000 9.000000 95.335759 38.067484 132.063400 813.317730 17.257885 0.000000 0.075752
296.000000 59.888000 3.000000 -5.000000 9.000000 104.455352 41.307160 29.214039 571.643254 16.702761 0.000000 0.084979
297.000000 60.595000 4.000000 -5.000000 9.000000 112.725489 44.963214 -99.913106 303.900755 16.505290 0.000000 0.171336
299.000000 48.088000 -1.000000 -4.000000 9.000000 67.347382 24.535954 483.688536 1434.764722 20.816104 0.000000 0.103566
300.000000 54.558000 0.000000 -4.000000 9.000000 78.891412 26.597230 436.097047 1177.338375 18.343926 0.000000 0.117321
301.000000 59.498000 1.000000 -4.000000 9.000000 90.008055 28.951079 379.601102 940.827084 16.817211 0.000000 0.109419
302.000000 62.788000 2.000000 -4.000000 9.000000 100.473092 31.654637 311.443723 707.270808 15.932854 0.000000 0.073115
303.000000 64.510000 3.000000 -4.000000 9.000000 110.119811 34.776920 227.598803 460.966055 15.504808 0.000000 0.021526
304.000000 64.886000 4.000000 -4.000000 9.000000 118.841419 38.399798 121.945860 184.696991 15.412544 0.000000 0.094733
306.000000 51.827000 -1.000000 -3.000000 9.000000 70.182685 17.963367 626.051433 1348.732623 19.314083 0.000000 0.102611
307.000000 63.860000 1.000000 -3.000000 9.000000 94.094379 21.658938 547.583730 858.103696 15.667625 0.000000 0.135312
308.000000 67.114000 2.000000 -3.000000 9.000000 105.131388 23.990078 496.026235 622.442564 14.904819 0.000000 0.104360
309.000000 68.656000 4.000000 -3.000000 9.000000 124.493125 30.066156 351.943136 86.498236 14.565081 0.000000 0.041357
310.000000 67.577000 5.000000 -3.000000 9.000000 132.660503 34.077514 246.909853 -256.424260 14.795975 0.000000 0.144785
311.000000 46.055000 -2.000000 -2.000000 9.000000 59.551244 9.670114 791.603404 1582.809169 21.738732 0.000000 0.041796
312.000000 54.848000 -1.000000 -2.000000 9.000000 72.406263 10.702103 771.591175 1288.332678 18.249765 0.000000 0.113127
313.000000 62.091000 0.000000 -2.000000 9.000000 85.111797 11.905983 748.071838 1035.071457 16.117078 0.000000 0.154372
314.000000 67.364000 1.000000 -2.000000 9.000000 97.354669 13.327216 720.034930 798.234844 14.851960 0.000000 0.158780
315.000000 70.564000 2.000000 -2.000000 9.000000 108.879534 15.028171 686.040568 559.897268 14.175318 0.000000 0.132272
316.000000 71.864000 3.000000 -2.000000 9.000000 119.510036 17.096324 643.964223 303.649796 13.916177 0.000000 0.081440
317.000000 71.607000 4.000000 -2.000000 9.000000 129.148197 19.657332 590.534888 10.592073 13.963947 0.000000 0.029489
318.000000 70.192000 5.000000 -2.000000 9.000000 137.757662 22.896132 520.441122 -345.594657 14.243928 0.000000 0.084149
320.000000 47.656000 -2.000000 -1.000000 9.000000 60.582234 2.424730 929.424530 1548.444294 21.008642 0.000000 0.031111
321.000000 56.787000 -1.000000 -1.000000 9.000000 73.772963 2.903291 920.415301 1254.645804 17.626503 0.000000 0.122192
322.000000 64.253000 0.000000 -1.000000 9.000000 86.821962 3.466225 909.807825 1000.869888 15.574404 0.000000 0.165860
323.000000 69.611000 1.000000 -1.000000 9.000000 99.403237 4.137859 897.135410 762.292327 14.372159 0.000000 0.171465
324.000000 72.766000 2.000000 -1.000000 9.000000 111.255516 4.952787 881.730072 520.763658 13.745902 0.000000 0.146491
325.000000 73.923000 3.000000 -1.000000 9.000000 122.205417 5.961878 862.600889 259.392548 13.528024 0.000000 0.098297
326.000000 73.466000 4.000000 -1.000000 9.000000 132.166974 7.242983 838.212021 -41.635213 13.610197 0.000000 0.038936
327.000000 71.826000 5.000000 -1.000000 9.000000 141.124546 8.921218 806.048432 -410.384372 13.919295 0.000000 0.031871
329.000000 47.367000 -2.000000 1.000000 9.000000 60.176875 -12.513680 1213.878315 1572.989916 21.136564 0.000000 0.060592
330.000000 56.497000 -1.000000 1.000000 9.000000 73.334940 -13.246874 1228.371679 1271.995680 17.716734 0.000000 0.118471
331.000000 63.970000 0.000000 1.000000 9.000000 86.345595 -14.107737 1245.500941 1011.878550 15.643192 0.000000 0.154106
332.000000 69.341000 1.000000 1.000000 9.000000 98.881260 -15.132281 1266.057117 766.776377 14.427994 0.000000 0.153617
333.000000 72.514000 2.000000 1.000000 9.000000 110.678438 -16.371202 1291.182903 517.598613 13.793577 0.000000 0.122265
334.000000 73.693000 3.000000 1.000000 9.000000 121.560535 -17.898023 1322.592566 246.258858 13.570408 0.000000 0.067733
335.000000 73.257000 4.000000 1.000000 9.000000 131.436789 -19.823117 1362.980389 -68.955888 13.649086 0.000000 0.032260
339.000000 54.290000 -1.000000 2.000000 9.000000 71.555048 -20.981162 1387.744704 1325.464234 18.437107 0.000000 0.111037
340.000000 61.545000 0.000000 2.000000 9.000000 84.190764 -22.452461 1419.769816 1059.482647 16.259777 0.000000 0.132951
341.000000 66.843000 1.000000 2.000000 9.000000 96.352013 -24.181667 1458.291940 809.662209 14.967591 0.000000 0.123659
342.000000 70.077000 2.000000 2.000000 9.000000 107.780459 -26.238941 1505.511360 556.193362 14.273824 0.000000 0.082813
343.000000 71.416000 3.000000 2.000000 9.000000 118.295799 -28.720246 1564.748326 280.294682 14.003517 0.000000 0.016527
344.000000 71.200000 4.000000 2.000000 9.000000 127.794832 -31.758792 1641.259541 -40.691113 14.043861 0.000000 0.081889
346.000000 51.038000 -1.000000 3.000000 9.000000 68.961466 -28.149548 1550.884287 1410.516126 19.612298 0.000000 0.117615
347.000000 63.121000 1.000000 3.000000 9.000000 92.679084 -32.322807 1656.004785 881.402292 15.850975 0.000000 0.092730
348.000000 66.420000 2.000000 3.000000 9.000000 103.597582 -34.929158 1726.647851 623.464418 15.060463 0.000000 0.046261
349.000000 68.072000 4.000000 3.000000 9.000000 122.666672 -41.612801 1931.008890 17.994395 14.690291 0.000000 0.173826
351.000000 47.114000 -1.000000 4.000000 9.000000 65.808295 -34.615862 1717.925549 1528.522258 21.245836 0.000000 0.156787
352.000000 53.603000 0.000000 4.000000 9.000000 77.251502 -36.862131 1781.992767 1245.357637 18.670304 0.000000 0.131017
353.000000 58.581000 1.000000 4.000000 9.000000 88.256151 -39.411286 1859.433192 983.412316 17.080165 0.000000 0.106676
354.000000 61.924000 2.000000 4.000000 9.000000 98.596962 -42.316582 1954.921991 720.946109 16.155101 0.000000 0.103246
355.000000 63.708000 3.000000 4.000000 9.000000 108.106461 -45.639725 2075.600975 437.656568 15.700057 0.000000 0.169519
357.000000 48.893000 0.000000 5.000000 9.000000 73.098837 -42.761297 1970.309822 1386.426470 20.469507 0.000000 0.198706
358.000000 53.633000 1.000000 5.000000 9.000000 83.450193 -45.462934 2068.828638 1117.192330 18.657195 0.000000 0.188421
359.000000 56.976000 2.000000 5.000000 9.000000 93.198184 -48.480257 2190.685023 850.274470 17.559354 0.000000 0.217644
362.000000 48.615000 1.000000 6.000000 9.000000 78.549425 -50.581880 2284.457573 1284.333031 20.584119 0.000000 0.312583
366.000000 45.869000 2.000000 -7.000000 10.000000 86.705579 44.195786 -71.496460 1027.411283 21.814282 0.000000 0.154324
367.000000 47.787000 3.000000 -7.000000 10.000000 94.480161 46.994685 -178.969656 817.359177 20.935282 0.000000 0.180794
368.000000 48.934000 4.000000 -7.000000 10.000000 101.678909 50.038979 -309.451196 594.606798 20.442289 0.000000 0.251150
370.000000 47.080000 1.000000 -6.000000 10.000000 82.598289 37.144288 159.696451 1116.405646 21.255232 0.000000 0.113406
371.000000 51.751000 3.000000 -6.000000 10.000000 99.547137 42.546539 -12.851488 695.291685 19.330491 0.000000 0.103040
373.000000 51.039000 1.000000 -5.000000 10.000000 86.719860 31.938117 304.071965 1013.687945 19.605424 0.000000 0.103945
374.000000 53.893000 2.000000 -5.000000 10.000000 95.965918 34.417502 237.562912 804.655887 18.563838 0.000000 0.075071
375.000000 55.656000 3.000000 -5.000000 10.000000 104.597651 37.207094 157.838114 589.057289 17.972959 0.000000 0.044303
376.000000 56.436000 4.000000 -5.000000 10.000000 112.528942 40.352973 60.523967 355.157805 17.721813 0.000000 0.089887
378.000000 54.805000 1.000000 -4.000000 10.000000 90.606416 25.924942 451.800452 928.333454 18.257089 0.000000 0.120899
379.000000 59.312000 3.000000 -4.000000 10.000000 109.412989 30.804295 333.290485 499.402815 16.863756 0.000000 0.043212
380.000000 59.550000 5.000000 -4.000000 10.000000 125.264366 37.303584 154.977070 -15.776832 16.792092 0.000000 0.125285
381.000000 48.241000 -1.000000 -3.000000 10.000000 72.173252 15.999473 666.388298 1301.061894 20.749363 0.000000 0.110376
382.000000 53.855000 0.000000 -3.000000 10.000000 83.279074 17.426038 637.172592 1073.935202 18.582216 0.000000 0.141360
383.000000 58.131000 1.000000 -3.000000 10.000000 94.015521 19.066700 603.000090 861.059568 17.211821 0.000000 0.144444
384.000000 60.986000 2.000000 -3.000000 10.000000 104.199403 20.970158 562.492388 649.350801 16.402734 0.000000 0.121964
385.000000 62.495000 3.000000 -3.000000 10.000000 113.694125 23.199635 513.707791 427.117854 16.003960 0.000000 0.077366
386.000000 62.838000 4.000000 -3.000000 10.000000 122.411257 25.837882 453.820822 181.766242 15.914203 0.000000 0.022328
387.000000 62.249000 5.000000 -3.000000 10.000000 130.303481 28.993708 378.554834 -102.677378 16.062978 0.000000 0.075160
389.000000 50.529000 -1.000000 -2.000000 10.000000 74.046526 9.279527 799.144919 1252.756625 19.809141 0.000000 0.121399
390.000000 60.743000 1.000000 -2.000000 10.000000 96.668959 11.409531 757.794673 812.618548 16.471222 0.000000 0.163327
391.000000 64.965000 3.000000 -2.000000 10.000000 117.075984 14.367573 699.303803 373.037824 15.394652 0.000000 0.103356
392.000000 64.313000 5.000000 -2.000000 10.000000 134.377678 18.722275 610.228059 -171.005246 15.546535 0.000000 0.040699
394.000000 51.968000 -1.000000 -1.000000 10.000000 75.173832 2.148429 934.623101 1226.095560 19.260337 0.000000 0.129085
395.000000 57.951000 0.000000 -1.000000 10.000000 86.925688 2.596043 926.200242 998.865448 17.268008 0.000000 0.166419
396.000000 62.386000 1.000000 -1.000000 10.000000 98.297543 3.121020 916.313957 783.799625 16.036909 0.000000 0.172926
397.000000 65.201000 2.000000 -1.000000 10.000000 109.095309 3.745196 904.546568 567.600954 15.341376 0.000000 0.154119
398.000000 66.509000 3.000000 -1.000000 10.000000 119.182713 4.499421 890.304740 338.047318 15.036921 0.000000 0.115217
399.000000 66.544000 4.000000 -1.000000 10.000000 128.482812 5.428699 872.716285 81.549029 15.026741 0.000000 0.063220
400.000000 65.590000 5.000000 -1.000000 10.000000 136.969590 6.601259 850.444542 -219.651691 15.243548 0.000000 0.017531
403.000000 52.389000 -1.000000 0.000000 10.000000 75.430021 -5.197727 1072.907401 1221.906627 19.105614 0.000000 0.130223
404.000000 62.881000 1.000000 0.000000 10.000000 98.705694 -5.503094 1078.694013 775.431256 15.910506 0.000000 0.171196
405.000000 65.693000 2.000000 0.000000 10.000000 109.573978 -5.699772 1082.424126 556.398069 15.226390 0.000000 0.151074
406.000000 66.976000 3.000000 0.000000 10.000000 119.727832 -5.938237 1086.950195 323.083738 14.931863 0.000000 0.111009
407.000000 66.973000 4.000000 0.000000 10.000000 129.092129 -6.233378 1092.557418 61.364331 14.930363 0.000000 0.058499
409.000000 51.733000 -1.000000 1.000000 10.000000 74.775651 -12.524212 1214.085914 1241.053837 19.347659 0.000000 0.124648
410.000000 57.721000 0.000000 1.000000 10.000000 86.496005 -13.244023 1228.315166 1008.705052 17.336634 0.000000 0.155803
411.000000 62.166000 1.000000 1.000000 10.000000 97.830993 -14.086539 1245.077627 788.383552 16.093652 0.000000 0.157414
412.000000 64.993000 2.000000 1.000000 10.000000 108.585067 -15.085578 1265.115871 566.182316 15.390304 0.000000 0.133549
413.000000 66.316000 3.000000 1.000000 10.000000 118.619911 -16.288409 1289.494135 329.141258 15.080580 0.000000 0.089327
414.000000 66.367000 4.000000 1.000000 10.000000 127.855652 -17.762994 1319.793641 62.588046 15.066787 0.000000 0.036976
415.000000 65.429000 5.000000 1.000000 10.000000 136.261940 -19.610335 1358.469921 -253.038715 15.281092 0.000000 0.055738
417.000000 50.073000 -1.000000 2.000000 10.000000 73.268955 -19.599967 1358.250463 1284.439207 19.989186 0.000000 0.115850
418.000000 60.314000 1.000000 2.000000 10.000000 95.765702 -22.263273 1415.614711 823.570882 16.587997 0.000000 0.132623
419.000000 64.590000 3.000000 2.000000 10.000000 116.001641 -25.925219 1498.205991 357.275153 15.484179 0.000000 0.049121
420.000000 63.998000 5.000000 2.000000 10.000000 133.060388 -31.220596 1627.355901 -235.110213 15.623211 0.000000 0.118777
421.000000 47.589000 -1.000000 3.000000 10.000000 71.049739 -26.238317 1505.496795 1353.004813 21.032930 0.000000 0.113852
422.000000 53.217000 0.000000 3.000000 10.000000 82.078028 -27.881635 1544.426851 1110.437990 18.804690 0.000000 0.118605
423.000000 57.518000 1.000000 3.000000 10.000000 92.726556 -29.762433 1590.462756 881.954680 17.395201 0.000000 0.103397
424.000000 60.406000 2.000000 3.000000 10.000000 102.810252 -31.931116 1645.745430 652.635396 16.560193 0.000000 0.063843
425.000000 61.954000 3.000000 3.000000 10.000000 112.190312 -34.451353 1713.371860 408.606524 16.143774 0.000000 0.017679
426.000000 62.339000 4.000000 3.000000 10.000000 120.775790 -37.403586 1797.995862 134.098177 16.041779 0.000000 0.095264
429.000000 54.036000 1.000000 4.000000 10.000000 88.991757 -36.443938 1769.787319 964.546462 18.516938 0.000000 0.095205
430.000000 58.628000 3.000000 4.000000 10.000000 107.567864 -41.740115 1935.295811 484.327472 17.060488 0.000000 0.097448
432.000000 50.144000 1.000000 5.000000 10.000000 84.838450 -42.282816 1953.762542 1072.411083 19.954893 0.000000 0.141824
433.000000 53.041000 2.000000 5.000000 10.000000 93.975387 -44.916379 2048.157222 835.374798 18.861855 0.000000 0.148436
434.000000 54.855000 3.000000 5.000000 10.000000 102.489542 -47.855525 2164.301317 585.706766 18.235447 0.000000 0.204053
436.000000 46.091000 1.000000 6.000000 10.000000 80.502245 -47.329431 2142.571720 1206.670248 21.710762 0.000000 0.232685
439.000000 46.422000 4.000000 -7.000000 11.000000 102.495523 46.203134 -147.472201 596.368876 21.548329 0.000000 0.165027
440.000000 46.917000 5.000000 -7.000000 11.000000 108.888672 49.189427 -271.433863 377.532199 21.318638 0.000000 0.249789
442.000000 46.955000 2.000000 -6.000000 11.000000 92.285401 36.450502 180.022123 887.599519 21.307841 0.000000 0.083572
443.000000 48.639000 3.000000 -6.000000 11.000000 100.080661 38.954293 104.854776 694.947164 20.567128 0.000000 0.065351
444.000000 49.596000 4.000000 -6.000000 11.000000 107.334296 41.722784 15.288769 490.910101 20.167600 0.000000 0.094727
445.000000 49.916000 5.000000 -6.000000 11.000000 114.000421 44.785117 -93.251315 265.826985 20.036203 0.000000 0.174192
447.000000 47.699000 1.000000 -5.000000 11.000000 87.640707 29.104590 375.829349 991.752451 20.977929 0.000000 0.111196
448.000000 50.199000 2.000000 -5.000000 11.000000 96.320806 31.251813 321.841994 801.544805 19.929773 0.000000 0.087457
449.000000 51.821000 3.000000 -5.000000 11.000000 104.491433 33.659434 258.301375 606.792012 19.302968 0.000000 0.046806
450.000000 52.640000 4.000000 -5.000000 11.000000 112.079914 36.367629 182.425632 398.796040 19.000239 0.000000 0.035065
451.000000 52.767000 5.000000 -5.000000 11.000000 119.039043 39.421774 90.236717 167.453423 18.952116 0.000000 0.110853
454.000000 47.170000 0.000000 -4.000000 11.000000 81.474892 21.648214 547.816930 1114.578605 21.216485 0.000000 0.129580
455.000000 50.685000 1.000000 -4.000000 11.000000 90.986236 23.346981 510.427860 920.819509 19.741304 0.000000 0.130577
456.000000 53.201000 2.000000 -4.000000 11.000000 100.064562 25.271571 466.891242 729.751924 18.804263 0.000000 0.110594
457.000000 54.746000 3.000000 -4.000000 11.000000 108.604582 27.464872 415.555087 532.669775 18.270588 0.000000 0.071004
458.000000 55.417000 4.000000 -4.000000 11.000000 116.531729 29.979392 354.117265 320.633212 18.047041 0.000000 0.014063
459.000000 55.349000 5.000000 -4.000000 11.000000 123.799453 32.879101 279.270776 83.074359 18.067063 0.000000 0.061953
460.000000 54.693000 6.000000 -4.000000 11.000000 130.383441 36.241000 186.088316 -194.052015 18.281873 0.000000 0.152512
462.000000 49.654000 0.000000 -3.000000 11.000000 83.973304 15.533172 675.846018 1058.937748 20.154397 0.000000 0.146237
463.000000 53.268000 1.000000 -3.000000 11.000000 93.860062 16.905273 647.888593 865.099398 18.783454 0.000000 0.151063
464.000000 55.785000 2.000000 -3.000000 11.000000 103.297849 18.480634 615.281442 672.785899 17.932425 0.000000 0.134478
465.000000 57.249000 3.000000 -3.000000 11.000000 112.178347 20.305023 576.759379 473.175559 17.470926 0.000000 0.099316
466.000000 57.777000 4.000000 -3.000000 11.000000 120.427793 22.437807 530.552427 257.061958 17.308803 0.000000 0.050155
467.000000 57.528000 5.000000 -3.000000 11.000000 128.003300 24.956677 474.106167 13.393595 17.381733 0.000000 0.033330
468.000000 56.672000 6.000000 -3.000000 11.000000 134.885627 27.963930 403.593014 -272.715713 17.642588 0.000000 0.101524
470.000000 46.772000 -1.000000 -2.000000 11.000000 75.371927 8.084451 822.118624 1224.736671 21.399819 0.000000 0.127900
471.000000 51.574000 0.000000 -2.000000 11.000000 85.868726 8.901459 806.428732 1019.687973 19.403375 0.000000 0.159706
472.000000 55.260000 1.000000 -2.000000 11.000000 96.053066 9.840722 788.303827 825.164636 18.105734 0.000000 0.166408
473.000000 57.771000 2.000000 -2.000000 11.000000 105.779317 10.931258 767.129367 631.238509 17.315380 0.000000 0.151729
474.000000 59.164000 3.000000 -2.000000 11.000000 114.938482 12.211795 742.065014 428.935113 16.904922 0.000000 0.119235
475.000000 59.573000 4.000000 -2.000000 11.000000 123.459946 13.735032 711.930454 208.758807 16.786329 0.000000 0.073627
476.000000 59.177000 5.000000 -2.000000 11.000000 131.307308 15.574274 675.014110 -40.840912 16.896818 0.000000 0.030775
477.000000 58.160000 6.000000 -2.000000 11.000000 138.470437 17.833937 628.736350 -335.608707 17.190408 0.000000 0.058765
479.000000 47.867000 -1.000000 -1.000000 11.000000 76.313755 1.519639 946.447076 1203.190755 20.910318 0.000000 0.134318
480.000000 52.765000 0.000000 -1.000000 11.000000 87.000871 1.881569 939.642242 997.420209 18.965104 0.000000 0.166788
481.000000 56.495000 1.000000 -1.000000 11.000000 97.373212 2.300091 931.769851 801.613156 17.709508 0.000000 0.173791
482.000000 59.000000 2.000000 -1.000000 11.000000 107.282747 2.789545 922.557298 605.729882 16.954254 0.000000 0.159499
483.000000 60.345000 3.000000 -1.000000 11.000000 116.620892 3.369540 911.630530 400.606806 16.573525 0.000000 0.127783
484.000000 60.677000 4.000000 -1.000000 11.000000 125.320427 4.067599 898.462011 176.439059 16.480426 0.000000 0.083332
485.000000 60.186000 5.000000 -1.000000 11.000000 133.351330 4.923570 882.283002 -78.833560 16.613013 0.000000 0.034218
486.000000 59.068000 6.000000 -1.000000 11.000000 140.713015 5.997315 861.927914 -381.824352 16.925939 0.000000 0.020047
488.000000 47.672000 -1.000000 1.000000 11.000000 75.948819 -11.922025 1202.242933 1216.310271 20.995395 0.000000 0.129565
489.000000 52.575000 0.000000 1.000000 11.000000 86.609604 -12.534372 1214.286201 1006.319440 19.033610 0.000000 0.157116
490.000000 56.312000 1.000000 1.000000 11.000000 96.951549 -13.241281 1228.260804 806.187346 17.767037 0.000000 0.160091
491.000000 58.826000 2.000000 1.000000 11.000000 106.825621 -14.066214 1244.671824 605.461406 17.004299 0.000000 0.141686
492.000000 60.182000 3.000000 1.000000 11.000000 116.121881 -15.040973 1264.217280 394.496138 16.618360 0.000000 0.105595
493.000000 60.526000 4.000000 1.000000 11.000000 124.771232 -16.209699 1287.889977 162.821794 16.521576 0.000000 0.057803
494.000000 60.047000 5.000000 1.000000 11.000000 132.740976 -17.635342 1317.151500 -102.649252 16.651533 0.000000 0.031337
497.000000 46.393000 -1.000000 2.000000 11.000000 74.656603 -18.438951 1333.848298 1252.298904 21.574322 0.000000 0.120568
498.000000 51.203000 0.000000 2.000000 11.000000 85.104045 -19.488247 1355.887350 1038.797231 19.543815 0.000000 0.141257
499.000000 54.902000 1.000000 2.000000 11.000000 95.231964 -20.690809 1381.500416 835.649036 18.223563 0.000000 0.139214
500.000000 57.431000 2.000000 2.000000 11.000000 104.893187 -22.081526 1411.633588 632.099386 17.417759 0.000000 0.115657
501.000000 58.845000 3.000000 2.000000 11.000000 113.976718 -23.706206 1447.599206 418.213660 16.996511 0.000000 0.073388
502.000000 59.277000 4.000000 2.000000 11.000000 122.409333 -25.625896 1491.272062 183.175105 16.870264 0.000000 0.022998
503.000000 58.903000 5.000000 2.000000 11.000000 130.151181 -27.923213 1545.426891 -86.606426 16.975265 0.000000 0.066214
506.000000 49.119000 0.000000 3.000000 11.000000 82.867109 -26.022240 1500.461054 1090.881426 20.373630 0.000000 0.123001
507.000000 52.751000 1.000000 3.000000 11.000000 92.678554 -27.622891 1538.220699 884.169345 18.967128 0.000000 0.113055
508.000000 55.294000 2.000000 3.000000 11.000000 102.031060 -29.451120 1582.726478 677.575829 18.091711 0.000000 0.082075
509.000000 56.787000 3.000000 3.000000 11.000000 110.814508 -31.554523 1635.963628 460.848256 17.613107 0.000000 0.030915
510.000000 57.347000 4.000000 3.000000 11.000000 118.953009 -33.993099 1700.781053 222.820393 17.438789 0.000000 0.041029
511.000000 57.130000 5.000000 3.000000 11.000000 126.401225 -36.842550 1781.418305 -50.580271 17.502922 0.000000 0.129874
513.000000 46.493000 0.000000 4.000000 11.000000 80.067252 -32.021381 1648.101907 1163.300313 21.524799 0.000000 0.114607
514.000000 50.031000 1.000000 4.000000 11.000000 89.492115 -33.911069 1698.541606 952.496267 19.999139 0.000000 0.095634
515.000000 52.577000 2.000000 4.000000 11.000000 98.474497 -36.039428 1758.105740 742.680595 19.027318 0.000000 0.063887
516.000000 54.158000 3.000000 4.000000 11.000000 106.907977 -38.447575 1829.516405 523.256999 18.469120 0.000000 0.052460
517.000000 54.867000 4.000000 4.000000 11.000000 114.716879 -41.184133 1916.698043 282.714014 18.227979 0.000000 0.115212
520.000000 46.931000 1.000000 5.000000 11.000000 85.883115 -39.511413 1862.588665 1041.413171 21.321014 0.000000 0.115506
521.000000 49.465000 2.000000 5.000000 11.000000 94.464376 -41.818229 1937.934496 828.244116 20.225746 0.000000 0.105758
522.000000 51.126000 3.000000 5.000000 11.000000 102.527887 -44.386129 2028.474894 606.345250 19.565528 0.000000 0.134047
523.000000 51.988000 4.000000 5.000000 11.000000 110.000801 -47.249828 2139.321589 363.872097 19.238664 0.000000 0.211697
525.000000 46.132000 2.000000 6.000000 11.000000 90.213422 -46.831096 2122.384252 935.140006 21.688170 0.000000 0.189756
526.000000 47.857000 3.000000 6.000000 11.000000 97.906477 -49.452579 2233.068766 711.070083 20.903315 0.000000 0.237829
530.000000 47.068000 5.000000 -6.000000 12.000000 113.778625 40.915391 42.178485 313.453529 21.248629 0.000000 0.104220
532.000000 46.875000 2.000000 -5.000000 12.000000 96.486945 28.495963 390.718074 801.750154 21.343335 0.000000 0.101246
533.000000 48.368000 3.000000 -5.000000 12.000000 104.226156 30.581924 338.939560 624.045222 20.681433 0.000000 0.066560
534.000000 49.198000 4.000000 -5.000000 12.000000 111.477242 32.919772 278.187033 436.528350 20.329667 0.000000 0.018267
535.000000 49.447000 5.000000 -5.000000 12.000000 118.198241 35.548683 205.906134 231.749873 20.225196 0.000000 0.053497
536.000000 49.209000 6.000000 -5.000000 12.000000 124.363806 38.513216 118.471460 0.438733 20.321079 0.000000 0.135230
539.000000 47.065000 1.000000 -4.000000 12.000000 91.218337 21.132946 558.981399 916.459826 21.259864 0.000000 0.138322
540.000000 50.733000 3.000000 -4.000000 12.000000 107.760177 24.636492 481.404581 561.741067 19.716201 0.000000 0.092189
541.000000 51.574000 5.000000 -4.000000 12.000000 122.289742 29.179129 373.993863 162.010722 19.390022 0.000000 0.020942
543.000000 49.104000 1.000000 -3.000000 12.000000 93.664925 15.080370 684.989070 869.601965 20.376331 0.000000 0.155933
544.000000 51.335000 2.000000 -3.000000 12.000000 102.448275 16.400401 658.221180 693.333445 19.487331 0.000000 0.143586
545.000000 53.364000 4.000000 -3.000000 12.000000 118.578316 19.662507 590.425255 318.411019 18.740853 0.000000 0.074233
546.000000 53.350000 5.000000 -3.000000 12.000000 125.824688 21.703323 546.618188 104.767290 18.743724 0.000000 0.030844
549.000000 50.654000 1.000000 -2.000000 12.000000 95.502011 8.535349 813.467829 836.165424 19.752048 0.000000 0.168536
550.000000 54.238000 3.000000 -2.000000 12.000000 113.058650 10.470246 776.098707 475.081549 18.440930 0.000000 0.130999
551.000000 54.680000 5.000000 -2.000000 12.000000 128.541834 13.128943 723.965279 60.580069 18.286921 0.000000 0.047732
553.000000 48.425000 0.000000 -1.000000 12.000000 87.056801 1.284615 950.864614 996.350227 20.664820 0.000000 0.167036
554.000000 51.604000 1.000000 -1.000000 12.000000 96.589732 1.623686 944.491084 816.614024 19.388180 0.000000 0.174284
555.000000 53.837000 2.000000 -1.000000 12.000000 105.742259 2.014837 937.135931 637.422908 18.580932 0.000000 0.163373
556.000000 55.159000 3.000000 -1.000000 12.000000 114.426715 2.471016 928.553456 451.711073 18.132548 0.000000 0.137270
557.000000 55.667000 4.000000 -1.000000 12.000000 122.584999 3.009838 918.408497 252.127782 17.964679 0.000000 0.099342
558.000000 55.488000 5.000000 -1.000000 12.000000 130.186525 3.655867 906.231638 30.040852 18.020233 0.000000 0.054517
559.000000 54.765000 6.000000 -1.000000 12.000000 137.223654 4.444407 891.344501 -225.763526 18.256630 0.000000 0.014483
562.000000 51.878000 1.000000 0.000000 12.000000 96.833503 -5.473617 1078.135182 811.430536 19.285902 0.000000 0.172228
563.000000 55.723000 5.000000 0.000000 12.000000 130.573853 -6.289525 1093.624821 13.774944 17.944285 0.000000 0.049449
565.000000 48.265000 0.000000 1.000000 12.000000 86.697688 -11.941108 1202.617411 1004.475880 20.733234 0.000000 0.158154
566.000000 51.450000 1.000000 1.000000 12.000000 96.205138 -12.544180 1214.479554 821.117644 19.446393 0.000000 0.162031
567.000000 53.689000 2.000000 1.000000 12.000000 105.328324 -13.238641 1228.208472 637.933147 18.631978 0.000000 0.147706
568.000000 55.020000 3.000000 1.000000 12.000000 113.978647 -14.046709 1244.282468 447.527746 18.178466 0.000000 0.117975
569.000000 55.536000 4.000000 1.000000 12.000000 122.096750 -14.998327 1263.358507 242.118410 18.006875 0.000000 0.076630
570.000000 55.367000 5.000000 1.000000 12.000000 129.650315 -16.134778 1286.364225 12.443544 18.059704 0.000000 0.034510
571.000000 54.653000 6.000000 1.000000 12.000000 136.629256 -17.514479 1314.653327 -253.699185 18.294093 0.000000 0.047611
574.000000 50.351000 1.000000 2.000000 12.000000 94.749797 -19.380287 1353.606873 846.198958 19.870843 0.000000 0.144173
575.000000 53.964000 3.000000 2.000000 12.000000 112.189040 -21.906792 1407.815744 467.847187 18.534448 0.000000 0.091468
576.000000 54.442000 5.000000 2.000000 12.000000 127.514004 -25.340017 1484.681948 26.746352 18.367120 0.000000 0.032379
578.000000 48.664000 1.000000 3.000000 12.000000 92.575535 -25.813040 1495.603223 887.220102 20.560447 0.000000 0.121078
579.000000 50.914000 2.000000 3.000000 12.000000 101.285720 -27.372865 1532.251443 699.133071 19.648399 0.000000 0.096867
580.000000 52.990000 4.000000 3.000000 12.000000 117.239001 -31.192202 1626.626795 293.298252 18.873228 0.000000 0.002927
581.000000 53.001000 5.000000 3.000000 12.000000 124.378007 -33.553275 1688.823719 57.424391 18.867164 0.000000 0.074270
583.000000 46.503000 1.000000 4.000000 12.000000 89.830219 -31.731795 1640.558274 944.749861 21.516406 0.000000 0.100853
584.000000 50.223000 3.000000 4.000000 12.000000 106.194090 -35.647977 1746.915013 556.349514 19.916698 0.000000 0.035653
585.000000 51.125000 5.000000 4.000000 12.000000 120.504451 -40.647662 1899.049918 105.263091 19.560472 0.000000 0.141866
587.000000 46.236000 2.000000 5.000000 12.000000 94.751926 -39.115095 1850.151561 825.686342 21.638208 0.000000 0.083313
588.000000 47.760000 3.000000 5.000000 12.000000 102.394214 -41.366997 1922.779790 625.840419 20.944674 0.000000 0.087476
589.000000 48.625000 4.000000 5.000000 12.000000 109.540195 -43.871551 2009.712326 411.123143 20.569577 0.000000 0.139773
590.000000 48.909000 5.000000 5.000000 12.000000 116.147660 -46.662439 2115.636677 171.095646 20.447682 0.000000 0.229978
593.000000 46.089000 4.000000 -5.000000 13.000000 110.787712 29.928045 355.402126 469.551917 21.701614 0.000000 0.043468
594.000000 46.421000 5.000000 -5.000000 13.000000 117.263032 32.198090 297.271429 285.563229 21.543919 0.000000 0.011272
595.000000 46.332000 6.000000 -5.000000 13.000000 123.264563 34.749833 228.352735 81.702389 21.583214 0.000000 0.078360
596.000000 45.897000 7.000000 -5.000000 13.000000 128.779048 37.626925 145.335802 -150.807949 21.785949 0.000000 0.157866
597.000000 45.853000 2.000000 -4.000000 13.000000 99.320892 20.630948 569.783950 752.241868 21.818274 0.000000 0.133424
598.000000 47.198000 3.000000 -4.000000 13.000000 106.918060 22.221262 535.306459 587.361569 21.193662 0.000000 0.108255
599.000000 47.953000 4.000000 -4.000000 13.000000 114.088500 24.019098 495.372990 414.193246 20.857206 0.000000 0.070627
600.000000 48.187000 5.000000 -4.000000 13.000000 120.795964 26.063570 448.577175 226.881849 20.753490 0.000000 0.025953
601.000000 47.981000 6.000000 -4.000000 13.000000 127.018326 28.402719 392.983856 18.351316 20.840450 0.000000 0.046564
602.000000 47.419000 7.000000 -4.000000 13.000000 132.744332 31.095433 325.854775 -220.636320 21.085584 0.000000 0.113358
604.000000 45.509000 1.000000 -3.000000 13.000000 93.451654 13.522048 716.166533 874.231727 21.985995 0.000000 0.159569
605.000000 47.497000 2.000000 -3.000000 13.000000 101.658507 14.640544 693.832902 711.470209 21.062579 0.000000 0.150354
606.000000 48.810000 3.000000 -3.000000 13.000000 109.482964 15.910780 668.190569 545.055583 20.492872 0.000000 0.127380
607.000000 49.501000 4.000000 -3.000000 13.000000 116.872792 17.364335 638.445443 369.564810 20.204110 0.000000 0.092851
608.000000 49.647000 5.000000 -3.000000 13.000000 123.793712 19.041629 603.527223 178.957188 20.142207 0.000000 0.051060
609.000000 49.339000 6.000000 -3.000000 13.000000 130.226759 20.994964 561.957875 -34.138760 20.266123 0.000000 0.031127
610.000000 48.667000 7.000000 -3.000000 13.000000 136.164590 23.292699 511.637028 -279.430751 20.544153 0.000000 0.075929
613.000000 46.737000 1.000000 -2.000000 13.000000 95.008919 7.433269 834.578231 845.868163 21.407684 0.000000 0.170023
614.000000 48.730000 2.000000 -2.000000 13.000000 103.397660 8.180666 820.274339 682.001494 20.529115 0.000000 0.161699
615.000000 50.016000 3.000000 -2.000000 13.000000 111.399436 9.036471 803.829378 513.916375 19.998063 0.000000 0.139892
616.000000 50.656000 4.000000 -2.000000 13.000000 118.963160 10.025634 784.723730 336.067337 19.742960 0.000000 0.107027
617.000000 50.733000 5.000000 -2.000000 13.000000 126.057234 11.181207 762.254841 142.220818 19.710626 0.000000 0.066722
618.000000 50.344000 6.000000 -2.000000 13.000000 132.666785 12.547807 735.448934 -75.295319 19.860722 0.000000 0.030106
619.000000 49.588000 7.000000 -2.000000 13.000000 138.789874 14.186967 702.916154 -326.665082 20.162094 0.000000 0.043358
622.000000 47.482000 1.000000 -1.000000 13.000000 95.917611 1.056877 955.144446 829.422462 21.071647 0.000000 0.174539
623.000000 49.477000 2.000000 -1.000000 13.000000 104.418083 1.374345 949.178150 664.212865 20.218736 0.000000 0.166211
624.000000 50.746000 3.000000 -1.000000 13.000000 112.529085 1.739725 942.309439 494.338183 19.709969 0.000000 0.144548
625.000000 51.353000 4.000000 -1.000000 13.000000 120.200577 2.164710 934.316824 314.119897 19.474393 0.000000 0.112079
626.000000 51.387000 5.000000 -1.000000 13.000000 127.403157 2.665122 924.899875 117.125772 19.459306 0.000000 0.072181
627.000000 50.949000 6.000000 -1.000000 13.000000 134.125337 3.262893 913.640612 -104.620087 19.624742 0.000000 0.030500
628.000000 50.140000 7.000000 -1.000000 13.000000 140.369884 3.989320 899.939775 -361.781413 19.939846 0.000000 0.012684
631.000000 47.350000 1.000000 1.000000 13.000000 95.564133 -11.959583 1202.980000 833.822209 21.130462 0.000000 0.163465
632.000000 49.350000 2.000000 1.000000 13.000000 104.039937 -12.553654 1214.666329 665.260572 20.270683 0.000000 0.152255
633.000000 50.626000 3.000000 1.000000 13.000000 112.122604 -13.236098 1228.158057 491.527187 19.756884 0.000000 0.127543
634.000000 51.240000 4.000000 1.000000 13.000000 119.761223 -14.027977 1243.908578 306.649489 19.517575 0.000000 0.092012
635.000000 51.281000 5.000000 1.000000 13.000000 126.925227 -14.957514 1262.536965 103.787256 19.499695 0.000000 0.050769
636.000000 50.850000 6.000000 1.000000 13.000000 133.601528 -16.063378 1284.911268 -125.641642 19.663028 0.000000 0.030281
637.000000 50.048000 7.000000 1.000000 13.000000 139.790651 -17.399878 1312.287668 -393.255044 19.976544 0.000000 0.065056
639.000000 46.477000 1.000000 2.000000 13.000000 94.315210 -18.272376 1330.374724 855.473139 21.527362 0.000000 0.147981
640.000000 48.480000 2.000000 2.000000 13.000000 102.657521 -19.275902 1351.404771 684.929626 20.634742 0.000000 0.133574
641.000000 49.779000 3.000000 2.000000 13.000000 110.606435 -20.420976 1375.718844 509.171033 20.093380 0.000000 0.105253
642.000000 50.432000 4.000000 2.000000 13.000000 118.109498 -21.738677 1404.151336 322.066206 19.830614 0.000000 0.065675
643.000000 50.523000 5.000000 2.000000 13.000000 125.133355 -23.269453 1437.845461 116.569762 19.792532 0.000000 0.026723
644.000000 50.149000 6.000000 2.000000 13.000000 131.660842 -25.066709 1478.410694 -116.196454 19.938290 0.000000 0.056954
647.000000 47.132000 2.000000 3.000000 13.000000 100.585444 -25.610400 1490.914036 717.945842 21.225355 0.000000 0.108523
648.000000 48.463000 3.000000 3.000000 13.000000 108.338811 -27.131132 1526.505773 540.131183 20.639565 0.000000 0.074795
649.000000 49.173000 4.000000 3.000000 13.000000 115.648360 -28.861281 1568.197736 350.914823 20.338815 0.000000 0.028063
650.000000 49.340000 5.000000 3.000000 13.000000 122.478163 -30.843385 1617.705244 143.048772 20.267889 0.000000 0.034030
651.000000 49.051000 6.000000 3.000000 13.000000 128.807288 -33.130840 1677.453226 -92.631187 20.384965 0.000000 0.104212
654.000000 46.751000 3.000000 4.000000 13.000000 105.466628 -33.249120 1680.625813 584.896032 21.396193 0.000000 0.045205
655.000000 47.530000 4.000000 4.000000 13.000000 112.545802 -35.268998 1736.184835 393.723453 21.042831 0.000000 0.025224
656.000000 47.789000 5.000000 4.000000 13.000000 119.151977 -37.547757 1802.295882 183.806938 20.926334 0.000000 0.086359
657.000000 47.609000 6.000000 4.000000 13.000000 125.261891 -40.129782 1882.280510 -54.289093 21.003557 0.000000 0.169177
659.000000 45.581000 4.000000 5.000000 13.000000 108.979786 -40.928607 1908.256352 451.046088 21.943317 0.000000 0.088308
660.000000 45.943000 5.000000 5.000000 13.000000 115.352005 -43.372042 1991.806517 239.458152 21.768441 0.000000 0.157125
663.000000 46.103000 4.000000 -3.000000 14.000000 115.308471 15.435797 677.815579 412.997938 21.693645 0.000000 0.107341
664.000000 46.359000 5.000000 -3.000000 14.000000 121.916104 16.832555 649.380201 240.639149 21.571768 0.000000 0.070355
665.000000 46.221000 6.000000 -3.000000 14.000000 128.107467 18.441453 616.099482 51.155099 21.633949 0.000000 0.034250
666.000000 45.760000 7.000000 -3.000000 14.000000 133.874263 20.311567 576.619622 -162.422376 21.850168 0.000000 0.044777
667.000000 46.367000 3.000000 -2.000000 14.000000 109.928259 7.836910 826.859603 547.107533 21.572749 0.000000 0.146732
668.000000 47.253000 5.000000 -2.000000 14.000000 123.823839 9.596613 793.023891 209.599811 21.162944 0.000000 0.083012
669.000000 46.534000 7.000000 -2.000000 14.000000 136.072630 11.990228 746.418435 -201.287662 21.486097 0.000000 0.026504
670.000000 45.751000 2.000000 -1.000000 14.000000 103.268391 0.836096 959.292915 687.174654 21.865643 0.000000 0.168316
671.000000 46.954000 3.000000 -1.000000 14.000000 110.873371 1.133136 953.711403 530.495965 21.302673 0.000000 0.150209
672.000000 47.612000 4.000000 -1.000000 14.000000 118.106768 1.474235 947.300557 365.958641 21.005539 0.000000 0.122282
673.000000 47.788000 5.000000 -1.000000 14.000000 124.941176 1.869952 939.860701 188.615543 20.925498 0.000000 0.086992
674.000000 47.557000 6.000000 -1.000000 14.000000 131.363244 2.334497 931.122466 -7.441796 21.025037 0.000000 0.047986
675.000000 46.995000 7.000000 -1.000000 14.000000 137.371288 2.887459 920.713475 -229.771063 21.274815 0.000000 0.012608
677.000000 45.917000 2.000000 0.000000 14.000000 103.443716 -5.583000 1080.209164 682.496303 21.786442 0.000000 0.165373
678.000000 47.118000 3.000000 0.000000 14.000000 111.070661 -5.730996 1083.016531 524.242591 21.228372 0.000000 0.146436
679.000000 47.770000 4.000000 0.000000 14.000000 118.324494 -5.901115 1086.245371 357.791051 20.935779 0.000000 0.117714
680.000000 47.938000 5.000000 0.000000 14.000000 125.178041 -6.098717 1089.998300 178.057490 20.859936 0.000000 0.081825
681.000000 47.697000 6.000000 0.000000 14.000000 131.618371 -6.331038 1094.414188 -21.063362 20.963356 0.000000 0.043113
683.000000 45.641000 2.000000 1.000000 14.000000 102.920375 -11.977478 1203.331256 688.597871 21.918402 0.000000 0.155753
684.000000 46.848000 3.000000 1.000000 14.000000 110.501464 -12.562809 1214.846854 528.687177 21.350506 0.000000 0.135051
685.000000 47.512000 4.000000 1.000000 14.000000 117.707483 -13.233647 1228.109458 360.333749 21.049648 0.000000 0.104453
686.000000 47.694000 5.000000 1.000000 14.000000 124.510212 -14.009971 1243.549251 178.313802 20.966767 0.000000 0.067069
687.000000 47.469000 6.000000 1.000000 14.000000 130.895216 -14.918419 1261.750282 -23.673959 21.064128 0.000000 0.032591
688.000000 46.913000 7.000000 1.000000 14.000000 136.859333 -15.995258 1283.526019 -253.774377 21.312230 0.000000 0.042198
690.000000 46.159000 3.000000 2.000000 14.000000 109.199825 -19.174916 1349.277072 544.183059 21.669739 0.000000 0.115979
691.000000 47.067000 5.000000 2.000000 14.000000 122.985582 -21.576813 1400.631296 189.790612 21.246502 0.000000 0.042504
692.000000 46.371000 7.000000 2.000000 14.000000 135.087723 -24.805173 1472.435707 -248.322436 21.561736 0.000000 0.079674
693.000000 45.814000 4.000000 3.000000 14.000000 114.182195 -26.897295 1520.971357 399.069492 21.830600 0.000000 0.050813
694.000000 46.086000 5.000000 3.000000 14.000000 120.711913 -28.581652 1561.367656 212.913080 21.699654 0.000000 0.012979
695.000000 45.964000 6.000000 3.000000 14.000000 126.814956 -30.507354 1609.171870 5.945555 21.754844 0.000000 0.062580
696.000000 45.519000 7.000000 3.000000 14.000000 132.481138 -32.724827 1666.627405 -230.541385 21.965650 0.000000 0.129908
#UB matrix in q= (UB) B0 G* 
#[[-0.824538859  0.013619911 -0.564887364]
# [ 0.034085436 -0.997176614 -0.073787676]
# [-0.564777703 -0.080163016  0.822337602]]
#B0 matrix in q= UB (B0) G*
#[[ 0.19670273 -0.          0.03056101]
# [ 0.          0.19187965 -0.        ]
# [ 0.          0.          0.18806537]]
#UBB0 matrix in q= (UB B0) G* i.e. recip. basis vectors are columns in LT frame: astar = UBB0[:,0], bstar = UBB0[:,1], cstar = UBB0[:,2]. (abcstar as columns on xyzlab1, xlab1 = ui, ui = unit vector along incident beam)
#[[-0.16218905  0.00261338 -0.13143449]
# [ 0.0067047  -0.1913379  -0.01283522]
# [-0.11109332 -0.01538165  0.13739305]]
#Euler angles phi theta psi (deg)
#[278.071  34.78   97.429]
#deviatoric strain in direct crystal frame (10-3 unit)
#[[-6.72 -0.03  1.18]
# [-0.03 -7.01  0.02]
# [ 1.18  0.02 13.73]]
#deviatoric strain in sample2 frame (10-3 unit)
#[[-6.76 -0.1   0.79]
# [-0.1  -6.9  -1.51]
# [ 0.77 -1.51 13.66]]
#new lattice parameters
#[ 5.1505     5.2100895  5.3162706 89.9979753 99.1605258 90.0034284]
#CCDLabel
#sCMOS
#DetectorParameters
#[79.0, 975.0, 941.0, 0.0, 0.0]
#pixelsize
#0.0734
#Frame dimensions
#[2018, 2016]
#
