#Strain and Orientation Refinement from experimental file: /home/micha/LaueProjects/DepthEffects/testZrO2_32.cor
#File created at Wed Jun 28 14:20:14 2023 with indexingSpotsSet.py
#Number of indexed spots: 540
#Element
#ZrO2
#grainIndex
#G_0
#Mean Deviation(pixel): 0.113
##spot_index intensity h k l 2theta Chi Xexp Yexp Energy GrainIndex PixDev
2.000000 142.287000 0.000000 3.000000 1.000000 64.659700 -41.584227 1930.049058 1622.419162 7.035075 0.000000 0.235011
3.000000 188.105000 1.000000 3.000000 1.000000 97.912333 -49.606625 2239.937794 710.171352 5.318336 0.000000 0.253689
22.000000 97.545000 -1.000000 2.000000 2.000000 39.155462 -9.748435 1159.910913 2282.128545 10.266393 0.000000 0.222090
23.000000 192.641000 0.000000 2.000000 2.000000 80.449317 -10.016945 1165.107950 1124.891961 5.195473 0.000000 0.140685
24.000000 85.562000 -1.000000 3.000000 2.000000 43.642825 -21.691517 1403.124943 2155.534574 11.703344 0.000000 0.209643
25.000000 143.557000 0.000000 3.000000 2.000000 75.801631 -24.269600 1460.278191 1239.711396 6.972206 0.000000 0.119708
26.000000 175.781000 1.000000 3.000000 2.000000 106.297135 -28.079901 1549.202518 584.347055 5.690712 0.000000 0.066021
27.000000 178.363000 2.000000 3.000000 2.000000 131.389952 -34.205056 1706.587674 -205.928801 5.605959 0.000000 0.150382
28.000000 72.236000 -1.000000 4.000000 2.000000 45.597806 -29.475611 1583.333358 2151.783445 13.861616 0.000000 0.243689
29.000000 109.609000 0.000000 4.000000 2.000000 71.211545 -32.659824 1664.903387 1375.924681 9.131936 0.000000 0.136062
30.000000 134.086000 1.000000 4.000000 2.000000 95.809788 -36.906419 1783.293164 804.044814 7.461523 0.000000 0.076686
31.000000 142.192000 2.000000 4.000000 2.000000 117.141263 -42.772470 1970.699270 189.359949 7.033424 0.000000 0.169934
33.000000 86.854000 0.000000 5.000000 2.000000 67.527071 -37.973965 1815.105931 1505.791871 11.524816 0.000000 0.182224
34.000000 105.408000 1.000000 5.000000 2.000000 87.906618 -41.976376 1943.296471 993.919477 9.492718 0.000000 0.136612
35.000000 114.565000 2.000000 5.000000 2.000000 106.231047 -47.060182 2131.617635 481.059853 8.731048 0.000000 0.207139
37.000000 85.440000 1.000000 6.000000 2.000000 81.964149 -45.219668 2059.578941 1156.718556 11.712321 0.000000 0.199630
40.000000 59.867000 0.000000 7.000000 2.000000 62.411238 -44.177930 2020.844098 1725.189447 16.720630 0.000000 0.285502
41.000000 71.114000 1.000000 7.000000 2.000000 77.405075 -47.459575 2147.906596 1296.681899 14.072647 0.000000 0.257038
42.000000 78.744000 2.000000 7.000000 2.000000 91.462798 -51.287320 2317.825716 897.054073 12.705843 0.000000 0.300351
44.000000 60.506000 1.000000 8.000000 2.000000 73.824673 -49.094758 2217.278426 1417.764068 16.540850 0.000000 0.307887
52.000000 92.825000 -1.000000 1.000000 3.000000 40.751011 18.482110 615.250620 2257.982878 10.788054 0.000000 0.230945
53.000000 166.073000 0.000000 1.000000 3.000000 76.731491 24.550310 483.362644 1220.025451 6.026781 0.000000 0.121828
54.000000 197.945000 1.000000 1.000000 3.000000 108.650272 33.485805 262.999777 505.442638 5.053216 0.000000 0.030225
56.000000 96.639000 -1.000000 2.000000 3.000000 48.855749 2.530387 927.436051 1882.293990 10.361999 0.000000 0.083504
57.000000 152.840000 0.000000 2.000000 3.000000 81.422706 4.874474 883.212039 1103.927207 6.548362 0.000000 0.146972
58.000000 180.099000 1.000000 2.000000 3.000000 111.584088 8.413912 815.799644 510.577967 5.553883 0.000000 0.131765
59.000000 178.650000 2.000000 2.000000 3.000000 135.987677 14.308767 700.480630 -208.722527 5.596682 0.000000 0.030348
60.000000 87.983000 -1.000000 3.000000 3.000000 52.628054 -9.824518 1161.382649 1775.289248 11.380885 0.000000 0.065935
61.000000 151.330000 1.000000 3.000000 3.000000 106.841560 -10.291788 1170.436468 609.867852 6.610326 0.000000 0.140479
62.000000 155.128000 2.000000 3.000000 3.000000 129.548049 -10.716394 1178.686894 36.479298 6.445917 0.000000 0.044172
64.000000 76.436000 -1.000000 4.000000 3.000000 54.008743 -18.887100 1343.227180 1767.207098 13.099426 0.000000 0.105494
65.000000 105.466000 0.000000 4.000000 3.000000 77.454572 -20.365608 1374.535007 1196.473534 9.490154 0.000000 0.124186
66.000000 124.143000 1.000000 4.000000 3.000000 99.972042 -22.338636 1417.268538 736.407857 8.058872 0.000000 0.116274
67.000000 130.704000 2.000000 4.000000 3.000000 120.017364 -25.095871 1479.078498 254.345625 7.651493 0.000000 0.026603
69.000000 65.829000 -1.000000 5.000000 3.000000 54.280276 -25.511494 1488.631087 1798.572074 15.209690 0.000000 0.146065
70.000000 87.123000 0.000000 5.000000 3.000000 74.184536 -27.540699 1536.255394 1284.837063 11.488523 0.000000 0.120150
71.000000 102.156000 1.000000 5.000000 3.000000 93.447950 -30.102428 1598.966907 866.042931 9.794371 0.000000 0.096008
72.000000 109.512000 2.000000 5.000000 3.000000 111.012972 -33.422219 1685.284331 445.656985 9.133468 0.000000 0.018292
73.000000 110.245000 3.000000 5.000000 3.000000 126.247138 -37.858685 1811.626489 -58.445403 9.070409 0.000000 0.155854
74.000000 57.012000 -1.000000 6.000000 3.000000 54.078607 -30.443244 1607.550536 1845.409288 17.561328 0.000000 0.184355
75.000000 85.188000 1.000000 6.000000 3.000000 87.883825 -35.344255 1738.307605 989.756427 11.746183 0.000000 0.101435
76.000000 92.332000 2.000000 6.000000 3.000000 103.361627 -38.645607 1835.598014 613.675923 10.834146 0.000000 0.065514
78.000000 49.880000 -1.000000 7.000000 3.000000 53.692722 -34.206142 1706.617516 1897.236808 20.072207 0.000000 0.220670
79.000000 62.324000 0.000000 7.000000 3.000000 68.654841 -36.440344 1769.682992 1463.833866 16.060755 0.000000 0.165292
80.000000 72.174000 1.000000 7.000000 3.000000 83.275016 -39.063928 1848.556088 1104.452166 13.865099 0.000000 0.129809
81.000000 78.708000 2.000000 7.000000 3.000000 97.033017 -42.173921 1950.031763 761.833768 12.710847 0.000000 0.113904
82.000000 81.924000 3.000000 7.000000 3.000000 109.538991 -45.894875 2085.450765 392.188365 12.209145 0.000000 0.193032
84.000000 53.994000 0.000000 8.000000 3.000000 66.490491 -39.323461 1856.672860 1546.235399 18.538716 0.000000 0.199750
85.000000 62.098000 1.000000 8.000000 3.000000 79.469228 -41.819047 1937.962156 1209.468481 16.115781 0.000000 0.167097
86.000000 67.918000 2.000000 8.000000 3.000000 91.809262 -44.699480 2040.062621 893.169683 14.731314 0.000000 0.160003
87.000000 71.357000 3.000000 8.000000 3.000000 103.209908 -48.042712 2172.139369 563.124114 14.018454 0.000000 0.222230
89.000000 54.179000 1.000000 9.000000 3.000000 76.306538 -43.932724 2011.925752 1305.146825 18.472201 0.000000 0.205773
90.000000 59.310000 2.000000 9.000000 3.000000 87.468571 -46.589821 2112.744329 1010.240987 16.870723 0.000000 0.202873
92.000000 47.853000 1.000000 10.000000 3.000000 73.652998 -45.601412 2074.129722 1392.212830 20.914762 0.000000 0.243074
93.000000 52.364000 2.000000 10.000000 3.000000 83.826766 -48.054883 2172.650996 1115.163750 19.109650 0.000000 0.242327
94.000000 55.581000 3.000000 10.000000 3.000000 93.441121 -50.794614 2294.413893 838.613253 18.000235 0.000000 0.285075
96.000000 46.690000 2.000000 11.000000 3.000000 80.739735 -49.222259 2222.878674 1209.682429 21.432685 0.000000 0.278485
97.000000 49.682000 3.000000 11.000000 3.000000 89.632695 -51.726939 2339.143116 952.139441 20.139015 0.000000 0.315241
104.000000 110.882000 0.000000 0.000000 4.000000 63.178164 45.703630 -128.059534 1720.229294 9.027601 0.000000 0.305933
106.000000 82.350000 -1.000000 1.000000 4.000000 46.919735 24.438370 485.901907 2046.531319 12.159335 0.000000 0.195056
107.000000 123.815000 0.000000 1.000000 4.000000 74.194625 29.911513 355.815532 1292.489198 8.083879 0.000000 0.124032
108.000000 146.017000 1.000000 1.000000 4.000000 98.871766 37.093955 161.183514 730.380843 6.851414 0.000000 0.067976
110.000000 86.489000 -1.000000 2.000000 4.000000 54.064700 10.986558 766.051627 1735.683158 11.577129 0.000000 0.062773
111.000000 121.611000 0.000000 2.000000 4.000000 80.065249 14.221776 702.220389 1135.476484 8.230018 0.000000 0.137179
112.000000 141.038000 1.000000 2.000000 4.000000 104.222853 18.630853 612.141640 653.112550 7.092936 0.000000 0.124936
113.000000 144.339000 2.000000 2.000000 4.000000 124.582230 24.898469 475.435785 122.975832 6.928180 0.000000 0.019882
116.000000 82.224000 -1.000000 3.000000 4.000000 57.928254 -0.562376 985.564496 1615.451234 12.177261 0.000000 0.013655
117.000000 110.301000 0.000000 3.000000 4.000000 81.537215 0.667967 962.451755 1101.149508 9.073767 0.000000 0.147997
118.000000 127.131000 1.000000 3.000000 4.000000 103.933032 2.329066 931.224659 673.764732 7.869034 0.000000 0.157376
119.000000 131.872000 2.000000 3.000000 4.000000 123.677784 4.690072 886.700250 221.394184 7.583373 0.000000 0.084647
120.000000 127.979000 3.000000 3.000000 4.000000 140.191485 8.294693 818.087454 -364.070328 7.812166 0.000000 0.021471
121.000000 74.365000 -1.000000 4.000000 4.000000 59.547119 -9.867004 1162.204789 1583.294834 13.463658 0.000000 0.051217
122.000000 110.665000 1.000000 4.000000 4.000000 100.528205 -10.212603 1168.900328 737.752440 9.040506 0.000000 0.152864
123.000000 116.448000 2.000000 4.000000 4.000000 118.731774 -10.478639 1174.064342 340.963127 8.588544 0.000000 0.097506
124.000000 115.400000 3.000000 4.000000 4.000000 134.541736 -10.861333 1181.508418 -137.534423 8.664401 0.000000 0.030966
125.000000 46.150000 -2.000000 5.000000 4.000000 41.866497 -16.376588 1291.292795 2192.745845 21.698712 0.000000 0.205168
126.000000 65.939000 -1.000000 5.000000 4.000000 59.897742 -17.163382 1307.415113 1594.044586 15.183713 0.000000 0.081971
127.000000 83.101000 0.000000 5.000000 4.000000 78.269548 -18.129142 1327.393212 1176.160397 12.044137 0.000000 0.127822
128.000000 95.175000 1.000000 5.000000 4.000000 96.053162 -19.341968 1352.798171 820.039986 10.512619 0.000000 0.134159
129.000000 101.316000 2.000000 5.000000 4.000000 112.473985 -20.908917 1386.188755 464.370169 9.872299 0.000000 0.084331
130.000000 102.275000 3.000000 5.000000 4.000000 127.069368 -23.007780 1432.032304 57.639446 9.777285 0.000000 0.031765
132.000000 58.224000 -1.000000 6.000000 4.000000 59.611884 -22.866303 1428.898737 1625.988497 17.195247 0.000000 0.110012
133.000000 81.891000 1.000000 6.000000 4.000000 91.554307 -25.972964 1499.315250 908.514341 12.218666 0.000000 0.115296
134.000000 90.040000 3.000000 6.000000 4.000000 119.639935 -30.744731 1615.193797 228.439107 11.107115 0.000000 0.025466
136.000000 51.574000 -1.000000 7.000000 4.000000 59.039198 -27.363640 1532.031702 1668.053062 19.412109 0.000000 0.137745
137.000000 62.434000 0.000000 7.000000 4.000000 73.404509 -28.979189 1571.088719 1307.674215 16.031678 0.000000 0.122367
138.000000 70.917000 1.000000 7.000000 4.000000 87.435758 -30.886231 1618.797587 997.166182 14.110316 0.000000 0.106360
139.000000 76.510000 2.000000 7.000000 4.000000 100.705957 -33.165843 1678.391196 697.915426 13.075449 0.000000 0.060591
140.000000 79.257000 3.000000 7.000000 4.000000 112.897658 -35.929162 1754.942285 379.596439 12.619437 0.000000 0.044527
141.000000 79.604000 4.000000 7.000000 4.000000 123.821392 -39.330358 1856.889385 8.751637 12.562229 0.000000 0.158640
143.000000 45.969000 -1.000000 8.000000 4.000000 58.359760 -30.959975 1620.679951 1714.367117 21.779055 0.000000 0.165545
144.000000 61.957000 1.000000 8.000000 4.000000 83.802294 -34.621996 1718.095682 1083.030338 16.151694 0.000000 0.112338
145.000000 70.014000 3.000000 8.000000 4.000000 106.979532 -39.590170 1865.077062 514.545078 14.286729 0.000000 0.076617
147.000000 48.565000 0.000000 9.000000 4.000000 69.255257 -35.593060 1745.353863 1442.319373 20.610662 0.000000 0.157241
148.000000 54.640000 1.000000 9.000000 4.000000 80.640241 -37.535370 1801.925783 1164.717368 18.315611 0.000000 0.130634
149.000000 59.206000 2.000000 9.000000 4.000000 91.570701 -39.750759 1870.168620 902.613510 16.899584 0.000000 0.104849
150.000000 62.185000 3.000000 9.000000 4.000000 101.843104 -42.292920 1954.109369 635.889267 16.086737 0.000000 0.111149
151.000000 63.683000 4.000000 9.000000 4.000000 111.310300 -45.227314 2059.868461 344.869120 15.705712 0.000000 0.186513
153.000000 48.627000 1.000000 10.000000 4.000000 77.896823 -39.859851 1873.640982 1241.671664 20.581085 0.000000 0.155615
154.000000 55.576000 3.000000 10.000000 4.000000 97.393026 -44.361625 2027.573992 745.665036 18.001273 0.000000 0.145336
156.000000 47.279000 2.000000 11.000000 4.000000 84.730583 -43.760361 2005.700688 1078.441205 21.164761 0.000000 0.168623
157.000000 49.986000 3.000000 11.000000 4.000000 93.527607 -45.992046 2089.225772 845.499828 20.015328 0.000000 0.178199
158.000000 51.772000 4.000000 11.000000 4.000000 101.797557 -48.478204 2190.597275 601.883962 19.321941 0.000000 0.230000
164.000000 71.716000 -1.000000 1.000000 5.000000 50.563771 28.323806 394.898279 1946.609709 13.961428 0.000000 0.192347
165.000000 98.029000 0.000000 1.000000 5.000000 72.385099 33.140125 272.298033 1349.114225 10.210478 0.000000 0.135463
166.000000 114.037000 1.000000 1.000000 5.000000 92.437032 39.064284 101.432843 882.003794 8.773787 0.000000 0.097584
167.000000 119.198000 2.000000 1.000000 5.000000 109.356508 46.348387 -153.183592 393.237377 8.391219 0.000000 0.195125
169.000000 75.732000 -1.000000 2.000000 5.000000 57.005704 16.925510 647.473284 1671.441091 13.220874 0.000000 0.083656
170.000000 99.207000 0.000000 2.000000 5.000000 78.333400 20.332163 576.179655 1178.002243 10.088688 0.000000 0.127268
171.000000 113.582000 1.000000 2.000000 5.000000 98.263076 24.664270 480.772893 769.002358 8.808414 0.000000 0.113008
172.000000 118.374000 2.000000 2.000000 5.000000 115.598189 30.281532 346.529707 343.898358 8.448999 0.000000 0.010711
173.000000 116.081000 3.000000 2.000000 5.000000 129.772339 37.682269 143.677166 -190.968912 8.613928 0.000000 0.171153
174.000000 50.216000 -2.000000 3.000000 5.000000 41.128194 4.963302 881.531053 2178.193499 19.942670 0.000000 0.187848
175.000000 74.195000 -1.000000 3.000000 5.000000 60.988984 6.522712 851.939559 1541.758969 13.494249 0.000000 0.047966
176.000000 94.209000 0.000000 3.000000 5.000000 81.081786 8.470781 814.707825 1111.756501 10.623694 0.000000 0.144351
177.000000 106.975000 1.000000 3.000000 5.000000 100.161139 10.966720 766.438289 744.509295 9.352374 0.000000 0.153530
178.000000 111.953000 2.000000 3.000000 5.000000 117.272959 14.264390 701.368308 368.474737 8.933537 0.000000 0.095201
179.000000 110.820000 3.000000 3.000000 5.000000 131.930500 18.786685 608.878630 -80.140472 9.022734 0.000000 0.030285
181.000000 49.647000 -2.000000 4.000000 5.000000 44.766226 -3.039092 1032.142579 2027.641417 20.170704 0.000000 0.135259
182.000000 69.416000 -1.000000 4.000000 5.000000 63.014235 -2.439160 1020.847017 1489.559559 14.423022 0.000000 0.056004
183.000000 86.052000 0.000000 4.000000 5.000000 81.467325 -1.698646 1006.918205 1102.551816 11.630816 0.000000 0.147585
184.000000 97.260000 1.000000 4.000000 5.000000 99.195248 -0.761943 989.313849 766.754564 10.286798 0.000000 0.163892
185.000000 102.481000 2.000000 4.000000 5.000000 115.461369 0.460043 966.357958 428.507926 9.759707 0.000000 0.124568
186.000000 102.678000 3.000000 4.000000 5.000000 129.858951 2.119199 935.172943 41.772679 9.738623 0.000000 0.052618
187.000000 99.453000 4.000000 4.000000 5.000000 142.286193 4.496097 890.367582 -455.165174 10.052645 0.000000 0.010936
188.000000 47.295000 -2.000000 5.000000 5.000000 47.167715 -9.792756 1160.768162 1953.539816 21.172994 0.000000 0.118462
189.000000 63.365000 -1.000000 5.000000 5.000000 63.729833 -9.894123 1162.729656 1480.261105 15.799879 0.000000 0.070035
190.000000 86.799000 1.000000 5.000000 5.000000 96.635907 -10.168840 1168.051688 813.786625 11.527138 0.000000 0.156709
191.000000 92.073000 2.000000 5.000000 5.000000 111.721006 -10.361513 1171.789727 505.125323 10.863612 0.000000 0.125816
192.000000 93.362000 3.000000 5.000000 5.000000 125.354047 -10.613922 1176.693692 164.124048 10.711049 0.000000 0.064805
193.000000 91.683000 4.000000 5.000000 5.000000 137.406573 -10.958929 1183.409865 -251.477128 10.905326 0.000000 0.035514
194.000000 57.219000 -1.000000 6.000000 5.000000 63.666889 -15.998549 1283.592915 1495.175865 17.496600 0.000000 0.083934
195.000000 68.487000 0.000000 6.000000 5.000000 78.746161 -16.683944 1297.575022 1164.575047 14.614240 0.000000 0.130294
196.000000 76.900000 1.000000 6.000000 5.000000 93.420614 -17.511020 1314.581890 873.541645 13.011611 0.000000 0.141836
197.000000 82.018000 2.000000 6.000000 5.000000 107.249610 -18.528292 1335.714085 588.540712 12.196356 0.000000 0.113923
198.000000 84.041000 3.000000 6.000000 5.000000 119.932003 -19.808954 1362.679793 282.328075 11.899979 0.000000 0.057123
199.000000 83.579000 4.000000 6.000000 5.000000 131.318427 -21.468551 1398.281297 -75.701269 11.963600 0.000000 0.046382
201.000000 51.526000 -1.000000 7.000000 5.000000 63.182145 -20.983059 1387.785579 1523.740033 19.429627 0.000000 0.099273
202.000000 60.849000 0.000000 7.000000 5.000000 76.793457 -22.012381 1410.121687 1213.431697 16.448737 0.000000 0.121879
203.000000 68.098000 1.000000 7.000000 5.000000 90.088762 -23.226533 1436.890417 939.185561 14.694023 0.000000 0.126129
204.000000 72.916000 2.000000 7.000000 5.000000 102.725201 -24.678754 1469.556601 673.518144 13.719883 0.000000 0.098151
205.000000 75.352000 3.000000 7.000000 5.000000 114.449034 -26.444115 1510.310417 394.477044 13.273300 0.000000 0.041320
206.000000 75.757000 4.000000 7.000000 5.000000 125.109051 -28.631386 1562.579764 78.896154 13.199945 0.000000 0.046629
209.000000 46.473000 -1.000000 8.000000 5.000000 62.491918 -25.072102 1478.534178 1559.780793 21.542173 0.000000 0.116825
210.000000 54.252000 0.000000 8.000000 5.000000 74.823505 -26.299546 1506.927158 1266.657419 18.449445 0.000000 0.119333
211.000000 60.504000 1.000000 8.000000 5.000000 86.903240 -27.719088 1540.524598 1006.777701 16.539143 0.000000 0.114871
212.000000 64.948000 2.000000 8.000000 5.000000 98.462811 -29.377416 1580.901852 757.229289 15.404133 0.000000 0.085780
213.000000 67.562000 3.000000 8.000000 5.000000 109.291638 -31.336685 1630.341425 499.921578 14.804949 0.000000 0.030949
214.000000 68.538000 4.000000 8.000000 5.000000 119.248914 -33.680867 1692.279910 216.689871 14.591541 0.000000 0.051726
215.000000 68.185000 5.000000 8.000000 5.000000 128.258905 -36.525003 1772.142951 -115.192412 14.665098 0.000000 0.153758
217.000000 48.625000 0.000000 9.000000 5.000000 72.947608 -29.787109 1591.078017 1321.390946 20.584541 0.000000 0.124308
218.000000 54.036000 1.000000 9.000000 5.000000 83.971207 -31.302362 1629.457954 1074.034862 18.519631 0.000000 0.111821
219.000000 58.085000 2.000000 9.000000 5.000000 94.579123 -33.038500 1674.982344 838.171141 17.225044 0.000000 0.082920
220.000000 60.723000 3.000000 9.000000 5.000000 104.597882 -35.043609 1729.850840 598.620672 16.473556 0.000000 0.041857
221.000000 62.047000 4.000000 9.000000 5.000000 113.902098 -37.379173 1797.269341 340.730819 16.119308 0.000000 0.067074
222.000000 62.251000 5.000000 9.000000 5.000000 122.414003 -40.124154 1882.099691 47.249477 16.064381 0.000000 0.160497
224.000000 48.548000 1.000000 10.000000 5.000000 81.321280 -34.205918 1706.611352 1139.648865 20.613948 0.000000 0.118047
225.000000 52.214000 2.000000 10.000000 5.000000 91.094895 -35.949485 1755.524671 915.590391 19.163131 0.000000 0.091667
226.000000 54.782000 3.000000 10.000000 5.000000 100.389664 -37.926998 1813.687038 690.825521 18.261429 0.000000 0.065898
227.000000 56.297000 4.000000 10.000000 5.000000 109.096490 -40.183119 1883.995742 453.260183 17.767170 0.000000 0.089215
229.000000 47.194000 2.000000 11.000000 5.000000 87.988874 -38.308159 1825.254901 989.164709 21.202445 0.000000 0.109004
230.000000 49.641000 3.000000 11.000000 5.000000 96.639391 -40.223080 1885.282606 776.919438 20.153798 0.000000 0.093306
231.000000 51.241000 4.000000 11.000000 5.000000 104.803414 -42.372450 1956.843124 555.989533 19.521484 0.000000 0.114280
232.000000 52.065000 5.000000 11.000000 5.000000 112.412940 -44.794822 2043.613265 315.465391 19.210056 0.000000 0.182814
235.000000 46.811000 4.000000 12.000000 5.000000 100.973688 -44.124549 2018.896287 650.265312 21.370600 0.000000 0.140188
236.000000 47.783000 5.000000 12.000000 5.000000 108.179414 -46.386023 2104.668380 428.618074 20.932992 0.000000 0.198524
242.000000 86.753000 1.000000 0.000000 6.000000 79.628399 51.281061 -367.525203 1255.924676 11.535083 0.000000 0.330461
244.000000 62.806000 -1.000000 1.000000 6.000000 52.927031 31.035473 327.389887 1890.056048 15.941479 0.000000 0.197571
245.000000 80.879000 0.000000 1.000000 6.000000 71.061640 35.284888 213.367294 1393.416611 12.375686 0.000000 0.149105
246.000000 92.856000 1.000000 1.000000 6.000000 87.924179 40.302919 62.141810 992.153045 10.775923 0.000000 0.120941
247.000000 98.279000 2.000000 1.000000 6.000000 102.672544 46.217701 -148.043614 591.232052 10.178439 0.000000 0.175881
249.000000 66.419000 -1.000000 2.000000 6.000000 58.776429 21.240189 556.664210 1640.982151 15.073848 0.000000 0.102998
250.000000 94.016000 1.000000 2.000000 6.000000 93.613083 28.566325 389.005668 863.618469 10.642395 0.000000 0.105142
251.000000 99.021000 3.000000 2.000000 6.000000 121.417446 39.549362 86.213012 88.395988 10.099175 0.000000 0.134892
252.000000 48.551000 -2.000000 3.000000 6.000000 45.464743 10.094626 783.386933 2016.625197 20.625429 0.000000 0.140504
253.000000 66.322000 -1.000000 3.000000 6.000000 62.769533 11.963321 746.946634 1507.160522 15.095593 0.000000 0.070468
254.000000 91.022000 1.000000 3.000000 6.000000 96.522756 16.996314 646.019537 812.318359 10.992187 0.000000 0.143435
255.000000 95.798000 2.000000 3.000000 6.000000 111.489485 20.467838 573.278539 488.710934 10.441041 0.000000 0.094107
257.000000 63.626000 -1.000000 4.000000 6.000000 65.127017 3.593682 907.404460 1440.965558 15.734954 0.000000 0.071535
258.000000 85.347000 1.000000 4.000000 6.000000 97.084827 6.445319 853.412153 806.379010 11.723105 0.000000 0.162577
259.000000 91.053000 3.000000 4.000000 6.000000 124.595357 10.946176 766.838667 184.886306 10.982848 0.000000 0.069027
261.000000 46.559000 -2.000000 5.000000 6.000000 51.153509 -4.104150 1052.228087 1810.030177 21.507185 0.000000 0.059645
262.000000 59.518000 -1.000000 5.000000 6.000000 66.246116 -3.696781 1044.540098 1415.655557 16.820654 0.000000 0.078631
263.000000 70.470000 0.000000 5.000000 6.000000 81.371939 -3.211047 1035.382357 1104.570225 14.202471 0.000000 0.146950
264.000000 78.415000 1.000000 5.000000 6.000000 96.017066 -2.622026 1024.288847 827.433890 12.759871 0.000000 0.165067
265.000000 83.017000 2.000000 5.000000 6.000000 109.757294 -1.893029 1010.573257 554.205089 12.049257 0.000000 0.143522
266.000000 84.570000 3.000000 5.000000 6.000000 122.316397 -0.967780 993.181358 260.066670 11.825280 0.000000 0.093582
267.000000 83.734000 4.000000 5.000000 6.000000 133.570933 0.244540 970.406312 -82.909826 11.941223 0.000000 0.032546
269.000000 54.888000 -1.000000 6.000000 6.000000 66.524573 -9.912934 1163.093798 1415.521687 18.239390 0.000000 0.084689
270.000000 71.238000 1.000000 6.000000 6.000000 94.001702 -10.141076 1167.513407 864.511070 14.045805 0.000000 0.157647
271.000000 75.993000 5.000000 6.000000 6.000000 139.262514 -11.029122 1184.778189 -332.168137 13.156490 0.000000 0.041748
272.000000 50.273000 -1.000000 7.000000 6.000000 66.277980 -15.159342 1266.602708 1431.004613 19.913216 0.000000 0.090639
273.000000 58.214000 0.000000 7.000000 6.000000 79.056094 -15.674385 1277.013558 1157.155340 17.192940 0.000000 0.132020
274.000000 64.401000 1.000000 7.000000 6.000000 91.539006 -16.278671 1289.295597 910.875302 15.537418 0.000000 0.145470
275.000000 68.584000 2.000000 7.000000 6.000000 103.453142 -16.997416 1304.003112 671.775083 14.586352 0.000000 0.129761
276.000000 70.807000 3.000000 7.000000 6.000000 114.595297 -17.866236 1321.933298 423.378766 14.125524 0.000000 0.090177
277.000000 71.330000 4.000000 7.000000 6.000000 124.842812 -18.937053 1344.275696 148.890280 14.019580 0.000000 0.040087
278.000000 70.519000 5.000000 7.000000 6.000000 134.145878 -20.288483 1372.887418 -172.774215 14.178794 0.000000 0.056858
280.000000 45.950000 -1.000000 8.000000 6.000000 65.727379 -19.576783 1357.759792 1456.124092 21.786749 0.000000 0.098233
281.000000 58.176000 1.000000 8.000000 6.000000 88.943045 -21.276231 1394.115327 962.309430 17.200787 0.000000 0.132402
282.000000 64.413000 3.000000 8.000000 6.000000 110.368749 -23.593265 1445.070760 504.948190 15.528779 0.000000 0.077920
283.000000 65.134000 5.000000 8.000000 6.000000 128.856229 -26.925190 1521.630368 -31.526561 15.351957 0.000000 0.060917
285.000000 52.644000 1.000000 9.000000 6.000000 86.390491 -25.366268 1485.285786 1016.138293 19.009058 0.000000 0.121551
286.000000 56.235000 2.000000 9.000000 6.000000 96.604316 -26.624097 1514.534311 801.605804 17.791574 0.000000 0.103899
287.000000 59.804000 4.000000 9.000000 6.000000 115.363491 -29.782000 1590.950601 353.133604 16.723914 0.000000 0.009865
288.000000 60.026000 5.000000 9.000000 6.000000 123.738168 -31.794741 1642.193954 95.252649 16.659776 0.000000 0.063655
290.000000 47.789000 1.000000 10.000000 6.000000 83.970746 -28.743239 1565.310048 1070.654254 20.940699 0.000000 0.115386
291.000000 53.386000 3.000000 10.000000 6.000000 102.493292 -31.649129 1638.413491 660.860390 18.738481 0.000000 0.059970
292.000000 55.289000 5.000000 10.000000 6.000000 118.943238 -35.471054 1741.893141 210.155056 18.088286 0.000000 0.070581
294.000000 46.554000 2.000000 11.000000 6.000000 90.539699 -32.962363 1672.948944 928.916399 21.493416 0.000000 0.095032
295.000000 48.770000 3.000000 11.000000 6.000000 98.996913 -34.535406 1715.696227 734.136953 20.513379 0.000000 0.063831
296.000000 50.218000 4.000000 11.000000 6.000000 107.011618 -36.309937 1765.904181 532.357186 19.918851 0.000000 0.041259
297.000000 50.962000 5.000000 11.000000 6.000000 114.524108 -38.323162 1825.712705 315.089915 19.625390 0.000000 0.083018
298.000000 51.096000 6.000000 11.000000 6.000000 121.495770 -40.620581 1898.166583 72.209355 19.571537 0.000000 0.161835
301.000000 47.045000 5.000000 12.000000 6.000000 110.484776 -40.589898 1897.166648 411.514333 21.260555 0.000000 0.099651
306.000000 55.584000 -1.000000 1.000000 7.000000 54.568690 33.027260 275.318054 1854.356044 18.012131 0.000000 0.204275
307.000000 68.724000 0.000000 1.000000 7.000000 70.060718 36.809207 169.559222 1428.672726 14.564557 0.000000 0.162184
308.000000 77.980000 1.000000 1.000000 7.000000 84.598149 41.152879 34.337984 1076.166988 12.832333 0.000000 0.139732
309.000000 83.016000 2.000000 1.000000 7.000000 97.626780 46.131064 -144.649562 733.037429 12.050852 0.000000 0.172570
311.000000 58.738000 -1.000000 2.000000 7.000000 59.907217 24.482907 484.892165 1626.347945 17.044566 0.000000 0.118166
312.000000 71.050000 0.000000 2.000000 7.000000 75.355429 27.606868 412.162672 1258.382534 14.087153 0.000000 0.121138
313.000000 79.668000 1.000000 2.000000 7.000000 89.963270 31.273732 321.278489 941.807270 12.559811 0.000000 0.103045
314.000000 84.306000 2.000000 2.000000 7.000000 103.210198 35.599170 204.472569 630.285696 11.865678 0.000000 0.050178
315.000000 85.486000 3.000000 2.000000 7.000000 114.776931 40.713171 48.810343 285.588116 11.699471 0.000000 0.113406
317.000000 45.859000 -2.000000 3.000000 7.000000 48.610962 14.201097 702.633744 1919.414849 21.835319 0.000000 0.121168
318.000000 59.347000 -1.000000 3.000000 7.000000 63.820407 16.201664 662.273700 1492.009390 16.869208 0.000000 0.085331
319.000000 70.572000 0.000000 3.000000 7.000000 78.907629 18.555625 613.714694 1163.582637 14.182169 0.000000 0.130171
320.000000 78.506000 1.000000 3.000000 7.000000 93.302084 21.355177 554.175894 874.324072 12.745358 0.000000 0.132828
321.000000 82.889000 2.000000 3.000000 7.000000 106.544360 24.722024 479.458612 589.020695 12.068203 0.000000 0.089996
322.000000 84.133000 3.000000 3.000000 7.000000 118.338705 28.816005 382.910636 278.501188 11.887105 0.000000 0.009202
323.000000 82.997000 4.000000 3.000000 7.000000 128.543136 33.842485 253.327464 -91.357437 12.047776 0.000000 0.111910
325.000000 45.966000 -2.000000 4.000000 7.000000 51.848411 7.145924 840.064304 1793.107234 21.784154 0.000000 0.061954
326.000000 57.959000 -1.000000 4.000000 7.000000 66.390509 8.489353 814.351214 1416.645235 17.272942 0.000000 0.083063
327.000000 67.989000 0.000000 4.000000 7.000000 80.857379 10.072171 783.822089 1116.927022 14.720848 0.000000 0.142693
328.000000 75.229000 1.000000 4.000000 7.000000 94.774542 11.961414 746.984068 849.107399 13.300443 0.000000 0.155949
329.000000 79.436000 2.000000 4.000000 7.000000 107.753554 14.249995 701.656183 585.462325 12.592745 0.000000 0.130147
330.000000 80.895000 3.000000 4.000000 7.000000 119.535819 17.069229 644.521269 303.073275 12.362877 0.000000 0.074367
331.000000 80.193000 4.000000 4.000000 7.000000 129.990342 20.608037 570.275272 -23.529047 12.468953 0.000000 0.028486
333.000000 55.271000 -1.000000 5.000000 7.000000 67.849421 1.533912 946.178763 1379.302017 18.112802 0.000000 0.088236
334.000000 64.114000 0.000000 5.000000 7.000000 81.526432 2.430762 929.311007 1101.490086 15.610354 0.000000 0.147841
335.000000 70.673000 1.000000 5.000000 7.000000 94.771907 3.496674 909.233731 850.984884 14.157968 0.000000 0.165265
336.000000 74.721000 2.000000 5.000000 7.000000 107.263918 4.783425 884.934584 605.345998 13.387663 0.000000 0.148839
337.000000 76.430000 3.000000 5.000000 7.000000 118.780644 6.365763 854.925433 346.107725 13.085415 0.000000 0.106560
338.000000 76.226000 4.000000 5.000000 7.000000 129.204606 8.355245 816.925643 53.633338 13.118261 0.000000 0.049642
339.000000 74.617000 5.000000 5.000000 7.000000 138.502817 10.924888 767.253504 -298.106883 13.399246 0.000000 0.026565
341.000000 51.899000 -1.000000 6.000000 7.000000 68.475100 -4.597455 1061.548468 1366.874287 19.289306 0.000000 0.092360
342.000000 59.638000 0.000000 6.000000 7.000000 81.282526 -4.259669 1055.165115 1106.489257 16.782064 0.000000 0.146342
343.000000 65.544000 1.000000 6.000000 7.000000 93.748477 -3.861951 1047.656352 870.324189 15.266152 0.000000 0.164495
344.000000 69.413000 2.000000 6.000000 7.000000 105.607516 -3.386851 1038.695783 639.814992 14.411800 0.000000 0.153074
345.000000 71.333000 3.000000 6.000000 7.000000 116.668855 -2.809438 1027.817292 399.762695 14.020903 0.000000 0.118582
346.000000 71.595000 4.000000 6.000000 7.000000 126.823565 -2.092844 1014.331312 134.600504 13.967276 0.000000 0.069418
347.000000 70.577000 5.000000 6.000000 7.000000 136.034789 -1.180181 997.172699 -175.127257 14.166729 0.000000 0.020794
350.000000 48.289000 -1.000000 7.000000 7.000000 68.521711 -9.926749 1163.361238 1370.929035 20.731090 0.000000 0.094850
351.000000 60.336000 1.000000 7.000000 7.000000 92.102327 -10.121893 1167.141550 900.865658 16.584398 0.000000 0.157482
352.000000 63.998000 2.000000 7.000000 7.000000 103.261718 -10.245532 1169.539039 683.223653 15.631948 0.000000 0.148428
353.000000 66.058000 3.000000 7.000000 7.000000 113.762706 -10.393342 1172.407688 459.229586 15.141437 0.000000 0.118412
354.000000 66.704000 4.000000 7.000000 7.000000 123.502366 -10.573176 1175.901518 216.247133 14.992107 0.000000 0.074284
355.000000 66.210000 5.000000 7.000000 7.000000 132.435298 -10.796702 1180.249899 -60.741144 15.101917 0.000000 0.033710
356.000000 64.866000 6.000000 7.000000 7.000000 140.562080 -11.082032 1185.810036 -392.399373 15.413177 0.000000 0.046717
357.000000 50.609000 0.000000 8.000000 7.000000 79.272674 -14.929713 1261.977518 1152.023193 19.776765 0.000000 0.133275
358.000000 55.345000 1.000000 8.000000 7.000000 90.130059 -15.393364 1271.326719 938.465948 18.080424 0.000000 0.147260
359.000000 58.778000 2.000000 8.000000 7.000000 100.581690 -15.931623 1282.232829 731.901491 17.021017 0.000000 0.138837
360.000000 60.903000 3.000000 8.000000 7.000000 110.485333 -16.563953 1295.120073 521.495523 16.423781 0.000000 0.111201
361.000000 61.839000 4.000000 8.000000 7.000000 119.744536 -17.317170 1310.582203 296.781946 16.172529 0.000000 0.069648
362.000000 61.775000 5.000000 8.000000 7.000000 128.307190 -18.229253 1329.476565 45.849259 16.187009 0.000000 0.033570
363.000000 60.929000 6.000000 8.000000 7.000000 136.158297 -19.355734 1353.088645 -246.853976 16.410007 0.000000 0.063881
365.000000 46.491000 0.000000 9.000000 7.000000 77.922673 -19.113045 1347.974769 1184.727684 21.528723 0.000000 0.126177
366.000000 50.724000 1.000000 9.000000 7.000000 88.030440 -19.822805 1362.973773 980.343801 19.728243 0.000000 0.136226
367.000000 53.916000 2.000000 9.000000 7.000000 97.801474 -20.635260 1380.308538 783.428463 18.556692 0.000000 0.127212
368.000000 56.045000 3.000000 9.000000 7.000000 107.113399 -21.574026 1400.570753 584.648269 17.848435 0.000000 0.100587
369.000000 57.180000 4.000000 9.000000 7.000000 115.877510 -22.670396 1424.570378 375.185221 17.491304 0.000000 0.059838
370.000000 57.450000 5.000000 9.000000 7.000000 124.038865 -23.966646 1453.446530 145.370069 17.406638 0.000000 0.025212
371.000000 57.015000 6.000000 9.000000 7.000000 131.571951 -25.521141 1488.853592 -116.855791 17.537638 0.000000 0.070503
374.000000 46.531000 1.000000 10.000000 7.000000 85.926650 -23.555112 1444.217590 1024.613565 21.506695 0.000000 0.126366
375.000000 49.482000 2.000000 10.000000 7.000000 95.061982 -24.541494 1466.437209 836.195108 20.220420 0.000000 0.115915
376.000000 51.568000 3.000000 10.000000 7.000000 103.810534 -25.664425 1492.162640 647.468955 19.398910 0.000000 0.089510
377.000000 52.827000 4.000000 10.000000 7.000000 112.092158 -26.953295 1522.294667 450.897015 18.933650 0.000000 0.048663
378.000000 53.345000 5.000000 10.000000 7.000000 119.852383 -28.446173 1558.071574 238.473465 18.747467 0.000000 0.013556
379.000000 53.235000 6.000000 10.000000 7.000000 127.060020 -30.193054 1601.243555 0.607370 18.783977 0.000000 0.073576
380.000000 52.622000 7.000000 10.000000 7.000000 133.702584 -32.260531 1654.367724 -275.397676 19.001027 0.000000 0.147338
382.000000 45.488000 2.000000 11.000000 7.000000 92.440993 -27.808784 1542.676497 889.127714 21.996653 0.000000 0.106998
383.000000 47.501000 3.000000 11.000000 7.000000 100.664702 -29.034997 1572.459350 709.185040 21.061171 0.000000 0.080709
384.000000 48.825000 4.000000 11.000000 7.000000 108.489398 -30.421618 1607.004093 523.636991 20.486818 0.000000 0.040806
385.000000 49.517000 5.000000 11.000000 7.000000 115.863210 -32.000333 1647.552004 325.741800 20.197866 0.000000 0.013758
386.000000 49.658000 6.000000 11.000000 7.000000 122.752697 -33.811049 1695.816833 107.703102 20.138378 0.000000 0.077453
387.000000 49.340000 7.000000 11.000000 7.000000 129.139961 -35.904405 1754.233236 -140.396904 20.266137 0.000000 0.152847
389.000000 45.991000 5.000000 12.000000 7.000000 112.123842 -34.868509 1724.954192 407.693970 21.747646 0.000000 0.030195
390.000000 46.319000 6.000000 12.000000 7.000000 118.708481 -36.674457 1776.498883 206.049703 21.591429 0.000000 0.084366
391.000000 46.234000 7.000000 12.000000 7.000000 124.848769 -38.723904 1838.011802 -19.564959 21.628888 0.000000 0.157408
395.000000 63.132000 1.000000 0.000000 8.000000 75.696213 49.820878 -299.564078 1366.338704 15.852077 0.000000 0.312961
397.000000 49.722000 -1.000000 1.000000 8.000000 55.769232 34.548856 233.931392 1830.091660 20.135164 0.000000 0.210841
398.000000 59.690000 0.000000 1.000000 8.000000 69.280533 37.946809 135.714667 1457.262978 16.768979 0.000000 0.173913
399.000000 67.039000 1.000000 1.000000 8.000000 82.050755 41.772050 13.626217 1142.516430 14.927344 0.000000 0.155137
400.000000 71.529000 2.000000 1.000000 8.000000 93.696788 46.069416 -142.241011 840.767063 13.987206 0.000000 0.175939
401.000000 73.420000 3.000000 1.000000 8.000000 103.976220 50.874078 -348.156255 516.492100 13.624313 0.000000 0.291058
403.000000 52.448000 -1.000000 2.000000 8.000000 60.666208 26.994163 426.738772 1619.773658 19.088094 0.000000 0.130479
404.000000 68.830000 1.000000 2.000000 8.000000 87.051770 33.254159 269.238828 1007.285577 14.538189 0.000000 0.105701
405.000000 74.695000 3.000000 2.000000 8.000000 109.412416 41.507476 22.524856 434.522756 13.390872 0.000000 0.105096
406.000000 53.379000 -1.000000 3.000000 8.000000 64.447195 19.562509 592.542231 1487.107262 18.755074 0.000000 0.096261
407.000000 62.162000 0.000000 3.000000 8.000000 77.776320 21.903306 542.260328 1192.309575 16.101223 0.000000 0.124893
408.000000 68.615000 1.000000 3.000000 8.000000 90.529808 24.618440 481.814948 930.052208 14.583279 0.000000 0.124051
409.000000 72.552000 2.000000 3.000000 8.000000 102.375178 27.789847 407.778131 674.062519 13.788483 0.000000 0.086534
410.000000 74.184000 3.000000 3.000000 8.000000 113.083954 31.517836 314.985060 402.895217 13.482449 0.000000 0.016434
411.000000 73.954000 4.000000 3.000000 8.000000 122.530478 35.921595 195.274486 93.305773 13.522208 0.000000 0.092058
413.000000 52.788000 -1.000000 4.000000 8.000000 67.128054 12.487198 736.643602 1406.024058 18.964535 0.000000 0.090993
414.000000 66.773000 1.000000 4.000000 8.000000 92.527039 16.245552 661.379477 891.523564 14.985331 0.000000 0.147554
415.000000 72.198000 3.000000 4.000000 8.000000 114.947484 21.473076 551.620537 402.971512 13.853109 0.000000 0.074700
416.000000 70.865000 5.000000 4.000000 8.000000 133.077010 29.073157 376.602569 -210.451552 14.109566 0.000000 0.098518
417.000000 51.087000 -1.000000 5.000000 8.000000 68.838941 5.938645 863.042052 1359.873695 19.595797 0.000000 0.095158
418.000000 58.315000 0.000000 5.000000 8.000000 81.238392 7.098726 840.964767 1108.162105 17.162769 0.000000 0.145535
419.000000 63.797000 1.000000 5.000000 8.000000 93.252271 8.452020 815.068064 879.169250 15.684371 0.000000 0.161167
420.000000 67.373000 2.000000 5.000000 8.000000 104.632533 10.049213 784.266935 655.615353 14.848331 0.000000 0.147703
421.000000 69.144000 3.000000 5.000000 8.000000 115.199764 11.959460 747.022424 423.302875 14.465184 0.000000 0.110799
422.000000 69.381000 4.000000 5.000000 8.000000 124.846866 14.278981 701.076479 167.761381 14.413307 0.000000 0.058165
423.000000 68.433000 5.000000 5.000000 8.000000 133.527620 17.144353 642.976402 -128.892189 14.611045 0.000000 0.031008
426.000000 48.687000 -1.000000 6.000000 8.000000 69.766263 0.010061 974.811013 1337.718895 20.561505 0.000000 0.099300
427.000000 60.158000 1.000000 6.000000 8.000000 92.996006 1.431810 948.098024 884.651453 16.633149 0.000000 0.165565
428.000000 65.426000 3.000000 6.000000 8.000000 114.192527 3.397451 911.104388 456.611558 15.287493 0.000000 0.128450
429.000000 65.364000 5.000000 6.000000 8.000000 132.345184 6.283953 856.481106 -45.834336 15.297478 0.000000 0.035535
431.000000 45.927000 -1.000000 7.000000 8.000000 70.103002 -5.273957 1074.351392 1332.205437 21.796867 0.000000 0.101438
432.000000 51.680000 0.000000 7.000000 8.000000 81.204773 -5.029006 1069.712614 1108.170886 19.366449 0.000000 0.145810
433.000000 56.235000 1.000000 7.000000 8.000000 92.051674 -4.746788 1064.372397 902.310364 17.793933 0.000000 0.163345
434.000000 59.464000 2.000000 7.000000 8.000000 102.467020 -4.418114 1058.158629 702.331983 16.824151 0.000000 0.158030
435.000000 61.387000 3.000000 7.000000 8.000000 112.315332 -4.030515 1050.837876 498.147764 16.294001 0.000000 0.133996
436.000000 62.138000 4.000000 7.000000 8.000000 121.507928 -3.566631 1042.085396 279.960808 16.094361 0.000000 0.096058
437.000000 61.918000 5.000000 7.000000 8.000000 130.000396 -3.001564 1031.435661 36.628477 16.149463 0.000000 0.051454
438.000000 60.946000 6.000000 7.000000 8.000000 137.784828 -2.298317 1018.196786 -246.310835 16.405054 0.000000 0.015893
441.000000 52.291000 1.000000 8.000000 8.000000 90.668665 -10.107846 1166.869270 928.240605 19.136227 0.000000 0.156887
442.000000 57.281000 3.000000 8.000000 8.000000 109.909870 -10.334647 1171.268228 544.748704 17.462804 0.000000 0.131765
443.000000 58.307000 5.000000 8.000000 8.000000 126.947583 -10.651084 1177.416375 117.305309 17.150219 0.000000 0.056677
444.000000 56.570000 7.000000 8.000000 8.000000 141.522616 -11.123342 1186.615929 -439.110743 17.673184 0.000000 0.050487
445.000000 48.494000 1.000000 9.000000 8.000000 89.036728 -14.726889 1257.900448 959.711357 20.635118 0.000000 0.148129
446.000000 51.341000 2.000000 9.000000 8.000000 98.338839 -15.147420 1266.362323 777.562089 19.487344 0.000000 0.144283
447.000000 53.279000 3.000000 9.000000 8.000000 107.235517 -15.631114 1276.136892 594.276940 18.775338 0.000000 0.124797
448.000000 54.361000 4.000000 9.000000 8.000000 115.651467 -16.193270 1287.555298 402.784000 18.398551 0.000000 0.092687
449.000000 54.691000 5.000000 9.000000 8.000000 123.539327 -16.854523 1301.070288 195.531127 18.285158 0.000000 0.053792
450.000000 54.395000 6.000000 9.000000 8.000000 130.876776 -17.643376 1317.317681 -36.533741 18.382487 0.000000 0.034650
451.000000 53.607000 7.000000 9.000000 8.000000 137.661717 -18.600299 1337.219300 -305.346152 18.651029 0.000000 0.068624
454.000000 49.485000 3.000000 10.000000 8.000000 104.470842 -20.072264 1368.277079 645.273380 20.215765 0.000000 0.115358
455.000000 51.177000 5.000000 10.000000 8.000000 120.015743 -21.876537 1407.155639 270.956251 19.541542 0.000000 0.045730
456.000000 50.641000 7.000000 10.000000 8.000000 133.624890 -24.346825 1462.024812 -184.969325 19.744297 0.000000 0.077021
458.000000 45.953000 3.000000 11.000000 8.000000 101.730022 -23.807631 1449.873584 696.736588 21.770493 0.000000 0.105300
459.000000 47.176000 4.000000 11.000000 8.000000 109.330206 -24.816899 1472.703043 525.037377 21.202938 0.000000 0.074704
460.000000 47.835000 5.000000 11.000000 8.000000 116.526852 -25.966639 1499.168258 343.423677 20.908194 0.000000 0.035075
461.000000 47.998000 6.000000 11.000000 8.000000 123.291040 -27.287220 1530.212900 145.752159 20.834842 0.000000 0.026817
462.000000 47.744000 7.000000 11.000000 8.000000 129.607728 -28.817999 1567.138154 -75.523677 20.943620 0.000000 0.081022
468.000000 52.726000 0.000000 1.000000 9.000000 68.656714 38.827652 108.781609 1480.855538 18.984165 0.000000 0.184207
469.000000 58.692000 1.000000 1.000000 9.000000 80.039739 42.243092 -2.400072 1196.315848 17.050786 0.000000 0.167976
470.000000 62.640000 2.000000 1.000000 9.000000 90.556171 46.023310 -140.443149 925.953268 15.972775 0.000000 0.181763
471.000000 64.692000 3.000000 1.000000 9.000000 100.019057 50.191517 -316.419653 643.996107 15.463452 0.000000 0.265099
473.000000 47.268000 -1.000000 2.000000 9.000000 61.197124 28.989273 378.663732 1617.530310 21.179781 0.000000 0.140898
474.000000 54.749000 0.000000 2.000000 9.000000 73.215681 31.705954 310.112587 1322.579240 18.281947 0.000000 0.129158
475.000000 60.419000 1.000000 2.000000 9.000000 84.687910 34.762440 228.001907 1062.815019 16.562460 0.000000 0.111384
476.000000 64.130000 2.000000 2.000000 9.000000 95.347796 38.205685 127.866980 812.785428 15.600917 0.000000 0.083690
477.000000 66.002000 3.000000 2.000000 9.000000 105.008840 42.083941 3.041324 552.177209 15.155646 0.000000 0.105717
478.000000 66.332000 4.000000 2.000000 9.000000 113.565492 46.442274 -156.891425 259.734803 15.077846 0.000000 0.215901
480.000000 48.320000 -1.000000 3.000000 9.000000 64.821057 22.275459 534.118000 1487.788219 20.718152 0.000000 0.105120
481.000000 60.697000 1.000000 3.000000 9.000000 88.159609 27.137976 423.331902 979.861682 16.486222 0.000000 0.117954
482.000000 64.203000 2.000000 3.000000 9.000000 98.858582 30.094681 351.227514 747.118168 15.582648 0.000000 0.085161
483.000000 66.300000 4.000000 3.000000 9.000000 117.426889 37.384913 152.559886 238.059083 15.084547 0.000000 0.078574
484.000000 65.489000 5.000000 3.000000 9.000000 125.139638 41.870042 10.311708 -76.302610 15.269388 0.000000 0.200971
485.000000 48.209000 -1.000000 4.000000 9.000000 67.539515 15.783470 670.774760 1403.379618 20.765255 0.000000 0.096785
486.000000 54.735000 0.000000 4.000000 9.000000 79.198555 17.578504 634.023721 1156.400576 18.285517 0.000000 0.131798
487.000000 59.725000 1.000000 4.000000 9.000000 90.446313 19.633881 591.031556 932.098339 16.754110 0.000000 0.139215
488.000000 63.055000 2.000000 4.000000 9.000000 101.061468 22.004025 540.060929 714.060187 15.865906 0.000000 0.118766
489.000000 64.807000 3.000000 4.000000 9.000000 110.880617 24.756928 478.663722 488.865835 15.433998 0.000000 0.073344
490.000000 65.205000 4.000000 4.000000 9.000000 119.800561 27.977089 403.276126 243.016830 15.337502 0.000000 0.010864
491.000000 64.535000 5.000000 4.000000 9.000000 127.769107 31.767994 308.501346 -39.878780 15.494769 0.000000 0.083851
493.000000 47.180000 -1.000000 5.000000 9.000000 69.421913 9.657402 791.849116 1350.891495 21.218106 0.000000 0.099737
494.000000 53.164000 0.000000 5.000000 9.000000 80.710711 10.976725 766.243288 1120.324150 18.825704 0.000000 0.141633
495.000000 57.799000 1.000000 5.000000 9.000000 91.656116 12.490614 736.576271 909.127004 17.312325 0.000000 0.155056
496.000000 60.970000 2.000000 5.000000 9.000000 102.064374 14.242869 701.798663 703.667155 16.408372 0.000000 0.143351
497.000000 62.733000 3.000000 5.000000 9.000000 111.789737 16.290392 660.465437 492.740033 15.944270 0.000000 0.110427
498.000000 63.264000 4.000000 5.000000 9.000000 120.737634 18.707851 610.530095 265.286227 15.808017 0.000000 0.061392
499.000000 62.800000 5.000000 5.000000 9.000000 128.858320 21.593997 548.995391 8.375784 15.922663 0.000000 0.027058
500.000000 61.591000 6.000000 5.000000 9.000000 136.134794 25.079840 471.288655 -295.362174 16.233590 0.000000 0.087897
502.000000 45.503000 -1.000000 6.000000 9.000000 70.589938 3.993413 899.862508 1321.158509 21.999759 0.000000 0.104159
503.000000 55.230000 1.000000 6.000000 9.000000 91.971053 5.883747 864.084369 903.763223 18.117730 0.000000 0.163171
504.000000 58.249000 2.000000 6.000000 9.000000 102.067613 7.050625 841.882247 709.145497 17.175294 0.000000 0.156828
505.000000 60.716000 4.000000 6.000000 9.000000 120.435102 10.025734 784.721797 298.849364 16.471689 0.000000 0.092262
506.000000 60.486000 5.000000 6.000000 9.000000 128.574652 11.957457 747.061734 63.545636 16.532070 0.000000 0.045575
509.000000 48.351000 0.000000 7.000000 9.000000 81.509867 -0.661393 987.424744 1101.674486 20.699587 0.000000 0.147853
510.000000 52.293000 1.000000 7.000000 9.000000 91.598892 -0.091191 976.713006 910.957176 19.135327 0.000000 0.164913
511.000000 55.158000 2.000000 7.000000 9.000000 101.308117 0.564928 964.387560 725.766149 18.137863 0.000000 0.161736
512.000000 56.957000 3.000000 7.000000 9.000000 110.524933 1.327743 950.054048 537.947912 17.561824 0.000000 0.141694
513.000000 57.785000 4.000000 7.000000 9.000000 119.171969 2.225234 933.178217 339.716892 17.307633 0.000000 0.108436
514.000000 57.786000 5.000000 7.000000 9.000000 127.205609 3.295936 913.017851 122.528251 17.304798 0.000000 0.066826
515.000000 57.129000 6.000000 7.000000 9.000000 134.610647 4.594327 888.510674 -124.187545 17.502008 0.000000 0.025132
516.000000 55.976000 7.000000 7.000000 9.000000 141.392961 6.199792 858.080981 -414.840737 17.861032 0.000000 0.016108
518.000000 45.589000 0.000000 8.000000 9.000000 81.138359 -5.617326 1080.860175 1109.614744 21.953950 0.000000 0.145355
519.000000 49.206000 1.000000 8.000000 9.000000 90.736208 -5.409674 1076.923113 927.107781 20.336429 0.000000 0.162045
520.000000 51.914000 2.000000 8.000000 9.000000 100.013296 -5.172413 1072.427956 750.185737 19.272002 0.000000 0.160574
521.000000 53.710000 3.000000 8.000000 9.000000 108.870677 -4.898732 1067.246980 571.768660 18.624150 0.000000 0.143737
522.000000 54.659000 4.000000 8.000000 9.000000 117.237704 -4.579567 1061.210274 385.189762 18.297871 0.000000 0.114607
523.000000 54.870000 5.000000 8.000000 9.000000 125.071800 -4.202575 1054.086744 183.321582 18.225005 0.000000 0.077259
524.000000 54.475000 6.000000 8.000000 9.000000 132.355192 -3.750520 1045.553856 -42.355322 18.355388 0.000000 0.038523
525.000000 53.605000 7.000000 8.000000 9.000000 139.089981 -3.198580 1035.147438 -303.007134 18.651274 0.000000 0.016278
528.000000 46.120000 1.000000 9.000000 9.000000 89.548460 -10.097115 1166.661291 949.615733 21.697297 0.000000 0.156139
529.000000 48.669000 2.000000 9.000000 9.000000 98.374888 -10.187967 1168.422551 780.010315 20.557425 0.000000 0.155352
530.000000 51.485000 4.000000 9.000000 9.000000 114.883780 -10.411569 1172.761610 433.413705 19.426840 0.000000 0.114043
531.000000 51.873000 5.000000 9.000000 9.000000 122.459636 -10.551294 1175.476163 244.615508 19.278837 0.000000 0.079551
532.000000 51.101000 7.000000 9.000000 9.000000 136.145370 -10.914470 1182.543527 -199.846135 19.566212 0.000000 0.032488
534.000000 45.527000 2.000000 10.000000 9.000000 96.540821 -14.546439 1254.279513 813.508085 21.976926 0.000000 0.147647
535.000000 47.261000 3.000000 10.000000 9.000000 104.607393 -14.930379 1261.990926 650.697297 21.167129 0.000000 0.133854
536.000000 48.365000 4.000000 10.000000 9.000000 112.304784 -15.368384 1270.821979 483.100910 20.681005 0.000000 0.109095
537.000000 48.895000 5.000000 10.000000 9.000000 119.592103 -15.872674 1281.035605 305.547330 20.454120 0.000000 0.076308
538.000000 48.928000 6.000000 10.000000 9.000000 126.445578 -16.459428 1292.984057 112.201434 20.438076 0.000000 0.042776
539.000000 48.548000 7.000000 10.000000 9.000000 132.856184 -17.150515 1307.150357 -104.093359 20.595818 0.000000 0.038830
540.000000 47.841000 8.000000 10.000000 9.000000 138.826617 -17.976209 1324.215188 -352.748742 20.898493 0.000000 0.071880
543.000000 46.005000 5.000000 11.000000 9.000000 116.627745 -20.325221 1373.672027 365.550211 21.740116 0.000000 0.069582
544.000000 46.198000 6.000000 11.000000 9.000000 123.228905 -21.186654 1392.178642 184.804244 21.646567 0.000000 0.036369
545.000000 46.014000 7.000000 11.000000 9.000000 129.430106 -22.183860 1413.873917 -14.774949 21.731111 0.000000 0.039495
546.000000 45.520000 8.000000 11.000000 9.000000 135.228351 -23.350907 1439.659640 -240.694960 21.964909 0.000000 0.081504
549.000000 49.456000 1.000000 0.000000 10.000000 73.274293 48.965965 -261.650526 1433.652912 20.236712 0.000000 0.306667
552.000000 47.199000 0.000000 1.000000 10.000000 68.147196 39.529541 86.839067 1500.626555 21.207113 0.000000 0.193192
553.000000 52.135000 1.000000 1.000000 10.000000 78.413075 42.613437 -15.169261 1240.856018 19.195775 0.000000 0.178830
554.000000 55.597000 2.000000 1.000000 10.000000 87.992390 45.987525 -139.049849 995.299570 17.997033 0.000000 0.188241
555.000000 57.641000 3.000000 1.000000 10.000000 96.738872 49.667898 -292.682088 744.503532 17.355929 0.000000 0.249967
557.000000 53.738000 1.000000 2.000000 10.000000 82.736631 35.947917 194.520274 1110.448420 18.622145 0.000000 0.118639
558.000000 58.913000 3.000000 2.000000 10.000000 101.340434 42.521291 -11.978014 648.127369 16.980383 0.000000 0.111145
560.000000 49.784000 0.000000 3.000000 10.000000 75.788814 26.687307 433.979095 1246.066351 20.104818 0.000000 0.120901
561.000000 54.267000 1.000000 3.000000 10.000000 86.129468 29.134884 375.083697 1024.366093 18.440140 0.000000 0.114629
562.000000 57.380000 2.000000 3.000000 10.000000 95.874676 31.884344 305.473776 810.577985 17.436422 0.000000 0.086148
563.000000 59.175000 3.000000 3.000000 10.000000 104.883848 34.979910 221.932904 591.877140 16.904397 0.000000 0.043752
564.000000 59.816000 4.000000 3.000000 10.000000 113.065637 38.469429 119.814109 355.622387 16.720766 0.000000 0.072473
565.000000 59.520000 5.000000 3.000000 10.000000 120.372274 42.401835 -7.854940 86.816114 16.801758 0.000000 0.175404
567.000000 53.830000 1.000000 4.000000 10.000000 88.562390 22.363046 532.195394 970.207649 18.589585 0.000000 0.131861
568.000000 58.530000 3.000000 4.000000 10.000000 107.304407 27.284531 419.851037 563.703193 17.090361 0.000000 0.072057
569.000000 58.955000 5.000000 4.000000 10.000000 123.094387 33.722339 256.594515 97.612526 16.962245 0.000000 0.070130
571.000000 52.605000 1.000000 5.000000 10.000000 90.087799 15.814478 670.145646 939.285826 19.022031 0.000000 0.148275
572.000000 55.427000 2.000000 5.000000 10.000000 99.651614 17.627843 633.003596 748.942671 18.050276 0.000000 0.137622
573.000000 57.138000 3.000000 5.000000 10.000000 108.637705 19.706626 589.490414 555.415169 17.506708 0.000000 0.107804
574.000000 57.853000 4.000000 5.000000 10.000000 116.964059 22.106818 537.813013 350.003018 17.287665 0.000000 0.062022
575.000000 56.966000 6.000000 5.000000 10.000000 131.470015 28.168741 398.651871 -138.018802 17.552568 0.000000 0.078825
578.000000 50.800000 1.000000 6.000000 10.000000 90.818194 9.637262 792.238392 925.409251 19.698034 0.000000 0.158843
579.000000 55.183000 3.000000 6.000000 10.000000 109.004297 12.494095 736.507672 561.320409 18.126746 0.000000 0.131271
580.000000 56.002000 5.000000 6.000000 10.000000 124.922015 16.336216 659.530911 157.937718 17.856773 0.000000 0.050587
581.000000 54.351000 7.000000 6.000000 10.000000 138.294315 21.718055 546.297559 -359.047497 18.395489 0.000000 0.078453
582.000000 48.611000 1.000000 7.000000 10.000000 90.897498 3.930008 901.059272 924.099482 20.585153 0.000000 0.163664
583.000000 51.166000 2.000000 7.000000 10.000000 99.952436 4.814027 884.355690 751.472826 19.553407 0.000000 0.161685
584.000000 52.849000 3.000000 7.000000 10.000000 108.576991 5.827869 865.145080 577.388716 18.927755 0.000000 0.144432
585.000000 53.724000 4.000000 7.000000 10.000000 116.703446 7.001597 842.817230 395.531561 18.616646 0.000000 0.114723
586.000000 53.898000 5.000000 7.000000 10.000000 124.289890 8.375006 816.546414 199.169170 18.554125 0.000000 0.076191
587.000000 53.496000 6.000000 7.000000 10.000000 131.316557 10.001717 785.187017 -19.699002 18.691471 0.000000 0.035827
588.000000 52.645000 7.000000 7.000000 10.000000 137.780534 11.955403 747.102036 -271.476781 18.991916 0.000000 0.028053
591.000000 46.207000 1.000000 8.000000 10.000000 90.474961 -1.259362 998.660772 932.075547 21.656465 0.000000 0.163893
592.000000 50.293000 3.000000 8.000000 10.000000 107.544573 -0.194123 978.646587 600.722997 19.890272 0.000000 0.149962
593.000000 51.556000 5.000000 8.000000 10.000000 122.906093 1.221654 952.047902 244.393298 19.397531 0.000000 0.090701
594.000000 50.696000 7.000000 8.000000 10.000000 136.316255 3.192050 914.975606 -187.668648 19.722483 0.000000 0.017371
596.000000 46.009000 2.000000 9.000000 10.000000 98.045949 -5.747929 1083.337838 788.087596 21.746047 0.000000 0.161786
597.000000 47.642000 3.000000 9.000000 10.000000 106.083737 -5.547458 1079.535173 629.214289 20.997527 0.000000 0.150022
598.000000 48.647000 4.000000 9.000000 10.000000 113.744380 -5.318163 1075.188933 465.498319 20.560587 0.000000 0.127574
599.000000 49.087000 5.000000 9.000000 10.000000 120.990076 -5.053356 1070.173594 292.028368 20.373822 0.000000 0.097009
600.000000 49.040000 6.000000 9.000000 10.000000 127.800076 -4.744110 1064.321761 103.268247 20.390966 0.000000 0.062053
601.000000 48.593000 7.000000 9.000000 10.000000 134.168192 -4.378238 1057.405118 -107.548391 20.576500 0.000000 0.029761
602.000000 47.831000 8.000000 9.000000 10.000000 140.099772 -3.938656 1049.103945 -349.270529 20.902701 0.000000 0.019028
605.000000 46.412000 7.000000 10.000000 10.000000 131.578589 -10.771935 1179.767779 -30.987226 21.544379 0.000000 0.036192
607.000000 46.859000 1.000000 1.000000 11.000000 77.070852 42.912233 -25.582692 1278.358630 21.357481 0.000000 0.188120
608.000000 49.901000 2.000000 1.000000 11.000000 85.861884 45.958946 -137.938365 1053.014399 20.052256 0.000000 0.194635
609.000000 51.859000 3.000000 1.000000 11.000000 93.980529 49.253558 -274.257848 826.256882 19.292143 0.000000 0.241380
612.000000 48.323000 1.000000 2.000000 11.000000 81.101821 36.903445 166.794203 1151.727759 20.709729 0.000000 0.126507
613.000000 51.223000 2.000000 2.000000 11.000000 89.996803 39.747084 79.948146 941.078118 19.533560 0.000000 0.109925
614.000000 53.059000 3.000000 2.000000 11.000000 98.243751 42.864425 -23.909751 728.254087 18.854754 0.000000 0.118655
615.000000 53.938000 4.000000 2.000000 11.000000 105.765932 46.275675 -150.320758 501.367172 18.545006 0.000000 0.182639
618.000000 48.971000 1.000000 3.000000 11.000000 84.381228 30.752847 334.599786 1064.213813 20.434762 0.000000 0.113771
619.000000 51.737000 2.000000 3.000000 11.000000 93.322642 33.311620 267.694293 866.229403 19.338984 0.000000 0.089160
620.000000 53.480000 3.000000 3.000000 11.000000 101.657960 36.151442 188.671567 665.981770 18.705538 0.000000 0.056356
621.000000 54.302000 4.000000 3.000000 11.000000 109.310022 39.304824 93.912015 453.625168 18.419673 0.000000 0.072699
622.000000 54.349000 5.000000 3.000000 11.000000 116.234094 42.804172 -21.805009 218.071869 18.401713 0.000000 0.156829
624.000000 48.865000 1.000000 4.000000 11.000000 86.872856 24.598899 482.259020 1005.670658 20.478961 0.000000 0.125939
625.000000 51.503000 2.000000 4.000000 11.000000 95.793865 26.807428 431.149499 818.640114 19.426328 0.000000 0.108364
626.000000 53.181000 3.000000 4.000000 11.000000 104.162885 29.282955 371.432777 629.605834 18.810227 0.000000 0.071723
627.000000 53.988000 4.000000 4.000000 11.000000 111.904994 32.065881 300.734672 430.312034 18.526263 0.000000 0.019792
628.000000 54.056000 5.000000 4.000000 11.000000 118.974048 35.201369 215.719401 211.664760 18.500872 0.000000 0.059912
629.000000 53.530000 6.000000 4.000000 11.000000 125.347475 38.738168 111.547901 -37.698800 18.680720 0.000000 0.151287
631.000000 48.113000 1.000000 5.000000 11.000000 88.598216 18.580508 613.194534 968.785888 20.798521 0.000000 0.141622
632.000000 50.632000 2.000000 5.000000 11.000000 97.428398 20.399449 574.741537 791.281765 19.760417 0.000000 0.131591
633.000000 52.265000 3.000000 5.000000 11.000000 105.766266 22.452141 530.237216 612.200347 19.139781 0.000000 0.104314
634.000000 53.088000 4.000000 5.000000 11.000000 113.541307 24.780304 478.131134 424.535802 18.840289 0.000000 0.061683
635.000000 53.214000 5.000000 5.000000 11.000000 120.708488 27.433906 416.293740 220.727817 18.793138 0.000000 0.012376
636.000000 52.774000 6.000000 5.000000 11.000000 127.243797 30.472173 341.718123 -8.382193 18.947866 0.000000 0.067643
639.000000 46.854000 1.000000 6.000000 11.000000 89.625720 12.819069 730.095222 948.210623 21.357303 0.000000 0.153571
640.000000 49.257000 2.000000 6.000000 11.000000 98.298126 14.238617 701.883690 779.046345 20.311693 0.000000 0.148789
641.000000 50.857000 3.000000 6.000000 11.000000 106.537518 15.846015 669.505608 608.796278 19.669422 0.000000 0.128644
642.000000 51.715000 4.000000 6.000000 11.000000 114.278941 17.678079 631.964345 431.448478 19.340594 0.000000 0.095401
643.000000 51.924000 5.000000 6.000000 11.000000 121.480016 19.780786 587.917875 240.636862 19.260178 0.000000 0.052667
644.000000 51.597000 6.000000 6.000000 11.000000 128.117457 22.211749 535.514956 28.860773 19.379969 0.000000 0.025997
645.000000 50.849000 7.000000 6.000000 11.000000 134.182206 25.043162 472.128301 -213.539496 19.663477 0.000000 0.074216
648.000000 47.518000 2.000000 7.000000 11.000000 98.511062 8.442566 815.249560 778.169784 21.055135 0.000000 0.159303
649.000000 49.090000 3.000000 7.000000 11.000000 106.590223 9.616789 792.634036 615.772331 20.377888 0.000000 0.144060
650.000000 49.988000 4.000000 7.000000 11.000000 114.232020 10.956539 766.636718 447.576722 20.008803 0.000000 0.117120
651.000000 50.290000 5.000000 7.000000 11.000000 121.397111 12.497642 736.437770 268.158619 19.885907 0.000000 0.081231
652.000000 50.091000 6.000000 7.000000 11.000000 128.063591 14.286351 700.929057 71.285049 19.962800 0.000000 0.041987
653.000000 49.489000 7.000000 7.000000 11.000000 134.223242 16.383056 658.575205 -150.831436 20.204054 0.000000 0.031063
654.000000 48.576000 8.000000 7.000000 11.000000 139.877180 18.867419 607.185742 -408.623930 20.582148 0.000000 0.069809
656.000000 45.541000 2.000000 8.000000 11.000000 98.191317 3.086563 916.963136 785.845046 21.969428 0.000000 0.164227
657.000000 47.083000 3.000000 8.000000 11.000000 106.059841 3.865613 902.274540 630.454174 21.246823 0.000000 0.152343
658.000000 48.021000 4.000000 8.000000 11.000000 113.544845 4.752568 885.518269 470.393875 20.828881 0.000000 0.129762
659.000000 48.416000 5.000000 8.000000 11.000000 120.609695 5.770984 866.224674 300.991793 20.656156 0.000000 0.098800
660.000000 48.346000 6.000000 8.000000 11.000000 127.233470 6.951613 843.770223 116.999315 20.683723 0.000000 0.062710
661.000000 47.894000 7.000000 8.000000 11.000000 133.408280 8.335275 817.308851 -87.964795 20.877000 0.000000 0.028160
662.000000 47.141000 8.000000 8.000000 11.000000 139.136009 9.977143 785.662955 -322.190459 21.208932 0.000000 0.024943
664.000000 45.910000 4.000000 9.000000 11.000000 112.367893 -0.864060 991.232488 498.038568 21.786773 0.000000 0.135703
665.000000 46.391000 5.000000 9.000000 11.000000 119.280920 -0.298777 980.612550 337.474803 21.558395 0.000000 0.108277
666.000000 46.444000 6.000000 9.000000 11.000000 125.802007 0.353264 968.363886 164.680028 21.531477 0.000000 0.075562
667.000000 46.138000 7.000000 9.000000 11.000000 131.922569 1.113485 954.080694 -25.651682 21.672127 0.000000 0.041372
668.000000 45.543000 8.000000 9.000000 11.000000 137.643659 2.010890 937.210152 -240.225322 21.953651 0.000000 0.011699
669.000000 47.050000 3.000000 1.000000 12.000000 91.631587 48.917552 -259.542524 894.347455 21.264664 0.000000 0.236796
672.000000 48.167000 3.000000 2.000000 12.000000 95.598703 43.140810 -33.617243 796.405590 20.770671 0.000000 0.126794
673.000000 49.449000 5.000000 2.000000 12.000000 109.107260 49.545014 -287.185329 366.363643 20.227223 0.000000 0.271270
674.000000 47.015000 2.000000 3.000000 12.000000 91.121635 34.475116 235.971464 915.438147 21.281982 0.000000 0.093645
675.000000 49.587000 4.000000 3.000000 12.000000 106.050746 39.967831 72.911147 536.965280 20.172228 0.000000 0.077120
676.000000 49.858000 5.000000 3.000000 12.000000 112.617709 43.119166 -32.853884 326.686087 20.060218 0.000000 0.144267
678.000000 48.601000 3.000000 4.000000 12.000000 101.396922 30.898985 330.877052 688.156052 20.584029 0.000000 0.072668
679.000000 49.754000 5.000000 4.000000 12.000000 115.331422 36.358262 182.696981 308.356333 20.101445 0.000000 0.054423
681.000000 46.476000 2.000000 5.000000 12.000000 95.399587 22.700492 524.765486 830.725641 21.528036 0.000000 0.125895
682.000000 48.019000 3.000000 5.000000 12.000000 103.167730 24.697208 480.023480 663.845152 20.833233 0.000000 0.100792
683.000000 48.897000 4.000000 5.000000 12.000000 110.452815 26.929501 428.267752 490.780191 20.456072 0.000000 0.061347
684.000000 49.191000 5.000000 5.000000 12.000000 117.213957 29.433546 367.708847 305.502344 20.331341 0.000000 0.009014
685.000000 48.995000 6.000000 5.000000 12.000000 123.427112 32.250643 295.891987 100.988239 20.410535 0.000000 0.057033
686.000000 48.406000 7.000000 5.000000 12.000000 129.081339 35.426918 209.356175 -131.703895 20.656828 0.000000 0.135138
688.000000 48.238000 5.000000 6.000000 12.000000 118.283811 22.542783 528.242469 313.957331 20.732719 0.000000 0.053254
689.000000 47.610000 7.000000 6.000000 12.000000 130.373131 27.586180 412.657466 -91.508694 21.002187 0.000000 0.066268
690.000000 45.678000 3.000000 7.000000 12.000000 104.636574 12.824381 729.990261 652.721448 21.900825 0.000000 0.141785
691.000000 46.580000 4.000000 7.000000 12.000000 111.833063 14.255729 701.541503 496.092034 21.473624 0.000000 0.117065
692.000000 46.975000 5.000000 7.000000 12.000000 118.607817 15.878094 668.854360 330.709790 21.290420 0.000000 0.083446
693.000000 46.933000 6.000000 7.000000 12.000000 124.938450 17.729237 630.905426 151.600886 21.306924 0.000000 0.045113
694.000000 46.532000 7.000000 7.000000 12.000000 130.813838 19.856402 586.312968 -47.239992 21.488956 0.000000 0.029359
695.000000 45.844000 8.000000 7.000000 12.000000 136.231001 22.318885 533.165061 -273.554402 21.809714 0.000000 0.069465
696.000000 45.479000 5.000000 8.000000 12.000000 118.287857 9.595976 793.036205 353.549697 21.991017 0.000000 0.103198
697.000000 45.495000 5.000000 2.000000 13.000000 106.111694 49.179245 -270.986149 465.404379 21.985948 0.000000 0.251086
699.000000 45.530000 4.000000 3.000000 13.000000 103.201004 40.506686 55.540621 608.956843 21.971047 0.000000 0.083757
700.000000 45.945000 5.000000 3.000000 13.000000 109.436574 43.372459 -41.821358 418.516944 21.769779 0.000000 0.136612
701.000000 45.905000 6.000000 3.000000 13.000000 115.132180 46.479955 -158.383156 207.766878 21.786497 0.000000 0.225231
703.000000 45.572000 4.000000 4.000000 13.000000 105.770301 34.641282 231.369206 571.548044 21.950044 0.000000 0.040449
704.000000 45.972000 5.000000 4.000000 13.000000 112.098204 37.287225 155.462651 391.736823 21.756281 0.000000 0.053726
705.000000 45.932000 6.000000 4.000000 13.000000 117.913595 40.191845 65.723378 194.561275 21.773225 0.000000 0.122300
706.000000 45.531000 7.000000 4.000000 13.000000 123.206425 43.377733 -42.008861 -28.234016 21.963172 0.000000 0.214133
707.000000 45.613000 5.000000 5.000000 13.000000 114.063877 31.047350 327.085970 379.995714 21.927178 0.000000 0.013909
708.000000 45.596000 6.000000 5.000000 13.000000 119.981039 33.662739 258.211775 194.979391 21.932969 0.000000 0.048566
#UB matrix in q= (UB) B0 G* 
#[[-0.831091531 -0.389873254 -0.395532397]
# [ 0.08438864  -0.792944428  0.604270625]
# [-0.549695756  0.469173258  0.692430119]]
#B0 matrix in q= UB (B0) G*
#[[ 0.19670273 -0.          0.03056101]
# [ 0.          0.19187965 -0.        ]
# [ 0.          0.          0.18806537]]
#UBB0 matrix in q= (UB B0) G* i.e. recip. basis vectors are columns in LT frame: astar = UBB0[:,0], bstar = UBB0[:,1], cstar = UBB0[:,2]. (abcstar as columns on xyzlab1, xlab1 = ui, ui = unit vector along incident beam)
#[[-0.16347797 -0.07480874 -0.09978494]
# [ 0.01659948 -0.1521499   0.11622138]
# [-0.10812666  0.0900248   0.11342287]]
#Euler angles phi theta psi (deg)
#[229.558  46.243  33.259]
#deviatoric strain in direct crystal frame (10-3 unit)
#[[-5.47  0.39  0.97]
# [ 0.39 -5.76  0.19]
# [ 0.97  0.19 11.23]]
#deviatoric strain in sample2 frame (10-3 unit)
#[[-5.41  1.15  0.91]
# [ 1.14  0.3   8.12]
# [ 0.89  8.12  5.11]]
#new lattice parameters
#[ 5.1505     5.2101109  5.315349  89.9956181 99.1745393 89.955599 ]
#CCDLabel
#sCMOS
#DetectorParameters
#[79.0, 975.0, 941.0, 0.0, 0.0]
#pixelsize
#0.0734
#Frame dimensions
#[2018, 2016]
#
