#Strain and Orientation Refinement from experimental file: /home/micha/LaueProjects/DepthEffects/testZrO2_155.cor
#File created at Wed Jun 28 14:27:38 2023 with indexingSpotsSet.py
#Number of indexed spots: 503
#Element
#ZrO2
#grainIndex
#G_0
#Mean Deviation(pixel): 0.114
##spot_index intensity h k l 2theta Chi Xexp Yexp Energy GrainIndex PixDev
4.000000 169.571000 0.000000 -1.000000 2.000000 53.287744 7.557164 832.210595 1750.635605 5.902488 0.000000 0.049694
5.000000 169.272000 1.000000 -1.000000 2.000000 62.543967 33.573724 260.623053 1612.208420 5.911534 0.000000 0.159209
10.000000 78.921000 0.000000 -2.000000 3.000000 39.364045 9.326078 798.247009 2270.553795 12.683716 0.000000 0.237186
11.000000 87.422000 1.000000 -2.000000 3.000000 47.334433 25.187029 468.831927 2037.201985 11.448940 0.000000 0.197273
12.000000 83.519000 2.000000 -2.000000 3.000000 51.369732 38.768359 110.615353 2044.172396 11.982498 0.000000 0.288517
16.000000 121.876000 -1.000000 -1.000000 3.000000 54.404649 -14.889061 1261.159730 1738.184267 8.212077 0.000000 0.084312
17.000000 151.818000 0.000000 -1.000000 3.000000 69.137536 5.247237 876.154797 1352.915281 6.591150 0.000000 0.097857
18.000000 150.027000 1.000000 -1.000000 3.000000 76.001295 26.049687 448.900313 1239.664760 6.668603 0.000000 0.115699
19.000000 129.262000 2.000000 -1.000000 3.000000 76.003556 42.980101 -27.962015 1307.706989 7.739237 0.000000 0.186910
28.000000 71.194000 -1.000000 -2.000000 4.000000 43.939891 -6.088339 1089.801121 2064.213254 14.059999 0.000000 0.162260
29.000000 88.721000 1.000000 -2.000000 4.000000 59.529630 21.248710 556.479952 1620.426395 11.279848 0.000000 0.093400
30.000000 76.543000 3.000000 -2.000000 4.000000 63.227535 43.814363 -57.647165 1693.544783 13.072274 0.000000 0.267910
33.000000 86.339000 -2.000000 -1.000000 4.000000 52.220520 -26.261213 1506.031480 1871.257642 11.591799 0.000000 0.166223
34.000000 113.359000 -1.000000 -1.000000 4.000000 66.461184 -12.665248 1216.867527 1421.546129 8.827525 0.000000 0.092326
35.000000 128.739000 0.000000 -1.000000 4.000000 77.681100 3.808436 903.353449 1176.562227 7.771490 0.000000 0.139229
36.000000 127.877000 1.000000 -1.000000 4.000000 83.408913 20.980094 562.278312 1074.191792 7.822752 0.000000 0.132235
37.000000 115.872000 2.000000 -1.000000 4.000000 84.042125 36.110843 189.840682 1080.034663 8.632658 0.000000 0.109010
38.000000 100.177000 3.000000 -1.000000 4.000000 81.729918 47.955815 -218.493668 1174.596541 9.985025 0.000000 0.239667
41.000000 119.123000 -2.000000 0.000000 4.000000 72.378091 -36.776269 1779.475929 1367.819557 8.398704 0.000000 0.151138
42.000000 151.784000 -1.000000 0.000000 4.000000 90.669384 -22.422006 1419.100163 927.396709 6.589688 0.000000 0.136613
43.000000 167.517000 0.000000 0.000000 4.000000 104.630672 -2.336005 1018.905910 659.797307 5.969360 0.000000 0.162383
44.000000 161.567000 1.000000 0.000000 4.000000 109.834188 20.531856 571.907849 526.451361 6.188476 0.000000 0.102544
45.000000 142.381000 2.000000 0.000000 4.000000 107.209897 40.077903 69.385273 505.315673 7.022400 0.000000 0.076484
48.000000 138.935000 -2.000000 1.000000 4.000000 90.180197 -50.198074 2266.720220 935.712068 7.198438 0.000000 0.263656
49.000000 171.833000 -1.000000 1.000000 4.000000 112.347722 -37.174897 1791.208820 385.690054 5.818267 0.000000 0.048889
50.000000 186.323000 0.000000 1.000000 4.000000 130.386803 -13.797743 1239.318283 -1.775884 5.364410 0.000000 0.034889
51.000000 178.367000 1.000000 1.000000 4.000000 136.254924 19.633531 591.038956 -252.918348 5.603220 0.000000 0.057166
53.000000 47.400000 -1.000000 -3.000000 5.000000 37.833543 -1.563870 1004.384403 2327.390563 21.118759 0.000000 0.254941
54.000000 55.108000 0.000000 -3.000000 5.000000 44.693858 8.670926 810.862737 2041.435247 18.163907 0.000000 0.154986
55.000000 58.936000 1.000000 -3.000000 5.000000 49.988193 18.861614 607.307521 1895.764984 16.982841 0.000000 0.131800
56.000000 59.056000 2.000000 -3.000000 5.000000 53.539321 28.405445 392.917669 1845.127240 16.946896 0.000000 0.167067
57.000000 56.561000 3.000000 -3.000000 5.000000 55.563954 36.903095 166.804489 1863.837523 17.693096 0.000000 0.231202
60.000000 59.601000 -2.000000 -2.000000 5.000000 45.361615 -16.395292 1291.674544 2048.841507 16.794090 0.000000 0.173946
61.000000 73.052000 -1.000000 -2.000000 5.000000 54.815269 -5.604415 1080.615316 1703.457255 13.700750 0.000000 0.037582
62.000000 81.585000 0.000000 -2.000000 5.000000 62.581801 6.250689 857.113511 1502.670864 12.266497 0.000000 0.054971
63.000000 83.756000 1.000000 -2.000000 5.000000 67.782515 18.252686 620.035422 1403.901924 11.947220 0.000000 0.095652
64.000000 80.603000 2.000000 -2.000000 5.000000 70.361928 29.417535 368.105294 1381.906072 12.413288 0.000000 0.118272
65.000000 74.368000 3.000000 -2.000000 5.000000 70.910039 39.114008 99.882363 1421.078453 13.453349 0.000000 0.169354
66.000000 67.030000 4.000000 -2.000000 5.000000 70.182750 47.174789 -186.266718 1511.574211 14.925649 0.000000 0.281411
70.000000 64.864000 -3.000000 -1.000000 5.000000 50.179362 -32.640231 1664.384219 2006.692208 15.429373 0.000000 0.235299
71.000000 84.493000 -2.000000 -1.000000 5.000000 62.420716 -23.061423 1433.222165 1552.005917 11.843702 0.000000 0.108778
72.000000 101.063000 -1.000000 -1.000000 5.000000 74.001713 -11.105511 1186.268058 1255.476431 9.900302 0.000000 0.125299
73.000000 109.958000 0.000000 -1.000000 5.000000 82.959536 2.827298 921.846391 1074.085951 9.097997 0.000000 0.156242
74.000000 109.671000 1.000000 -1.000000 5.000000 87.948108 17.384190 638.035945 981.406702 9.120708 0.000000 0.145315
75.000000 102.489000 2.000000 -1.000000 5.000000 89.099090 30.830501 332.623031 960.710172 9.759227 0.000000 0.102581
76.000000 92.018000 3.000000 -1.000000 5.000000 87.617982 42.083873 3.043633 1001.325865 10.869567 0.000000 0.131637
77.000000 80.992000 4.000000 -1.000000 5.000000 84.800101 50.991059 -353.688747 1096.611799 12.349384 0.000000 0.297222
81.000000 96.842000 -3.000000 1.000000 5.000000 78.557469 -51.002790 2304.245070 1287.188737 10.329296 0.000000 0.321882
82.000000 120.826000 -2.000000 1.000000 5.000000 95.638885 -42.728323 1969.161307 796.333387 8.276745 0.000000 0.116261
83.000000 139.599000 -1.000000 1.000000 5.000000 112.474467 -30.015916 1596.797498 426.782624 7.161826 0.000000 0.033415
84.000000 147.620000 0.000000 1.000000 5.000000 125.561932 -10.812924 1180.565732 157.621172 6.771385 0.000000 0.067504
85.000000 143.766000 1.000000 1.000000 5.000000 131.074519 13.720049 712.228709 -24.621632 6.952325 0.000000 0.032586
86.000000 131.657000 2.000000 1.000000 5.000000 128.636857 36.404771 181.349076 -127.937794 7.591848 0.000000 0.144556
92.000000 51.118000 -1.000000 -3.000000 6.000000 47.331157 -1.641374 1005.841454 1933.499911 19.581373 0.000000 0.109555
93.000000 58.983000 1.000000 -3.000000 6.000000 57.831388 16.776821 650.522647 1648.050160 16.967817 0.000000 0.073511
94.000000 58.706000 2.000000 -3.000000 6.000000 60.860331 25.562005 460.203471 1606.138657 17.046398 0.000000 0.113458
95.000000 52.972000 4.000000 -3.000000 6.000000 63.190820 40.643418 51.088536 1657.799752 18.889185 0.000000 0.224550
96.000000 49.027000 5.000000 -3.000000 6.000000 63.121792 46.750732 -169.163821 1737.178610 20.408515 0.000000 0.319274
97.000000 49.615000 -3.000000 -2.000000 6.000000 45.573557 -23.354054 1439.729757 2090.101390 20.173731 0.000000 0.208367
98.000000 70.259000 -1.000000 -2.000000 6.000000 62.542548 -5.230959 1073.536852 1502.606819 14.243842 0.000000 0.058968
99.000000 77.284000 1.000000 -2.000000 6.000000 73.637781 15.908750 668.231803 1269.584564 12.946404 0.000000 0.116280
100.000000 70.378000 3.000000 -2.000000 6.000000 76.608819 35.148889 217.194887 1254.375727 14.214926 0.000000 0.125464
101.000000 58.663000 5.000000 -2.000000 6.000000 74.678891 49.558266 -287.776784 1395.568641 17.052932 0.000000 0.305461
104.000000 65.381000 -3.000000 -1.000000 6.000000 58.981775 -29.453925 1582.795967 1684.230383 15.306003 0.000000 0.151102
105.000000 79.040000 -2.000000 -1.000000 6.000000 69.519807 -20.590459 1379.347896 1370.417943 12.659367 0.000000 0.112056
106.000000 89.754000 -1.000000 -1.000000 6.000000 79.112163 -9.952603 1163.861825 1151.187761 11.146637 0.000000 0.143720
107.000000 95.383000 0.000000 -1.000000 6.000000 86.527490 2.115807 935.236749 1006.355226 10.487449 0.000000 0.164212
108.000000 95.379000 1.000000 -1.000000 6.000000 90.964936 14.720235 692.233179 922.256895 10.486829 0.000000 0.153332
109.000000 90.883000 2.000000 -1.000000 6.000000 92.447571 26.709759 433.450655 889.499294 11.004986 0.000000 0.113494
110.000000 83.770000 3.000000 -1.000000 6.000000 91.669171 37.225236 157.300744 901.610958 11.939077 0.000000 0.088031
111.000000 75.701000 4.000000 -1.000000 6.000000 89.511236 45.961190 -138.025596 954.208175 13.211759 0.000000 0.178173
115.000000 63.325000 -4.000000 0.000000 6.000000 60.303060 -43.614077 2000.445557 1788.830394 15.801293 0.000000 0.288280
116.000000 94.749000 -2.000000 0.000000 6.000000 84.768693 -27.836667 1543.346157 1052.438896 10.557393 0.000000 0.122413
117.000000 106.314000 -1.000000 0.000000 6.000000 96.090124 -16.334823 1290.440676 821.334600 9.407170 0.000000 0.151869
118.000000 110.400000 1.000000 0.000000 6.000000 109.141728 12.995609 726.604772 557.601760 9.056856 0.000000 0.133494
119.000000 104.040000 2.000000 0.000000 6.000000 109.626876 27.652931 411.060294 507.684494 9.610165 0.000000 0.061134
120.000000 84.990000 4.000000 0.000000 6.000000 103.256761 49.870514 -301.806336 547.577266 11.764838 0.000000 0.257303
124.000000 89.486000 -3.000000 1.000000 6.000000 84.721604 -45.411232 2066.856141 1082.643293 11.177457 0.000000 0.184437
125.000000 105.305000 -2.000000 1.000000 6.000000 98.860523 -37.004936 1786.191291 730.898648 9.496304 0.000000 0.066124
126.000000 116.900000 -1.000000 1.000000 6.000000 112.088291 -25.161408 1480.580456 458.429012 8.552643 0.000000 0.070444
127.000000 121.853000 0.000000 1.000000 6.000000 122.228776 -9.055809 1146.543095 253.901831 8.203725 0.000000 0.089661
128.000000 119.832000 1.000000 1.000000 6.000000 127.242164 10.273437 779.919593 109.467843 8.341412 0.000000 0.058940
129.000000 112.534000 2.000000 1.000000 6.000000 126.784456 29.109962 375.697164 19.943531 8.882280 0.000000 0.053654
132.000000 109.505000 -2.000000 2.000000 6.000000 110.472844 -48.293725 2182.739868 337.029915 9.129942 0.000000 0.240897
133.000000 120.329000 -1.000000 2.000000 6.000000 125.513779 -37.410651 1798.206176 -26.017747 8.306945 0.000000 0.132964
134.000000 124.827000 0.000000 2.000000 6.000000 137.848515 -19.925628 1365.157683 -323.720384 8.006391 0.000000 0.068858
137.000000 45.690000 -2.000000 -3.000000 7.000000 48.419712 -9.663067 1158.260382 1909.660297 21.907319 0.000000 0.111848
138.000000 51.513000 -1.000000 -3.000000 7.000000 54.620898 -1.704739 1007.032774 1705.630265 19.429611 0.000000 0.024604
139.000000 55.410000 0.000000 -3.000000 7.000000 59.857656 6.646404 849.585054 1570.197761 18.061773 0.000000 0.036751
140.000000 57.093000 1.000000 -3.000000 7.000000 63.853060 15.053748 685.525408 1488.141409 17.527944 0.000000 0.076180
141.000000 56.737000 2.000000 -3.000000 7.000000 66.540751 23.167219 514.428408 1449.044541 17.636691 0.000000 0.101434
142.000000 54.824000 3.000000 -3.000000 7.000000 68.045211 30.704404 335.831327 1445.602173 18.251001 0.000000 0.125630
143.000000 51.922000 4.000000 -3.000000 7.000000 68.601219 37.496662 149.229962 1472.604049 19.270232 0.000000 0.165180
144.000000 48.524000 5.000000 -3.000000 7.000000 68.468480 43.487701 -45.926120 1526.299464 20.618791 0.000000 0.231210
145.000000 50.950000 -3.000000 -2.000000 7.000000 53.367228 -21.469854 1398.309579 1800.954228 19.643546 0.000000 0.127004
146.000000 59.386000 -2.000000 -2.000000 7.000000 61.203726 -13.670508 1236.785402 1549.854958 16.851818 0.000000 0.073236
147.000000 66.012000 -1.000000 -2.000000 7.000000 68.267307 -4.934042 1067.915175 1371.616771 15.158900 0.000000 0.095707
148.000000 69.939000 0.000000 -2.000000 7.000000 73.976604 4.452789 891.186094 1251.033900 14.306305 0.000000 0.123435
149.000000 70.902000 1.000000 -2.000000 7.000000 77.966073 14.030729 706.036489 1177.495241 14.110730 0.000000 0.132306
150.000000 69.287000 2.000000 -2.000000 7.000000 80.197345 23.283140 511.849860 1143.446335 14.438569 0.000000 0.123576
151.000000 65.856000 3.000000 -2.000000 7.000000 80.916723 31.789280 307.948019 1143.439996 15.190143 0.000000 0.112224
152.000000 61.409000 4.000000 -2.000000 7.000000 80.510779 39.315303 93.583178 1173.530043 16.289573 0.000000 0.134223
153.000000 56.585000 5.000000 -2.000000 7.000000 79.367135 45.807594 -132.071216 1230.873362 17.678075 0.000000 0.211403
154.000000 51.805000 6.000000 -2.000000 7.000000 77.799041 51.331117 -369.931131 1313.463120 19.309405 0.000000 0.333084
156.000000 52.539000 -4.000000 -1.000000 7.000000 56.292460 -33.684348 1692.374328 1803.875641 19.047360 0.000000 0.198593
157.000000 63.198000 -3.000000 -1.000000 7.000000 65.583904 -26.835756 1519.518674 1488.563613 15.833302 0.000000 0.121797
158.000000 72.894000 -2.000000 -1.000000 7.000000 74.681894 -18.631512 1337.872156 1252.110838 13.725625 0.000000 0.125230
159.000000 80.177000 -1.000000 -1.000000 7.000000 82.786702 -9.066377 1146.746666 1078.944797 12.477294 0.000000 0.154123
160.000000 83.988000 0.000000 -1.000000 7.000000 89.094796 1.576383 945.380356 958.011994 11.909724 0.000000 0.168229
161.000000 84.116000 1.000000 -1.000000 7.000000 93.095534 12.675636 732.927486 881.340082 11.890608 0.000000 0.158257
162.000000 81.180000 2.000000 -1.000000 7.000000 94.769240 23.435830 508.446557 843.129160 12.319837 0.000000 0.124506
163.000000 76.226000 3.000000 -1.000000 7.000000 94.527322 33.192784 270.886353 839.160544 13.120270 0.000000 0.082544
164.000000 70.274000 4.000000 -1.000000 7.000000 92.966444 41.610469 19.069488 866.403408 14.231503 0.000000 0.110268
165.000000 64.087000 5.000000 -1.000000 7.000000 90.641743 48.658389 -248.327112 922.749124 15.605562 0.000000 0.227588
170.000000 69.492000 -4.000000 1.000000 7.000000 77.208860 -46.985469 2128.597606 1299.192388 14.395181 0.000000 0.241858
171.000000 81.806000 -3.000000 1.000000 7.000000 89.026163 -40.783261 1903.483715 965.162050 12.226044 0.000000 0.116775
172.000000 92.631000 -2.000000 1.000000 7.000000 100.853390 -32.561706 1662.305772 696.160530 10.795364 0.000000 0.069171
173.000000 100.269000 -1.000000 1.000000 7.000000 111.575057 -21.698674 1403.280669 482.949957 9.971287 0.000000 0.092792
174.000000 103.578000 0.000000 1.000000 7.000000 119.799260 -7.900161 1124.351256 318.712834 9.651588 0.000000 0.104215
175.000000 102.464000 1.000000 1.000000 7.000000 124.337949 8.031586 823.131597 198.473468 9.755790 0.000000 0.079769
176.000000 97.810000 2.000000 1.000000 7.000000 124.922706 23.953973 496.838548 118.710172 10.219670 0.000000 0.023718
177.000000 90.945000 3.000000 1.000000 7.000000 122.408095 37.731305 142.205505 77.098513 10.991358 0.000000 0.114645
182.000000 86.133000 -3.000000 2.000000 7.000000 98.785716 -49.488224 2234.654369 684.929646 11.609582 0.000000 0.240443
183.000000 96.580000 -2.000000 2.000000 7.000000 111.776356 -42.096471 1947.386089 361.536442 10.351757 0.000000 0.118871
184.000000 103.837000 -1.000000 2.000000 7.000000 123.940669 -31.449197 1633.241989 91.924231 9.626603 0.000000 0.051710
185.000000 106.871000 0.000000 2.000000 7.000000 133.682749 -16.228124 1288.265373 -129.564218 9.352109 0.000000 0.031323
186.000000 105.619000 1.000000 2.000000 7.000000 139.168919 3.578924 907.682776 -306.966162 9.462274 0.000000 0.009785
192.000000 45.898000 -2.000000 -3.000000 8.000000 54.805892 -9.070497 1146.826033 1709.688706 21.806489 0.000000 0.053428
193.000000 50.317000 -1.000000 -3.000000 8.000000 60.349607 -1.757511 1008.024982 1553.961346 19.889826 0.000000 0.037230
194.000000 53.207000 0.000000 -3.000000 8.000000 65.008407 5.888139 864.000997 1445.352930 18.808009 0.000000 0.071721
195.000000 54.422000 1.000000 -3.000000 8.000000 68.585512 13.608217 714.453625 1375.301118 18.386779 0.000000 0.095592
196.000000 54.093000 2.000000 -3.000000 8.000000 71.033041 21.129356 559.058917 1337.565210 18.497223 0.000000 0.107356
197.000000 52.543000 3.000000 -3.000000 8.000000 72.440190 28.217734 397.467088 1327.525734 19.041919 0.000000 0.115008
198.000000 50.160000 4.000000 -3.000000 8.000000 72.983630 34.715780 229.299884 1341.726979 19.945878 0.000000 0.132749
199.000000 47.302000 5.000000 -3.000000 8.000000 72.870150 40.549527 54.147630 1377.570042 21.150438 0.000000 0.174330
200.000000 50.325000 -3.000000 -2.000000 8.000000 59.498312 -19.885849 1364.312455 1615.231448 19.885992 0.000000 0.096486
201.000000 61.525000 -1.000000 -2.000000 8.000000 72.658175 -4.692334 1063.342524 1278.220672 16.263107 0.000000 0.119290
202.000000 65.093000 1.000000 -2.000000 8.000000 81.276611 12.495333 736.483274 1110.152448 15.369143 0.000000 0.143372
203.000000 61.379000 3.000000 -2.000000 8.000000 84.238946 28.924864 380.244093 1065.063184 16.297262 0.000000 0.113135
204.000000 54.062000 5.000000 -2.000000 8.000000 83.117992 42.450208 -9.522675 1117.052730 18.502353 0.000000 0.151568
206.000000 51.862000 -4.000000 -1.000000 8.000000 62.370522 -31.164173 1625.907478 1599.392200 19.294829 0.000000 0.149664
207.000000 59.971000 -3.000000 -1.000000 8.000000 70.657458 -24.654722 1469.009953 1356.706910 16.684099 0.000000 0.118297
208.000000 67.032000 -2.000000 -1.000000 8.000000 78.576919 -17.043824 1304.956561 1168.460087 14.925023 0.000000 0.136377
209.000000 72.199000 -1.000000 -1.000000 8.000000 85.548902 -8.364206 1133.246325 1025.682693 13.855263 0.000000 0.160285
210.000000 74.917000 0.000000 -1.000000 8.000000 91.028379 1.153411 953.330385 921.676035 13.351277 0.000000 0.170318
211.000000 75.102000 1.000000 -1.000000 8.000000 94.671526 11.060694 764.606142 851.386357 13.317380 0.000000 0.161367
212.000000 73.116000 2.000000 -1.000000 8.000000 96.443539 20.788073 566.410509 810.981785 13.678310 0.000000 0.133115
213.000000 69.575000 3.000000 -1.000000 8.000000 96.595337 29.823578 358.012133 797.560232 14.374060 0.000000 0.091481
214.000000 65.125000 4.000000 -1.000000 8.000000 95.533586 37.851089 138.602371 808.944456 15.356196 0.000000 0.076829
215.000000 60.299000 5.000000 -1.000000 8.000000 93.678336 44.770737 -92.715190 843.536675 16.585195 0.000000 0.149457
216.000000 55.473000 6.000000 -1.000000 8.000000 91.376812 50.635037 -336.936979 900.214977 18.028487 0.000000 0.273201
219.000000 50.458000 -5.000000 0.000000 8.000000 63.239273 -42.071777 1946.543925 1672.167060 19.830059 0.000000 0.245863
220.000000 68.360000 -3.000000 0.000000 8.000000 81.707610 -30.297971 1603.884458 1122.683944 14.633411 0.000000 0.119678
221.000000 81.221000 -1.000000 0.000000 8.000000 98.550382 -13.045458 1224.381724 774.892030 12.313050 0.000000 0.157602
222.000000 83.461000 1.000000 0.000000 8.000000 108.415965 9.144093 801.755949 578.018585 11.980392 0.000000 0.144783
223.000000 76.448000 3.000000 0.000000 8.000000 109.238577 31.003243 328.214250 502.776518 13.078700 0.000000 0.038778
224.000000 65.603000 5.000000 0.000000 8.000000 104.326052 47.656619 -206.034318 532.929189 15.241396 0.000000 0.205842
227.000000 56.053000 -5.000000 1.000000 8.000000 71.778069 -48.019121 2171.148403 1470.725447 17.847895 0.000000 0.290010
228.000000 65.570000 -4.000000 1.000000 8.000000 81.792331 -43.130791 1983.263823 1153.721977 15.255129 0.000000 0.165784
229.000000 74.669000 -3.000000 1.000000 8.000000 92.110356 -36.936583 1784.179728 891.380756 13.394112 0.000000 0.089954
230.000000 82.346000 -2.000000 1.000000 8.000000 102.139120 -29.051460 1572.863976 676.174440 12.143590 0.000000 0.084572
231.000000 87.645000 -1.000000 1.000000 8.000000 111.060779 -19.121543 1348.153577 502.335912 11.407696 0.000000 0.107221
232.000000 89.987000 0.000000 1.000000 8.000000 117.953621 -7.082897 1108.733280 365.449074 11.109639 0.000000 0.114289
233.000000 89.357000 1.000000 1.000000 8.000000 122.075871 6.461211 853.109807 262.161527 11.187180 0.000000 0.094505
234.000000 86.254000 2.000000 1.000000 8.000000 123.223888 20.172807 579.580684 189.981830 11.589343 0.000000 0.044764
235.000000 81.443000 3.000000 1.000000 8.000000 121.850885 32.618314 286.196273 147.137303 12.273979 0.000000 0.049782
236.000000 75.698000 4.000000 1.000000 8.000000 118.777393 43.017823 -29.286769 132.476793 13.205931 0.000000 0.174492
239.000000 78.438000 -3.000000 2.000000 8.000000 101.325538 -44.630079 2037.485410 638.096138 12.748148 0.000000 0.139584
240.000000 91.003000 -1.000000 2.000000 8.000000 122.401581 -27.106290 1525.916704 173.636121 10.984519 0.000000 0.016210
241.000000 92.394000 1.000000 2.000000 8.000000 135.186111 2.461135 928.739425 -143.309406 10.817260 0.000000 0.023024
250.000000 48.405000 -1.000000 -3.000000 9.000000 64.948888 -1.802140 1008.864147 1444.302602 20.673943 0.000000 0.072382
251.000000 51.522000 1.000000 -3.000000 9.000000 72.383817 12.379636 738.762346 1290.890744 19.420577 0.000000 0.112920
252.000000 51.250000 2.000000 -3.000000 9.000000 74.650651 19.378330 596.434452 1254.179612 19.522376 0.000000 0.117342
253.000000 48.068000 4.000000 -3.000000 9.000000 76.568350 32.251521 295.868947 1244.930087 20.812688 0.000000 0.118120
254.000000 45.689000 5.000000 -3.000000 9.000000 76.515102 37.903331 137.027275 1268.097026 21.896079 0.000000 0.139056
255.000000 48.745000 -3.000000 -2.000000 9.000000 64.410888 -18.537525 1335.907020 1484.628146 20.529339 0.000000 0.095907
256.000000 53.609000 -2.000000 -2.000000 9.000000 70.628157 -11.822273 1200.286288 1327.629889 18.664921 0.000000 0.111019
257.000000 57.249000 -1.000000 -2.000000 9.000000 76.123139 -4.491753 1059.550327 1207.713841 17.476586 0.000000 0.134689
258.000000 59.382000 0.000000 -2.000000 9.000000 80.601511 3.275438 913.404176 1119.441705 16.847488 0.000000 0.149425
259.000000 59.952000 1.000000 -2.000000 9.000000 83.880944 11.218350 761.529751 1058.632356 16.686240 0.000000 0.150997
260.000000 59.119000 2.000000 -2.000000 9.000000 85.928557 19.038951 603.583538 1022.043901 16.920338 0.000000 0.139537
261.000000 57.186000 3.000000 -2.000000 9.000000 86.850745 26.465262 439.193993 1007.150247 17.491524 0.000000 0.118746
262.000000 54.502000 4.000000 -2.000000 9.000000 86.845041 33.301792 267.958627 1011.981320 18.352450 0.000000 0.101244
263.000000 51.388000 5.000000 -2.000000 9.000000 86.141383 39.447051 89.440718 1035.007121 19.464240 0.000000 0.115461
264.000000 48.100000 6.000000 -2.000000 9.000000 84.956547 44.881045 -96.834411 1075.052615 20.794674 0.000000 0.175404
265.000000 50.222000 -4.000000 -1.000000 9.000000 67.242754 -28.991127 1571.381786 1457.165995 19.923457 0.000000 0.128109
266.000000 56.465000 -3.000000 -1.000000 9.000000 74.646718 -22.814780 1427.759194 1261.599568 17.719080 0.000000 0.123443
267.000000 61.739000 -2.000000 -1.000000 9.000000 81.607099 -15.732865 1278.198922 1105.977710 16.203587 0.000000 0.144594
268.000000 65.540000 -1.000000 -1.000000 9.000000 87.697808 -7.794305 1122.324981 984.673174 15.262428 0.000000 0.164077
269.000000 67.558000 0.000000 -1.000000 9.000000 92.536083 0.812889 959.728957 893.324060 14.805114 0.000000 0.171392
270.000000 67.763000 1.000000 -1.000000 9.000000 95.880136 9.754777 789.966429 828.526770 14.759219 0.000000 0.163382
271.000000 66.380000 2.000000 -1.000000 9.000000 97.691671 18.611191 612.552921 787.617656 15.066083 0.000000 0.139570
272.000000 63.788000 3.000000 -1.000000 9.000000 98.127459 26.984843 426.959277 768.515353 15.677694 0.000000 0.102441
273.000000 60.410000 4.000000 -1.000000 9.000000 97.468068 34.596678 232.606396 769.605563 16.554372 0.000000 0.069075
274.000000 56.618000 5.000000 -1.000000 9.000000 96.028697 41.317817 28.859193 789.656138 17.663043 0.000000 0.099425
275.000000 52.702000 6.000000 -1.000000 9.000000 94.093461 47.143127 -184.980333 827.754269 18.975911 0.000000 0.190757
276.000000 48.857000 7.000000 -1.000000 9.000000 91.885672 52.142550 -409.681089 883.260120 20.469454 0.000000 0.313767
277.000000 46.578000 -6.000000 1.000000 9.000000 67.689853 -48.749398 2202.252398 1610.812172 21.479626 0.000000 0.330717
278.000000 54.026000 -5.000000 1.000000 9.000000 76.316498 -44.725927 2041.046373 1309.826075 18.516353 0.000000 0.210128
279.000000 61.465000 -4.000000 1.000000 9.000000 85.323113 -39.795449 1871.589769 1055.599079 16.273298 0.000000 0.123359
280.000000 68.317000 -3.000000 1.000000 9.000000 94.377330 -33.715970 1693.232549 841.952117 14.639130 0.000000 0.086542
281.000000 73.938000 -2.000000 1.000000 9.000000 102.998798 -26.227941 1505.254549 664.025158 13.524339 0.000000 0.098270
282.000000 77.772000 -1.000000 1.000000 9.000000 110.585320 -17.136195 1306.855762 517.983316 12.856138 0.000000 0.117145
283.000000 79.504000 0.000000 1.000000 9.000000 116.505545 -6.474601 1097.144950 400.803997 12.574738 0.000000 0.121594
284.000000 79.148000 1.000000 1.000000 9.000000 120.270004 5.301527 875.126262 310.121290 12.630562 0.000000 0.105221
285.000000 77.002000 2.000000 1.000000 9.000000 121.723624 17.304282 639.683424 244.111737 12.982163 0.000000 0.065330
286.000000 73.532000 3.000000 1.000000 9.000000 121.116907 28.543519 389.560960 201.410730 13.594614 0.000000 0.014437
287.000000 69.237000 4.000000 1.000000 9.000000 118.973287 38.354128 123.341806 181.052207 14.438284 0.000000 0.100160
288.000000 64.547000 5.000000 1.000000 9.000000 115.865851 46.535342 -160.579560 182.426663 15.487861 0.000000 0.227986
291.000000 57.389000 -5.000000 2.000000 9.000000 83.650317 -50.668353 2288.493770 1129.966868 17.428842 0.000000 0.292871
292.000000 64.823000 -4.000000 2.000000 9.000000 93.282324 -46.211493 2097.800068 851.800963 15.427727 0.000000 0.173507
293.000000 71.607000 -3.000000 2.000000 9.000000 103.064962 -40.533938 1895.345283 612.367299 13.963966 0.000000 0.079406
294.000000 77.116000 -2.000000 2.000000 9.000000 112.519962 -33.226065 1680.006745 407.530772 12.964584 0.000000 0.014681
295.000000 80.817000 -1.000000 2.000000 9.000000 120.999232 -23.836170 1450.514195 234.014248 12.369246 0.000000 0.036187
296.000000 82.420000 0.000000 2.000000 9.000000 127.734245 -12.084080 1205.424717 89.243522 12.127635 0.000000 0.052192
297.000000 81.943000 1.000000 2.000000 9.000000 132.007066 1.698083 943.092367 -28.765969 12.197458 0.000000 0.041891
298.000000 79.684000 2.000000 2.000000 9.000000 133.465418 16.233202 661.631159 -121.490738 12.542903 0.000000 0.031276
299.000000 76.102000 3.000000 2.000000 9.000000 132.362779 29.789207 358.869658 -189.955902 13.133449 0.000000 0.101277
304.000000 78.233000 -2.000000 3.000000 9.000000 120.663689 -41.623140 1931.356384 87.342434 12.777516 0.000000 0.161836
305.000000 81.725000 -1.000000 3.000000 9.000000 130.072979 -32.462392 1659.682312 -132.141676 12.230096 0.000000 0.109504
310.000000 46.220000 -1.000000 -3.000000 10.000000 68.711494 -1.840376 1009.583143 1360.597326 21.650170 0.000000 0.097044
311.000000 47.935000 0.000000 -3.000000 10.000000 72.512240 4.698537 886.540179 1281.244910 20.873866 0.000000 0.116290
312.000000 48.650000 1.000000 -3.000000 10.000000 75.489241 11.323490 759.476274 1225.094363 20.565649 0.000000 0.126230
313.000000 48.437000 2.000000 -3.000000 10.000000 77.612423 17.860239 628.191051 1189.363275 20.655227 0.000000 0.126802
314.000000 47.446000 3.000000 -3.000000 10.000000 78.926459 24.147876 492.470597 1171.845065 21.085714 0.000000 0.120630
315.000000 45.867000 4.000000 -3.000000 10.000000 79.531084 30.060447 352.086296 1170.781669 21.810575 0.000000 0.114155
316.000000 46.742000 -3.000000 -2.000000 10.000000 68.415382 -17.377136 1311.818562 1387.163938 21.407364 0.000000 0.105626
317.000000 53.333000 -1.000000 -2.000000 10.000000 78.922292 -4.322630 1056.354486 1152.326831 18.758887 0.000000 0.145087
318.000000 55.443000 1.000000 -2.000000 10.000000 85.978050 10.140609 782.495649 1017.877100 18.042399 0.000000 0.156335
319.000000 53.356000 3.000000 -2.000000 10.000000 88.940793 24.337727 488.181070 962.840242 18.746365 0.000000 0.125151
320.000000 48.730000 5.000000 -2.000000 10.000000 88.599390 36.758988 171.029936 973.846789 20.525188 0.000000 0.096931
321.000000 48.146000 -4.000000 -1.000000 10.000000 71.205284 -27.103245 1525.844541 1352.475011 20.781429 0.000000 0.121820
322.000000 53.021000 -3.000000 -1.000000 10.000000 77.848580 -21.244762 1393.434693 1189.645712 18.868885 0.000000 0.130221
323.000000 57.055000 -2.000000 -1.000000 10.000000 84.024776 -14.633163 1256.018982 1057.429153 17.533047 0.000000 0.150533
324.000000 59.936000 -1.000000 -1.000000 10.000000 89.415663 -7.322603 1113.308062 952.067344 16.688874 0.000000 0.166473
325.000000 61.484000 0.000000 -1.000000 10.000000 93.744143 0.532868 964.989849 870.563386 16.267259 0.000000 0.171903
326.000000 61.692000 1.000000 -1.000000 10.000000 96.834080 8.677974 810.727246 810.516556 16.211467 0.000000 0.164712
327.000000 60.704000 2.000000 -1.000000 10.000000 98.648476 16.794732 650.155578 770.000427 16.474486 0.000000 0.144416
328.000000 58.767000 3.000000 -1.000000 10.000000 99.287188 24.571576 482.879723 747.471733 17.017027 0.000000 0.112124
329.000000 56.162000 4.000000 -1.000000 10.000000 98.946528 31.769167 308.470858 741.701583 17.806003 0.000000 0.075024
330.000000 53.155000 5.000000 -1.000000 10.000000 97.862935 38.251813 126.462793 751.723203 18.813351 0.000000 0.070959
331.000000 49.964000 6.000000 -1.000000 10.000000 96.265097 43.980350 -63.652192 776.792097 20.015113 0.000000 0.133044
332.000000 46.752000 7.000000 -1.000000 10.000000 94.346243 48.983799 -262.428077 816.355721 21.390710 0.000000 0.229742
333.000000 53.336000 -4.000000 0.000000 10.000000 79.850477 -31.699341 1639.715781 1167.461298 18.756170 0.000000 0.120660
334.000000 58.476000 -3.000000 0.000000 10.000000 87.172168 -25.750864 1494.162744 1000.025367 17.105379 0.000000 0.127268
335.000000 62.665000 -2.000000 0.000000 10.000000 93.993903 -18.850008 1342.449035 861.594560 15.960238 0.000000 0.146193
336.000000 65.569000 -1.000000 0.000000 10.000000 99.931153 -10.998186 1184.175061 749.027571 15.251881 0.000000 0.160151
337.000000 66.985000 1.000000 0.000000 10.000000 107.852810 6.825839 846.167359 591.870465 14.927368 0.000000 0.150232
338.000000 65.677000 2.000000 0.000000 10.000000 109.536185 16.046044 665.441326 543.616972 15.223931 0.000000 0.122453
339.000000 63.364000 3.000000 0.000000 10.000000 109.807399 24.866711 476.160683 513.741414 15.779363 0.000000 0.078773
340.000000 60.359000 4.000000 0.000000 10.000000 108.927766 32.937913 277.703312 501.230928 16.564932 0.000000 0.028514
341.000000 53.380000 6.000000 0.000000 10.000000 104.947450 46.255992 -149.547071 525.439066 18.731334 0.000000 0.176935
344.000000 45.555000 -6.000000 1.000000 10.000000 72.055034 -45.878787 2084.827044 1441.685617 21.961227 0.000000 0.249574
345.000000 51.623000 -5.000000 1.000000 10.000000 79.978664 -41.800756 1937.343705 1196.132615 19.377318 0.000000 0.159302
346.000000 57.493000 -4.000000 1.000000 10.000000 88.085043 -36.899690 1783.095499 985.999604 17.396912 0.000000 0.103187
347.000000 62.753000 -3.000000 1.000000 10.000000 96.083690 -30.996214 1621.606057 807.177523 15.936614 0.000000 0.092489
348.000000 66.987000 -2.000000 1.000000 10.000000 103.590946 -23.918029 1452.353210 656.353410 14.927717 0.000000 0.108942
349.000000 69.856000 -1.000000 1.000000 10.000000 110.158333 -15.563280 1274.763346 530.851019 14.313107 0.000000 0.124307
350.000000 71.184000 0.000000 1.000000 10.000000 115.339807 -6.004308 1088.204916 428.511383 14.044913 0.000000 0.127095
351.000000 70.988000 1.000000 1.000000 10.000000 118.797634 4.410729 891.980930 347.602665 14.082714 0.000000 0.113273
352.000000 69.460000 2.000000 1.000000 10.000000 120.412186 15.063932 685.320256 286.751856 14.392141 0.000000 0.080817
353.000000 66.895000 3.000000 1.000000 10.000000 120.326086 25.250835 467.367493 244.893122 14.943787 0.000000 0.028992
354.000000 63.623000 4.000000 1.000000 10.000000 118.880466 34.431693 237.171132 221.229066 15.712341 0.000000 0.049571
355.000000 59.949000 5.000000 1.000000 10.000000 116.487683 42.357547 -6.330326 215.202296 16.675901 0.000000 0.148507
358.000000 54.539000 -5.000000 2.000000 10.000000 86.972709 -47.291071 2141.004301 1024.919262 18.338761 0.000000 0.208560
359.000000 65.636000 -3.000000 2.000000 10.000000 104.271018 -37.066892 1788.017725 597.907949 15.234224 0.000000 0.048420
360.000000 72.580000 -1.000000 2.000000 10.000000 119.753874 -21.300284 1394.635753 280.641088 13.773490 0.000000 0.057153
361.000000 73.514000 1.000000 2.000000 10.000000 129.415841 1.144208 953.503325 56.247030 13.596509 0.000000 0.057730
362.000000 69.212000 3.000000 2.000000 10.000000 130.667433 25.771280 455.364428 -85.826734 14.441229 0.000000 0.057023
366.000000 62.038000 -4.000000 3.000000 10.000000 102.275251 -49.163845 2220.309370 582.866039 16.117728 0.000000 0.236588
367.000000 67.079000 -3.000000 3.000000 10.000000 111.446108 -44.003613 2014.496463 353.210563 14.904307 0.000000 0.151813
368.000000 71.073000 -2.000000 3.000000 10.000000 120.307826 -37.306185 1795.100144 150.043934 14.065083 0.000000 0.092941
369.000000 73.719000 -1.000000 3.000000 10.000000 128.356663 -28.555461 1560.729789 -28.694262 13.558596 0.000000 0.059681
370.000000 74.869000 0.000000 3.000000 10.000000 134.961530 -17.279127 1309.798243 -184.651631 13.349292 0.000000 0.039404
371.000000 74.546000 1.000000 3.000000 10.000000 139.446237 -3.481801 1040.485835 -319.112890 13.406508 0.000000 0.010063
372.000000 72.927000 2.000000 3.000000 10.000000 141.335345 11.772159 750.696170 -433.035162 13.703659 0.000000 0.044846
378.000000 45.923000 1.000000 -3.000000 11.000000 78.069427 10.406444 777.337909 1172.213867 21.785874 0.000000 0.136249
379.000000 45.760000 2.000000 -3.000000 11.000000 80.073420 16.533268 655.507231 1137.481563 21.862384 0.000000 0.134743
380.000000 47.601000 -2.000000 -2.000000 11.000000 76.783038 -10.488773 1174.261210 1198.074278 21.018564 0.000000 0.135867
381.000000 49.804000 -1.000000 -2.000000 11.000000 81.228103 -4.178104 1053.624582 1107.521191 20.087329 0.000000 0.152316
382.000000 51.105000 0.000000 -2.000000 11.000000 84.901490 2.445290 929.037622 1037.116008 19.574659 0.000000 0.160927
383.000000 51.493000 1.000000 -2.000000 11.000000 87.699982 9.219467 800.303067 984.794517 19.425870 0.000000 0.160138
384.000000 51.045000 2.000000 -2.000000 11.000000 89.596995 15.959031 667.210295 948.874001 19.595409 0.000000 0.149820
385.000000 49.898000 3.000000 -2.000000 11.000000 90.640405 22.484101 529.534180 927.979861 20.045020 0.000000 0.131063
386.000000 48.220000 4.000000 -2.000000 11.000000 90.934763 28.647231 387.033817 920.989509 20.742344 0.000000 0.107563
387.000000 46.176000 5.000000 -2.000000 11.000000 90.615771 34.349041 239.451118 926.989083 21.659818 0.000000 0.090743
388.000000 45.919000 -4.000000 -1.000000 11.000000 74.473049 -25.451250 1487.242396 1272.167497 21.788104 0.000000 0.122728
389.000000 49.784000 -3.000000 -1.000000 11.000000 80.465387 -19.891246 1364.427117 1133.247859 20.095095 0.000000 0.136494
390.000000 52.935000 -2.000000 -1.000000 11.000000 85.994776 -13.698107 1237.334581 1018.566673 18.897161 0.000000 0.154853
391.000000 55.174000 -1.000000 -1.000000 11.000000 90.819482 -6.925784 1105.737385 925.491918 18.128720 0.000000 0.168010
392.000000 56.394000 0.000000 -1.000000 11.000000 94.733542 0.298551 969.391713 851.876913 17.735284 0.000000 0.172090
393.000000 56.595000 1.000000 -1.000000 11.000000 97.604856 7.775449 828.035831 795.965368 17.671206 0.000000 0.165601
394.000000 55.876000 2.000000 -1.000000 11.000000 99.399529 15.258923 681.388411 756.319042 17.897961 0.000000 0.148098
395.000000 54.400000 3.000000 -1.000000 11.000000 100.182071 22.501711 529.146657 731.762096 18.382805 0.000000 0.120081
396.000000 52.363000 4.000000 -1.000000 11.000000 100.091805 29.301117 370.984225 721.337989 19.097732 0.000000 0.084839
397.000000 49.954000 5.000000 -1.000000 11.000000 99.306808 35.526026 206.548883 724.275901 20.018647 0.000000 0.060922
398.000000 47.339000 6.000000 -1.000000 11.000000 98.009702 41.119002 35.459894 739.964498 21.124706 0.000000 0.093136
399.000000 49.105000 -5.000000 1.000000 11.000000 82.962367 -39.198120 1852.745374 1112.452812 20.370376 0.000000 0.128362
400.000000 53.789000 -4.000000 1.000000 11.000000 90.278583 -34.374206 1711.242575 934.659570 18.594316 0.000000 0.097008
401.000000 57.902000 -3.000000 1.000000 11.000000 97.395959 -28.678732 1563.734731 781.755561 17.271469 0.000000 0.100531
402.000000 61.169000 -2.000000 1.000000 11.000000 104.008933 -21.999093 1409.831294 651.384478 16.347476 0.000000 0.117156
403.000000 63.377000 -1.000000 1.000000 11.000000 109.778773 -14.288159 1249.107100 541.606027 15.776338 0.000000 0.129675
404.000000 64.424000 0.000000 1.000000 11.000000 114.381546 -5.629888 1081.098446 450.824765 15.518868 0.000000 0.131365
405.000000 64.326000 1.000000 1.000000 11.000000 117.575518 3.705330 905.298621 377.734966 15.541474 0.000000 0.119499
406.000000 63.211000 2.000000 1.000000 11.000000 119.266987 13.270856 721.152805 321.277783 15.815194 0.000000 0.092563
407.000000 61.274000 3.000000 1.000000 11.000000 119.538603 22.551421 528.052215 280.607960 16.314929 0.000000 0.049482
408.000000 58.740000 4.000000 1.000000 11.000000 118.617525 31.116016 325.327385 255.068137 17.018814 0.000000 0.014265
409.000000 55.825000 5.000000 1.000000 11.000000 116.801395 38.715731 112.240409 244.169258 17.907718 0.000000 0.092296
410.000000 52.715000 6.000000 1.000000 11.000000 114.384904 45.284177 -112.024031 247.576035 18.964828 0.000000 0.192655
413.000000 46.651000 -6.000000 2.000000 11.000000 81.924381 -48.074465 2173.474627 1169.554783 21.441395 0.000000 0.241403
414.000000 51.655000 -5.000000 2.000000 11.000000 89.637148 -44.270118 2024.216253 950.519100 19.361877 0.000000 0.151691
415.000000 56.347000 -4.000000 2.000000 11.000000 97.450699 -39.680256 1867.930380 758.111244 17.747614 0.000000 0.081987
416.000000 60.438000 -3.000000 2.000000 11.000000 105.116120 -34.114698 1704.108732 589.839746 16.544285 0.000000 0.044487
417.000000 63.658000 -2.000000 2.000000 11.000000 112.311706 -27.370404 1532.192805 443.645252 15.705712 0.000000 0.054331
418.000000 65.802000 -1.000000 2.000000 11.000000 118.657128 -19.283620 1351.567507 317.829673 15.192383 0.000000 0.073036
419.000000 66.774000 0.000000 2.000000 11.000000 123.754314 -9.833364 1161.553805 211.001238 14.970296 0.000000 0.079805
420.000000 66.593000 1.000000 2.000000 11.000000 127.265835 0.723938 961.400194 122.031879 15.010028 0.000000 0.070620
421.000000 65.389000 2.000000 2.000000 11.000000 129.019314 11.793759 750.272760 50.024381 15.285991 0.000000 0.045751
422.000000 63.358000 3.000000 2.000000 11.000000 129.081063 22.588128 527.243576 -5.712598 15.775826 0.000000 0.032074
423.000000 60.726000 4.000000 2.000000 11.000000 127.732948 32.426020 291.277056 -45.682990 16.459908 0.000000 0.090992
424.000000 57.708000 5.000000 2.000000 11.000000 125.362206 40.944701 41.213885 -70.216227 17.320944 0.000000 0.185760
428.000000 53.300000 -5.000000 3.000000 11.000000 95.633997 -49.761865 2246.904154 776.631615 18.762008 0.000000 0.246764
429.000000 57.886000 -4.000000 3.000000 11.000000 103.867033 -45.563881 2072.690400 561.491893 17.273404 0.000000 0.159500
430.000000 61.862000 -3.000000 3.000000 11.000000 112.027486 -40.330577 1888.751856 369.783069 16.161295 0.000000 0.091401
431.000000 64.972000 -2.000000 3.000000 11.000000 119.798791 -33.753460 1694.250873 199.668917 15.385881 0.000000 0.045931
432.000000 67.027000 -1.000000 3.000000 11.000000 126.779314 -25.495000 1488.250752 49.636456 14.912779 0.000000 0.029961
433.000000 67.936000 0.000000 3.000000 11.000000 132.500062 -15.312870 1269.700666 -81.546474 14.712136 0.000000 0.028491
434.000000 67.722000 1.000000 3.000000 11.000000 136.494470 -3.319047 1037.417727 -194.863561 14.757903 0.000000 0.016237
435.000000 66.506000 2.000000 3.000000 11.000000 138.447353 9.749651 790.065570 -291.074022 15.027249 0.000000 0.026660
436.000000 64.477000 3.000000 3.000000 11.000000 138.362471 22.638706 526.128623 -370.729498 15.500079 0.000000 0.088465
449.000000 46.642000 -1.000000 -2.000000 12.000000 83.158937 -4.053174 1051.265641 1070.446481 21.448214 0.000000 0.157463
450.000000 48.023000 1.000000 -2.000000 12.000000 89.137364 8.423492 815.615740 957.382463 20.829184 0.000000 0.162888
451.000000 46.789000 3.000000 -2.000000 12.000000 92.042596 20.857913 564.908805 899.921806 21.376390 0.000000 0.136163
452.000000 46.802000 -3.000000 -1.000000 12.000000 82.638153 -18.713580 1339.589868 1087.819191 21.374710 0.000000 0.141788
453.000000 49.310000 -2.000000 -1.000000 12.000000 87.628661 -12.893699 1221.379736 986.723656 20.285932 0.000000 0.158034
454.000000 51.088000 -1.000000 -1.000000 12.000000 91.987676 -6.587357 1099.290834 903.398523 19.578256 0.000000 0.168999
455.000000 52.070000 0.000000 -1.000000 12.000000 95.558566 0.099598 973.129067 836.254032 19.207624 0.000000 0.172086
456.000000 52.261000 1.000000 -1.000000 12.000000 98.239814 7.008417 842.687175 783.966799 19.136517 0.000000 0.166196
457.000000 51.728000 2.000000 -1.000000 12.000000 100.001118 13.945163 707.743589 745.434686 19.332783 0.000000 0.150936
458.000000 50.586000 3.000000 -1.000000 12.000000 100.884508 20.711230 568.061180 719.741279 19.768716 0.000000 0.126514
459.000000 48.971000 4.000000 -1.000000 12.000000 100.990210 27.135701 423.385867 706.127762 20.420309 0.000000 0.094566
460.000000 47.022000 5.000000 -1.000000 12.000000 100.453198 33.097292 273.445072 703.970555 21.266656 0.000000 0.063538
461.000000 54.927000 -1.000000 0.000000 12.000000 100.808678 -9.604488 1157.128276 732.595727 18.206569 0.000000 0.161437
462.000000 55.903000 1.000000 0.000000 12.000000 107.423438 5.281947 875.497235 601.785842 17.886473 0.000000 0.153319
463.000000 49.843000 5.000000 0.000000 12.000000 108.691213 34.195022 243.687852 500.776808 20.059741 0.000000 0.026430
464.000000 46.614000 -5.000000 1.000000 12.000000 85.417856 -36.876601 1782.417471 1048.833209 21.457999 0.000000 0.111503
465.000000 50.397000 -4.000000 1.000000 12.000000 92.045976 -32.160403 1651.740322 895.581237 19.845375 0.000000 0.098194
466.000000 53.668000 -3.000000 1.000000 12.000000 98.424696 -26.686562 1516.003384 762.587555 18.633885 0.000000 0.108198
467.000000 56.242000 -2.000000 1.000000 12.000000 104.309955 -20.383009 1374.906984 648.118161 17.779471 0.000000 0.123550
468.000000 57.983000 -1.000000 1.000000 12.000000 109.442110 -13.234547 1228.127308 550.722217 17.244304 0.000000 0.133824
469.000000 58.827000 0.000000 1.000000 12.000000 113.580106 -5.324759 1075.313921 469.187534 16.995711 0.000000 0.134764
470.000000 58.790000 1.000000 1.000000 12.000000 116.545570 3.133068 916.086970 402.505330 17.005334 0.000000 0.124430
471.000000 57.960000 2.000000 1.000000 12.000000 118.263990 11.805936 750.034038 349.842262 17.248437 0.000000 0.101675
472.000000 56.469000 3.000000 1.000000 12.000000 118.783461 20.307496 576.706568 310.518215 17.703343 0.000000 0.065603
473.000000 54.476000 4.000000 1.000000 12.000000 118.258314 28.294198 395.615825 283.988746 18.350980 0.000000 0.015829
474.000000 52.137000 5.000000 1.000000 12.000000 116.905061 35.537328 206.228291 269.831312 19.174500 0.000000 0.050900
475.000000 49.592000 6.000000 1.000000 12.000000 114.953010 41.939376 7.960412 267.734672 20.158960 0.000000 0.132773
476.000000 46.956000 7.000000 1.000000 12.000000 112.608555 47.506275 -199.827402 277.490961 21.291066 0.000000 0.232436
477.000000 48.862000 -5.000000 2.000000 12.000000 91.792294 -41.566294 1929.447088 895.985921 20.468112 0.000000 0.114066
478.000000 55.909000 -3.000000 2.000000 12.000000 105.712939 -31.583268 1636.707470 585.556751 17.884329 0.000000 0.054954
479.000000 60.142000 -1.000000 2.000000 12.000000 117.692096 -17.645294 1317.357343 348.233379 16.622552 0.000000 0.085202
480.000000 60.822000 1.000000 2.000000 12.000000 125.454674 0.394165 967.595534 174.552531 16.434892 0.000000 0.081121
481.000000 58.345000 3.000000 2.000000 12.000000 127.624010 20.018811 582.860703 58.077128 17.131790 0.000000 0.029572
482.000000 53.839000 5.000000 2.000000 12.000000 124.997970 37.214077 157.631317 -5.245829 18.565814 0.000000 0.126717
484.000000 50.376000 -5.000000 3.000000 12.000000 97.590739 -46.664055 2115.701130 732.000246 19.850599 0.000000 0.177321
485.000000 54.097000 -4.000000 3.000000 12.000000 105.049024 -42.387997 1957.378321 549.203671 18.483138 0.000000 0.105522
486.000000 59.744000 -2.000000 3.000000 12.000000 119.221768 -30.799776 1616.594466 240.087321 16.732428 0.000000 0.013197
487.000000 61.373000 -1.000000 3.000000 12.000000 125.352169 -23.045763 1432.874713 111.248522 16.287046 0.000000 0.025227
488.000000 61.969000 1.000000 3.000000 12.000000 133.993799 -3.196776 1035.113436 -99.759724 16.128570 0.000000 0.029541
489.000000 61.041000 2.000000 3.000000 12.000000 135.953921 8.228527 819.356591 -183.317810 16.373247 0.000000 0.021214
490.000000 57.366000 4.000000 3.000000 12.000000 135.110287 30.182143 349.030763 -308.891600 17.422126 0.000000 0.126397
493.000000 57.805000 -3.000000 4.000000 12.000000 118.161153 -43.490139 1996.013144 146.829881 17.293783 0.000000 0.178793
494.000000 61.717000 -1.000000 4.000000 12.000000 132.208321 -29.675699 1588.302566 -182.575287 16.194469 0.000000 0.099099
495.000000 62.271000 1.000000 4.000000 12.000000 141.996264 -8.063390 1127.477778 -450.162460 16.048662 0.000000 0.032690
504.000000 46.110000 -2.000000 -1.000000 13.000000 89.004318 -12.194608 1207.597033 960.137479 21.692872 0.000000 0.160404
505.000000 47.549000 -1.000000 -1.000000 13.000000 92.974681 -6.295337 1093.735339 884.731401 21.035026 0.000000 0.169627
506.000000 48.355000 0.000000 -1.000000 13.000000 96.256942 -0.071431 976.341824 822.994535 20.683225 0.000000 0.171969
507.000000 48.533000 1.000000 -1.000000 13.000000 98.771460 6.348720 855.249569 773.905033 20.606083 0.000000 0.166593
508.000000 48.134000 2.000000 -1.000000 13.000000 100.491446 12.809667 730.280973 736.599716 20.776362 0.000000 0.153155
509.000000 47.237000 3.000000 -1.000000 13.000000 101.444343 19.150030 601.246877 710.350540 21.170312 0.000000 0.131719
510.000000 45.941000 4.000000 -1.000000 13.000000 101.703152 25.225654 467.945610 694.545616 21.767127 0.000000 0.103150
511.000000 47.317000 -4.000000 1.000000 13.000000 93.489195 -30.209468 1601.656358 865.061698 21.136669 0.000000 0.102470
512.000000 49.959000 -3.000000 1.000000 13.000000 99.245032 -24.959645 1475.961657 747.762799 20.017209 0.000000 0.114877
513.000000 52.024000 -2.000000 1.000000 13.000000 104.530288 -19.005386 1345.711021 645.961106 19.220850 0.000000 0.128607
514.000000 53.424000 -1.000000 1.000000 13.000000 109.143045 -12.349898 1210.652174 558.543749 18.715935 0.000000 0.137112
515.000000 54.118000 0.000000 1.000000 13.000000 112.900024 -5.071329 1070.513867 484.568223 18.474811 0.000000 0.137524
516.000000 54.120000 1.000000 1.000000 13.000000 115.666182 2.659588 925.004056 423.239013 18.473216 0.000000 0.128418
517.000000 53.491000 2.000000 1.000000 13.000000 117.381425 10.588125 773.807873 373.888703 18.689775 0.000000 0.108900
518.000000 52.326000 3.000000 1.000000 13.000000 118.073364 18.418173 616.585348 335.962711 19.105583 0.000000 0.078263
519.000000 50.736000 4.000000 1.000000 13.000000 117.848753 25.874610 452.968859 309.006976 19.703857 0.000000 0.035862
520.000000 48.839000 5.000000 1.000000 13.000000 116.866645 32.755422 282.560265 292.658088 20.469649 0.000000 0.019446
521.000000 46.739000 6.000000 1.000000 13.000000 115.305220 38.951947 104.927666 286.635473 21.389600 0.000000 0.087629
522.000000 46.221000 -5.000000 2.000000 13.000000 93.551009 -39.142472 1851.006188 854.882607 21.637178 0.000000 0.091187
523.000000 49.318000 -4.000000 2.000000 13.000000 99.970287 -34.647694 1718.808756 711.010103 20.276478 0.000000 0.064010
524.000000 51.949000 -3.000000 2.000000 13.000000 106.136257 -29.396691 1581.378771 583.585780 19.247520 0.000000 0.067523
525.000000 53.990000 -2.000000 2.000000 13.000000 111.836546 -23.294330 1438.399292 471.440561 18.518508 0.000000 0.082929
526.000000 55.351000 -1.000000 2.000000 13.000000 116.840805 -16.290034 1289.527257 373.582715 18.061585 0.000000 0.094734
527.000000 55.997000 0.000000 2.000000 13.000000 120.925251 -8.423829 1134.390730 289.174542 17.852238 0.000000 0.097650
528.000000 55.942000 1.000000 2.000000 13.000000 123.908980 0.128518 972.585801 217.513564 17.868815 0.000000 0.089753
529.000000 55.250000 2.000000 2.000000 13.000000 125.694782 9.044586 803.673073 158.017370 18.092116 0.000000 0.070266
530.000000 54.016000 3.000000 2.000000 13.000000 126.297079 17.909291 627.173679 110.211496 18.505056 0.000000 0.040466
531.000000 52.355000 4.000000 2.000000 13.000000 125.838999 26.321281 442.564748 73.719847 19.092385 0.000000 0.029699
532.000000 50.381000 5.000000 2.000000 13.000000 124.517295 33.991076 249.274229 48.257291 19.840441 0.000000 0.083433
533.000000 48.204000 6.000000 2.000000 13.000000 122.554012 40.778417 46.674975 33.624146 20.736957 0.000000 0.161650
535.000000 47.615000 -5.000000 3.000000 13.000000 99.152424 -43.874752 2009.828031 700.446452 21.001204 0.000000 0.127355
536.000000 50.665000 -4.000000 3.000000 13.000000 105.929333 -39.581837 1864.813508 542.426987 19.734879 0.000000 0.067665
537.000000 53.245000 -3.000000 3.000000 13.000000 112.493543 -34.450075 1713.336555 400.540267 18.776937 0.000000 0.020435
538.000000 55.233000 -2.000000 3.000000 13.000000 118.624636 -28.317767 1554.955340 273.733197 18.099331 0.000000 0.015629
539.000000 56.547000 -1.000000 3.000000 13.000000 124.068796 -21.048059 1389.186815 161.114170 17.677313 0.000000 0.037500
540.000000 57.153000 0.000000 3.000000 13.000000 128.558156 -12.596021 1215.501791 61.934328 17.488967 0.000000 0.046443
541.000000 57.066000 1.000000 3.000000 13.000000 131.850109 -3.101555 1033.319304 -24.427421 17.514810 0.000000 0.042250
542.000000 56.348000 2.000000 3.000000 13.000000 133.786144 7.044445 842.000113 -98.476246 17.737469 0.000000 0.028703
543.000000 55.093000 3.000000 3.000000 13.000000 134.347920 17.248181 640.839212 -160.610551 18.141398 0.000000 0.036935
544.000000 53.411000 4.000000 3.000000 13.000000 133.671384 26.896088 429.057149 -211.128785 18.712650 0.000000 0.086623
548.000000 48.413000 -5.000000 4.000000 13.000000 104.161829 -48.978011 2212.175677 527.223719 20.653118 0.000000 0.235920
549.000000 51.369000 -4.000000 4.000000 13.000000 111.245892 -45.014152 2051.826103 349.063198 19.462629 0.000000 0.170794
550.000000 53.860000 -3.000000 4.000000 13.000000 118.175845 -40.161544 1883.301618 186.619042 18.560603 0.000000 0.120857
551.000000 55.774000 -2.000000 4.000000 13.000000 124.735495 -34.182221 1705.960710 38.922148 17.922078 0.000000 0.086136
552.000000 57.033000 -1.000000 4.000000 13.000000 130.659553 -26.817708 1519.092944 -94.847058 17.524889 0.000000 0.063551
553.000000 57.607000 0.000000 4.000000 13.000000 135.640088 -17.865086 1321.909449 -215.373522 17.349292 0.000000 0.045208
554.000000 57.510000 1.000000 4.000000 13.000000 139.358063 -7.334319 1113.531784 -323.219197 17.377637 0.000000 0.021650
555.000000 56.801000 2.000000 4.000000 13.000000 141.557956 4.357916 892.978855 -418.831789 17.594102 0.000000 0.016739
569.000000 46.070000 -2.000000 0.000000 14.000000 97.519253 -14.474474 1252.837103 794.278142 21.708218 0.000000 0.155356
570.000000 47.238000 -1.000000 0.000000 14.000000 101.413481 -8.595569 1137.689062 721.249211 21.170100 0.000000 0.162143
571.000000 47.952000 1.000000 0.000000 14.000000 107.090240 4.181422 896.312751 609.206151 20.852665 0.000000 0.155259
572.000000 47.548000 2.000000 0.000000 14.000000 108.759267 10.798079 769.723287 568.863968 21.029024 0.000000 0.140285
573.000000 46.715000 3.000000 0.000000 14.000000 109.656384 17.340404 638.938870 538.250331 21.403408 0.000000 0.117173
574.000000 45.532000 4.000000 0.000000 14.000000 109.846159 23.646077 503.747469 516.925351 21.959425 0.000000 0.085934
575.000000 46.694000 -3.000000 1.000000 14.000000 99.909174 -23.450904 1441.889854 736.050443 21.416770 0.000000 0.120534
576.000000 48.378000 -2.000000 1.000000 14.000000 104.693656 -17.818365 1320.940867 644.546374 20.669582 0.000000 0.132672
577.000000 49.522000 -1.000000 1.000000 14.000000 108.876519 -11.596921 1195.871217 565.325829 20.190464 0.000000 0.139770
578.000000 50.102000 0.000000 1.000000 14.000000 112.315748 -4.857494 1066.466672 497.641559 19.955709 0.000000 0.139807
579.000000 50.128000 1.000000 1.000000 14.000000 114.906839 2.261396 932.497887 440.855165 19.944323 0.000000 0.131698
580.000000 49.645000 2.000000 1.000000 14.000000 116.600693 9.560631 793.719050 394.423974 20.137652 0.000000 0.114739
581.000000 48.722000 3.000000 1.000000 14.000000 117.412517 16.808841 649.866371 357.890263 20.519061 0.000000 0.088368
582.000000 47.439000 4.000000 1.000000 14.000000 117.417320 23.784010 500.656415 330.872430 21.073671 0.000000 0.052057
583.000000 45.883000 5.000000 1.000000 14.000000 116.733190 30.311117 345.784236 313.057784 21.788132 0.000000 0.005309
584.000000 48.471000 -3.000000 2.000000 14.000000 106.436537 -27.494234 1535.145681 583.056296 20.628954 0.000000 0.078801
585.000000 51.249000 -1.000000 2.000000 14.000000 116.086790 -15.151505 1266.444690 395.058563 19.507712 0.000000 0.102362
586.000000 51.768000 1.000000 2.000000 14.000000 122.574912 -0.090042 976.691433 253.344074 19.310088 0.000000 0.096925
587.000000 50.250000 3.000000 2.000000 14.000000 125.092598 16.150734 663.310923 153.703353 19.892528 0.000000 0.052815
588.000000 47.285000 5.000000 2.000000 14.000000 123.971084 31.195428 323.290382 93.238865 21.139762 0.000000 0.051116
589.000000 47.568000 -4.000000 3.000000 14.000000 106.586035 -37.095745 1788.869326 539.094179 21.019907 0.000000 0.043542
590.000000 49.686000 -3.000000 3.000000 14.000000 112.522821 -32.083634 1649.729797 414.230405 20.121935 0.000000 0.018051
591.000000 51.312000 -2.000000 3.000000 14.000000 118.033894 -26.210233 1504.841233 302.228424 19.482605 0.000000 0.034479
592.000000 52.390000 -1.000000 3.000000 14.000000 122.916269 -19.391321 1353.839808 202.380726 19.080535 0.000000 0.050978
593.000000 52.897000 0.000000 3.000000 14.000000 126.963306 -11.620372 1196.330330 114.085566 18.896636 0.000000 0.057644
594.000000 52.846000 1.000000 3.000000 14.000000 129.993295 -3.025302 1031.882795 36.836357 18.913812 0.000000 0.053490
595.000000 52.284000 2.000000 3.000000 14.000000 131.887950 6.097308 860.028463 -29.786905 19.116709 0.000000 0.039615
596.000000 51.278000 3.000000 3.000000 14.000000 132.627274 15.315046 680.255396 -86.124453 19.491497 0.000000 0.028972
597.000000 49.910000 4.000000 3.000000 14.000000 132.299906 24.168583 492.003365 -132.442031 20.025686 0.000000 0.057897
598.000000 48.266000 5.000000 3.000000 14.000000 131.078802 32.297603 294.658020 -168.934805 20.707967 0.000000 0.115853
600.000000 45.831000 -5.000000 4.000000 14.000000 105.304831 -46.118530 2094.159436 516.084235 21.816410 0.000000 0.173515
601.000000 50.346000 -3.000000 4.000000 14.000000 118.049779 -37.265872 1793.903855 220.402964 19.856299 0.000000 0.077755
602.000000 52.955000 -1.000000 4.000000 14.000000 129.231820 -24.473066 1464.884652 -24.548607 18.874949 0.000000 0.039249
603.000000 53.373000 1.000000 4.000000 14.000000 137.056296 -6.769574 1102.760686 -223.579503 18.725436 0.000000 0.017695
604.000000 51.812000 3.000000 4.000000 14.000000 139.953015 14.219246 702.270956 -380.015591 19.288840 0.000000 0.050108
608.000000 50.485000 -3.000000 5.000000 14.000000 122.911022 -43.061681 1980.829076 -12.410285 19.799677 0.000000 0.204724
609.000000 51.992000 -2.000000 5.000000 14.000000 129.170231 -37.495751 1800.742842 -164.211844 19.224260 0.000000 0.164259
610.000000 52.985000 -1.000000 5.000000 14.000000 134.895366 -30.566951 1610.681002 -304.442678 18.862738 0.000000 0.129466
619.000000 46.147000 -1.000000 1.000000 15.000000 108.638045 -10.948467 1183.205978 571.261335 21.667322 0.000000 0.141958
620.000000 46.638000 0.000000 1.000000 15.000000 111.808410 -4.674650 1063.008094 508.892338 21.438061 0.000000 0.141722
621.000000 46.680000 1.000000 1.000000 15.000000 114.244685 1.921888 938.884028 456.012049 21.418058 0.000000 0.134437
622.000000 46.305000 2.000000 1.000000 15.000000 115.906278 8.682606 810.638217 412.173345 21.590887 0.000000 0.119538
623.000000 45.563000 3.000000 1.000000 15.000000 116.800771 15.423613 678.061891 376.994300 21.941799 0.000000 0.096572
624.000000 46.774000 -2.000000 2.000000 15.000000 111.314470 -20.321280 1373.587848 493.185241 21.375396 0.000000 0.100729
625.000000 47.699000 -1.000000 2.000000 15.000000 115.415800 -14.182287 1246.990299 413.496438 20.959606 0.000000 0.108579
626.000000 48.157000 0.000000 2.000000 15.000000 118.817280 -7.459227 1115.917702 343.825845 20.759144 0.000000 0.109681
627.000000 48.159000 1.000000 2.000000 15.000000 121.412142 -0.273011 980.128508 283.706603 20.757406 0.000000 0.102947
628.000000 47.739000 2.000000 2.000000 15.000000 123.140108 7.182653 839.363466 232.740500 20.939453 0.000000 0.087752
629.000000 46.948000 3.000000 2.000000 15.000000 123.999734 14.664906 693.343967 190.591563 21.291805 0.000000 0.063847
630.000000 45.849000 4.000000 2.000000 15.000000 124.049008 21.925763 541.770212 156.980797 21.802273 0.000000 0.032861
631.000000 47.881000 -2.000000 3.000000 15.000000 117.463727 -24.402976 1463.296147 326.702425 20.879242 0.000000 0.049857
632.000000 48.776000 -1.000000 3.000000 15.000000 121.880094 -17.997302 1324.653180 237.145658 20.494393 0.000000 0.062695
633.000000 49.182000 1.000000 3.000000 15.000000 128.370198 -2.962862 1030.706674 87.710158 20.323404 0.000000 0.063262
634.000000 48.737000 2.000000 3.000000 15.000000 130.214278 5.322856 874.722134 27.059845 20.508473 0.000000 0.050145
635.000000 46.798000 4.000000 3.000000 15.000000 131.009780 21.878098 542.810315 -67.569331 21.357665 0.000000 0.038478
636.000000 45.495000 -4.000000 4.000000 15.000000 112.128026 -39.496776 1862.126834 373.844817 21.975467 0.000000 0.079365
637.000000 47.209000 -3.000000 4.000000 15.000000 117.833060 -34.736069 1721.264353 249.506295 21.175656 0.000000 0.044669
638.000000 48.517000 -2.000000 4.000000 15.000000 123.157489 -29.115667 1574.443239 136.128533 20.603240 0.000000 0.027038
639.000000 49.382000 -1.000000 4.000000 15.000000 127.923525 -22.520969 1421.277239 33.187507 20.241280 0.000000 0.027177
640.000000 49.789000 0.000000 4.000000 15.000000 131.941824 -14.898320 1261.345977 -59.764801 20.074477 0.000000 0.028932
641.000000 49.751000 1.000000 4.000000 15.000000 135.032593 -6.319307 1094.191104 -143.106607 20.088982 0.000000 0.023142
642.000000 49.300000 2.000000 4.000000 15.000000 137.059850 2.961876 919.311908 -217.151305 20.272225 0.000000 0.013597
643.000000 48.485000 3.000000 4.000000 15.000000 137.970373 12.511720 736.160308 -282.151334 20.612773 0.000000 0.034539
644.000000 47.365000 4.000000 4.000000 15.000000 137.816373 21.817340 544.135115 -338.301045 21.100200 0.000000 0.079514
646.000000 45.796000 -4.000000 5.000000 15.000000 116.641348 -44.541757 2034.214433 183.444226 21.829031 0.000000 0.189845
647.000000 47.450000 -3.000000 5.000000 15.000000 122.631940 -40.018827 1878.720971 41.111348 21.066526 0.000000 0.149523
648.000000 48.709000 -2.000000 5.000000 15.000000 128.291194 -34.537614 1715.757349 -90.542488 20.520250 0.000000 0.118370
649.000000 49.540000 -1.000000 5.000000 15.000000 133.434532 -27.895988 1544.771999 -212.012266 20.174741 0.000000 0.093079
650.000000 49.891000 1.000000 5.000000 15.000000 141.306227 -10.590808 1176.244287 -426.021562 20.031214 0.000000 0.040722
659.000000 45.611000 -1.000000 3.000000 16.000000 120.946289 -16.809423 1300.145549 266.865125 21.917090 0.000000 0.072584
660.000000 45.980000 0.000000 3.000000 16.000000 124.321978 -10.133884 1167.373978 194.551577 21.739899 0.000000 0.076008
661.000000 45.975000 1.000000 3.000000 16.000000 126.939853 -2.910795 1029.726025 130.678643 21.741882 0.000000 0.071729
662.000000 45.619000 2.000000 3.000000 16.000000 128.728953 4.678028 886.928018 74.947320 21.910790 0.000000 0.059590
663.000000 46.231000 -1.000000 4.000000 16.000000 126.727453 -20.874035 1385.438046 81.542907 21.621241 0.000000 0.028974
664.000000 46.561000 1.000000 4.000000 16.000000 133.240825 -5.951954 1087.210664 -76.637607 21.465835 0.000000 0.032190
665.000000 45.525000 3.000000 4.000000 16.000000 136.179890 11.117570 763.496688 -202.011258 21.953358 0.000000 0.025611
666.000000 45.773000 -2.000000 5.000000 16.000000 127.414305 -31.995901 1647.436247 -29.791845 21.837144 0.000000 0.083406
667.000000 46.476000 -1.000000 5.000000 16.000000 132.068091 -25.660547 1492.072975 -136.706646 21.505509 0.000000 0.065588
668.000000 46.811000 0.000000 5.000000 16.000000 136.060517 -18.238669 1329.672651 -234.973451 21.350505 0.000000 0.049202
669.000000 46.787000 1.000000 5.000000 16.000000 139.216831 -9.739912 1159.746092 -324.886355 21.360677 0.000000 0.029400
670.000000 46.427000 2.000000 5.000000 16.000000 141.387827 -0.359736 981.757694 -406.689775 21.525540 0.000000 0.006925
#UB matrix in q= (UB) B0 G* 
#[[-0.332670748 -0.57395797  -0.747163552]
# [ 0.933920955 -0.310884488 -0.177006367]
# [-0.130850383 -0.757597594  0.64016129 ]]
#B0 matrix in q= UB (B0) G*
#[[ 0.19670273 -0.          0.03056101]
# [ 0.          0.19187965 -0.        ]
# [ 0.          0.          0.18806537]]
#UBB0 matrix in q= (UB B0) G* i.e. recip. basis vectors are columns in LT frame: astar = UBB0[:,0], bstar = UBB0[:,1], cstar = UBB0[:,2]. (abcstar as columns on xyzlab1, xlab1 = ui, ui = unit vector along incident beam)
#[[-0.06543724 -0.11013086 -0.15068234]
# [ 0.1837048  -0.05965241 -0.0047472 ]
# [-0.02573863 -0.14536756  0.11639325]]
#Euler angles phi theta psi (deg)
#[350.201  50.25  103.304]
#deviatoric strain in direct crystal frame (10-3 unit)
#[[-2.33  0.04  0.37]
# [ 0.04 -2.27  1.08]
# [ 0.37  1.08  4.61]]
#deviatoric strain in sample2 frame (10-3 unit)
#[[-1.71  0.38 -2.14]
# [ 0.38 -2.14 -1.16]
# [-2.15 -1.16  3.85]]
#new lattice parameters
#[ 5.1505     5.2119069  5.3193159 89.9360519 99.2039464 89.9949255]
#CCDLabel
#sCMOS
#DetectorParameters
#[79.0, 975.0, 941.0, 0.0, 0.0]
#pixelsize
#0.0734
#Frame dimensions
#[2018, 2016]
#
