#Strain and Orientation Refinement from experimental file: /home/micha/LaueProjects/DepthEffects/testZrO2_124.cor
#File created at Wed Jun 28 14:25:53 2023 with indexingSpotsSet.py
#Number of indexed spots: 544
#Element
#ZrO2
#grainIndex
#G_0
#Mean Deviation(pixel): 0.114
##spot_index intensity h k l 2theta Chi Xexp Yexp Energy GrainIndex PixDev
1.000000 46.220000 1.000000 -11.000000 -9.000000 101.695330 -49.006026 2213.397966 601.357838 21.628667 0.000000 0.229577
2.000000 46.310000 2.000000 -11.000000 -9.000000 102.045308 -42.402534 1957.879033 629.982699 21.586879 0.000000 0.102514
3.000000 45.915000 3.000000 -11.000000 -9.000000 101.654045 -35.843639 1752.494758 667.147607 21.772735 0.000000 0.051028
5.000000 46.952000 1.000000 -10.000000 -9.000000 96.322583 -48.801624 2204.511359 759.947663 21.293260 0.000000 0.221576
6.000000 47.052000 2.000000 -10.000000 -9.000000 96.671551 -42.193353 1950.696565 771.075948 21.248428 0.000000 0.105323
7.000000 46.602000 3.000000 -10.000000 -9.000000 96.267563 -35.635210 1746.551899 795.557586 21.453997 0.000000 0.070614
8.000000 45.639000 4.000000 -10.000000 -9.000000 95.154256 -29.292243 1578.796599 829.682315 21.907487 0.000000 0.097376
10.000000 47.278000 1.000000 -9.000000 -9.000000 90.310585 -48.596883 2195.682323 932.178138 21.148654 0.000000 0.224480
11.000000 47.389000 2.000000 -9.000000 -9.000000 90.659212 -41.983999 1943.555595 924.340203 21.099395 0.000000 0.118665
12.000000 46.882000 1.000000 -3.000000 -3.000000 90.249692 -35.426784 1740.640024 935.243811 7.109452 0.000000 0.089848
13.000000 45.801000 4.000000 -9.000000 -9.000000 89.129339 -29.089883 1573.808820 959.717601 21.832473 0.000000 0.107642
15.000000 47.020000 1.000000 -8.000000 -9.000000 83.577970 -48.391806 2186.910300 1123.437898 21.266890 0.000000 0.239986
16.000000 47.145000 2.000000 -8.000000 -9.000000 83.927219 -41.774477 1936.455765 1094.539456 21.211001 0.000000 0.140215
17.000000 46.582000 3.000000 -8.000000 -9.000000 83.522454 -35.218366 1734.758894 1090.580124 21.468112 0.000000 0.107759
18.000000 45.958000 1.000000 -7.000000 -9.000000 76.042910 -48.186400 2178.194739 1342.215708 21.761495 0.000000 0.269504
19.000000 46.099000 2.000000 -7.000000 -9.000000 76.394119 -41.564793 1929.396721 1289.166091 21.695287 0.000000 0.169160
20.000000 45.489000 3.000000 -7.000000 -9.000000 76.008258 -35.009961 1728.908267 1268.433948 21.986815 0.000000 0.125881
22.000000 45.542000 1.000000 -7.000000 -4.000000 120.969249 -41.745095 1935.463841 75.292386 10.972053 0.000000 0.164770
24.000000 47.227000 2.000000 -13.000000 -8.000000 117.278736 -41.510158 1927.564959 199.837079 21.162405 0.000000 0.136341
25.000000 46.812000 3.000000 -13.000000 -8.000000 116.691339 -34.180093 1705.902298 286.906422 21.350429 0.000000 0.031806
26.000000 45.997000 4.000000 -13.000000 -8.000000 115.313791 -27.162403 1527.247631 368.818666 21.729306 0.000000 0.040276
28.000000 48.872000 1.000000 -12.000000 -8.000000 112.896724 -48.695925 2199.944356 252.312054 20.451274 0.000000 0.260404
29.000000 48.878000 1.000000 -6.000000 -4.000000 113.147722 -41.275025 1919.716708 328.748956 10.224312 0.000000 0.110237
30.000000 48.393000 3.000000 -12.000000 -8.000000 112.523679 -33.947261 1699.529131 402.954236 20.654282 0.000000 0.014828
31.000000 47.448000 1.000000 -3.000000 -2.000000 111.086461 -26.938838 1521.952920 475.470451 5.266632 0.000000 0.061287
32.000000 46.100000 5.000000 -12.000000 -8.000000 108.950976 -20.420560 1375.709943 546.649743 21.683660 0.000000 0.107079
34.000000 50.426000 1.000000 -11.000000 -8.000000 108.261611 -48.465868 2190.070055 405.381486 19.822271 0.000000 0.233631
35.000000 50.429000 2.000000 -11.000000 -8.000000 108.505510 -41.039705 1911.918604 463.391990 19.821305 0.000000 0.089895
36.000000 49.862000 3.000000 -11.000000 -8.000000 107.847238 -33.714488 1693.192335 524.393084 20.047536 0.000000 0.030153
37.000000 48.766000 4.000000 -11.000000 -8.000000 106.355296 -26.715543 1516.685509 587.394029 20.498920 0.000000 0.081260
38.000000 47.215000 5.000000 -11.000000 -8.000000 104.154477 -20.211759 1371.249998 651.754254 21.173434 0.000000 0.121840
40.000000 51.780000 1.000000 -10.000000 -8.000000 103.031963 -48.235392 2180.267157 566.994381 19.305736 0.000000 0.213472
41.000000 51.779000 1.000000 -5.000000 -4.000000 103.269688 -40.804205 1904.170168 605.674007 9.653208 0.000000 0.080733
42.000000 51.117000 3.000000 -10.000000 -8.000000 102.581884 -33.481782 1686.891601 652.983994 19.556955 0.000000 0.053629
43.000000 49.850000 2.000000 -5.000000 -4.000000 101.044159 -26.492524 1511.445187 706.281389 10.027439 0.000000 0.098614
44.000000 48.072000 5.000000 -10.000000 -8.000000 98.791716 -20.003380 1366.810976 763.853362 20.797743 0.000000 0.132949
45.000000 45.901000 3.000000 -5.000000 -4.000000 95.990628 -14.109054 1245.527248 824.541769 10.891572 0.000000 0.153223
47.000000 52.787000 1.000000 -9.000000 -8.000000 97.112411 -48.004504 2170.534891 740.279801 18.939342 0.000000 0.203513
48.000000 52.782000 2.000000 -9.000000 -8.000000 97.345574 -40.568534 1896.470926 758.349272 18.941484 0.000000 0.086462
49.000000 52.016000 3.000000 -9.000000 -8.000000 96.636210 -33.249150 1680.626620 791.267002 19.221166 0.000000 0.075640
50.000000 50.561000 4.000000 -9.000000 -8.000000 95.067285 -26.269786 1506.231748 834.570678 19.775340 0.000000 0.111718
51.000000 48.537000 5.000000 -9.000000 -8.000000 92.784527 -19.795426 1362.392730 885.364138 20.600998 0.000000 0.138595
52.000000 46.092000 6.000000 -9.000000 -8.000000 89.964524 -13.918556 1241.725849 941.686574 21.695179 0.000000 0.152486
53.000000 53.242000 1.000000 -8.000000 -8.000000 90.395833 -47.773211 2160.872496 929.935927 18.779712 0.000000 0.207123
54.000000 53.234000 1.000000 -4.000000 -4.000000 90.627009 -40.332698 1888.820411 925.548367 9.391410 0.000000 0.104290
55.000000 52.358000 3.000000 -8.000000 -8.000000 89.908636 -33.016600 1674.397090 943.046793 19.098060 0.000000 0.094271
56.000000 50.705000 2.000000 -4.000000 -4.000000 88.330846 -26.047337 1501.044983 975.909433 9.860788 0.000000 0.118686
57.000000 48.429000 5.000000 -8.000000 -8.000000 86.049257 -19.587903 1357.995114 1019.898038 20.649573 0.000000 0.136449
58.000000 45.713000 3.000000 -4.000000 -4.000000 83.249698 -13.728563 1237.940774 1072.140117 10.939161 0.000000 0.142687
60.000000 52.865000 1.000000 -7.000000 -8.000000 82.766703 -47.541519 2151.279223 1143.358245 18.916024 0.000000 0.226361
61.000000 52.858000 2.000000 -7.000000 -8.000000 82.999778 -40.096705 1881.218162 1113.763045 18.918971 0.000000 0.129550
62.000000 51.875000 3.000000 -7.000000 -8.000000 82.291118 -32.784139 1668.202710 1114.293360 19.278503 0.000000 0.108992
63.000000 50.032000 4.000000 -7.000000 -8.000000 80.737044 -25.825182 1495.884689 1136.011838 19.989592 0.000000 0.117785
64.000000 47.521000 5.000000 -7.000000 -8.000000 78.501196 -19.380814 1353.617986 1173.103559 21.047299 0.000000 0.123829
66.000000 51.296000 1.000000 -6.000000 -8.000000 74.108951 -47.309434 2141.754332 1392.904487 19.497362 0.000000 0.262889
67.000000 51.297000 1.000000 -3.000000 -4.000000 74.349501 -39.860564 1873.663725 1333.817921 9.748814 0.000000 0.161878
68.000000 50.228000 3.000000 -6.000000 -8.000000 73.677159 -32.551775 1662.043185 1314.940195 19.913725 0.000000 0.122635
69.000000 48.232000 2.000000 -3.000000 -4.000000 72.192199 -25.603327 1490.750664 1324.365588 10.369410 0.000000 0.110126
70.000000 45.540000 5.000000 -6.000000 -8.000000 70.062533 -19.174163 1349.261200 1354.339496 21.966227 0.000000 0.099990
72.000000 48.107000 1.000000 -5.000000 -8.000000 64.320764 -47.076963 2132.297094 1700.902338 20.793143 0.000000 0.321818
73.000000 48.128000 2.000000 -5.000000 -8.000000 64.576369 -39.624282 1866.156648 1605.213991 20.784901 0.000000 0.208626
74.000000 47.021000 3.000000 -5.000000 -8.000000 63.976212 -32.319516 1655.918220 1562.831313 21.275411 0.000000 0.147905
77.000000 45.774000 3.000000 -15.000000 -7.000000 129.481900 -32.075420 1649.514884 -105.389140 21.830067 0.000000 0.100408
79.000000 48.215000 2.000000 -14.000000 -7.000000 127.200701 -40.101533 1881.373157 -127.071815 20.725729 0.000000 0.185728
80.000000 47.748000 3.000000 -14.000000 -7.000000 126.357027 -31.812360 1642.652200 8.678486 20.928904 0.000000 0.073500
81.000000 46.897000 4.000000 -14.000000 -7.000000 124.619752 -24.011574 1454.457633 127.575467 21.309158 0.000000 0.024858
82.000000 45.707000 5.000000 -14.000000 -7.000000 122.134161 -16.913654 1302.283380 234.382034 21.865243 0.000000 0.066004
84.000000 50.342000 2.000000 -13.000000 -7.000000 123.759510 -39.833103 1872.788591 4.155941 19.850875 0.000000 0.153988
85.000000 49.789000 3.000000 -13.000000 -7.000000 122.855700 -31.549464 1635.832772 125.328435 20.071890 0.000000 0.045343
86.000000 48.790000 4.000000 -13.000000 -7.000000 121.025568 -23.763715 1448.888365 233.672573 20.483448 0.000000 0.036937
87.000000 47.403000 5.000000 -13.000000 -7.000000 118.427265 -16.686813 1297.633755 332.774560 21.084102 0.000000 0.085188
88.000000 45.697000 6.000000 -13.000000 -7.000000 115.246547 -10.410412 1172.739146 424.971430 21.872419 0.000000 0.118824
90.000000 52.521000 2.000000 -12.000000 -7.000000 119.878842 -39.564493 1864.265155 138.870799 19.028357 0.000000 0.121878
91.000000 51.864000 3.000000 -12.000000 -7.000000 118.913688 -31.286745 1629.056193 245.356999 19.270034 0.000000 0.016434
92.000000 50.688000 4.000000 -12.000000 -7.000000 116.989959 -23.516309 1443.350407 343.187881 19.717934 0.000000 0.057355
93.000000 49.067000 5.000000 -12.000000 -7.000000 114.280166 -16.460590 1293.007780 434.733573 20.370361 0.000000 0.104311
94.000000 47.093000 6.000000 -12.000000 -7.000000 110.984642 -10.207707 1168.805372 521.541029 21.225636 0.000000 0.134773
96.000000 54.698000 2.000000 -11.000000 -7.000000 115.479945 -39.295713 1855.802195 278.237500 18.272452 0.000000 0.091166
97.000000 53.915000 3.000000 -11.000000 -7.000000 114.453860 -31.024213 1622.322059 369.847144 18.538336 0.000000 0.012790
98.000000 52.527000 4.000000 -11.000000 -7.000000 112.438675 -23.269365 1437.843497 457.178195 19.028936 0.000000 0.079113
99.000000 50.633000 5.000000 -11.000000 -7.000000 109.622795 -16.234990 1288.405278 541.328633 19.742237 0.000000 0.122070
100.000000 48.349000 6.000000 -11.000000 -7.000000 106.222306 -10.005685 1164.889827 623.016823 20.676248 0.000000 0.148320
101.000000 45.799000 7.000000 -11.000000 -7.000000 102.444160 -4.573222 1061.090327 702.732986 21.829001 0.000000 0.162536
103.000000 56.928000 1.000000 -10.000000 -7.000000 110.406198 -47.507319 2149.870353 348.246273 17.557835 0.000000 0.219435
104.000000 56.782000 2.000000 -10.000000 -7.000000 110.467904 -39.026777 1847.399072 423.883472 17.603146 0.000000 0.066323
105.000000 55.849000 3.000000 -10.000000 -7.000000 109.383934 -30.761879 1615.629973 500.311441 17.897777 0.000000 0.040873
106.000000 54.212000 4.000000 -10.000000 -7.000000 107.283950 -23.022891 1432.367374 577.118760 18.439262 0.000000 0.099563
107.000000 52.000000 5.000000 -10.000000 -7.000000 104.373680 -16.010017 1283.826069 654.051841 19.225168 0.000000 0.136989
108.000000 49.364000 6.000000 -10.000000 -7.000000 100.885829 -9.804346 1160.992384 730.946614 20.253094 0.000000 0.158023
109.000000 46.460000 7.000000 -10.000000 -7.000000 97.040001 -4.395120 1057.724111 807.692850 21.520670 0.000000 0.167189
111.000000 58.812000 1.000000 -9.000000 -7.000000 104.683381 -47.242713 2139.031535 525.579006 16.996865 0.000000 0.194382
112.000000 58.632000 2.000000 -9.000000 -7.000000 104.729152 -38.757694 1839.055154 578.156009 17.049312 0.000000 0.057124
113.000000 57.524000 3.000000 -9.000000 -7.000000 103.594469 -30.499753 1608.979543 638.929964 17.378631 0.000000 0.066763
114.000000 55.598000 4.000000 -9.000000 -7.000000 101.423218 -22.776893 1426.921780 705.134118 17.981784 0.000000 0.116633
115.000000 53.024000 5.000000 -9.000000 -7.000000 98.439484 -15.785676 1279.269976 775.050106 18.855774 0.000000 0.147170
116.000000 50.001000 6.000000 -9.000000 -7.000000 94.892817 -9.603693 1157.112918 847.555349 19.997649 0.000000 0.161921
117.000000 46.718000 7.000000 -9.000000 -7.000000 91.014645 -4.217689 1054.372188 921.886268 21.404500 0.000000 0.165150
119.000000 60.248000 1.000000 -8.000000 -7.000000 98.096125 -46.977608 2128.280327 716.599205 16.593547 0.000000 0.181759
120.000000 60.030000 2.000000 -8.000000 -7.000000 98.129795 -38.488479 1830.769815 744.572396 16.654260 0.000000 0.069304
121.000000 58.721000 3.000000 -8.000000 -7.000000 96.957850 -30.237847 1602.370381 788.965925 17.026251 0.000000 0.088630
122.000000 56.472000 4.000000 -8.000000 -7.000000 94.739038 -22.531381 1421.506462 844.400739 17.705678 0.000000 0.127900
123.000000 53.505000 5.000000 -8.000000 -7.000000 91.715946 -15.561970 1274.736827 907.529516 18.688764 0.000000 0.150034
124.000000 50.072000 6.000000 -8.000000 -7.000000 88.153991 -9.403728 1153.251304 976.161578 19.971791 0.000000 0.157273
125.000000 46.406000 7.000000 -8.000000 -7.000000 84.294321 -4.040929 1051.034466 1048.804194 21.551103 0.000000 0.153545
126.000000 60.909000 1.000000 -7.000000 -7.000000 90.488052 -46.712014 2117.615670 927.628733 16.415785 0.000000 0.186554
127.000000 60.651000 2.000000 -7.000000 -7.000000 90.516257 -38.219141 1822.542442 928.655972 16.486057 0.000000 0.093184
128.000000 59.127000 3.000000 -7.000000 -7.000000 89.329727 -29.976171 1595.802103 955.536015 16.911786 0.000000 0.104364
129.000000 56.537000 4.000000 -7.000000 -7.000000 87.101608 -22.286360 1416.121167 999.891637 17.687965 0.000000 0.130264
130.000000 53.169000 5.000000 -7.000000 -7.000000 84.091415 -15.338904 1270.226446 1056.501585 18.809680 0.000000 0.142005
131.000000 49.337000 6.000000 -7.000000 -7.000000 80.577455 -9.204450 1149.407420 1121.944374 20.272108 0.000000 0.140173
133.000000 60.326000 1.000000 -6.000000 -7.000000 81.687552 -46.445942 2107.036524 1169.221117 16.577018 0.000000 0.211092
134.000000 60.034000 2.000000 -6.000000 -7.000000 81.720921 -37.949693 1814.372429 1139.608609 16.658161 0.000000 0.121205
135.000000 58.303000 3.000000 -6.000000 -7.000000 80.555431 -29.714735 1589.274332 1147.147149 17.153576 0.000000 0.112547
136.000000 55.392000 4.000000 -6.000000 -7.000000 78.376087 -22.041840 1410.765646 1179.857765 18.056464 0.000000 0.120301
137.000000 51.666000 5.000000 -6.000000 -7.000000 75.454800 -15.116482 1265.738665 1230.263879 19.360175 0.000000 0.118492
138.000000 47.503000 6.000000 -6.000000 -7.000000 72.076754 -9.005862 1145.581143 1293.460893 21.058202 0.000000 0.105222
140.000000 57.874000 1.000000 -5.000000 -7.000000 71.522635 -46.179401 2096.541865 1460.423645 17.282073 0.000000 0.257347
141.000000 57.568000 2.000000 -5.000000 -7.000000 71.577106 -37.680146 1806.259178 1393.991086 17.374827 0.000000 0.155705
142.000000 55.683000 3.000000 -5.000000 -7.000000 70.485231 -29.453551 1582.786695 1379.066057 17.964036 0.000000 0.117807
143.000000 52.540000 4.000000 -5.000000 -7.000000 68.437840 -21.797827 1405.439653 1399.064687 19.039946 0.000000 0.099494
144.000000 48.581000 5.000000 -5.000000 -7.000000 65.710177 -14.894708 1261.273312 1443.623611 20.593053 0.000000 0.078658
147.000000 52.530000 2.000000 -4.000000 -7.000000 59.949035 -37.410514 1798.202098 1724.927326 19.044653 0.000000 0.213985
148.000000 50.615000 3.000000 -4.000000 -7.000000 59.003084 -29.192628 1576.338821 1681.704724 19.766345 0.000000 0.148872
149.000000 47.436000 4.000000 -4.000000 -7.000000 57.198908 -21.554329 1400.142945 1686.808001 21.092315 0.000000 0.109557
153.000000 47.858000 1.000000 -5.000000 -2.000000 135.349731 -28.734364 1565.093184 -301.520979 6.959415 0.000000 0.115167
154.000000 47.002000 4.000000 -15.000000 -6.000000 133.197474 -20.017780 1367.117372 -134.599099 21.258875 0.000000 0.042377
155.000000 45.830000 5.000000 -15.000000 -6.000000 130.248442 -12.338425 1210.426344 8.358171 21.803583 0.000000 0.038979
157.000000 50.187000 3.000000 -14.000000 -6.000000 132.483699 -28.434052 1557.777071 -179.897438 19.909912 0.000000 0.090230
158.000000 49.176000 2.000000 -7.000000 -3.000000 130.203235 -19.742210 1361.263938 -25.449369 10.159945 0.000000 0.030546
159.000000 47.801000 5.000000 -14.000000 -6.000000 127.102541 -12.093854 1205.616748 108.452179 20.905438 0.000000 0.055848
160.000000 46.128000 3.000000 -7.000000 -3.000000 123.416682 -5.534458 1079.288679 227.539093 10.832659 0.000000 0.088917
163.000000 52.661000 3.000000 -13.000000 -6.000000 129.253628 -28.134142 1550.512090 -56.320317 18.975396 0.000000 0.063470
164.000000 51.460000 4.000000 -13.000000 -6.000000 126.837942 -19.467397 1355.446681 85.827754 19.419126 0.000000 0.034036
165.000000 49.840000 5.000000 -13.000000 -6.000000 123.579524 -11.850193 1200.833795 210.906226 20.051648 0.000000 0.075628
166.000000 47.885000 6.000000 -13.000000 -6.000000 119.731705 -5.322553 1075.272109 323.641109 20.871531 0.000000 0.107873
167.000000 45.687000 7.000000 -13.000000 -6.000000 115.521471 0.198197 971.276879 427.135719 21.877363 0.000000 0.129189
169.000000 56.121000 1.000000 -6.000000 -3.000000 127.025586 -37.302246 1794.983211 -79.554417 8.903015 0.000000 0.142696
170.000000 55.263000 1.000000 -4.000000 -2.000000 125.592043 -27.834650 1543.297708 69.886085 6.027707 0.000000 0.035958
171.000000 53.828000 2.000000 -6.000000 -3.000000 123.035393 -19.193350 1349.665267 199.906690 9.283038 0.000000 0.051585
172.000000 51.910000 5.000000 -12.000000 -6.000000 119.615516 -11.607446 1196.077265 316.420969 19.253200 0.000000 0.096464
173.000000 49.621000 2.000000 -4.000000 -2.000000 115.606052 -5.111563 1071.275649 423.126874 6.714274 0.000000 0.126258
174.000000 47.076000 7.000000 -12.000000 -6.000000 111.249395 0.380041 967.860876 522.455930 21.233284 0.000000 0.144349
176.000000 58.994000 2.000000 -11.000000 -6.000000 122.951689 -36.989795 1785.745395 67.547059 16.939746 0.000000 0.106998
177.000000 57.954000 3.000000 -11.000000 -6.000000 121.415870 -27.535592 1536.133397 199.639418 17.244563 0.000000 0.016211
178.000000 56.231000 4.000000 -11.000000 -6.000000 118.715028 -18.920080 1343.919365 317.703520 17.773665 0.000000 0.074100
179.000000 53.954000 5.000000 -11.000000 -6.000000 115.133978 -11.365617 1191.346939 425.948012 18.525044 0.000000 0.116979
180.000000 51.270000 6.000000 -11.000000 -6.000000 110.968728 -4.901489 1067.299148 527.009272 19.496713 0.000000 0.143015
181.000000 48.324000 7.000000 -11.000000 -6.000000 106.477896 0.561046 964.460475 622.623439 20.686709 0.000000 0.156991
183.000000 61.930000 1.000000 -5.000000 -3.000000 118.262133 -36.677268 1776.580974 219.555638 8.068960 0.000000 0.071018
184.000000 60.663000 3.000000 -10.000000 -6.000000 116.622683 -27.236983 1529.018639 334.219819 16.475771 0.000000 0.033429
185.000000 58.589000 2.000000 -5.000000 -3.000000 113.778908 -18.647595 1338.208650 440.495965 8.529977 0.000000 0.097311
186.000000 55.881000 5.000000 -10.000000 -6.000000 110.043572 -11.124709 1186.642602 540.814069 17.888041 0.000000 0.135695
187.000000 52.733000 3.000000 -5.000000 -3.000000 105.736885 -4.692331 1063.342456 636.699643 9.478821 0.000000 0.156749
188.000000 49.332000 7.000000 -10.000000 -6.000000 101.133947 0.741216 961.075568 729.159418 20.266390 0.000000 0.165675
189.000000 45.840000 4.000000 -5.000000 -3.000000 96.445428 5.314369 874.882942 818.885174 10.905978 0.000000 0.165976
190.000000 65.239000 1.000000 -9.000000 -6.000000 113.078722 -46.227140 2098.414034 278.084053 15.320354 0.000000 0.203273
191.000000 64.811000 2.000000 -9.000000 -6.000000 112.826388 -36.364685 1767.489078 378.428676 15.422018 0.000000 0.039853
192.000000 60.764000 4.000000 -9.000000 -6.000000 108.108588 -18.375904 1332.532798 570.122702 16.450958 0.000000 0.118661
193.000000 57.547000 5.000000 -9.000000 -6.000000 104.236314 -10.884725 1181.964039 662.926948 17.372219 0.000000 0.150733
194.000000 53.866000 2.000000 -3.000000 -2.000000 99.815208 -4.484087 1059.405427 754.225779 6.186913 0.000000 0.165556
195.000000 49.961000 7.000000 -9.000000 -6.000000 95.136088 0.920552 957.706051 844.247452 20.013613 0.000000 0.168427
196.000000 46.023000 8.000000 -9.000000 -6.000000 90.415943 5.468689 871.958248 933.150690 21.727988 0.000000 0.162984
198.000000 67.966000 1.000000 -8.000000 -6.000000 106.772027 -45.916832 2086.302606 474.738292 14.707294 0.000000 0.171497
199.000000 67.431000 1.000000 -4.000000 -3.000000 106.482966 -36.052065 1758.468848 547.095567 7.412114 0.000000 0.035227
200.000000 65.546000 3.000000 -8.000000 -6.000000 104.653403 -26.641172 1514.935735 626.147687 15.251602 0.000000 0.087411
201.000000 62.541000 2.000000 -4.000000 -3.000000 101.562574 -18.105016 1326.891493 709.330806 7.992793 0.000000 0.135478
202.000000 58.737000 5.000000 -8.000000 -6.000000 97.586773 -10.645668 1177.311040 795.133973 17.022417 0.000000 0.159500
203.000000 54.467000 3.000000 -4.000000 -3.000000 93.096646 -4.276758 1055.487913 882.610595 9.179196 0.000000 0.166730
204.000000 50.027000 7.000000 -8.000000 -6.000000 88.396297 1.099057 954.351818 971.138788 19.989871 0.000000 0.162445
205.000000 45.640000 4.000000 -4.000000 -3.000000 83.705450 5.622284 869.045783 1060.294255 10.956634 0.000000 0.150429
207.000000 70.110000 1.000000 -7.000000 -6.000000 99.352684 -45.605918 2074.302654 687.613854 14.259333 0.000000 0.155143
208.000000 69.451000 2.000000 -7.000000 -6.000000 99.034981 -35.739425 1749.519440 730.151460 14.395116 0.000000 0.060715
209.000000 67.168000 3.000000 -7.000000 -6.000000 97.139204 -26.344000 1507.966587 790.569720 14.885247 0.000000 0.107935
210.000000 63.587000 4.000000 -7.000000 -6.000000 93.975834 -17.834939 1321.284419 862.417900 15.724742 0.000000 0.144202
211.000000 59.141000 5.000000 -7.000000 -6.000000 89.953766 -10.407541 1172.683396 941.883020 16.908710 0.000000 0.158226
212.000000 54.257000 6.000000 -7.000000 -6.000000 85.465770 -4.070342 1051.589770 1026.569042 18.432347 0.000000 0.156300
213.000000 49.292000 7.000000 -7.000000 -6.000000 80.824290 1.276732 951.012767 1114.896590 20.290942 0.000000 0.143637
214.000000 71.118000 1.000000 -6.000000 -6.000000 90.580402 -45.294416 2062.412645 925.500760 14.059369 0.000000 0.162140
215.000000 63.418000 2.000000 -3.000000 -3.000000 85.164252 -17.565682 1315.711266 1036.508659 7.884721 0.000000 0.139756
216.000000 58.328000 5.000000 -6.000000 -6.000000 81.187002 -10.170347 1168.080900 1110.533035 17.147067 0.000000 0.141274
217.000000 52.874000 2.000000 -2.000000 -2.000000 76.806641 -3.864840 1047.710856 1193.886044 6.305861 0.000000 0.128221
218.000000 47.466000 7.000000 -6.000000 -6.000000 72.335569 1.453581 947.688793 1283.863582 21.074660 0.000000 0.105804
220.000000 70.145000 1.000000 -5.000000 -6.000000 80.185003 -44.982342 2050.631077 1204.243231 14.256953 0.000000 0.194408
221.000000 69.225000 2.000000 -5.000000 -6.000000 79.868374 -35.114162 1731.829782 1176.120338 14.447091 0.000000 0.116552
222.000000 66.099000 3.000000 -5.000000 -6.000000 77.998713 -25.751197 1494.170439 1195.026238 15.131445 0.000000 0.115707
223.000000 61.364000 4.000000 -5.000000 -6.000000 74.938918 -17.297253 1310.171726 1244.340907 16.300322 0.000000 0.115575
224.000000 55.748000 5.000000 -5.000000 -6.000000 71.142375 -9.934089 1163.503347 1314.204311 17.944280 0.000000 0.100519
225.000000 49.887000 6.000000 -5.000000 -6.000000 67.017588 -3.660249 1043.851027 1398.402986 20.054120 0.000000 0.073152
227.000000 66.014000 1.000000 -4.000000 -6.000000 67.897324 -44.669713 2038.956472 1555.614803 15.152134 0.000000 0.254686
228.000000 65.030000 1.000000 -2.000000 -3.000000 67.637691 -34.801576 1723.087909 1480.240446 7.691187 0.000000 0.150574
229.000000 61.644000 3.000000 -4.000000 -6.000000 65.928517 -25.455594 1487.342476 1473.503076 16.228466 0.000000 0.107861
230.000000 56.602000 2.000000 -2.000000 -3.000000 63.137242 -17.029659 1304.665497 1511.155327 8.837684 0.000000 0.077034
231.000000 50.767000 5.000000 -4.000000 -6.000000 59.710257 -9.698768 1158.950535 1578.793070 19.708519 0.000000 0.043798
234.000000 56.431000 2.000000 -3.000000 -6.000000 53.377631 -34.489045 1714.413612 1911.571905 17.729968 0.000000 0.235144
235.000000 53.142000 1.000000 -1.000000 -2.000000 51.984167 -25.160543 1480.560622 1870.569850 6.276252 0.000000 0.170704
236.000000 48.298000 4.000000 -3.000000 -6.000000 49.677396 -16.762909 1299.192280 1895.034541 20.718328 0.000000 0.147381
238.000000 46.452000 4.000000 -16.000000 -5.000000 140.925472 -14.850267 1260.379622 -430.389376 21.508798 0.000000 0.059617
241.000000 48.759000 4.000000 -15.000000 -5.000000 138.471087 -14.544763 1254.245912 -314.530664 20.491607 0.000000 0.045979
242.000000 47.438000 2.000000 -6.000000 -2.000000 134.826717 -6.391240 1095.559120 -135.494139 8.425332 0.000000 0.024183
243.000000 45.842000 6.000000 -15.000000 -5.000000 130.632771 0.298429 969.393994 17.423335 21.797828 0.000000 0.050107
246.000000 51.244000 4.000000 -14.000000 -5.000000 135.715049 -14.240516 1248.154292 -197.483130 19.498789 0.000000 0.033130
247.000000 49.681000 5.000000 -14.000000 -5.000000 131.869523 -6.132666 1090.643358 -29.223094 20.113364 0.000000 0.039697
248.000000 47.809000 6.000000 -14.000000 -5.000000 127.472283 0.515029 965.324988 115.923941 20.902015 0.000000 0.069161
249.000000 45.710000 7.000000 -14.000000 -5.000000 122.774978 5.927967 863.244820 244.315226 21.863522 0.000000 0.091262
251.000000 55.324000 3.000000 -13.000000 -5.000000 135.776131 -23.561164 1444.352894 -265.431036 18.060541 0.000000 0.078027
252.000000 53.908000 4.000000 -13.000000 -5.000000 132.602253 -13.937537 1242.104330 -78.805631 18.535933 0.000000 0.029198
253.000000 52.047000 5.000000 -13.000000 -5.000000 128.543211 -5.875412 1085.757399 79.022674 19.199817 0.000000 0.059456
254.000000 49.842000 6.000000 -13.000000 -5.000000 123.934279 0.730434 961.278136 216.766353 20.050766 0.000000 0.089250
255.000000 47.395000 7.000000 -13.000000 -5.000000 119.043654 6.108046 859.824450 339.915534 21.087369 0.000000 0.109562
258.000000 58.458000 3.000000 -12.000000 -5.000000 132.443558 -23.216875 1436.675593 -130.025677 17.093065 0.000000 0.053408
259.000000 56.743000 4.000000 -12.000000 -5.000000 129.064583 -13.635832 1236.095601 42.086521 17.610477 0.000000 0.041717
260.000000 54.515000 5.000000 -12.000000 -5.000000 124.781131 -5.619477 1080.900972 189.871755 18.331706 0.000000 0.081367
261.000000 51.905000 6.000000 -12.000000 -5.000000 119.955129 0.944650 957.253259 320.640237 19.255084 0.000000 0.109610
262.000000 49.047000 7.000000 -12.000000 -5.000000 114.872671 6.287118 856.420939 439.005489 20.378959 0.000000 0.127141
263.000000 46.061000 8.000000 -12.000000 -5.000000 109.739604 10.649081 772.622583 548.023230 21.701697 0.000000 0.136617
265.000000 63.153000 2.000000 -11.000000 -5.000000 130.862603 -33.811051 1695.816888 -179.606610 15.822614 0.000000 0.130378
266.000000 61.815000 3.000000 -11.000000 -5.000000 128.613568 -22.873502 1429.058032 8.023856 16.165648 0.000000 0.031338
267.000000 59.724000 4.000000 -11.000000 -5.000000 125.017399 -13.335413 1230.127685 165.986364 16.732542 0.000000 0.063631
268.000000 57.040000 5.000000 -11.000000 -5.000000 120.501878 -5.364860 1076.073810 304.177088 17.521293 0.000000 0.104099
269.000000 53.940000 6.000000 -11.000000 -5.000000 115.458699 1.157679 953.250177 428.481367 18.529918 0.000000 0.129251
270.000000 50.596000 7.000000 -11.000000 -5.000000 110.192871 6.465187 853.034162 542.619326 19.756463 0.000000 0.142957
271.000000 47.158000 8.000000 -11.000000 -5.000000 104.919490 10.798767 769.709883 649.058243 21.198993 0.000000 0.148385
273.000000 67.022000 2.000000 -10.000000 -5.000000 126.601037 -33.440089 1685.766291 -16.930264 14.910044 0.000000 0.092085
274.000000 65.358000 3.000000 -10.000000 -5.000000 124.177161 -22.531065 1421.499518 149.786336 15.290249 0.000000 0.031116
275.000000 62.792000 4.000000 -10.000000 -5.000000 120.355163 -13.036285 1224.200166 293.998645 15.916268 0.000000 0.088773
276.000000 55.856000 6.000000 -10.000000 -5.000000 110.354285 1.369526 949.268714 541.592881 17.896111 0.000000 0.146846
277.000000 51.946000 7.000000 -10.000000 -5.000000 104.924119 6.642258 849.663997 652.196494 19.245191 0.000000 0.155626
278.000000 47.997000 8.000000 -10.000000 -5.000000 99.538336 10.947634 766.810269 756.797445 20.830602 0.000000 0.156133
280.000000 71.086000 2.000000 -9.000000 -5.000000 121.600903 -33.069318 1675.806410 150.838525 14.058745 0.000000 0.051254
281.000000 69.002000 3.000000 -9.000000 -5.000000 118.995608 -22.189586 1413.999367 296.798112 14.484109 0.000000 0.055734
282.000000 65.835000 4.000000 -9.000000 -5.000000 114.946219 -12.738459 1218.312637 427.711457 15.182018 0.000000 0.114043
283.000000 61.897000 5.000000 -9.000000 -5.000000 109.972791 -4.859584 1066.506229 548.428481 16.149497 0.000000 0.146056
284.000000 57.509000 6.000000 -9.000000 -5.000000 104.534880 1.580195 945.308696 661.846062 17.383613 0.000000 0.160571
285.000000 52.952000 7.000000 -9.000000 -5.000000 98.975000 6.818336 846.310322 769.802315 18.881477 0.000000 0.163257
286.000000 48.445000 8.000000 -9.000000 -5.000000 93.520628 11.095684 763.923651 873.520691 20.640241 0.000000 0.157946
287.000000 76.177000 1.000000 -8.000000 -5.000000 116.490401 -44.433081 2030.203284 189.818072 13.119857 0.000000 0.185016
288.000000 75.195000 2.000000 -8.000000 -5.000000 115.677849 -32.698770 1665.936022 326.075087 13.291641 0.000000 0.010642
289.000000 72.572000 3.000000 -8.000000 -5.000000 112.892287 -21.849084 1406.556904 451.353622 13.773036 0.000000 0.085214
290.000000 68.655000 4.000000 -8.000000 -5.000000 108.627101 -12.441940 1212.464693 569.495270 14.560230 0.000000 0.136662
291.000000 63.883000 5.000000 -8.000000 -5.000000 103.456747 -4.608923 1061.765293 682.628306 15.649473 0.000000 0.160993
292.000000 58.686000 6.000000 -8.000000 -5.000000 97.876508 1.789690 941.369950 792.028931 17.037077 0.000000 0.167831
293.000000 53.418000 7.000000 -8.000000 -5.000000 92.243927 6.993427 842.973015 898.510425 18.719414 0.000000 0.163178
294.000000 48.328000 8.000000 -8.000000 -5.000000 86.786193 11.242924 761.049944 1002.616840 20.692912 0.000000 0.151186
296.000000 80.316000 1.000000 -7.000000 -5.000000 109.489593 -44.058665 2016.497108 410.940340 12.445232 0.000000 0.143797
297.000000 79.052000 2.000000 -7.000000 -5.000000 108.593713 -32.328476 1656.153926 512.499151 12.644725 0.000000 0.033730
298.000000 75.747000 3.000000 -7.000000 -5.000000 105.643871 -21.509579 1399.171467 617.043136 13.197478 0.000000 0.112114
299.000000 70.913000 4.000000 -7.000000 -5.000000 101.197611 -12.146736 1206.655938 723.055264 14.098530 0.000000 0.153031
300.000000 65.168000 5.000000 -7.000000 -5.000000 95.886962 -4.359580 1057.052586 829.701311 15.343008 0.000000 0.167394
301.000000 59.080000 6.000000 -7.000000 -5.000000 90.240079 1.998015 937.452305 936.487382 16.926133 0.000000 0.164795
302.000000 53.075000 7.000000 -7.000000 -5.000000 84.622844 7.167535 839.651958 1043.104708 18.843213 0.000000 0.151519
303.000000 47.426000 8.000000 -7.000000 -5.000000 79.254703 11.389357 758.189059 1149.352230 21.089642 0.000000 0.132252
305.000000 83.709000 1.000000 -6.000000 -5.000000 101.007871 -43.683530 2002.937406 651.489772 11.942451 0.000000 0.122066
306.000000 82.095000 2.000000 -6.000000 -5.000000 100.044888 -31.958466 1646.458943 716.292219 12.177914 0.000000 0.070611
307.000000 77.962000 3.000000 -6.000000 -5.000000 96.973535 -21.171091 1391.842403 799.823767 12.824625 0.000000 0.130845
308.000000 72.063000 4.000000 -6.000000 -5.000000 92.419696 -11.852854 1200.885978 894.528404 13.875856 0.000000 0.157770
309.000000 65.256000 5.000000 -6.000000 -5.000000 87.070583 -4.111552 1052.367856 996.218858 15.325027 0.000000 0.159565
310.000000 58.265000 6.000000 -6.000000 -5.000000 81.478179 2.205175 933.555591 1102.391856 17.165697 0.000000 0.145560
311.000000 51.582000 7.000000 -6.000000 -5.000000 76.005243 7.340665 836.347031 1211.462398 19.391564 0.000000 0.122574
312.000000 45.478000 8.000000 -6.000000 -5.000000 70.853535 11.534988 755.340913 1322.380927 21.996462 0.000000 0.096944
313.000000 85.350000 1.000000 -5.000000 -5.000000 90.650659 -43.307708 1989.521840 924.202685 11.714939 0.000000 0.133750
314.000000 83.336000 2.000000 -5.000000 -5.000000 89.657584 -31.588771 1636.849914 948.551187 11.998890 0.000000 0.098659
315.000000 78.281000 3.000000 -5.000000 -5.000000 86.553105 -20.833638 1384.569070 1010.362887 12.774872 0.000000 0.133837
316.000000 71.269000 4.000000 -5.000000 -5.000000 82.026591 -11.560301 1195.154426 1094.875413 14.033254 0.000000 0.142315
317.000000 55.699000 6.000000 -5.000000 -5.000000 71.450378 2.411173 929.679641 1302.479867 17.959929 0.000000 0.100632
318.000000 48.541000 7.000000 -5.000000 -5.000000 66.300560 7.512823 833.058119 1417.538401 20.610174 0.000000 0.069067
320.000000 83.551000 1.000000 -4.000000 -5.000000 77.958380 -42.931229 1976.248127 1254.574898 11.969950 0.000000 0.177260
321.000000 81.166000 2.000000 -4.000000 -5.000000 77.006555 -31.219420 1627.325701 1231.406607 12.322540 0.000000 0.115204
322.000000 75.279000 3.000000 -4.000000 -5.000000 74.028997 -20.497239 1377.350833 1269.852996 13.287501 0.000000 0.111699
323.000000 67.365000 4.000000 -4.000000 -5.000000 69.753876 -11.269082 1189.460899 1345.787412 14.849908 0.000000 0.093737
324.000000 58.867000 5.000000 -4.000000 -5.000000 64.917579 -3.619441 1043.081339 1445.777304 16.995320 0.000000 0.057885
325.000000 50.764000 6.000000 -4.000000 -5.000000 60.051201 2.616015 925.824291 1561.763985 19.709755 0.000000 0.016904
327.000000 75.827000 1.000000 -3.000000 -5.000000 62.480031 -42.554124 1963.114027 1702.241699 13.192506 0.000000 0.259538
328.000000 73.299000 2.000000 -3.000000 -5.000000 61.690396 -30.850445 1617.885187 1616.307632 13.648590 0.000000 0.147449
329.000000 67.079000 3.000000 -3.000000 -5.000000 59.097532 -20.161913 1370.187069 1627.264492 14.915512 0.000000 0.093916
330.000000 58.973000 4.000000 -3.000000 -5.000000 55.408606 -10.979203 1183.805022 1697.086241 16.967105 0.000000 0.065554
331.000000 50.594000 5.000000 -3.000000 -5.000000 51.306337 -3.375354 1038.479063 1804.576987 19.778314 0.000000 0.087946
335.000000 51.876000 3.000000 -2.000000 -5.000000 41.656753 -19.827676 1363.077164 2227.086561 19.290462 0.000000 0.275914
338.000000 46.482000 5.000000 -16.000000 -4.000000 141.465791 0.714434 961.578757 -410.535403 21.494561 0.000000 0.009461
341.000000 48.788000 5.000000 -15.000000 -4.000000 138.993766 0.980372 956.582032 -297.044132 20.479328 0.000000 0.001569
342.000000 47.043000 6.000000 -15.000000 -4.000000 134.073178 7.451610 834.227814 -109.900269 21.240242 0.000000 0.025442
344.000000 53.017000 2.000000 -7.000000 -2.000000 140.940521 -7.043440 1107.980712 -395.380230 9.422752 0.000000 0.026783
345.000000 51.270000 5.000000 -14.000000 -4.000000 136.218938 1.244483 951.618870 -182.357102 19.488672 0.000000 0.016072
346.000000 49.211000 3.000000 -7.000000 -2.000000 131.047203 7.663156 830.184006 -4.611325 10.152832 0.000000 0.041467
347.000000 46.927000 7.000000 -14.000000 -4.000000 125.696807 12.664399 733.149226 148.412149 21.295259 0.000000 0.060561
350.000000 56.027000 4.000000 -13.000000 -4.000000 138.086521 -6.716310 1101.746148 -266.266989 17.833466 0.000000 0.018401
351.000000 53.930000 5.000000 -13.000000 -4.000000 133.086196 1.506772 946.688934 -66.040302 18.528209 0.000000 0.034729
352.000000 51.485000 6.000000 -13.000000 -4.000000 127.648838 7.873235 826.164255 102.777920 19.409724 0.000000 0.060901
353.000000 48.806000 7.000000 -13.000000 -4.000000 122.062815 12.834417 729.791957 249.539475 20.476601 0.000000 0.079515
354.000000 46.001000 8.000000 -13.000000 -4.000000 116.516251 16.754830 650.973244 380.190239 21.727447 0.000000 0.092095
356.000000 61.299000 3.000000 -12.000000 -4.000000 139.263066 -16.827774 1300.521780 -364.583180 16.299389 0.000000 0.060863
357.000000 56.760000 5.000000 -12.000000 -4.000000 129.527492 1.767250 941.791893 52.481125 17.605408 0.000000 0.056453
358.000000 53.839000 3.000000 -6.000000 -2.000000 123.812244 8.081857 822.168347 212.919514 9.280978 0.000000 0.082131
359.000000 50.686000 7.000000 -12.000000 -4.000000 117.987504 13.003299 726.452612 353.972149 19.718660 0.000000 0.098920
360.000000 47.431000 2.000000 -3.000000 -1.000000 112.249508 16.893578 648.128563 480.829036 5.268473 0.000000 0.108931
362.000000 65.302000 3.000000 -11.000000 -4.000000 135.824732 -16.433607 1292.456729 -213.914313 15.301025 0.000000 0.041033
363.000000 62.826000 4.000000 -11.000000 -4.000000 131.074929 -6.068229 1089.419085 -2.368263 15.905004 0.000000 0.044349
364.000000 59.732000 5.000000 -11.000000 -4.000000 125.458384 2.025923 936.927417 173.986210 16.730424 0.000000 0.080310
365.000000 56.226000 6.000000 -11.000000 -4.000000 119.457524 8.289031 818.196070 326.697507 17.775309 0.000000 0.103935
366.000000 52.503000 7.000000 -11.000000 -4.000000 113.397866 13.171054 723.131047 462.711694 19.037710 0.000000 0.117582
367.000000 48.726000 8.000000 -11.000000 -4.000000 107.482515 17.031452 645.297655 586.458046 20.515696 0.000000 0.123964
369.000000 69.679000 3.000000 -10.000000 -4.000000 131.808758 -16.041328 1284.462774 -60.614462 14.340525 0.000000 0.029848
370.000000 66.588000 2.000000 -5.000000 -2.000000 126.721348 -5.747279 1083.325510 134.074792 7.503763 0.000000 0.070230
371.000000 62.788000 5.000000 -10.000000 -4.000000 120.773747 2.282799 932.095183 299.559023 15.917421 0.000000 0.105077
372.000000 58.562000 3.000000 -5.000000 -2.000000 114.487859 8.494768 814.247217 445.342149 8.533915 0.000000 0.124942
373.000000 54.162000 7.000000 -10.000000 -4.000000 108.208030 13.337691 719.827121 577.151324 18.456407 0.000000 0.134094
374.000000 49.786000 4.000000 -5.000000 -2.000000 102.141684 17.168459 642.480421 698.644230 10.040416 0.000000 0.135805
375.000000 45.574000 9.000000 -10.000000 -4.000000 96.402702 20.248777 577.960179 812.267003 21.938818 0.000000 0.132585
377.000000 77.110000 2.000000 -9.000000 -4.000000 130.918060 -28.284045 1554.138222 -118.390683 12.958640 0.000000 0.077045
378.000000 74.406000 3.000000 -9.000000 -4.000000 127.069841 -15.650963 1276.538980 96.586955 13.430424 0.000000 0.045639
379.000000 70.509000 4.000000 -9.000000 -4.000000 121.625272 -5.428391 1077.277871 275.218868 14.174123 0.000000 0.098411
380.000000 65.815000 5.000000 -9.000000 -4.000000 115.342701 2.537888 927.294872 430.755839 15.186772 0.000000 0.129089
381.000000 60.711000 6.000000 -9.000000 -4.000000 108.786636 8.699077 810.321579 570.618914 16.465448 0.000000 0.143370
382.000000 55.519000 7.000000 -9.000000 -4.000000 102.318253 13.503217 716.540693 699.289024 18.007272 0.000000 0.146625
383.000000 50.474000 8.000000 -9.000000 -4.000000 96.144788 17.304605 639.676763 819.632843 19.809403 0.000000 0.142652
384.000000 45.725000 9.000000 -9.000000 -4.000000 90.370784 20.362516 575.531063 933.570504 21.869046 0.000000 0.134418
386.000000 79.384000 3.000000 -8.000000 -4.000000 121.415907 -15.262532 1268.684425 259.583226 12.589481 0.000000 0.076021
387.000000 68.614000 5.000000 -8.000000 -4.000000 109.003148 2.791198 922.526167 569.895736 14.568879 0.000000 0.149989
388.000000 62.458000 3.000000 -4.000000 -2.000000 102.215235 8.901967 806.418953 705.156511 8.003400 0.000000 0.156737
389.000000 56.367000 7.000000 -8.000000 -4.000000 95.615181 13.667641 713.271626 832.096660 17.738695 0.000000 0.152657
390.000000 50.604000 4.000000 -4.000000 -2.000000 89.402776 17.439897 636.886582 952.759762 9.880505 0.000000 0.142118
391.000000 88.968000 2.000000 -7.000000 -4.000000 119.103675 -27.386231 1532.569856 266.227364 11.233470 0.000000 0.021273
392.000000 84.368000 3.000000 -7.000000 -4.000000 114.592084 -14.876057 1260.898208 431.331541 11.847080 0.000000 0.108779
393.000000 78.048000 4.000000 -7.000000 -4.000000 108.432786 -4.796795 1065.318335 581.019567 12.807941 0.000000 0.150364
394.000000 70.849000 5.000000 -7.000000 -4.000000 101.557183 3.042737 917.788759 720.595857 14.111203 0.000000 0.164288
395.000000 63.477000 6.000000 -7.000000 -4.000000 94.613003 9.103449 802.539137 853.049785 15.752107 0.000000 0.161419
396.000000 56.416000 7.000000 -7.000000 -4.000000 87.974719 13.830972 710.019781 980.197021 17.725981 0.000000 0.148629
397.000000 49.936000 8.000000 -7.000000 -4.000000 81.824043 17.574341 634.109781 1103.206188 20.028240 0.000000 0.131154
398.000000 88.844000 3.000000 -6.000000 -4.000000 106.261826 -14.491558 1253.179440 616.731010 11.251999 0.000000 0.137277
399.000000 71.979000 5.000000 -6.000000 -4.000000 92.770441 3.292515 913.082340 888.830897 13.892193 0.000000 0.166561
400.000000 63.293000 3.000000 -3.000000 -2.000000 85.802180 9.303532 798.681932 1021.049927 7.900349 0.000000 0.151916
401.000000 55.280000 7.000000 -6.000000 -4.000000 79.269616 13.993217 706.785024 1151.196846 18.093067 0.000000 0.129585
402.000000 48.176000 4.000000 -3.000000 -2.000000 73.322492 17.707943 631.346265 1279.480717 10.381584 0.000000 0.107072
403.000000 81.726000 4.000000 -5.000000 -4.000000 89.402615 -4.173436 1053.536429 952.252055 12.236035 0.000000 0.163282
404.000000 71.177000 5.000000 -5.000000 -4.000000 82.381745 3.540540 908.406606 1085.232646 14.051504 0.000000 0.147872
405.000000 61.258000 6.000000 -5.000000 -4.000000 75.602514 9.502225 794.847140 1221.138797 16.328893 0.000000 0.119756
406.000000 52.487000 7.000000 -5.000000 -4.000000 69.384573 14.154386 703.567219 1358.560181 19.059351 0.000000 0.090755
407.000000 67.301000 5.000000 -4.000000 -4.000000 70.134401 3.786821 903.761259 1330.733268 14.864144 0.000000 0.092650
408.000000 56.580000 3.000000 -2.000000 -2.000000 63.861975 9.699539 791.034568 1476.816740 8.841275 0.000000 0.057068
409.000000 47.524000 7.000000 -4.000000 -4.000000 58.241716 14.314485 700.366234 1628.593873 21.053510 0.000000 0.067166
410.000000 84.818000 3.000000 -3.000000 -4.000000 67.482331 -13.350104 1230.419176 1399.597110 11.794701 0.000000 0.083989
411.000000 71.472000 4.000000 -3.000000 -4.000000 61.677146 -3.558296 1041.928226 1522.199099 13.998799 0.000000 0.032610
412.000000 59.009000 5.000000 -3.000000 -4.000000 55.844487 4.031369 899.146004 1673.039120 16.956914 0.000000 0.036602
413.000000 48.470000 6.000000 -3.000000 -4.000000 50.509235 9.895483 787.244021 1841.331541 20.645299 0.000000 0.114450
414.000000 85.828000 1.000000 -2.000000 -4.000000 53.618781 -39.387868 1858.696489 1967.007281 11.656893 0.000000 0.289411
415.000000 68.379000 3.000000 -2.000000 -4.000000 48.308753 -12.973691 1222.961625 1924.760526 14.634466 0.000000 0.149732
416.000000 56.076000 2.000000 -1.000000 -2.000000 43.866511 -3.253802 1036.188066 2062.552499 8.923192 0.000000 0.200488
423.000000 45.772000 6.000000 -16.000000 -3.000000 139.434960 15.563692 675.228318 -364.141781 21.828560 0.000000 0.053038
426.000000 47.949000 2.000000 -5.000000 -1.000000 136.831498 15.758548 671.280274 -251.209917 6.946077 0.000000 0.040607
427.000000 45.865000 7.000000 -15.000000 -3.000000 131.131993 20.033110 582.556408 -59.505999 21.786458 0.000000 0.030701
430.000000 52.500000 5.000000 -14.000000 -3.000000 139.866805 10.263370 780.114908 -356.398124 19.031018 0.000000 0.032127
431.000000 50.272000 6.000000 -14.000000 -3.000000 133.916302 15.951752 667.358200 -136.834777 19.875919 0.000000 0.029455
432.000000 47.829000 7.000000 -14.000000 -3.000000 127.953990 20.184839 579.324129 46.565484 20.893176 0.000000 0.026642
435.000000 55.397000 5.000000 -13.000000 -3.000000 136.903100 10.513819 775.252132 -228.919747 18.036424 0.000000 0.023207
436.000000 52.737000 6.000000 -13.000000 -3.000000 130.634488 16.143321 663.461841 -20.534176 18.948006 0.000000 0.028344
437.000000 49.856000 7.000000 -13.000000 -3.000000 124.398061 20.335390 576.110725 155.118969 20.044663 0.000000 0.037547
438.000000 46.867000 8.000000 -13.000000 -3.000000 118.345755 23.546529 505.974279 307.629044 21.325003 0.000000 0.048467
439.000000 61.349000 4.000000 -12.000000 -3.000000 139.941545 3.076268 917.157085 -340.870369 16.286165 0.000000 0.008451
440.000000 58.523000 5.000000 -12.000000 -3.000000 133.525096 10.762002 770.425563 -99.563619 17.073837 0.000000 0.025569
441.000000 55.324000 2.000000 -4.000000 -1.000000 126.918946 16.333273 659.590945 98.330397 6.020990 0.000000 0.042058
442.000000 51.912000 7.000000 -12.000000 -3.000000 120.400865 20.484774 572.916032 266.893063 19.251925 0.000000 0.056163
443.000000 48.428000 8.000000 -12.000000 -3.000000 114.127114 23.667059 503.277683 414.671277 20.639073 0.000000 0.067425
446.000000 65.346000 4.000000 -11.000000 -3.000000 136.473044 3.405012 910.961851 -194.113281 15.290489 0.000000 0.014668
447.000000 61.867000 5.000000 -11.000000 -3.000000 129.646946 11.007940 765.634799 32.408101 16.151879 0.000000 0.043144
448.000000 57.994000 6.000000 -11.000000 -3.000000 122.687370 16.521622 655.745263 220.623797 17.232331 0.000000 0.063066
449.000000 53.939000 7.000000 -11.000000 -3.000000 115.886730 20.633003 569.739887 382.888484 18.529898 0.000000 0.076870
450.000000 49.873000 8.000000 -11.000000 -3.000000 109.403337 23.786738 500.595209 526.714179 20.042656 0.000000 0.085899
451.000000 45.924000 9.000000 -11.000000 -3.000000 103.315480 26.268610 443.795728 656.931760 21.768706 0.000000 0.091464
453.000000 73.327000 3.000000 -10.000000 -3.000000 139.079253 -6.825125 1103.819027 -309.460756 13.625915 0.000000 0.020485
454.000000 69.715000 4.000000 -10.000000 -3.000000 132.424503 3.730715 904.819756 -44.724992 14.333046 0.000000 0.037615
455.000000 65.391000 5.000000 -10.000000 -3.000000 125.160180 11.251655 760.879443 168.020658 15.282576 0.000000 0.067489
456.000000 60.676000 6.000000 -10.000000 -3.000000 117.838750 16.708385 651.924550 347.548550 16.472132 0.000000 0.086282
457.000000 55.844000 7.000000 -10.000000 -3.000000 110.765689 20.780088 566.582129 504.496542 17.899373 0.000000 0.097073
458.000000 51.104000 8.000000 -10.000000 -3.000000 104.097310 23.905574 497.926746 645.344312 19.561988 0.000000 0.102263
459.000000 46.594000 9.000000 -10.000000 -3.000000 97.902158 26.366798 441.500039 774.264940 21.457695 0.000000 0.103995
461.000000 74.428000 4.000000 -9.000000 -3.000000 127.650832 4.053398 898.730120 108.537308 13.426438 0.000000 0.066129
462.000000 69.006000 5.000000 -9.000000 -3.000000 119.927259 11.493168 756.159103 308.744073 14.483215 0.000000 0.094174
463.000000 57.485000 7.000000 -9.000000 -3.000000 104.931851 20.926040 563.442599 633.711390 17.390178 0.000000 0.114689
464.000000 51.979000 8.000000 -9.000000 -3.000000 98.121901 24.023575 495.272184 772.834009 19.234663 0.000000 0.114811
465.000000 46.865000 3.000000 -3.000000 -1.000000 91.871847 26.464355 439.215246 901.707703 7.112028 0.000000 0.112252
466.000000 89.899000 2.000000 -8.000000 -3.000000 135.875154 -20.294099 1373.007322 -242.129390 11.114472 0.000000 0.059077
467.000000 85.409000 3.000000 -8.000000 -3.000000 129.696834 -5.961017 1087.382757 42.686351 11.699871 0.000000 0.052557
468.000000 79.383000 4.000000 -8.000000 -3.000000 121.960673 4.373083 892.692272 267.522757 12.589482 0.000000 0.097412
469.000000 72.537000 5.000000 -8.000000 -3.000000 113.773894 11.732501 751.473394 456.766560 13.779586 0.000000 0.120249
470.000000 65.481000 6.000000 -8.000000 -3.000000 105.769890 17.077217 644.357063 623.030935 15.266520 0.000000 0.128343
471.000000 58.651000 7.000000 -8.000000 -3.000000 98.262898 21.070871 560.321139 773.497548 17.046685 0.000000 0.127304
472.000000 52.307000 8.000000 -8.000000 -3.000000 91.381418 24.140747 492.631415 912.557750 19.116536 0.000000 0.121520
473.000000 46.573000 9.000000 -8.000000 -3.000000 85.152451 26.561286 436.941274 1043.049136 21.472586 0.000000 0.115005
474.000000 84.336000 4.000000 -7.000000 -3.000000 115.100847 4.689792 886.705556 435.113804 11.851596 0.000000 0.128243
475.000000 75.664000 5.000000 -7.000000 -3.000000 106.481012 11.969674 746.821937 615.497828 13.211928 0.000000 0.142209
476.000000 67.062000 6.000000 -7.000000 -3.000000 98.222040 17.259318 640.609814 778.148040 14.908916 0.000000 0.141058
477.000000 59.036000 7.000000 -7.000000 -3.000000 90.622117 21.214591 557.217595 928.463576 16.937907 0.000000 0.131784
478.000000 51.833000 8.000000 -7.000000 -3.000000 83.775625 24.257100 490.004333 1069.753815 19.294336 0.000000 0.120224
479.000000 45.517000 9.000000 -7.000000 -3.000000 77.673630 26.657596 434.678044 1204.162232 21.973719 0.000000 0.112238
480.000000 88.769000 4.000000 -6.000000 -3.000000 106.738334 5.003546 880.769325 616.072966 11.261475 0.000000 0.153769
481.000000 77.828000 5.000000 -6.000000 -3.000000 97.779172 12.204708 742.204358 790.564524 12.846715 0.000000 0.154927
482.000000 58.223000 7.000000 -6.000000 -3.000000 81.865338 21.357213 554.131811 1106.187472 17.177361 0.000000 0.124316
483.000000 50.237000 8.000000 -6.000000 -3.000000 75.207824 24.372640 487.390830 1253.018849 19.910423 0.000000 0.110428
484.000000 78.115000 5.000000 -5.000000 -3.000000 87.352288 12.437626 737.620287 991.968554 12.802180 0.000000 0.150229
485.000000 65.982000 6.000000 -5.000000 -3.000000 79.096599 17.618968 633.187138 1158.532190 15.158398 0.000000 0.124632
486.000000 55.678000 7.000000 -5.000000 -3.000000 71.856250 21.498745 551.063637 1320.070676 17.965832 0.000000 0.103523
487.000000 47.153000 8.000000 -5.000000 -3.000000 65.598748 24.487376 484.790801 1477.515248 21.215905 0.000000 0.103529
488.000000 75.147000 5.000000 -4.000000 -3.000000 74.864972 12.668447 733.069361 1239.376332 13.310884 0.000000 0.114952
489.000000 61.646000 6.000000 -4.000000 -3.000000 67.107533 17.796547 629.511254 1418.318489 16.228180 0.000000 0.086294
490.000000 50.799000 7.000000 -4.000000 -3.000000 60.494005 21.639200 548.012921 1596.267005 19.695188 0.000000 0.098223
491.000000 84.737000 4.000000 -3.000000 -3.000000 67.980760 5.927313 863.257232 1378.611191 11.806048 0.000000 0.079224
492.000000 67.141000 5.000000 -3.000000 -3.000000 60.037128 12.897192 728.551222 1577.527447 14.901955 0.000000 0.056626
493.000000 53.443000 2.000000 -1.000000 -1.000000 53.319241 17.972650 625.858706 1783.808680 6.241002 0.000000 0.119468
494.000000 89.685000 3.000000 -2.000000 -3.000000 56.035079 -3.456570 1040.010143 1667.332644 11.156915 0.000000 0.032759
495.000000 68.572000 4.000000 -2.000000 -3.000000 48.914930 6.229480 857.516685 1884.991598 14.593393 0.000000 0.126480
496.000000 52.408000 5.000000 -2.000000 -3.000000 42.788986 13.123882 724.065517 2134.923961 19.095074 0.000000 0.239898
506.000000 46.335000 7.000000 -15.000000 -2.000000 132.520209 28.212811 397.586197 -178.998973 21.565176 0.000000 0.087575
509.000000 50.946000 3.000000 -7.000000 -1.000000 135.848515 25.250747 467.369517 -284.777962 9.806220 0.000000 0.088755
510.000000 48.374000 7.000000 -14.000000 -2.000000 129.389362 28.335053 394.625586 -63.040411 20.656931 0.000000 0.065179
511.000000 45.690000 4.000000 -7.000000 -1.000000 123.193894 30.637008 337.542633 122.621609 10.936165 0.000000 0.039847
514.000000 53.534000 6.000000 -13.000000 -2.000000 132.644384 25.407715 463.760292 -156.384935 18.665215 0.000000 0.066925
515.000000 50.493000 7.000000 -13.000000 -2.000000 125.882080 28.456232 391.683994 55.409993 19.791158 0.000000 0.041066
516.000000 47.364000 8.000000 -13.000000 -2.000000 119.442569 30.733946 335.080449 234.217489 21.100503 0.000000 0.015717
519.000000 59.700000 5.000000 -12.000000 -2.000000 136.388427 21.358193 554.110572 -272.075131 16.736524 0.000000 0.066328
520.000000 56.273000 3.000000 -6.000000 -1.000000 129.010461 25.563138 460.177324 -25.501881 8.878832 0.000000 0.043020
521.000000 52.659000 7.000000 -12.000000 -2.000000 121.934115 28.576361 388.761238 177.120894 18.978289 0.000000 0.016659
522.000000 49.002000 4.000000 -6.000000 -1.000000 115.252109 30.830136 332.632343 349.795376 10.198390 0.000000 0.008811
524.000000 67.107000 4.000000 -11.000000 -2.000000 140.634206 15.465640 677.212160 -420.185970 14.888437 0.000000 0.058683
525.000000 63.302000 5.000000 -11.000000 -2.000000 132.650136 21.566107 549.601266 -125.074401 15.785103 0.000000 0.044077
526.000000 59.131000 6.000000 -11.000000 -2.000000 124.863172 25.717037 456.620330 108.759698 16.900431 0.000000 0.021038
527.000000 54.817000 7.000000 -11.000000 -2.000000 117.468309 28.695452 385.857138 303.132994 18.232479 0.000000 0.015021
528.000000 50.536000 8.000000 -11.000000 -2.000000 110.554091 30.925586 330.198197 470.550256 19.779329 0.000000 0.032882
529.000000 46.412000 9.000000 -11.000000 -2.000000 104.151051 32.653135 285.273893 618.694171 21.539085 0.000000 0.051051
531.000000 67.154000 5.000000 -10.000000 -2.000000 128.311271 21.771696 545.129622 25.335016 14.880479 0.000000 0.025805
532.000000 62.043000 3.000000 -5.000000 -1.000000 120.099137 25.869431 453.089027 247.633954 8.054174 0.000000 0.024716
533.000000 56.877000 7.000000 -10.000000 -2.000000 112.392335 28.813517 382.971516 434.892279 17.573426 0.000000 0.039597
534.000000 51.867000 4.000000 -5.000000 -1.000000 105.269450 31.020306 327.777890 598.142015 9.636705 0.000000 0.055654
535.000000 47.145000 9.000000 -10.000000 -2.000000 98.745676 32.731261 283.201808 744.172553 21.206024 0.000000 0.070317
537.000000 82.531000 3.000000 -9.000000 -2.000000 141.414866 6.808079 846.505760 -417.547628 12.105991 0.000000 0.024858
538.000000 77.232000 4.000000 -9.000000 -2.000000 132.325098 16.047740 665.406822 -78.960732 12.938127 0.000000 0.026925
539.000000 71.190000 5.000000 -9.000000 -2.000000 123.230715 21.974995 540.695169 180.625094 14.037999 0.000000 0.034610
540.000000 64.891000 6.000000 -9.000000 -2.000000 114.590649 26.020340 449.583139 392.889049 15.402705 0.000000 0.049791
541.000000 58.701000 7.000000 -9.000000 -2.000000 106.596684 28.930569 380.104196 574.470034 17.029382 0.000000 0.063946
542.000000 52.855000 8.000000 -9.000000 -2.000000 99.308293 31.114302 325.371304 734.946894 18.915211 0.000000 0.075987
543.000000 47.483000 9.000000 -9.000000 -2.000000 92.717188 32.808850 281.140343 880.225013 21.057412 0.000000 0.087294
544.000000 89.990000 3.000000 -8.000000 -2.000000 136.781080 7.238589 838.295896 -213.580770 11.103143 0.000000 0.016539
545.000000 75.257000 5.000000 -8.000000 -2.000000 117.226933 22.176038 536.297447 342.984030 13.280550 0.000000 0.062157
546.000000 67.472000 3.000000 -4.000000 -1.000000 108.181070 26.169785 446.102392 547.153683 7.407603 0.000000 0.075969
547.000000 60.073000 7.000000 -8.000000 -2.000000 99.953639 29.046619 377.255004 724.943606 16.642357 0.000000 0.085133
548.000000 53.303000 4.000000 -4.000000 -1.000000 92.571146 31.207582 322.978324 884.491919 9.379237 0.000000 0.092684
549.000000 47.259000 9.000000 -8.000000 -2.000000 85.991041 32.885909 279.089417 1030.825122 21.160085 0.000000 0.101731
550.000000 89.010000 4.000000 -7.000000 -2.000000 120.347339 16.615200 653.831800 283.414578 11.228126 0.000000 0.074589
551.000000 79.057000 5.000000 -7.000000 -2.000000 110.067320 22.374855 531.936000 515.817543 12.643827 0.000000 0.091356
552.000000 69.450000 6.000000 -7.000000 -2.000000 100.681510 26.317783 442.646516 714.516525 14.395215 0.000000 0.098180
553.000000 60.682000 7.000000 -7.000000 -2.000000 92.318705 29.161681 374.423769 891.093938 16.477660 0.000000 0.100896
554.000000 52.949000 8.000000 -7.000000 -2.000000 84.952769 31.300155 320.598834 1052.249111 18.886612 0.000000 0.105101
555.000000 46.265000 9.000000 -7.000000 -2.000000 78.493891 32.962442 277.048950 1202.128595 21.617609 0.000000 0.115127
556.000000 82.035000 5.000000 -6.000000 -2.000000 101.458520 22.571480 527.610382 704.739562 12.186753 0.000000 0.115265
557.000000 60.090000 7.000000 -6.000000 -2.000000 83.537013 29.275764 371.610322 1080.776818 16.642648 0.000000 0.109532
558.000000 51.459000 4.000000 -3.000000 -1.000000 76.350210 31.392027 318.232721 1247.192711 9.718226 0.000000 0.115412
559.000000 83.231000 5.000000 -5.000000 -2.000000 91.044552 22.765943 523.320152 919.718036 12.014053 0.000000 0.126566
560.000000 69.232000 6.000000 -5.000000 -2.000000 81.512114 26.609518 435.808321 1120.649086 14.445849 0.000000 0.114187
561.000000 57.727000 7.000000 -5.000000 -2.000000 73.458577 29.388881 368.814496 1307.872667 17.327057 0.000000 0.114292
562.000000 48.445000 8.000000 -5.000000 -2.000000 66.677037 31.483206 315.879872 1485.137729 20.649151 0.000000 0.135185
563.000000 81.108000 5.000000 -4.000000 -2.000000 78.428739 22.958277 519.064879 1180.326168 12.331474 0.000000 0.116280
564.000000 65.199000 3.000000 -2.000000 -1.000000 69.374343 26.753292 432.425481 1394.666121 7.671322 0.000000 0.109670
565.000000 52.931000 7.000000 -4.000000 -2.000000 61.967070 29.501043 366.036126 1599.438208 18.900778 0.000000 0.139799
566.000000 73.528000 5.000000 -3.000000 -2.000000 63.249582 23.148511 514.844136 1531.009047 13.606330 0.000000 0.100089
567.000000 57.007000 6.000000 -3.000000 -2.000000 55.307348 26.895693 429.066472 1776.423817 17.551313 0.000000 0.160137
568.000000 58.257000 5.000000 -2.000000 -2.000000 45.347947 23.336675 510.657506 2099.036204 17.176796 0.000000 0.245316
576.000000 48.540000 7.000000 -14.000000 -1.000000 129.890016 36.837761 168.722138 -183.031204 20.586185 0.000000 0.159942
577.000000 45.782000 8.000000 -14.000000 -1.000000 123.480712 38.045360 132.733695 37.073858 21.828153 0.000000 0.126732
580.000000 50.685000 7.000000 -13.000000 -1.000000 126.395069 36.921630 166.259840 -51.384454 19.715694 0.000000 0.133168
581.000000 47.469000 8.000000 -13.000000 -1.000000 119.733414 38.113269 130.674908 159.675967 21.053555 0.000000 0.102021
584.000000 56.629000 6.000000 -12.000000 -1.000000 129.874217 35.410921 209.808656 -162.165564 17.645569 0.000000 0.141207
585.000000 52.883000 7.000000 -12.000000 -1.000000 122.459668 37.004720 163.815056 83.721654 18.897292 0.000000 0.105145
586.000000 49.122000 8.000000 -12.000000 -1.000000 115.546840 38.180627 128.629044 286.542812 20.346555 0.000000 0.079024
589.000000 59.557000 6.000000 -11.000000 -1.000000 125.756593 35.516394 206.822002 -11.158858 16.779059 0.000000 0.110184
590.000000 55.080000 7.000000 -11.000000 -1.000000 118.006278 37.087042 161.387599 223.421306 18.144905 0.000000 0.077458
591.000000 50.673000 8.000000 -11.000000 -1.000000 110.852364 38.247440 126.595982 418.972052 19.725169 0.000000 0.061855
592.000000 46.456000 9.000000 -11.000000 -1.000000 104.286237 39.139082 99.099684 587.643915 21.517960 0.000000 0.066718
594.000000 67.928000 5.000000 -10.000000 -1.000000 129.806346 33.416388 264.872894 -133.574005 14.710461 0.000000 0.117053
595.000000 62.556000 6.000000 -10.000000 -1.000000 121.022648 35.620736 203.859654 144.727431 15.975813 0.000000 0.077609
596.000000 57.187000 7.000000 -10.000000 -1.000000 112.941977 37.168606 158.977286 369.289265 17.477907 0.000000 0.054402
597.000000 52.025000 8.000000 -10.000000 -1.000000 105.570626 38.313715 124.575602 558.765299 19.214443 0.000000 0.057525
598.000000 47.195000 9.000000 -10.000000 -1.000000 98.880511 39.194516 97.367327 724.010253 21.183154 0.000000 0.076297
600.000000 78.624000 4.000000 -9.000000 -1.000000 134.858544 30.241622 347.534615 -298.705458 12.708363 0.000000 0.124094
601.000000 72.152000 5.000000 -9.000000 -1.000000 124.793645 33.555445 261.117572 43.578981 13.850301 0.000000 0.080161
602.000000 65.511000 6.000000 -9.000000 -1.000000 115.543308 35.723963 200.921316 307.420225 15.256488 0.000000 0.047106
603.000000 59.064000 7.000000 -9.000000 -1.000000 107.156323 37.249422 156.583935 523.579811 16.924072 0.000000 0.046698
604.000000 53.036000 8.000000 -9.000000 -1.000000 99.611314 38.379458 122.567785 708.500417 18.850242 0.000000 0.068753
605.000000 47.539000 9.000000 -9.000000 -1.000000 92.851609 39.249555 95.644619 871.770170 21.032228 0.000000 0.094134
606.000000 84.791000 4.000000 -8.000000 -1.000000 129.605128 30.440860 342.509726 -91.938207 11.784996 0.000000 0.085042
607.000000 76.462000 5.000000 -8.000000 -1.000000 118.857985 33.692740 257.397961 228.139891 13.070734 0.000000 0.041421
608.000000 68.222000 6.000000 -8.000000 -1.000000 109.159601 35.826094 198.006698 479.781650 14.651824 0.000000 0.033898
609.000000 60.499000 7.000000 -8.000000 -1.000000 100.520192 37.329501 154.207369 689.640052 16.524690 0.000000 0.060741
610.000000 53.509000 8.000000 -8.000000 -1.000000 92.874371 38.444675 120.572414 872.001736 18.685814 0.000000 0.089586
611.000000 47.321000 9.000000 -8.000000 -1.000000 86.124958 39.304203 93.931480 1035.215536 21.131736 0.000000 0.116999
612.000000 80.571000 5.000000 -7.000000 -1.000000 111.761350 33.828304 253.713553 423.797530 12.405547 0.000000 0.019085
613.000000 70.354000 6.000000 -7.000000 -1.000000 101.678813 35.927144 195.115514 666.259630 14.209668 0.000000 0.053343
614.000000 61.176000 7.000000 -7.000000 -1.000000 92.887040 37.408851 151.847410 872.666605 16.343914 0.000000 0.085506
615.000000 53.180000 8.000000 -7.000000 -1.000000 85.253786 38.509373 118.589375 1055.199138 18.803757 0.000000 0.115237
616.000000 46.334000 9.000000 -7.000000 -1.000000 78.627179 39.358464 92.227830 1220.991659 21.584751 0.000000 0.144720
617.000000 83.933000 5.000000 -6.000000 -1.000000 103.200411 33.962169 250.063851 636.624936 11.910480 0.000000 0.049672
618.000000 71.374000 6.000000 -6.000000 -1.000000 92.874826 36.027131 192.247481 874.169228 14.008789 0.000000 0.083000
619.000000 60.654000 7.000000 -6.000000 -1.000000 84.099146 37.487482 149.503887 1081.191973 16.487140 0.000000 0.114014
620.000000 51.715000 8.000000 -6.000000 -1.000000 76.645636 38.573557 116.618554 1267.811207 19.339486 0.000000 0.146315
621.000000 85.572000 5.000000 -5.000000 -1.000000 92.801871 34.094365 246.448367 877.391968 11.684512 0.000000 0.084229
622.000000 70.482000 6.000000 -5.000000 -1.000000 82.498822 36.126070 189.402324 1116.455647 14.188671 0.000000 0.113690
623.000000 58.353000 7.000000 -5.000000 -1.000000 74.002829 37.565405 147.176627 1330.278790 17.140486 0.000000 0.148978
624.000000 48.720000 8.000000 -5.000000 -1.000000 66.962366 38.637233 114.659837 1526.950152 20.531479 0.000000 0.190567
625.000000 83.888000 5.000000 -4.000000 -1.000000 80.141293 34.224921 242.866622 1167.216806 11.921885 0.000000 0.114492
626.000000 66.587000 6.000000 -4.000000 -1.000000 70.310961 36.223978 186.579769 1418.414934 15.021980 0.000000 0.153465
627.000000 53.593000 7.000000 -4.000000 -1.000000 62.477513 37.642627 144.865462 1649.253590 18.666381 0.000000 0.206373
628.000000 76.580000 5.000000 -3.000000 -1.000000 64.818444 34.353866 239.318147 1553.962758 13.063016 0.000000 0.162599
629.000000 58.428000 6.000000 -3.000000 -1.000000 56.146701 36.320869 183.779549 1837.060261 17.123350 0.000000 0.238490
631.000000 87.027000 4.000000 -2.000000 -1.000000 55.885213 31.573700 313.540176 1796.797065 11.496527 0.000000 0.193447
640.000000 47.177000 8.000000 -13.000000 0.000000 119.200643 45.445712 -118.171200 83.603388 21.183769 0.000000 0.226045
642.000000 48.783000 2.000000 -3.000000 0.000000 114.993036 45.482422 -119.573089 225.403159 5.121985 0.000000 0.201394
645.000000 54.713000 7.000000 -11.000000 0.000000 117.454801 45.461482 -118.773206 143.717820 18.266632 0.000000 0.215204
646.000000 50.279000 8.000000 -11.000000 0.000000 110.279197 45.518830 -120.965260 373.419808 19.879636 0.000000 0.180293
647.000000 46.056000 9.000000 -11.000000 0.000000 103.715755 45.562924 -122.653750 565.801825 21.704792 0.000000 0.163944
649.000000 56.750000 7.000000 -10.000000 0.000000 112.366162 45.503263 -120.369799 309.108349 17.612158 0.000000 0.188723
650.000000 51.568000 4.000000 -5.000000 0.000000 104.981136 45.554940 -122.347812 529.685907 9.692217 0.000000 0.165868
651.000000 46.742000 9.000000 -10.000000 0.000000 98.301403 45.594717 -123.872821 716.568500 21.388437 0.000000 0.162136
654.000000 58.547000 7.000000 -9.000000 0.000000 106.559447 45.544653 -121.953773 484.047777 17.073442 0.000000 0.169092
655.000000 52.509000 8.000000 -9.000000 0.000000 99.010487 45.590755 -123.720845 697.108282 19.038957 0.000000 0.161806
656.000000 47.030000 3.000000 -3.000000 0.000000 92.269871 45.626280 -125.084458 879.996984 7.086580 0.000000 0.170939
657.000000 76.005000 5.000000 -8.000000 0.000000 118.396228 45.453078 -118.452360 111.542725 13.149104 0.000000 0.220947
658.000000 67.650000 3.000000 -4.000000 0.000000 108.582246 45.530900 -121.427174 424.470185 7.387676 0.000000 0.174562
659.000000 59.889000 7.000000 -8.000000 0.000000 99.908226 45.585657 -123.525277 672.364218 16.692668 0.000000 0.161625
660.000000 46.756000 9.000000 -8.000000 0.000000 85.548984 45.657616 -126.288727 1060.867033 21.386538 0.000000 0.190981
661.000000 79.988000 5.000000 -7.000000 0.000000 111.266055 45.511572 -120.687599 343.231738 12.495747 0.000000 0.184093
662.000000 69.660000 6.000000 -7.000000 0.000000 101.081290 45.578849 -123.264219 639.832080 14.350944 0.000000 0.161798
663.000000 52.507000 8.000000 -7.000000 0.000000 84.656831 45.661517 -126.438746 1085.031130 19.044465 0.000000 0.194290
664.000000 45.721000 9.000000 -7.000000 0.000000 78.068304 45.688727 -127.485695 1266.575424 21.873852 0.000000 0.222809
665.000000 83.193000 5.000000 -6.000000 0.000000 102.678865 45.569301 -122.898162 595.113821 12.016079 0.000000 0.162803
666.000000 59.847000 7.000000 -6.000000 0.000000 83.492106 45.666528 -126.631460 1116.690643 16.709063 0.000000 0.198816
667.000000 50.980000 4.000000 -3.000000 0.000000 76.071904 45.696470 -127.783805 1323.149765 9.808885 0.000000 0.232837
668.000000 69.522000 6.000000 -5.000000 0.000000 81.907770 45.673200 -126.888119 1160.006026 14.384308 0.000000 0.205333
669.000000 57.469000 7.000000 -5.000000 0.000000 73.428282 45.706405 -128.166425 1399.631928 17.403596 0.000000 0.247152
670.000000 47.951000 8.000000 -5.000000 0.000000 66.432670 45.731143 -129.119728 1613.597628 20.860400 0.000000 0.291487
671.000000 82.799000 5.000000 -4.000000 0.000000 79.628371 45.682523 -127.246882 1222.959136 12.078125 0.000000 0.215423
672.000000 65.536000 3.000000 -2.000000 0.000000 69.766685 45.719616 -128.675430 1509.213696 7.631131 0.000000 0.269093
673.000000 52.682000 7.000000 -4.000000 0.000000 61.965904 45.745918 -129.689494 1762.243304 18.988137 0.000000 0.325763
674.000000 75.409000 5.000000 -3.000000 0.000000 64.373458 45.738044 -129.385825 1680.729855 13.265080 0.000000 0.306629
686.000000 45.815000 9.000000 -10.000000 1.000000 97.051522 51.779150 -391.702384 725.813199 21.821227 0.000000 0.306567
690.000000 45.993000 9.000000 -9.000000 1.000000 91.017631 51.788039 -392.138704 910.093209 21.739152 0.000000 0.311092
693.000000 51.558000 8.000000 -8.000000 1.000000 90.817954 52.536658 -429.513710 915.737169 19.392668 0.000000 0.333217
694.000000 45.611000 9.000000 -8.000000 1.000000 84.310922 51.796865 -392.572093 1114.370514 21.923497 0.000000 0.328381
#UB matrix in q= (UB) B0 G* 
#[[-0.032311062  0.998393787 -0.004658041]
# [ 0.717641768  0.02647429   0.695676369]
# [ 0.695662482  0.019229091 -0.718356238]]
#B0 matrix in q= UB (B0) G*
#[[ 0.19670273 -0.          0.03056101]
# [ 0.          0.19187965 -0.        ]
# [ 0.          0.          0.18806537]]
#UBB0 matrix in q= (UB B0) G* i.e. recip. basis vectors are columns in LT frame: astar = UBB0[:,0], bstar = UBB0[:,1], cstar = UBB0[:,2]. (abcstar as columns on xyzlab1, xlab1 = ui, ui = unit vector along incident beam)
#[[-0.00635567  0.19157145 -0.00186347]
# [ 0.1411621   0.00507988  0.15276449]
# [ 0.13683871  0.00368967 -0.11383779]]
#Euler angles phi theta psi (deg)
#[ 91.578 135.899   0.381]
#deviatoric strain in direct crystal frame (10-3 unit)
#[[-2.2  -0.06  0.31]
# [-0.06 -1.07  0.03]
# [ 0.31  0.03  3.27]]
#deviatoric strain in sample2 frame (10-3 unit)
#[[-0.51 -1.78  0.68]
# [-1.78  0.75 -2.09]
# [ 0.68 -2.09 -0.24]]
#new lattice parameters
#[ 5.1505     5.2174625  5.3175238 89.9973433 99.2111084 90.007041 ]
#CCDLabel
#sCMOS
#DetectorParameters
#[79.0, 975.0, 941.0, 0.0, 0.0]
#pixelsize
#0.0734
#Frame dimensions
#[2018, 2016]
#
