#Strain and Orientation Refinement from experimental file: /home/micha/LaueProjects/DepthEffects/testZrO2_118.cor
#File created at Wed Jun 28 14:25:35 2023 with indexingSpotsSet.py
#Number of indexed spots: 533
#Element
#ZrO2
#grainIndex
#G_0
#Mean Deviation(pixel): 0.113
##spot_index intensity h k l 2theta Chi Xexp Yexp Energy GrainIndex PixDev
7.000000 46.539000 7.000000 -9.000000 -5.000000 83.853802 43.527671 -47.353482 1100.853529 21.505003 0.000000 0.155780
8.000000 47.266000 8.000000 -9.000000 -5.000000 90.596288 46.364916 -153.835426 924.767281 21.171301 0.000000 0.173736
9.000000 47.304000 9.000000 -9.000000 -5.000000 96.592970 49.251432 -274.164152 750.422561 21.151990 0.000000 0.222625
12.000000 46.027000 5.000000 -8.000000 -5.000000 68.894033 41.960087 7.257027 1499.674254 21.749437 0.000000 0.205618
13.000000 48.744000 6.000000 -8.000000 -5.000000 77.550363 44.936926 -98.927190 1276.670903 20.534070 0.000000 0.199994
14.000000 50.201000 7.000000 -8.000000 -5.000000 85.285545 47.976328 -219.353182 1073.590225 19.935124 0.000000 0.217681
15.000000 50.653000 8.000000 -8.000000 -5.000000 92.120527 51.062730 -357.092137 877.588715 19.754823 0.000000 0.269688
18.000000 45.515000 4.000000 -7.000000 -5.000000 59.465715 43.340574 -40.688381 1813.906639 21.997329 0.000000 0.285745
19.000000 50.067000 5.000000 -7.000000 -5.000000 69.561063 46.545613 -160.987350 1524.187748 19.993752 0.000000 0.266930
20.000000 52.790000 6.000000 -7.000000 -5.000000 78.567773 49.812445 -299.183579 1278.287840 18.959418 0.000000 0.281368
30.000000 45.481000 3.000000 -5.000000 -2.000000 81.554298 33.216961 270.237622 1132.023449 11.003443 0.000000 0.110073
31.000000 46.822000 7.000000 -10.000000 -4.000000 88.900584 35.869670 196.760827 966.488835 21.373752 0.000000 0.094508
32.000000 47.384000 4.000000 -5.000000 -2.000000 95.529596 38.616300 115.304131 807.644351 10.558751 0.000000 0.077959
33.000000 47.327000 9.000000 -10.000000 -4.000000 101.460963 41.448669 24.492910 649.876985 21.140392 0.000000 0.086144
34.000000 46.801000 5.000000 -5.000000 -2.000000 106.731377 44.356412 -77.382417 488.490653 10.687896 0.000000 0.134284
35.000000 45.936000 11.000000 -10.000000 -4.000000 111.387618 47.327066 -192.475034 319.106964 21.776714 0.000000 0.210516
36.000000 47.514000 5.000000 -9.000000 -4.000000 75.181195 33.908107 251.539179 1284.096406 21.067621 0.000000 0.122406
37.000000 49.776000 6.000000 -9.000000 -4.000000 83.607953 36.759707 171.008889 1091.501283 20.107102 0.000000 0.110386
38.000000 50.918000 7.000000 -9.000000 -4.000000 91.178819 39.714758 80.974870 912.208927 19.653170 0.000000 0.097384
39.000000 51.164000 8.000000 -9.000000 -4.000000 97.906467 42.762471 -20.350740 737.408139 19.556163 0.000000 0.106644
40.000000 50.733000 9.000000 -9.000000 -4.000000 103.832660 45.889291 -135.234253 560.258690 19.720087 0.000000 0.156984
41.000000 49.818000 10.000000 -9.000000 -4.000000 109.016425 49.079084 -266.591955 374.689263 20.080537 0.000000 0.241629
43.000000 48.624000 1.000000 -2.000000 -1.000000 67.118424 34.701420 229.699055 1493.512072 5.147309 0.000000 0.148739
44.000000 52.418000 5.000000 -8.000000 -4.000000 76.917314 37.782480 140.667586 1257.468781 19.095706 0.000000 0.134654
45.000000 54.572000 3.000000 -4.000000 -2.000000 85.695515 40.977532 40.132391 1048.304982 9.169473 0.000000 0.124458
46.000000 55.388000 7.000000 -8.000000 -4.000000 93.444123 44.272133 -74.290108 850.535555 18.066101 0.000000 0.135083
47.000000 55.191000 4.000000 -4.000000 -2.000000 100.205982 47.648322 -205.690851 653.367747 9.064071 0.000000 0.188270
50.000000 47.628000 3.000000 -7.000000 -4.000000 56.720590 35.620975 203.852844 1810.049613 21.023193 0.000000 0.214154
51.000000 53.989000 4.000000 -7.000000 -4.000000 68.270201 38.969250 104.390068 1492.726209 18.542672 0.000000 0.177637
52.000000 57.938000 5.000000 -7.000000 -4.000000 78.621964 42.442918 -9.271182 1234.501797 17.275396 0.000000 0.164951
53.000000 59.836000 6.000000 -7.000000 -4.000000 87.710330 46.022327 -140.404871 1002.975021 16.724687 0.000000 0.176181
54.000000 60.159000 7.000000 -7.000000 -4.000000 95.565528 49.683352 -293.375345 778.904169 16.632419 0.000000 0.232984
57.000000 52.852000 3.000000 -6.000000 -4.000000 56.837132 40.361586 60.245323 1864.014006 18.944377 0.000000 0.266060
58.000000 60.020000 2.000000 -3.000000 -2.000000 69.257761 44.161460 -70.242764 1509.185705 8.339376 0.000000 0.231834
59.000000 64.000000 5.000000 -6.000000 -4.000000 80.143316 48.071311 -223.341899 1220.861731 15.638464 0.000000 0.239157
60.000000 65.439000 3.000000 -3.000000 -2.000000 89.470863 52.058295 -405.486661 957.166398 7.645956 0.000000 0.300056
71.000000 45.992000 7.000000 -11.000000 -3.000000 92.546375 28.338252 394.548019 886.618045 21.758284 0.000000 0.107355
72.000000 46.489000 8.000000 -11.000000 -3.000000 99.062767 30.899267 330.869861 740.926776 21.523174 0.000000 0.081629
73.000000 46.435000 9.000000 -11.000000 -3.000000 104.944167 33.572945 260.644125 596.215552 21.545642 0.000000 0.046195
74.000000 45.957000 10.000000 -11.000000 -3.000000 110.216229 36.354491 182.806214 448.868583 21.767901 0.000000 0.031481
75.000000 47.284000 5.000000 -10.000000 -3.000000 79.856522 26.069998 448.427534 1155.370500 21.169255 0.000000 0.115635
76.000000 49.227000 6.000000 -10.000000 -3.000000 88.025701 28.691519 385.953151 983.294713 20.330375 0.000000 0.110642
77.000000 50.201000 7.000000 -10.000000 -3.000000 95.428887 31.443832 316.896464 821.106620 19.932742 0.000000 0.088572
78.000000 50.390000 8.000000 -10.000000 -3.000000 102.068634 34.323334 240.159356 662.358514 19.855564 0.000000 0.054684
79.000000 49.975000 9.000000 -10.000000 -3.000000 107.972668 37.323519 154.385066 501.952162 20.018451 0.000000 0.040016
80.000000 49.118000 10.000000 -10.000000 -3.000000 113.184749 40.434699 57.877269 335.384988 20.365828 0.000000 0.091487
81.000000 47.955000 11.000000 -10.000000 -3.000000 117.757429 43.643856 -51.513240 158.233651 20.858044 0.000000 0.170016
83.000000 49.285000 4.000000 -9.000000 -3.000000 72.917594 26.273537 443.680621 1309.855732 20.312226 0.000000 0.108833
84.000000 52.485000 5.000000 -9.000000 -3.000000 82.360185 29.097860 375.994952 1106.222254 19.070110 0.000000 0.112212
85.000000 54.280000 2.000000 -3.000000 -1.000000 90.892204 32.071792 300.580030 921.219943 6.145528 0.000000 0.096067
86.000000 54.916000 7.000000 -9.000000 -3.000000 98.495936 35.190265 216.031741 744.271175 18.220377 0.000000 0.065347
87.000000 54.662000 8.000000 -9.000000 -3.000000 105.197209 38.444298 120.583950 567.708956 18.302775 0.000000 0.051785
88.000000 53.764000 3.000000 -3.000000 -1.000000 111.049816 41.820645 11.983788 385.169606 6.202062 0.000000 0.104403
89.000000 52.431000 10.000000 -9.000000 -3.000000 116.122826 45.301680 -112.688434 190.612535 19.077763 0.000000 0.192199
91.000000 50.021000 3.000000 -8.000000 -3.000000 64.025768 26.509305 438.161202 1526.950462 20.016046 0.000000 0.111132
92.000000 55.326000 4.000000 -8.000000 -3.000000 75.094983 29.570155 364.321098 1270.382001 18.093387 0.000000 0.113211
93.000000 58.560000 5.000000 -8.000000 -3.000000 85.092331 32.803699 281.277316 1050.949579 17.090733 0.000000 0.104656
94.000000 60.032000 6.000000 -8.000000 -3.000000 93.951576 36.202667 187.194725 848.863710 16.668699 0.000000 0.079315
95.000000 60.140000 7.000000 -8.000000 -3.000000 101.685030 39.754403 79.715573 651.459561 16.636551 0.000000 0.068188
96.000000 59.269000 8.000000 -8.000000 -3.000000 108.356541 43.440438 -44.240802 449.147478 16.878854 0.000000 0.122472
97.000000 57.748000 9.000000 -8.000000 -3.000000 114.058160 47.236492 -188.778050 233.304425 17.321647 0.000000 0.221887
99.000000 47.868000 2.000000 -7.000000 -3.000000 52.390809 26.785605 431.664000 1869.793681 20.920038 0.000000 0.178011
100.000000 56.709000 3.000000 -7.000000 -3.000000 65.536076 30.125797 350.446421 1507.149750 17.654935 0.000000 0.126233
101.000000 62.535000 4.000000 -7.000000 -3.000000 77.467720 33.667380 258.085906 1228.460780 16.006615 0.000000 0.117411
102.000000 65.610000 5.000000 -7.000000 -3.000000 88.005824 37.399682 152.120367 988.173504 15.253218 0.000000 0.099013
103.000000 66.498000 6.000000 -7.000000 -3.000000 97.117035 41.304437 29.304694 762.109971 15.046942 0.000000 0.091767
104.000000 65.821000 7.000000 -7.000000 -3.000000 104.868812 45.355330 -114.727409 534.355230 15.199539 0.000000 0.148633
107.000000 54.289000 2.000000 -6.000000 -3.000000 52.620419 30.788846 333.683781 1898.187978 18.445028 0.000000 0.205537
108.000000 71.073000 4.000000 -6.000000 -3.000000 79.958541 38.835470 108.539603 1185.666351 14.082763 0.000000 0.130508
109.000000 73.659000 5.000000 -6.000000 -3.000000 90.973831 43.163911 -34.432617 915.917647 13.585455 0.000000 0.127486
111.000000 61.972000 2.000000 -5.000000 -3.000000 52.587847 35.960809 194.150680 1958.088885 16.157936 0.000000 0.253254
112.000000 74.573000 3.000000 -5.000000 -3.000000 68.626231 40.586904 52.930875 1495.669049 13.424188 0.000000 0.191799
113.000000 80.953000 4.000000 -5.000000 -3.000000 82.368712 45.430364 -117.585616 1146.488140 12.363109 0.000000 0.186278
114.000000 82.538000 5.000000 -5.000000 -3.000000 93.723425 50.433592 -327.570467 831.038018 12.123151 0.000000 0.252229
118.000000 85.768000 3.000000 -4.000000 -3.000000 69.719895 48.243723 -230.619950 1538.192789 11.671280 0.000000 0.296960
121.000000 45.833000 5.000000 -11.000000 -2.000000 83.068119 18.709530 610.494935 1079.154098 21.838622 0.000000 0.132705
122.000000 47.558000 6.000000 -11.000000 -2.000000 90.948685 21.032132 561.156645 921.905340 21.043190 0.000000 0.134923
123.000000 48.461000 7.000000 -11.000000 -2.000000 98.163633 23.495095 507.123486 772.643135 20.647958 0.000000 0.120659
124.000000 48.684000 8.000000 -11.000000 -2.000000 104.706905 26.101589 447.691861 626.418350 20.550862 0.000000 0.092521
125.000000 48.370000 9.000000 -11.000000 -2.000000 110.593506 28.852791 382.010185 479.268584 20.681825 0.000000 0.052502
126.000000 47.653000 10.000000 -11.000000 -2.000000 115.852738 31.747347 309.037821 327.714402 20.991135 0.000000 0.002440
127.000000 46.646000 11.000000 -11.000000 -2.000000 120.522568 34.780844 227.489537 168.412574 21.442551 0.000000 0.057990
128.000000 48.138000 2.000000 -5.000000 -1.000000 76.973110 18.386819 617.239529 1203.410653 10.397488 0.000000 0.118135
129.000000 50.896000 5.000000 -10.000000 -2.000000 86.010121 20.867434 564.703979 1021.340546 19.664853 0.000000 0.132527
130.000000 52.483000 3.000000 -5.000000 -1.000000 94.265319 23.509853 506.793837 853.461742 9.533505 0.000000 0.125188
131.000000 53.088000 7.000000 -10.000000 -2.000000 101.713372 26.318067 442.639877 692.042968 18.847163 0.000000 0.099694
132.000000 52.917000 4.000000 -5.000000 -1.000000 108.364124 29.293403 371.174754 531.326088 9.452700 0.000000 0.058977
133.000000 52.170000 9.000000 -10.000000 -2.000000 114.251513 32.433753 291.073151 366.518429 19.174172 0.000000 0.007610
134.000000 51.016000 5.000000 -5.000000 -1.000000 119.424033 35.732821 200.668821 193.163522 9.803083 0.000000 0.061821
135.000000 49.593000 11.000000 -10.000000 -2.000000 123.937530 39.179482 97.837431 6.672294 20.167259 0.000000 0.139322
138.000000 49.693000 3.000000 -9.000000 -2.000000 69.258061 18.015422 624.970475 1369.611682 20.147352 0.000000 0.091563
139.000000 54.139000 4.000000 -9.000000 -2.000000 79.757221 20.676938 568.797276 1148.875684 18.489073 0.000000 0.122843
140.000000 56.892000 5.000000 -9.000000 -2.000000 89.346040 23.527003 506.410647 954.398920 17.590944 0.000000 0.126978
141.000000 58.183000 6.000000 -9.000000 -2.000000 97.957516 26.570738 436.719314 772.783930 17.197787 0.000000 0.106756
142.000000 58.312000 7.000000 -9.000000 -2.000000 105.585649 29.809615 358.360563 595.002075 17.157148 0.000000 0.066509
143.000000 57.583000 8.000000 -9.000000 -2.000000 112.267095 33.240330 269.610246 414.087319 17.372328 0.000000 0.014313
144.000000 56.260000 9.000000 -9.000000 -2.000000 118.064318 36.853706 168.254443 223.868812 17.779034 0.000000 0.067169
145.000000 54.556000 10.000000 -9.000000 -2.000000 123.052678 40.633802 51.402257 18.120634 18.332851 0.000000 0.154887
148.000000 49.408000 1.000000 -4.000000 -1.000000 59.286957 17.583463 633.921213 1611.725925 10.133458 0.000000 0.077138
149.000000 56.653000 3.000000 -8.000000 -2.000000 71.642550 20.454074 573.573083 1322.180356 17.671325 0.000000 0.101574
150.000000 61.451000 2.000000 -4.000000 -1.000000 82.972142 23.547180 505.959717 1085.735468 8.143961 0.000000 0.123131
151.000000 64.011000 5.000000 -8.000000 -2.000000 93.118248 26.869494 429.685105 875.269857 15.633348 0.000000 0.112737
152.000000 64.755000 3.000000 -4.000000 -1.000000 102.032641 30.422600 342.971103 674.954984 7.725539 0.000000 0.075191
153.000000 64.159000 7.000000 -8.000000 -2.000000 109.746840 34.201241 243.517078 473.853474 15.592333 0.000000 0.023064
154.000000 62.655000 4.000000 -4.000000 -1.000000 116.341144 38.191686 128.292782 262.964418 7.982442 0.000000 0.074875
155.000000 60.586000 9.000000 -8.000000 -2.000000 121.920020 42.370494 -6.775793 33.509720 16.508514 0.000000 0.175478
157.000000 56.954000 2.000000 -7.000000 -2.000000 60.822102 20.189833 579.217629 1581.320775 17.580906 0.000000 0.086185
158.000000 65.423000 3.000000 -7.000000 -2.000000 74.450750 23.571261 505.421346 1267.741559 15.301508 0.000000 0.109480
159.000000 70.417000 4.000000 -7.000000 -2.000000 86.676253 27.228185 421.190421 1011.295677 14.212777 0.000000 0.115657
160.000000 72.444000 5.000000 -7.000000 -2.000000 97.341561 31.162193 324.143324 778.946572 13.812344 0.000000 0.085039
161.000000 72.257000 6.000000 -7.000000 -2.000000 106.447136 35.364732 211.114132 551.375037 13.845608 0.000000 0.034904
162.000000 70.594000 7.000000 -7.000000 -2.000000 114.092851 39.814602 77.800596 314.420411 14.169754 0.000000 0.086393
163.000000 68.048000 8.000000 -7.000000 -2.000000 120.427763 44.476280 -81.795920 55.052701 14.698470 0.000000 0.203782
165.000000 51.728000 1.000000 -6.000000 -2.000000 46.004594 19.871531 585.991669 2045.992987 19.361122 0.000000 0.217945
166.000000 66.774000 1.000000 -3.000000 -1.000000 62.641388 23.600502 504.767367 1548.744169 7.497385 0.000000 0.099482
167.000000 76.611000 3.000000 -6.000000 -2.000000 77.749455 27.666819 410.727724 1204.866950 13.065932 0.000000 0.112843
168.000000 82.325000 5.000000 -6.000000 -2.000000 101.956508 36.801062 169.797899 656.356730 12.153216 0.000000 0.051801
170.000000 60.224000 1.000000 -5.000000 -2.000000 45.660332 23.636758 503.956065 2089.085164 16.629401 0.000000 0.240186
171.000000 79.802000 2.000000 -5.000000 -2.000000 64.767149 28.215402 397.523504 1516.616421 12.546204 0.000000 0.118111
173.000000 71.153000 1.000000 -4.000000 -2.000000 44.876491 28.921044 380.337768 2175.960148 14.074865 0.000000 0.283171
175.000000 46.094000 7.000000 -12.000000 -1.000000 99.636214 16.128706 663.759367 750.771258 21.707946 0.000000 0.145395
176.000000 46.392000 8.000000 -12.000000 -1.000000 106.053300 18.402346 616.915604 614.602790 21.566048 0.000000 0.125717
177.000000 46.217000 9.000000 -12.000000 -1.000000 111.897151 20.824760 565.621847 478.158182 21.645293 0.000000 0.096375
178.000000 45.675000 10.000000 -12.000000 -1.000000 117.185471 23.401502 509.212373 338.658798 21.900140 0.000000 0.059388
179.000000 45.891000 4.000000 -11.000000 -1.000000 79.585800 11.253600 760.841454 1142.690610 21.812673 0.000000 0.132617
180.000000 48.311000 5.000000 -11.000000 -1.000000 88.180057 13.359274 719.398859 976.150064 20.716424 0.000000 0.150623
181.000000 49.776000 6.000000 -11.000000 -1.000000 96.119921 15.618612 674.116326 821.174279 20.103624 0.000000 0.149592
182.000000 50.419000 7.000000 -11.000000 -1.000000 103.375935 18.041234 624.434232 671.834373 19.844245 0.000000 0.133237
183.000000 50.396000 8.000000 -11.000000 -1.000000 109.946257 20.635857 569.678663 523.624678 19.851055 0.000000 0.104401
184.000000 49.857000 9.000000 -11.000000 -1.000000 115.849084 23.409649 509.030654 372.790419 20.063344 0.000000 0.065573
185.000000 48.940000 10.000000 -11.000000 -1.000000 121.115710 26.367443 441.484960 215.898773 20.437562 0.000000 0.022771
186.000000 47.758000 11.000000 -11.000000 -1.000000 125.784940 29.510811 365.793884 49.524482 20.941652 0.000000 0.045638
187.000000 46.404000 12.000000 -11.000000 -1.000000 129.899022 32.837077 280.389504 -130.022938 21.551496 0.000000 0.107444
188.000000 47.651000 3.000000 -10.000000 -1.000000 72.735399 10.403507 777.394946 1281.089948 21.009616 0.000000 0.103738
189.000000 51.419000 4.000000 -10.000000 -1.000000 82.612534 12.628654 733.854497 1084.006481 19.466351 0.000000 0.140504
190.000000 53.842000 5.000000 -10.000000 -1.000000 91.741947 15.030917 685.985253 907.108077 18.586975 0.000000 0.150807
191.000000 55.078000 6.000000 -10.000000 -1.000000 100.059352 17.622800 633.107889 740.669004 18.167028 0.000000 0.140287
192.000000 55.340000 7.000000 -10.000000 -1.000000 107.546165 20.415742 574.393096 577.883307 18.078190 0.000000 0.113186
193.000000 54.855000 8.000000 -10.000000 -1.000000 114.217736 23.419193 508.817758 413.433545 18.235857 0.000000 0.072841
194.000000 53.828000 9.000000 -10.000000 -1.000000 120.111715 26.639447 435.104835 242.669193 18.581988 0.000000 0.024615
195.000000 52.431000 10.000000 -10.000000 -1.000000 125.278468 30.078266 351.639369 61.056456 19.075436 0.000000 0.046434
196.000000 50.801000 11.000000 -10.000000 -1.000000 129.774127 33.731387 256.348800 -136.269791 19.686220 0.000000 0.116046
199.000000 48.196000 2.000000 -9.000000 -1.000000 64.031538 9.426830 796.302791 1472.386689 20.775473 0.000000 0.052062
200.000000 54.125000 3.000000 -9.000000 -1.000000 75.510768 11.783659 750.470756 1225.120481 18.495617 0.000000 0.116535
201.000000 58.161000 4.000000 -9.000000 -1.000000 86.162440 14.346614 699.723306 1015.520036 17.208725 0.000000 0.145884
202.000000 60.438000 5.000000 -9.000000 -1.000000 95.852593 17.132275 643.224877 825.553072 16.557095 0.000000 0.145645
203.000000 61.244000 6.000000 -9.000000 -1.000000 104.524771 20.155991 579.939152 643.963766 16.336413 0.000000 0.122506
204.000000 60.918000 7.000000 -9.000000 -1.000000 112.182609 23.430526 508.564907 462.715543 16.421499 0.000000 0.081379
205.000000 59.783000 8.000000 -9.000000 -1.000000 118.869828 26.964280 427.445598 275.215026 16.731376 0.000000 0.027564
206.000000 58.110000 9.000000 -9.000000 -1.000000 124.652935 30.759161 334.439182 75.257092 17.211339 0.000000 0.047518
207.000000 56.111000 10.000000 -9.000000 -1.000000 129.608645 34.808247 226.726201 -143.761142 17.823104 0.000000 0.126952
210.000000 46.094000 1.000000 -8.000000 -1.000000 52.770777 8.293741 818.105723 1767.460891 21.726395 0.000000 0.089890
211.000000 55.486000 2.000000 -8.000000 -1.000000 66.231773 10.795619 769.771171 1423.529560 18.045199 0.000000 0.067508
212.000000 62.298000 3.000000 -8.000000 -1.000000 78.853299 13.540001 715.809750 1159.134396 16.068079 0.000000 0.128290
213.000000 66.472000 4.000000 -8.000000 -1.000000 90.360798 16.549366 655.178155 933.929462 15.055699 0.000000 0.146627
214.000000 68.335000 5.000000 -8.000000 -1.000000 100.611679 19.844854 586.558162 726.618960 14.642378 0.000000 0.131675
215.000000 68.397000 6.000000 -8.000000 -1.000000 109.574551 23.444204 508.259689 523.850930 14.626516 0.000000 0.091346
216.000000 67.187000 7.000000 -8.000000 -1.000000 117.294744 27.358961 418.079732 315.660669 14.887849 0.000000 0.031956
217.000000 65.157000 8.000000 -8.000000 -1.000000 123.861360 31.591022 313.091794 93.173089 15.350186 0.000000 0.049064
218.000000 62.650000 9.000000 -8.000000 -1.000000 129.382863 36.128849 189.322325 -152.904449 15.962917 0.000000 0.141184
220.000000 53.424000 1.000000 -7.000000 -1.000000 53.806461 9.625625 792.463276 1739.787819 18.745117 0.000000 0.081047
221.000000 65.060000 2.000000 -7.000000 -1.000000 68.968970 12.575494 734.903014 1364.991137 15.388825 0.000000 0.084785
222.000000 72.814000 3.000000 -7.000000 -1.000000 82.933732 15.845426 669.517567 1079.685914 13.746487 0.000000 0.137093
223.000000 76.815000 4.000000 -7.000000 -1.000000 95.359300 19.465432 594.594834 833.910628 13.027216 0.000000 0.138838
224.000000 77.786000 5.000000 -7.000000 -1.000000 106.116311 23.461037 507.883957 601.985710 12.861856 0.000000 0.102739
225.000000 76.623000 6.000000 -7.000000 -1.000000 115.232878 27.848676 406.365315 367.341173 13.054939 0.000000 0.038227
226.000000 74.124000 7.000000 -7.000000 -1.000000 122.828692 32.629816 285.891669 116.480234 13.493290 0.000000 0.051396
227.000000 70.894000 8.000000 -7.000000 -1.000000 129.063529 37.784474 140.607616 -164.302228 14.106841 0.000000 0.160462
229.000000 63.364000 1.000000 -6.000000 -1.000000 55.134959 11.402453 757.933045 1705.955552 15.804385 0.000000 0.073337
230.000000 78.038000 2.000000 -6.000000 -1.000000 72.448228 14.978690 687.036822 1293.397559 12.828759 0.000000 0.102652
231.000000 86.602000 3.000000 -6.000000 -1.000000 87.978662 18.992524 604.559247 981.173342 11.556650 0.000000 0.138978
232.000000 89.748000 4.000000 -6.000000 -1.000000 101.322153 23.482262 507.410083 706.044163 11.148635 0.000000 0.114937
233.000000 89.007000 5.000000 -6.000000 -1.000000 112.420337 28.472346 391.292342 435.835516 11.238997 0.000000 0.046965
234.000000 85.906000 6.000000 -6.000000 -1.000000 121.427539 33.962694 250.049507 148.038925 11.642882 0.000000 0.055169
238.000000 77.489000 1.000000 -5.000000 -1.000000 56.890380 13.885881 708.925543 1664.014583 12.922991 0.000000 0.070124
241.000000 46.636000 2.000000 -4.000000 0.000000 96.830362 8.580441 812.601592 810.621919 7.152330 0.000000 0.162970
242.000000 47.336000 7.000000 -12.000000 0.000000 103.850582 10.603337 773.512119 671.019032 21.136910 0.000000 0.152736
243.000000 47.467000 2.000000 -3.000000 0.000000 110.291141 12.783054 730.806677 532.942049 5.268966 0.000000 0.132026
244.000000 47.144000 3.000000 -4.000000 0.000000 116.159349 15.131472 683.959191 393.358694 7.072727 0.000000 0.102987
245.000000 46.472000 5.000000 -6.000000 0.000000 121.473911 17.660101 632.336335 249.533158 10.761539 0.000000 0.068042
246.000000 45.544000 11.000000 -12.000000 0.000000 126.260695 20.379467 575.168735 98.803711 21.959986 0.000000 0.033964
247.000000 47.981000 4.000000 -11.000000 0.000000 84.124679 5.577801 869.889418 1052.282576 20.861001 0.000000 0.150327
248.000000 50.154000 5.000000 -11.000000 0.000000 92.759242 7.538907 832.559572 888.675582 19.953494 0.000000 0.163270
249.000000 51.377000 6.000000 -11.000000 0.000000 100.731327 9.665114 791.700066 734.085561 19.475710 0.000000 0.158824
250.000000 51.794000 7.000000 -11.000000 0.000000 108.016019 11.971533 746.785447 583.175667 19.315987 0.000000 0.140630
251.000000 51.568000 8.000000 -11.000000 0.000000 114.614784 14.473594 697.180519 431.735468 19.398267 0.000000 0.111611
252.000000 50.853000 9.000000 -11.000000 0.000000 120.547709 17.186453 642.110114 276.118324 19.668951 0.000000 0.074675
253.000000 49.785000 10.000000 -11.000000 0.000000 125.846577 20.124124 580.618288 112.863057 20.089180 0.000000 0.036423
254.000000 48.477000 3.000000 -3.000000 0.000000 130.549405 23.298298 511.512363 -61.602481 5.626389 0.000000 0.040297
255.000000 47.016000 12.000000 -11.000000 0.000000 134.696573 26.716804 433.284805 -251.238416 21.269811 0.000000 0.090174
257.000000 45.535000 1.000000 -5.000000 0.000000 67.124310 2.418435 929.542996 1395.511279 10.994305 0.000000 0.066168
258.000000 50.419000 3.000000 -10.000000 0.000000 77.716147 4.295507 894.157895 1176.012533 19.854487 0.000000 0.128354
259.000000 53.870000 2.000000 -5.000000 0.000000 87.655080 6.343373 855.351253 985.345152 9.289640 0.000000 0.157869
260.000000 56.885000 3.000000 -5.000000 0.000000 105.185035 11.026353 765.275791 643.384987 8.794176 0.000000 0.149361
261.000000 56.864000 7.000000 -10.000000 0.000000 112.706265 13.701518 712.597520 477.446665 17.592455 0.000000 0.121292
262.000000 56.131000 4.000000 -5.000000 0.000000 119.412986 16.626320 653.604318 307.742197 8.909897 0.000000 0.082515
263.000000 54.895000 9.000000 -10.000000 0.000000 125.344168 19.819883 587.088259 129.631990 18.219375 0.000000 0.039700
264.000000 51.551000 11.000000 -10.000000 0.000000 135.082288 27.072235 424.890365 -271.207683 19.398665 0.000000 0.095857
267.000000 51.937000 2.000000 -9.000000 0.000000 69.526767 2.821694 921.951926 1343.324726 19.277430 0.000000 0.083363
268.000000 57.475000 1.000000 -3.000000 0.000000 81.108314 4.958272 881.626260 1110.015658 5.805308 0.000000 0.141347
269.000000 61.065000 4.000000 -9.000000 0.000000 91.831804 7.313124 836.872937 906.295752 16.388679 0.000000 0.162767
270.000000 62.895000 5.000000 -9.000000 0.000000 101.574855 9.912202 786.920380 717.220283 15.908640 0.000000 0.157424
271.000000 62.605000 7.000000 -9.000000 0.000000 117.991220 15.953778 667.317041 346.019305 15.977576 0.000000 0.091841
272.000000 61.169000 8.000000 -9.000000 0.000000 124.721958 19.451233 594.894859 149.980906 16.350935 0.000000 0.044052
273.000000 57.051000 10.000000 -9.000000 0.000000 135.546779 27.510004 414.477783 -295.890106 17.528408 0.000000 0.102921
275.000000 51.215000 1.000000 -8.000000 0.000000 58.850517 1.112461 954.099937 1591.653304 19.552697 0.000000 0.009404
276.000000 60.195000 1.000000 -4.000000 0.000000 72.492681 3.336717 912.249219 1281.081982 8.315961 0.000000 0.102000
277.000000 66.424000 3.000000 -8.000000 0.000000 85.238584 5.814411 865.400498 1031.112691 15.068349 0.000000 0.153048
278.000000 71.198000 5.000000 -8.000000 0.000000 107.143185 11.672848 752.642044 601.989299 14.051938 0.000000 0.143553
279.000000 69.052000 7.000000 -8.000000 0.000000 123.931476 18.995343 604.500001 175.200058 14.484421 0.000000 0.049834
280.000000 63.860000 9.000000 -8.000000 0.000000 136.116761 28.062396 401.219834 -327.183218 15.659347 0.000000 0.111924
282.000000 60.176000 1.000000 -7.000000 0.000000 60.840828 1.415919 948.396717 1541.697863 16.640452 0.000000 0.011502
283.000000 71.156000 2.000000 -7.000000 0.000000 76.239702 4.017309 899.411423 1205.221781 14.068724 0.000000 0.121705
284.000000 77.999000 3.000000 -7.000000 0.000000 90.357948 6.962390 843.564773 934.225957 12.830901 0.000000 0.161532
285.000000 81.040000 4.000000 -7.000000 0.000000 102.883173 10.305028 779.306600 690.792342 12.346391 0.000000 0.154892
286.000000 81.139000 5.000000 -7.000000 0.000000 113.713494 14.103597 704.581738 453.543969 12.328855 0.000000 0.116316
287.000000 79.250000 6.000000 -7.000000 0.000000 122.894168 18.417176 616.606149 207.289752 12.620751 0.000000 0.057566
290.000000 53.284000 0.000000 -2.000000 0.000000 44.698055 -0.889578 991.711959 2028.829585 6.265594 0.000000 0.212595
291.000000 72.661000 1.000000 -6.000000 0.000000 63.475959 1.827724 940.654766 1478.457957 13.780595 0.000000 0.036199
293.000000 46.322000 5.000000 -12.000000 1.000000 92.844661 1.093047 954.464755 887.509705 21.604125 0.000000 0.166857
294.000000 47.531000 6.000000 -12.000000 1.000000 100.434484 2.795279 922.449318 742.557255 21.051668 0.000000 0.166176
295.000000 48.080000 7.000000 -12.000000 1.000000 107.460386 4.645243 887.547986 601.347987 20.808652 0.000000 0.153824
296.000000 48.081000 8.000000 -12.000000 1.000000 113.915787 6.658637 849.352138 460.455742 20.805536 0.000000 0.132213
297.000000 47.649000 9.000000 -12.000000 1.000000 119.809361 8.852431 807.372187 316.933021 20.992167 0.000000 0.103529
298.000000 46.887000 10.000000 -12.000000 1.000000 125.160198 11.244637 761.016483 168.038982 21.331459 0.000000 0.070287
299.000000 45.885000 11.000000 -12.000000 1.000000 129.993668 13.853884 709.563252 11.031314 21.795400 0.000000 0.038159
300.000000 46.375000 3.000000 -11.000000 1.000000 78.799888 -2.031862 1013.184288 1154.248267 21.585410 0.000000 0.132671
301.000000 49.356000 4.000000 -11.000000 1.000000 88.030987 -0.430839 983.093411 978.003288 20.278150 0.000000 0.160415
302.000000 51.297000 5.000000 -11.000000 1.000000 96.659427 1.318294 950.231628 815.303821 19.507409 0.000000 0.168258
303.000000 52.312000 6.000000 -11.000000 1.000000 104.632398 3.233330 914.197729 659.548327 19.126014 0.000000 0.160550
304.000000 52.552000 7.000000 -11.000000 1.000000 111.929161 5.334098 874.509121 505.811470 19.036108 0.000000 0.140697
305.000000 52.179000 8.000000 -11.000000 1.000000 118.553698 7.642445 830.580086 350.064033 19.170095 0.000000 0.111613
306.000000 51.344000 9.000000 -11.000000 1.000000 124.527043 10.182024 781.692685 188.687162 19.479779 0.000000 0.076326
307.000000 50.180000 10.000000 -11.000000 1.000000 129.880530 12.977794 726.957215 18.126769 19.929870 0.000000 0.040599
308.000000 48.796000 11.000000 -11.000000 1.000000 134.650493 16.055078 665.257571 -165.396425 20.493937 0.000000 0.034056
309.000000 47.276000 12.000000 -11.000000 1.000000 138.874496 19.438003 595.174344 -366.177542 21.151792 0.000000 0.071233
311.000000 47.689000 2.000000 -10.000000 1.000000 71.399453 -3.789569 1046.290583 1304.018208 20.993545 0.000000 0.094663
312.000000 52.246000 3.000000 -10.000000 1.000000 81.982225 -2.164456 1015.678393 1092.712047 19.158615 0.000000 0.144412
313.000000 55.374000 4.000000 -10.000000 1.000000 91.908383 -0.374918 982.042895 905.137223 18.072983 0.000000 0.165976
314.000000 57.175000 5.000000 -10.000000 1.000000 101.076764 1.601247 944.912942 730.210395 17.500605 0.000000 0.165969
315.000000 57.845000 6.000000 -10.000000 1.000000 109.437809 3.789319 903.714128 560.346261 17.295160 0.000000 0.149503
316.000000 57.617000 7.000000 -10.000000 1.000000 116.983415 6.217792 857.738858 389.750244 17.361120 0.000000 0.120672
317.000000 56.721000 8.000000 -10.000000 1.000000 123.734639 8.918260 806.105366 213.464926 17.633467 0.000000 0.083351
318.000000 55.356000 9.000000 -10.000000 1.000000 129.730254 11.924902 747.700619 26.752686 18.066416 0.000000 0.043646
319.000000 53.687000 10.000000 -10.000000 1.000000 135.017635 15.273254 681.099166 -175.387263 18.626794 0.000000 0.033129
320.000000 51.838000 11.000000 -10.000000 1.000000 139.646327 18.997949 604.445260 -398.687682 19.289972 0.000000 0.073422
323.000000 47.430000 1.000000 -9.000000 1.000000 62.002997 -5.786780 1084.075099 1516.134488 21.111661 0.000000 0.033383
324.000000 54.442000 2.000000 -9.000000 1.000000 74.229713 -4.150362 1053.100690 1245.757034 18.388765 0.000000 0.110658
325.000000 59.528000 3.000000 -9.000000 1.000000 85.791303 -2.331867 1018.828046 1020.268005 16.813881 0.000000 0.155162
326.000000 62.690000 4.000000 -9.000000 1.000000 96.495841 -0.303472 980.700735 818.449173 15.962343 0.000000 0.168274
327.000000 64.151000 5.000000 -9.000000 1.000000 106.234425 1.967315 938.029701 627.421401 15.595947 0.000000 0.158076
328.000000 64.245000 6.000000 -9.000000 1.000000 114.969938 4.518123 889.951252 438.240738 15.570732 0.000000 0.130736
329.000000 63.326000 7.000000 -9.000000 1.000000 122.717600 7.391927 835.367987 243.769916 15.794571 0.000000 0.091557
330.000000 61.712000 8.000000 -9.000000 1.000000 129.524858 10.636667 772.864009 37.461810 16.205766 0.000000 0.047437
331.000000 59.662000 9.000000 -9.000000 1.000000 135.454851 14.303783 700.580349 -187.504301 16.761443 0.000000 0.031897
334.000000 54.763000 1.000000 -8.000000 1.000000 64.091606 -6.441954 1096.523832 1467.137319 18.284252 0.000000 0.047121
335.000000 63.116000 2.000000 -8.000000 1.000000 77.710951 -4.613539 1061.852560 1176.216741 15.860584 0.000000 0.127205
336.000000 68.706000 3.000000 -8.000000 1.000000 90.420811 -2.549878 1022.930806 933.087136 14.566400 0.000000 0.163626
337.000000 71.667000 4.000000 -8.000000 1.000000 101.988362 -0.208992 978.925906 712.453552 13.961455 0.000000 0.165106
338.000000 72.450000 5.000000 -8.000000 1.000000 112.307489 2.459377 928.772512 499.008068 13.807993 0.000000 0.141660
339.000000 71.617000 6.000000 -8.000000 1.000000 121.370952 5.514739 871.085209 281.724461 13.966334 0.000000 0.101170
340.000000 69.698000 7.000000 -8.000000 1.000000 129.234128 9.026129 804.028552 51.108149 14.349029 0.000000 0.052147
341.000000 67.121000 8.000000 -8.000000 1.000000 135.983154 13.070721 725.118191 -202.506093 14.898537 0.000000 0.030190
344.000000 50.827000 0.000000 -7.000000 1.000000 50.604923 -9.106364 1147.517030 1836.206189 19.704135 0.000000 0.132602
345.000000 64.531000 1.000000 -7.000000 1.000000 66.742531 -7.298665 1112.850987 1407.357423 15.515760 0.000000 0.065594
346.000000 74.549000 2.000000 -7.000000 1.000000 82.086592 -5.229792 1073.514756 1091.230280 13.426974 0.000000 0.143368
347.000000 80.471000 3.000000 -7.000000 1.000000 96.146132 -2.845503 1028.496426 824.957681 12.435356 0.000000 0.167440
348.000000 82.757000 4.000000 -7.000000 1.000000 108.648481 -0.078201 976.468990 577.772484 12.088998 0.000000 0.152811
349.000000 82.297000 5.000000 -7.000000 1.000000 119.516454 3.155870 915.657342 330.728394 12.154211 0.000000 0.112400
350.000000 80.021000 6.000000 -7.000000 1.000000 128.804225 6.958880 843.631698 69.083395 12.497994 0.000000 0.057970
351.000000 76.692000 7.000000 -7.000000 1.000000 136.631846 11.451446 756.975125 -221.559950 13.039081 0.000000 0.027706
354.000000 60.047000 0.000000 -6.000000 1.000000 51.486481 -10.489044 1174.266487 1812.094052 16.678151 0.000000 0.125303
355.000000 78.065000 1.000000 -6.000000 1.000000 70.210836 -8.466163 1135.203500 1332.526338 12.825058 0.000000 0.087658
356.000000 90.070000 2.000000 -6.000000 1.000000 87.730306 -6.089778 1089.828475 983.900325 11.112004 0.000000 0.157033
357.000000 95.789000 3.000000 -6.000000 1.000000 103.365962 -3.269135 1036.477034 684.849283 10.445338 0.000000 0.162159
358.000000 96.478000 4.000000 -6.000000 1.000000 116.829524 0.114813 972.843256 396.627246 10.368145 0.000000 0.125300
359.000000 93.857000 5.000000 -6.000000 1.000000 128.131888 4.217170 895.637597 93.816001 10.655731 0.000000 0.065091
360.000000 89.407000 6.000000 -6.000000 1.000000 137.441544 9.235195 799.999823 -246.559201 11.184726 0.000000 0.023854
362.000000 73.163000 0.000000 -5.000000 1.000000 52.665561 -12.423664 1212.104705 1781.623815 13.688091 0.000000 0.118083
363.000000 97.763000 1.000000 -5.000000 1.000000 74.925104 -10.149229 1167.671457 1235.509072 10.240037 0.000000 0.112028
364.000000 111.827000 2.000000 -5.000000 1.000000 95.236154 -7.372967 1114.269882 841.542407 8.948673 0.000000 0.163333
365.000000 115.940000 3.000000 -5.000000 1.000000 112.663954 -3.926789 1048.879974 490.514173 8.628381 0.000000 0.139191
366.000000 113.291000 4.000000 -5.000000 1.000000 126.999445 0.428297 966.954341 129.947775 8.828001 0.000000 0.073532
367.000000 107.082000 5.000000 -5.000000 1.000000 138.464909 6.029699 861.312826 -280.788543 9.338371 0.000000 0.017364
369.000000 93.106000 0.000000 -4.000000 1.000000 54.309419 -15.314305 1269.729647 1742.590914 10.755744 0.000000 0.113393
370.000000 128.267000 1.000000 -4.000000 1.000000 81.649980 -12.779818 1219.129404 1102.986949 7.803737 0.000000 0.134886
371.000000 143.267000 2.000000 -4.000000 1.000000 105.575593 -9.490578 1154.927957 636.824070 6.983462 0.000000 0.150424
372.000000 142.332000 3.000000 -4.000000 1.000000 124.887044 -5.085908 1070.789884 187.562101 7.027018 0.000000 0.082497
373.000000 133.228000 4.000000 -4.000000 1.000000 139.747858 1.026150 955.721841 -330.477675 7.505630 0.000000 0.005888
375.000000 126.357000 0.000000 -3.000000 1.000000 56.706914 -20.066609 1368.156685 1693.487516 7.924982 0.000000 0.118523
376.000000 179.146000 1.000000 -3.000000 1.000000 91.823723 -17.440394 1313.123691 905.078686 5.586237 0.000000 0.141990
377.000000 189.294000 2.000000 -3.000000 1.000000 120.322247 -13.628730 1235.954337 293.265387 5.284017 0.000000 0.087473
378.000000 175.460000 3.000000 -3.000000 1.000000 141.184800 -7.669121 1119.930080 -408.988395 5.698963 0.000000 0.026150
379.000000 188.947000 0.000000 -2.000000 1.000000 60.239223 -29.116844 1574.472214 1645.442411 5.299236 0.000000 0.155222
380.000000 46.830000 5.000000 -12.000000 2.000000 95.810249 -4.741677 1064.275725 831.103383 21.368813 0.000000 0.166131
381.000000 48.327000 7.000000 -12.000000 2.000000 110.373900 -1.656333 1006.122681 541.120678 20.700815 0.000000 0.147776
382.000000 47.740000 9.000000 -12.000000 2.000000 122.742465 2.064887 936.194545 248.454642 20.951241 0.000000 0.096925
383.000000 45.893000 11.000000 -12.000000 2.000000 133.022525 6.597713 850.512034 -70.148510 21.790920 0.000000 0.034029
384.000000 47.256000 3.000000 -11.000000 2.000000 82.041076 -8.001690 1126.295672 1092.955977 21.181744 0.000000 0.141206
385.000000 49.995000 4.000000 -11.000000 2.000000 91.201023 -6.661146 1100.695640 918.282275 20.017729 0.000000 0.161597
386.000000 51.732000 5.000000 -11.000000 2.000000 99.772790 -5.186264 1072.690294 754.855986 19.342176 0.000000 0.164521
387.000000 52.585000 6.000000 -11.000000 2.000000 107.709363 -3.558068 1041.923926 596.653126 19.025720 0.000000 0.153675
388.000000 52.702000 7.000000 -11.000000 2.000000 114.993709 -1.754430 1007.967056 439.024280 18.980970 0.000000 0.132228
389.000000 52.240000 8.000000 -11.000000 2.000000 121.631691 0.250399 970.296257 278.032101 19.146767 0.000000 0.103058
390.000000 51.344000 9.000000 -11.000000 2.000000 127.644774 2.486238 928.266981 110.018895 19.479024 0.000000 0.069163
391.000000 50.140000 10.000000 -11.000000 2.000000 133.063612 4.987325 881.076377 -68.719843 19.945161 0.000000 0.034957
392.000000 48.731000 11.000000 -11.000000 2.000000 137.922943 7.792398 827.711506 -262.228590 20.520578 0.000000 0.021065
395.000000 53.087000 3.000000 -10.000000 2.000000 85.401719 -8.832963 1142.253261 1028.603038 18.853917 0.000000 0.149475
396.000000 57.476000 5.000000 -10.000000 2.000000 104.337752 -5.746587 1083.312371 664.511168 17.407746 0.000000 0.158413
397.000000 57.621000 7.000000 -10.000000 2.000000 120.210425 -1.881307 1010.352833 313.981597 17.359133 0.000000 0.109604
398.000000 55.235000 9.000000 -10.000000 2.000000 133.069157 3.047541 917.698254 -66.517041 18.105435 0.000000 0.035888
400.000000 49.126000 1.000000 -9.000000 2.000000 65.896272 -12.571510 1215.018408 1434.362050 20.381495 0.000000 0.068271
401.000000 55.615000 2.000000 -9.000000 2.000000 77.967797 -11.302735 1190.118240 1174.942996 17.999505 0.000000 0.124114
402.000000 60.236000 3.000000 -9.000000 2.000000 89.383163 -9.882468 1162.504079 952.762182 16.614777 0.000000 0.155425
403.000000 63.029000 4.000000 -9.000000 2.000000 99.970138 -8.283959 1131.706634 749.803711 15.875381 0.000000 0.160527
404.000000 64.222000 5.000000 -9.000000 2.000000 109.633714 -6.474435 1097.141798 554.570530 15.577552 0.000000 0.145642
405.000000 64.140000 6.000000 -9.000000 2.000000 118.344655 -4.413596 1058.073247 358.665850 15.595138 0.000000 0.116393
406.000000 63.117000 7.000000 -9.000000 2.000000 126.121217 -2.051806 1013.559403 155.038139 15.845867 0.000000 0.078076
407.000000 61.451000 8.000000 -9.000000 2.000000 133.010537 0.671969 962.376559 -63.099820 16.273788 0.000000 0.036677
408.000000 59.382000 9.000000 -9.000000 2.000000 139.073188 3.832221 902.904644 -303.115649 16.839529 0.000000 0.012350
411.000000 56.526000 1.000000 -8.000000 2.000000 68.260107 -14.124934 1245.844433 1383.558154 17.712310 0.000000 0.080953
412.000000 69.111000 3.000000 -8.000000 2.000000 94.156384 -11.248041 1189.049996 861.253821 14.479835 0.000000 0.157105
413.000000 72.143000 5.000000 -8.000000 2.000000 115.819059 -7.457755 1115.889589 415.814627 13.865812 0.000000 0.123009
414.000000 69.192000 7.000000 -8.000000 2.000000 132.835666 -2.293085 1018.098343 -57.704365 14.453312 0.000000 0.037023
416.000000 53.704000 0.000000 -7.000000 2.000000 55.389673 -17.363714 1311.541762 1719.236648 18.646762 0.000000 0.113930
417.000000 66.191000 1.000000 -7.000000 2.000000 71.179358 -16.143615 1286.544125 1322.892053 15.125086 0.000000 0.094641
418.000000 75.122000 2.000000 -7.000000 2.000000 86.175006 -14.735713 1258.077662 1015.406242 13.323325 0.000000 0.142262
419.000000 80.251000 3.000000 -7.000000 2.000000 99.949030 -13.095202 1225.366508 747.166711 12.468442 0.000000 0.151024
420.000000 82.063000 4.000000 -7.000000 2.000000 112.271196 -11.162742 1187.384773 491.711526 12.190306 0.000000 0.128492
421.000000 81.386000 5.000000 -7.000000 2.000000 123.084053 -8.858626 1142.747010 231.333992 12.289456 0.000000 0.086128
422.000000 79.062000 6.000000 -7.000000 2.000000 132.445752 -6.074360 1089.535561 -48.926978 12.648900 0.000000 0.036326
423.000000 75.780000 7.000000 -7.000000 2.000000 140.472389 -2.660751 1025.017843 -364.775935 13.195485 0.000000 0.008515
425.000000 79.176000 1.000000 -6.000000 2.000000 74.850710 -18.865116 1342.765940 1248.941932 12.643665 0.000000 0.107422
426.000000 94.338000 3.000000 -6.000000 2.000000 107.057645 -15.726237 1278.064544 597.917005 10.605059 0.000000 0.130655
427.000000 92.012000 5.000000 -6.000000 2.000000 131.643502 -11.011166 1184.428096 -33.990689 10.868795 0.000000 0.033459
430.000000 76.143000 0.000000 -5.000000 2.000000 58.316528 -23.774321 1449.126232 1666.903957 13.150657 0.000000 0.130175
431.000000 97.162000 1.000000 -5.000000 2.000000 79.547878 -22.711701 1425.481931 1156.239020 10.302130 0.000000 0.115023
432.000000 108.892000 2.000000 -5.000000 2.000000 98.968213 -21.402407 1396.847271 758.563018 9.189004 0.000000 0.124738
433.000000 112.128000 3.000000 -5.000000 2.000000 115.837784 -19.751265 1361.455957 387.244887 8.921060 0.000000 0.083185
434.000000 109.561000 4.000000 -5.000000 2.000000 130.009709 -17.608512 1316.596648 -6.839270 9.128048 0.000000 0.027234
438.000000 122.788000 1.000000 -4.000000 2.000000 85.608825 -28.492299 1559.192829 1035.039524 8.150963 0.000000 0.107608
439.000000 134.834000 2.000000 -4.000000 2.000000 108.018675 -27.678526 1539.552651 545.663698 7.419701 0.000000 0.067604
440.000000 134.112000 3.000000 -4.000000 2.000000 126.587854 -26.574714 1513.374048 47.646010 7.457357 0.000000 0.031083
443.000000 120.865000 0.000000 -3.000000 2.000000 62.289108 -37.284181 1794.447014 1651.531910 8.283617 0.000000 0.215988
444.000000 159.639000 1.000000 -3.000000 2.000000 93.222231 -37.873431 1812.070954 864.238521 6.268260 0.000000 0.085909
445.000000 168.655000 2.000000 -3.000000 2.000000 119.027864 -38.706021 1837.460035 175.609033 5.930577 0.000000 0.104452
448.000000 46.804000 5.000000 -12.000000 3.000000 98.090137 -10.689502 1178.163684 785.307912 21.379250 0.000000 0.157673
449.000000 48.109000 7.000000 -12.000000 3.000000 112.536655 -8.169558 1129.512687 489.798541 20.793707 0.000000 0.133976
450.000000 47.971000 8.000000 -12.000000 3.000000 118.970399 -6.708433 1101.596118 341.019243 20.851433 0.000000 0.110583
451.000000 46.623000 10.000000 -12.000000 3.000000 130.305663 -3.276765 1036.620828 26.558126 21.450606 0.000000 0.052160
452.000000 45.589000 11.000000 -12.000000 3.000000 135.250473 -1.251155 998.506532 -145.004778 21.935583 0.000000 0.022475
453.000000 47.421000 3.000000 -11.000000 3.000000 84.557509 -14.017157 1243.692649 1046.692317 21.106951 0.000000 0.140378
454.000000 49.935000 4.000000 -11.000000 3.000000 93.583194 -12.973483 1222.957506 871.836784 20.040813 0.000000 0.153520
455.000000 51.504000 5.000000 -11.000000 3.000000 102.045443 -11.819591 1200.233694 706.359240 19.427052 0.000000 0.151539
456.000000 52.242000 6.000000 -11.000000 3.000000 109.902676 -10.538150 1175.220708 544.644880 19.149857 0.000000 0.137499
457.000000 52.290000 7.000000 -11.000000 3.000000 117.140904 -9.108298 1147.554288 382.216695 19.129841 0.000000 0.114365
458.000000 51.794000 8.000000 -11.000000 3.000000 123.767217 -7.504800 1116.788559 215.157628 19.310762 0.000000 0.085073
459.000000 50.891000 9.000000 -11.000000 3.000000 129.803128 -5.697015 1082.371823 39.714181 19.651667 0.000000 0.052814
460.000000 49.698000 10.000000 -11.000000 3.000000 135.278682 -3.647639 1043.613183 -148.021720 20.122019 0.000000 0.021418
461.000000 48.310000 11.000000 -11.000000 3.000000 140.227697 -1.311234 999.635679 -352.417740 20.698592 0.000000 0.005215
463.000000 49.140000 2.000000 -10.000000 3.000000 77.638646 -16.507543 1293.967020 1187.017998 20.370854 0.000000 0.118020
464.000000 52.996000 3.000000 -10.000000 3.000000 87.916561 -15.535670 1274.204531 981.639210 18.885135 0.000000 0.143333
465.000000 55.559000 4.000000 -10.000000 3.000000 97.580663 -14.452810 1252.403086 793.080238 18.010675 0.000000 0.149482
466.000000 56.944000 5.000000 -10.000000 3.000000 106.550680 -13.239726 1228.229975 612.417684 17.569531 0.000000 0.139540
467.000000 57.336000 6.000000 -10.000000 3.000000 114.790096 -11.872736 1201.275934 433.041209 17.446718 0.000000 0.117387
468.000000 56.944000 7.000000 -10.000000 3.000000 122.297176 -10.322465 1171.031789 249.476840 17.564627 0.000000 0.086944
469.000000 55.969000 8.000000 -10.000000 3.000000 129.094568 -8.552206 1136.855982 56.655548 17.868983 0.000000 0.052582
470.000000 54.584000 9.000000 -10.000000 3.000000 135.219648 -6.515782 1097.928557 -150.629442 18.320684 0.000000 0.020558
471.000000 52.933000 10.000000 -10.000000 3.000000 140.716631 -4.154801 1053.184520 -378.220653 18.890851 0.000000 0.013206
474.000000 49.609000 1.000000 -9.000000 3.000000 68.895023 -19.287745 1351.654474 1381.117907 20.181303 0.000000 0.090449
475.000000 55.533000 2.000000 -9.000000 3.000000 80.673712 -18.417832 1333.407524 1127.299735 18.024634 0.000000 0.124004
476.000000 62.212000 4.000000 -9.000000 3.000000 102.193512 -16.334876 1290.441752 698.641531 16.083016 0.000000 0.138841
477.000000 63.241000 5.000000 -9.000000 3.000000 111.700825 -15.075346 1264.909705 497.406081 15.818551 0.000000 0.118914
478.000000 62.087000 7.000000 -9.000000 3.000000 128.077206 -11.952332 1202.837682 79.082542 16.108349 0.000000 0.050752
479.000000 60.477000 8.000000 -9.000000 3.000000 135.011727 -9.990372 1164.593238 -152.312939 16.535601 0.000000 0.020979
482.000000 47.557000 0.000000 -8.000000 3.000000 57.744618 -22.395843 1418.525131 1675.643973 21.055642 0.000000 0.125235
483.000000 56.600000 1.000000 -8.000000 3.000000 71.270981 -21.666242 1402.575118 1333.654106 17.687724 0.000000 0.098950
484.000000 63.433000 2.000000 -8.000000 3.000000 84.247678 -20.839060 1384.685678 1057.010192 15.778747 0.000000 0.126060
485.000000 67.871000 3.000000 -8.000000 3.000000 96.394300 -19.893744 1364.480178 812.728081 14.743491 0.000000 0.133341
486.000000 70.095000 4.000000 -8.000000 3.000000 107.535746 -18.803685 1341.477716 581.732703 14.272819 0.000000 0.117716
487.000000 70.501000 5.000000 -8.000000 3.000000 117.597605 -17.533891 1315.054347 350.970830 14.188044 0.000000 0.085571
488.000000 69.557000 6.000000 -8.000000 3.000000 126.583638 -16.037536 1284.385637 109.800573 14.378689 0.000000 0.046044
489.000000 67.694000 7.000000 -8.000000 3.000000 134.548062 -14.250758 1248.359092 -152.084378 14.772772 0.000000 0.025336
492.000000 54.359000 0.000000 -7.000000 3.000000 58.924498 -25.330114 1484.454233 1658.629176 18.420388 0.000000 0.136517
493.000000 65.436000 1.000000 -7.000000 3.000000 74.080066 -24.710418 1470.277176 1278.939780 15.298426 0.000000 0.105887
494.000000 73.299000 2.000000 -7.000000 3.000000 88.477266 -23.994438 1454.071899 972.317401 13.653696 0.000000 0.120688
495.000000 77.809000 3.000000 -7.000000 3.000000 101.755653 -23.158131 1435.369622 697.390327 12.858986 0.000000 0.111986
496.000000 79.403000 4.000000 -7.000000 3.000000 113.722547 -22.168847 1413.545043 430.280081 12.598137 0.000000 0.079481
497.000000 78.787000 5.000000 -7.000000 3.000000 124.331864 -20.981178 1387.745058 153.726668 12.694485 0.000000 0.036015
498.000000 76.680000 6.000000 -7.000000 3.000000 133.638298 -19.530213 1356.774630 -147.967273 13.041570 0.000000 0.037809
502.000000 76.756000 1.000000 -6.000000 3.000000 77.398359 -28.717983 1564.693035 1215.360215 13.041196 0.000000 0.109462
503.000000 85.705000 2.000000 -6.000000 3.000000 93.478629 -28.245912 1553.214818 866.730270 11.675982 0.000000 0.101555
504.000000 90.264000 4.000000 -6.000000 3.000000 120.829670 -26.983869 1523.017693 220.170613 11.080922 0.000000 0.015878
505.000000 88.052000 5.000000 -6.000000 3.000000 131.933458 -26.114005 1502.597380 -135.753710 11.357493 0.000000 0.064183
507.000000 73.997000 0.000000 -5.000000 3.000000 61.625409 -34.137445 1704.732301 1643.353304 13.530684 0.000000 0.188414
508.000000 91.367000 1.000000 -5.000000 3.000000 81.258538 -34.166154 1705.519772 1141.013119 10.954652 0.000000 0.110913
509.000000 101.267000 2.000000 -5.000000 3.000000 99.304874 -34.201186 1706.481404 727.784436 9.880464 0.000000 0.062916
510.000000 104.349000 3.000000 -5.000000 3.000000 115.187707 -34.244888 1707.682156 328.661313 9.586000 0.000000 0.027233
511.000000 102.592000 4.000000 -5.000000 3.000000 128.776307 -34.300934 1709.223884 -105.654964 9.748137 0.000000 0.116475
514.000000 87.918000 0.000000 -4.000000 3.000000 62.868863 -40.981175 1909.987676 1671.543852 11.387592 0.000000 0.257916
515.000000 110.048000 1.000000 -4.000000 3.000000 85.519674 -41.823989 1938.129319 1054.170549 9.094095 0.000000 0.142830
516.000000 120.331000 2.000000 -4.000000 3.000000 105.757346 -42.890778 1974.831570 526.485111 8.313944 0.000000 0.119582
522.000000 46.302000 5.000000 -12.000000 4.000000 99.679825 -16.624575 1296.359979 749.407094 21.610414 0.000000 0.141399
523.000000 47.477000 7.000000 -12.000000 4.000000 113.939076 -14.732712 1258.017406 446.929903 21.069912 0.000000 0.111917
524.000000 46.804000 9.000000 -12.000000 4.000000 126.217494 -12.395761 1211.555159 133.953144 21.368703 0.000000 0.059986
525.000000 46.947000 3.000000 -11.000000 4.000000 86.349503 -19.947542 1365.623482 1014.049681 21.318676 0.000000 0.130950
526.000000 49.260000 4.000000 -11.000000 4.000000 95.182556 -19.216910 1350.161542 837.619501 20.314502 0.000000 0.136427
527.000000 50.697000 5.000000 -11.000000 4.000000 103.483636 -18.407179 1333.185235 669.013923 19.735625 0.000000 0.129144
528.000000 51.363000 6.000000 -11.000000 4.000000 111.215874 -17.505149 1314.460629 502.901505 19.476683 0.000000 0.111500
529.000000 51.389000 7.000000 -11.000000 4.000000 118.367424 -16.494621 1293.702987 334.897126 19.464463 0.000000 0.086359
530.000000 50.908000 8.000000 -11.000000 4.000000 124.945743 -15.355526 1270.562197 161.045125 19.646506 0.000000 0.057265
531.000000 50.043000 9.000000 -11.000000 4.000000 130.971738 -14.062759 1244.602858 -22.554225 19.984243 0.000000 0.030732
532.000000 48.903000 10.000000 -11.000000 4.000000 136.474559 -12.584604 1215.276625 -220.063560 20.448678 0.000000 0.025790
533.000000 47.576000 11.000000 -11.000000 4.000000 141.487359 -10.880567 1181.883052 -436.233562 21.017598 0.000000 0.039815
535.000000 52.105000 3.000000 -10.000000 4.000000 89.546334 -22.092889 1411.882191 950.197563 19.206949 0.000000 0.127129
536.000000 55.710000 5.000000 -10.000000 4.000000 107.742663 -20.627278 1380.137335 573.038097 17.958030 0.000000 0.108986
537.000000 55.694000 7.000000 -10.000000 4.000000 123.252909 -18.753804 1340.432376 195.703715 17.958429 0.000000 0.052045
538.000000 53.481000 9.000000 -10.000000 4.000000 136.143885 -16.281050 1289.344097 -225.948035 18.698097 0.000000 0.037095
540.000000 49.045000 1.000000 -9.000000 4.000000 71.013308 -25.759503 1494.362784 1352.178619 20.412124 0.000000 0.105519
541.000000 54.405000 2.000000 -9.000000 4.000000 82.386942 -25.284650 1483.409246 1100.100261 18.397401 0.000000 0.114135
542.000000 58.190000 3.000000 -9.000000 4.000000 93.171081 -24.751064 1471.202701 875.338784 17.197094 0.000000 0.116694
543.000000 60.462000 4.000000 -9.000000 4.000000 103.233761 -24.147242 1457.515103 663.616430 16.548015 0.000000 0.103621
544.000000 61.412000 5.000000 -9.000000 4.000000 112.503259 -23.458504 1442.059494 454.938974 16.289348 0.000000 0.077054
545.000000 61.298000 6.000000 -9.000000 4.000000 120.959314 -22.665831 1424.469664 241.297560 16.317292 0.000000 0.042838
546.000000 60.386000 7.000000 -9.000000 4.000000 128.619888 -21.744162 1404.270765 15.329787 16.561846 0.000000 0.024934
547.000000 58.914000 8.000000 -9.000000 4.000000 135.527662 -20.659839 1380.835799 -230.650236 16.974087 0.000000 0.054330
550.000000 55.304000 1.000000 -8.000000 4.000000 73.185606 -28.823857 1567.281513 1312.242135 18.101093 0.000000 0.111828
551.000000 65.378000 3.000000 -8.000000 4.000000 97.269810 -28.114046 1550.026748 785.332977 15.305159 0.000000 0.095819
552.000000 67.845000 5.000000 -8.000000 4.000000 117.790577 -27.171732 1527.469040 303.395737 14.743258 0.000000 0.027391
553.000000 65.420000 7.000000 -8.000000 4.000000 134.457970 -25.861194 1496.719875 -232.658456 15.286141 0.000000 0.080651
555.000000 53.240000 0.000000 -7.000000 4.000000 61.279824 -32.738747 1666.996938 1642.123386 18.806254 0.000000 0.178013
556.000000 62.899000 1.000000 -7.000000 4.000000 75.607784 -32.661453 1664.946547 1269.065170 15.914516 0.000000 0.119179
557.000000 69.791000 2.000000 -7.000000 4.000000 89.233721 -32.572582 1662.593446 958.082163 14.339222 0.000000 0.094099
558.000000 73.835000 3.000000 -7.000000 4.000000 101.858773 -32.469325 1659.865255 673.123155 13.550745 0.000000 0.060471
559.000000 75.382000 4.000000 -7.000000 4.000000 113.319778 -32.347880 1656.664522 391.807515 13.269966 0.000000 0.012590
560.000000 74.998000 5.000000 -7.000000 4.000000 123.573264 -32.202979 1652.856834 96.762626 13.335828 0.000000 0.054892
561.000000 73.269000 6.000000 -7.000000 4.000000 132.661099 -32.027104 1648.251462 -228.882954 13.648881 0.000000 0.122134
564.000000 72.098000 1.000000 -6.000000 4.000000 78.236992 -37.555571 1802.529425 1223.713246 13.882983 0.000000 0.135216
565.000000 83.661000 3.000000 -6.000000 4.000000 106.873597 -38.250786 1823.505927 525.288785 11.958056 0.000000 0.056513
568.000000 68.895000 0.000000 -5.000000 4.000000 63.101641 -43.072160 1981.197884 1688.434415 14.531674 0.000000 0.287539
569.000000 83.072000 1.000000 -5.000000 4.000000 80.920314 -43.901323 2010.789006 1179.715716 12.048001 0.000000 0.188188
570.000000 91.551000 2.000000 -5.000000 4.000000 97.391370 -44.892249 2047.253698 743.915849 10.929047 0.000000 0.152489
571.000000 94.751000 3.000000 -5.000000 4.000000 112.062150 -46.096579 2093.301602 311.952465 10.557330 0.000000 0.199830
574.000000 95.610000 1.000000 -4.000000 4.000000 83.271196 -52.209160 2363.008376 1148.225992 10.467346 0.000000 0.353318
578.000000 46.206000 6.000000 -12.000000 5.000000 107.848530 -21.831358 1406.170440 567.658706 21.651704 0.000000 0.102773
579.000000 46.496000 7.000000 -12.000000 5.000000 114.616745 -21.176608 1391.961589 412.140293 21.513973 0.000000 0.081139
580.000000 46.356000 8.000000 -12.000000 5.000000 120.917298 -20.447773 1376.292109 253.063577 21.576861 0.000000 0.055482
581.000000 45.872000 9.000000 -12.000000 5.000000 126.760008 -19.631809 1358.924572 87.380052 21.802549 0.000000 0.031626
582.000000 45.948000 3.000000 -11.000000 5.000000 87.463935 -25.672786 1492.355989 993.892165 21.781537 0.000000 0.115205
583.000000 48.083000 4.000000 -11.000000 5.000000 96.054685 -25.250011 1482.613594 814.778373 20.810795 0.000000 0.111632
584.000000 49.419000 5.000000 -11.000000 5.000000 104.148416 -24.781510 1471.896346 642.167878 20.245073 0.000000 0.097839
585.000000 50.050000 6.000000 -11.000000 5.000000 111.712051 -24.259514 1460.050219 470.917016 19.987173 0.000000 0.075406
586.000000 50.091000 7.000000 -11.000000 5.000000 118.734883 -23.674410 1446.886935 296.668498 19.968694 0.000000 0.047464
587.000000 49.659000 8.000000 -11.000000 5.000000 125.223706 -23.014165 1432.173882 115.378082 20.140102 0.000000 0.023774
588.000000 48.868000 9.000000 -11.000000 5.000000 131.197825 -22.263526 1415.620250 -77.046515 20.464647 0.000000 0.036586
589.000000 47.813000 10.000000 -11.000000 5.000000 136.684580 -21.402884 1396.857614 -285.073194 20.914488 0.000000 0.066062
591.000000 47.369000 2.000000 -10.000000 5.000000 80.719538 -28.630024 1562.546564 1141.372211 21.130588 0.000000 0.108766
592.000000 50.589000 3.000000 -10.000000 5.000000 90.375122 -28.347130 1555.667276 932.993152 19.781843 0.000000 0.104789
593.000000 52.746000 4.000000 -10.000000 5.000000 99.495765 -28.031914 1548.045046 737.045112 18.969804 0.000000 0.091462
594.000000 54.296000 6.000000 -10.000000 5.000000 115.915030 -27.279616 1530.032062 352.587607 18.423027 0.000000 0.035766
595.000000 53.994000 7.000000 -10.000000 5.000000 123.183620 -26.825830 1519.284517 152.248670 18.523659 0.000000 0.015743
596.000000 53.188000 8.000000 -10.000000 5.000000 129.843466 -26.305080 1507.056496 -60.864706 18.802838 0.000000 0.050758
597.000000 52.015000 9.000000 -10.000000 5.000000 135.926877 -25.701470 1493.019469 -292.752771 19.225062 0.000000 0.090183
599.000000 47.674000 1.000000 -9.000000 5.000000 72.339291 -31.847141 1643.557323 1344.405354 20.998194 0.000000 0.123449
600.000000 52.499000 2.000000 -9.000000 5.000000 83.228316 -31.733648 1640.606387 1091.265168 19.064658 0.000000 0.104974
601.000000 55.935000 3.000000 -9.000000 5.000000 93.572853 -31.606513 1637.309315 862.092743 17.890102 0.000000 0.087736
602.000000 58.036000 4.000000 -9.000000 5.000000 103.258336 -31.463120 1633.601410 643.689341 17.239166 0.000000 0.060780
603.000000 58.966000 5.000000 -9.000000 5.000000 112.221191 -31.300140 1629.400782 426.413876 16.964687 0.000000 0.023093
604.000000 58.940000 6.000000 -9.000000 5.000000 120.441859 -31.113269 1624.602228 202.207222 16.969926 0.000000 0.023392
605.000000 58.184000 7.000000 -9.000000 5.000000 127.934242 -30.896843 1619.068301 -36.639469 17.188674 0.000000 0.074035
606.000000 56.902000 8.000000 -9.000000 5.000000 134.734771 -30.643257 1612.615932 -298.456362 17.574089 0.000000 0.124476
609.000000 45.923000 0.000000 -8.000000 5.000000 61.896928 -35.336872 1738.099184 1645.567359 21.802229 0.000000 0.198188
610.000000 53.047000 1.000000 -8.000000 5.000000 74.166471 -35.424956 1740.588313 1315.586070 18.870350 0.000000 0.136507
611.000000 58.458000 2.000000 -8.000000 5.000000 85.948188 -35.524115 1743.396925 1034.675689 17.120154 0.000000 0.101855
612.000000 62.062000 3.000000 -8.000000 5.000000 97.040321 -35.636576 1746.590745 777.450735 16.122513 0.000000 0.068712
613.000000 63.991000 4.000000 -8.000000 5.000000 107.314075 -35.765209 1750.254857 527.504059 15.633650 0.000000 0.036086
614.000000 64.513000 5.000000 -8.000000 5.000000 116.710436 -35.913770 1754.501391 272.318925 15.504814 0.000000 0.053803
615.000000 63.947000 6.000000 -8.000000 5.000000 125.226664 -36.087275 1759.481206 0.555782 15.640094 0.000000 0.111059
618.000000 50.935000 0.000000 -7.000000 5.000000 62.651707 -39.429211 1859.997444 1661.687642 19.656191 0.000000 0.238856
619.000000 59.283000 1.000000 -7.000000 5.000000 76.055550 -39.794471 1871.558631 1288.815248 16.884526 0.000000 0.162703
620.000000 65.326000 2.000000 -7.000000 5.000000 88.822702 -40.210676 1884.883011 969.963218 15.319055 0.000000 0.115289
621.000000 69.008000 3.000000 -7.000000 5.000000 100.706926 -40.689231 1900.407235 672.617781 14.498688 0.000000 0.087874
622.000000 70.591000 4.000000 -7.000000 5.000000 111.567924 -41.245196 1918.725112 375.178754 14.170788 0.000000 0.107080
623.000000 70.508000 5.000000 -7.000000 5.000000 121.360175 -41.898870 1940.665295 59.736206 14.185331 0.000000 0.170630
625.000000 56.581000 0.000000 -6.000000 5.000000 63.214909 -44.413551 2029.484010 1701.630587 17.694041 0.000000 0.309278
626.000000 66.403000 1.000000 -6.000000 5.000000 77.885288 -45.179240 2058.049443 1268.747824 15.073117 0.000000 0.222543
627.000000 73.100000 2.000000 -6.000000 5.000000 91.713226 -46.062766 2091.981516 894.604654 13.688990 0.000000 0.183237
628.000000 76.705000 3.000000 -6.000000 5.000000 104.400191 -47.093062 2132.949384 535.087343 13.042597 0.000000 0.198100
638.000000 46.529000 4.000000 -11.000000 6.000000 96.291455 -30.958617 1620.645276 802.625523 21.505713 0.000000 0.084139
639.000000 47.789000 5.000000 -11.000000 6.000000 104.140743 -30.805868 1616.749575 625.296345 20.935579 0.000000 0.061472
640.000000 48.409000 6.000000 -11.000000 6.000000 111.498897 -30.636086 1612.433954 448.288246 20.664613 0.000000 0.031409
641.000000 48.489000 7.000000 -11.000000 6.000000 118.355467 -30.446256 1607.626650 267.219453 20.628209 0.000000 0.004760
642.000000 48.132000 8.000000 -11.000000 6.000000 124.715665 -30.232609 1602.238560 77.913225 20.779113 0.000000 0.044595
643.000000 47.437000 9.000000 -11.000000 6.000000 130.596183 -29.990372 1596.157667 -123.959456 21.081966 0.000000 0.085835
645.000000 48.630000 3.000000 -10.000000 6.000000 90.527750 -34.182756 1705.975396 929.015709 20.578490 0.000000 0.088985
646.000000 51.775000 5.000000 -10.000000 6.000000 107.533846 -34.221764 1707.046642 529.744721 19.322480 0.000000 0.032315
647.000000 51.970000 7.000000 -10.000000 6.000000 122.263507 -34.271063 1708.401923 118.807303 19.245394 0.000000 0.067950
649.000000 45.750000 1.000000 -9.000000 6.000000 73.003588 -37.460473 1799.690580 1355.454046 21.880520 0.000000 0.155785
650.000000 50.083000 2.000000 -9.000000 6.000000 83.361783 -37.655805 1805.529406 1099.216310 19.983567 0.000000 0.117630
651.000000 55.184000 4.000000 -9.000000 6.000000 102.485410 -38.117392 1819.450210 638.080568 18.130108 0.000000 0.060280
652.000000 56.127000 5.000000 -9.000000 6.000000 111.094059 -38.392766 1827.839096 411.280567 17.822880 0.000000 0.063847
653.000000 55.644000 7.000000 -9.000000 6.000000 126.295231 -39.065529 1848.605961 -77.099775 17.973270 0.000000 0.160707
655.000000 50.218000 1.000000 -8.000000 6.000000 74.418452 -41.379211 1923.187205 1340.990360 19.932728 0.000000 0.187868
656.000000 58.307000 3.000000 -8.000000 6.000000 96.003041 -42.324192 1955.183487 787.917810 17.160884 0.000000 0.115961
657.000000 60.807000 5.000000 -8.000000 6.000000 114.727477 -43.537760 1997.714075 257.248482 16.449987 0.000000 0.160707
659.000000 47.979000 0.000000 -7.000000 6.000000 63.277078 -45.346221 2064.380939 1711.977499 20.866273 0.000000 0.325814
660.000000 55.173000 1.000000 -7.000000 6.000000 75.738552 -46.043940 2091.247212 1335.136712 18.141903 0.000000 0.249050
661.000000 60.483000 2.000000 -7.000000 6.000000 87.630353 -46.830261 2122.350735 1006.099969 16.545496 0.000000 0.209171
662.000000 63.865000 3.000000 -7.000000 6.000000 98.749940 -47.722843 2158.779752 694.750469 15.666335 0.000000 0.207294
663.000000 65.505000 4.000000 -7.000000 6.000000 108.975773 -48.744252 2202.030049 379.767174 15.271521 0.000000 0.249379
669.000000 45.915000 5.000000 -11.000000 7.000000 103.582358 -36.387911 1768.162120 617.986232 21.789848 0.000000 0.048168
670.000000 46.541000 6.000000 -11.000000 7.000000 110.707822 -36.523485 1772.098784 434.704506 21.494257 0.000000 0.040600
671.000000 46.675000 7.000000 -11.000000 7.000000 117.369249 -36.674335 1776.495297 246.317647 21.430253 0.000000 0.066932
672.000000 46.406000 8.000000 -11.000000 7.000000 123.569712 -36.843195 1781.437231 48.476375 21.552376 0.000000 0.108786
673.000000 45.820000 9.000000 -11.000000 7.000000 129.322647 -37.033494 1787.032793 -163.428731 21.826334 0.000000 0.155500
674.000000 46.393000 3.000000 -10.000000 7.000000 90.144433 -39.532701 1863.260746 937.482188 21.570530 0.000000 0.105526
675.000000 48.267000 4.000000 -10.000000 7.000000 98.553113 -39.829974 1872.688913 730.213205 20.729868 0.000000 0.082902
676.000000 49.380000 5.000000 -10.000000 7.000000 106.461420 -40.159920 1883.249376 524.871992 20.259719 0.000000 0.079409
677.000000 49.831000 6.000000 -10.000000 7.000000 113.843555 -40.528214 1895.159146 315.176144 20.073715 0.000000 0.104736
678.000000 49.735000 7.000000 -10.000000 7.000000 120.694315 -40.941917 1908.694472 95.177754 20.110395 0.000000 0.149822
682.000000 47.389000 2.000000 -9.000000 7.000000 82.959018 -43.002892 1978.762215 1122.772640 21.119213 0.000000 0.167096
683.000000 50.250000 3.000000 -9.000000 7.000000 92.317274 -43.494875 1996.182171 880.962353 19.913625 0.000000 0.140515
684.000000 52.114000 4.000000 -9.000000 7.000000 101.137169 -44.042149 2015.896522 646.234705 19.198425 0.000000 0.135783
685.000000 53.083000 5.000000 -9.000000 7.000000 109.366658 -44.654472 2038.390517 409.173420 18.845200 0.000000 0.159966
686.000000 53.298000 6.000000 -9.000000 7.000000 116.984291 -45.344003 2064.296623 161.276354 18.766772 0.000000 0.208994
689.000000 47.127000 1.000000 -8.000000 7.000000 74.142036 -46.667689 2115.846086 1386.532180 21.239399 0.000000 0.270005
690.000000 51.402000 2.000000 -8.000000 7.000000 84.562024 -47.372131 2144.319190 1092.291234 19.469596 0.000000 0.230786
691.000000 54.406000 3.000000 -8.000000 7.000000 94.431917 -48.156786 2176.943974 815.951069 18.391596 0.000000 0.220037
692.000000 56.209000 4.000000 -8.000000 7.000000 103.655454 -49.035831 2214.699881 542.142271 17.798753 0.000000 0.242363
703.000000 46.869000 5.000000 -10.000000 8.000000 104.966806 -45.463708 2068.858191 530.763307 21.345277 0.000000 0.165078
706.000000 47.216000 3.000000 -9.000000 8.000000 91.034110 -48.473914 2190.413879 911.695488 21.193506 0.000000 0.233283
707.000000 48.985000 4.000000 -9.000000 8.000000 99.409131 -49.244837 2223.873390 667.795424 20.424933 0.000000 0.242969
708.000000 49.981000 5.000000 -9.000000 8.000000 107.253299 -50.099246 2262.199079 419.897593 20.015395 0.000000 0.279120
#UB matrix in q= (UB) B0 G* 
#[[-0.897726206  0.380274592 -0.22132695 ]
# [ 0.245255407  0.014365225 -0.970027374]
# [-0.365974651 -0.92560766  -0.106247739]]
#B0 matrix in q= UB (B0) G*
#[[ 0.19670273 -0.          0.03056101]
# [ 0.          0.19187965 -0.        ]
# [ 0.          0.          0.18806537]]
#UBB0 matrix in q= (UB B0) G* i.e. recip. basis vectors are columns in LT frame: astar = UBB0[:,0], bstar = UBB0[:,1], cstar = UBB0[:,2]. (abcstar as columns on xyzlab1, xlab1 = ui, ui = unit vector along incident beam)
#[[-0.1765852   0.07296696 -0.06905935]
# [ 0.04824241  0.00275639 -0.17493331]
# [-0.07198821 -0.17760528 -0.03116607]]
#Euler angles phi theta psi (deg)
#[338.405  96.089 167.124]
#deviatoric strain in direct crystal frame (10-3 unit)
#[[-2.39 -0.42  0.48]
# [-0.42 -3.11 -0.36]
# [ 0.48 -0.36  5.5 ]]
#deviatoric strain in sample2 frame (10-3 unit)
#[[-2.09  2.15 -0.79]
# [ 2.16  4.8  -0.83]
# [-0.79 -0.82 -2.71]]
#new lattice parameters
#[ 5.1505     5.2078811  5.314399  90.01398   99.2060414 90.0480392]
#CCDLabel
#sCMOS
#DetectorParameters
#[79.0, 975.0, 941.0, 0.0, 0.0]
#pixelsize
#0.0734
#Frame dimensions
#[2018, 2016]
#
