#Strain and Orientation Refinement from experimental file: /home/micha/LaueProjects/DepthEffects/testZrO2_90.cor
#File created at Wed Jun 28 14:23:54 2023 with indexingSpotsSet.py
#Number of indexed spots: 534
#Element
#ZrO2
#grainIndex
#G_0
#Mean Deviation(pixel): 0.114
##spot_index intensity h k l 2theta Chi Xexp Yexp Energy GrainIndex PixDev
0.000000 45.584000 8.000000 -3.000000 -13.000000 103.201148 35.824519 198.051712 629.627129 21.948367 0.000000 0.050482
1.000000 46.260000 9.000000 -3.000000 -13.000000 110.337050 35.779796 199.328873 449.271306 21.625104 0.000000 0.037592
2.000000 46.444000 10.000000 -3.000000 -13.000000 117.018705 35.729999 200.749288 264.901277 21.536857 0.000000 0.058653
3.000000 46.223000 11.000000 -3.000000 -13.000000 123.246977 35.674210 202.338492 72.443812 21.637698 0.000000 0.097273
4.000000 45.681000 12.000000 -3.000000 -13.000000 129.033312 35.611279 204.128473 -132.330123 21.892931 0.000000 0.140602
5.000000 46.298000 8.000000 -2.000000 -13.000000 103.699289 42.155254 0.606479 587.097575 21.609408 0.000000 0.111952
6.000000 46.944000 9.000000 -2.000000 -13.000000 110.888789 42.455514 -9.705738 384.271060 21.309205 0.000000 0.131218
7.000000 47.087000 10.000000 -2.000000 -13.000000 117.608908 42.790331 -21.322096 173.962671 21.242545 0.000000 0.169473
10.000000 46.579000 8.000000 -1.000000 -13.000000 103.503093 48.632891 -247.229900 549.920830 21.478573 0.000000 0.239455
11.000000 47.217000 9.000000 -1.000000 -13.000000 110.697675 49.286114 -275.694296 317.576802 21.185962 0.000000 0.278116
14.000000 46.574000 8.000000 -5.000000 -12.000000 104.196978 21.438446 552.371535 648.476612 21.482071 0.000000 0.112262
15.000000 47.136000 9.000000 -5.000000 -12.000000 111.292895 20.610145 570.230056 492.840710 21.223620 0.000000 0.093974
16.000000 47.199000 10.000000 -5.000000 -12.000000 117.903705 19.689287 589.857881 335.649730 21.192679 0.000000 0.070491
17.000000 46.859000 11.000000 -5.000000 -12.000000 124.033270 18.660006 611.531650 173.791485 21.344503 0.000000 0.045391
18.000000 46.203000 12.000000 -5.000000 -12.000000 129.695531 17.502754 635.588847 4.214233 21.645360 0.000000 0.027971
19.000000 47.219000 7.000000 -4.000000 -12.000000 98.535860 28.026001 402.097530 757.998209 21.190935 0.000000 0.092511
20.000000 48.312000 2.000000 -1.000000 -3.000000 106.287346 27.554885 413.405600 586.292393 5.177141 0.000000 0.071938
21.000000 48.780000 9.000000 -4.000000 -12.000000 113.537432 27.029884 425.893374 414.688378 20.506923 0.000000 0.045016
22.000000 48.729000 5.000000 -2.000000 -6.000000 120.279151 26.441297 439.755618 239.172210 10.263239 0.000000 0.017586
23.000000 48.261000 11.000000 -4.000000 -12.000000 126.520350 25.776977 455.232470 55.921393 20.723421 0.000000 0.030164
24.000000 47.475000 3.000000 -1.000000 -3.000000 132.279439 25.021521 472.623466 -139.006337 5.266199 0.000000 0.063676
25.000000 46.456000 13.000000 -4.000000 -12.000000 137.581609 24.155122 492.307120 -349.969164 21.525331 0.000000 0.095299
26.000000 46.837000 2.000000 -1.000000 -4.000000 91.491751 34.449736 236.672808 907.010278 7.121903 0.000000 0.088761
27.000000 48.636000 7.000000 -3.000000 -12.000000 99.880118 34.331131 239.944577 713.995393 20.572321 0.000000 0.061798
28.000000 49.680000 8.000000 -3.000000 -12.000000 107.768295 34.199067 243.576772 523.991510 20.137130 0.000000 0.032787
29.000000 50.071000 3.000000 -1.000000 -4.000000 115.131684 34.051117 247.632422 331.614743 6.659244 0.000000 0.030043
30.000000 49.921000 10.000000 -3.000000 -12.000000 121.966051 33.884231 252.190164 131.936382 20.035197 0.000000 0.066966
31.000000 49.348000 11.000000 -3.000000 -12.000000 128.282744 33.694530 257.349389 -80.000691 20.266270 0.000000 0.111396
35.000000 47.785000 3.000000 -1.000000 -6.000000 92.043386 40.766925 47.051392 890.296990 10.470761 0.000000 0.114321
36.000000 49.582000 7.000000 -2.000000 -12.000000 100.534409 40.992340 39.644270 675.832117 20.179264 0.000000 0.097063
37.000000 50.593000 4.000000 -1.000000 -6.000000 108.504037 41.243861 31.319232 461.943812 9.886598 0.000000 0.104238
38.000000 50.928000 9.000000 -2.000000 -12.000000 115.928582 41.526293 21.894380 242.031202 19.640696 0.000000 0.137584
39.000000 50.711000 5.000000 -1.000000 -6.000000 122.805623 41.845690 11.136357 9.690272 9.861431 0.000000 0.186909
43.000000 48.172000 6.000000 -1.000000 -12.000000 91.882227 47.266234 -189.990635 888.877216 20.772526 0.000000 0.211899
44.000000 49.980000 7.000000 -1.000000 -12.000000 100.408822 47.849728 -214.059487 646.386778 20.018444 0.000000 0.217322
45.000000 50.981000 8.000000 -1.000000 -12.000000 108.397389 48.500174 -241.536807 400.747404 19.622388 0.000000 0.248918
52.000000 45.891000 9.000000 -7.000000 -11.000000 108.511121 5.736210 866.884535 578.831130 21.800630 0.000000 0.147617
53.000000 45.974000 10.000000 -7.000000 -11.000000 114.848549 4.112202 897.619866 441.288603 21.758660 0.000000 0.129028
54.000000 45.669000 11.000000 -7.000000 -11.000000 120.694192 2.329924 931.208522 301.562162 21.902070 0.000000 0.104978
55.000000 46.912000 7.000000 -6.000000 -11.000000 97.532452 13.540804 715.793786 794.613918 21.330773 0.000000 0.150541
56.000000 47.945000 8.000000 -6.000000 -11.000000 105.107978 12.324689 739.844027 643.578255 20.868120 0.000000 0.142982
57.000000 48.362000 9.000000 -6.000000 -11.000000 112.158761 10.982607 766.128641 494.498216 20.685241 0.000000 0.126722
58.000000 48.270000 10.000000 -6.000000 -11.000000 118.679012 9.495647 794.974173 344.079496 20.722403 0.000000 0.103998
59.000000 47.773000 11.000000 -6.000000 -11.000000 124.676858 7.841379 826.774056 189.353269 20.935747 0.000000 0.077144
60.000000 46.969000 12.000000 -6.000000 -11.000000 130.169925 5.993168 862.006660 27.435579 21.292344 0.000000 0.048783
61.000000 45.942000 13.000000 -6.000000 -11.000000 135.181484 3.919398 901.259532 -144.673450 21.766990 0.000000 0.022154
62.000000 47.751000 6.000000 -5.000000 -11.000000 92.062996 20.066595 581.843622 899.724464 20.957656 0.000000 0.133815
63.000000 49.453000 7.000000 -5.000000 -11.000000 100.419089 19.171120 600.802877 731.472378 20.233306 0.000000 0.129719
64.000000 50.379000 8.000000 -5.000000 -11.000000 108.235042 18.177017 621.610780 567.778091 19.858479 0.000000 0.115486
65.000000 50.644000 9.000000 -5.000000 -11.000000 115.489576 17.067755 644.551572 404.234253 19.752167 0.000000 0.093571
66.000000 50.372000 10.000000 -5.000000 -11.000000 122.181726 15.823089 669.970912 237.025779 19.856600 0.000000 0.067002
67.000000 49.684000 11.000000 -5.000000 -11.000000 128.325385 14.418037 698.293415 62.552611 20.129472 0.000000 0.040435
68.000000 48.689000 12.000000 -5.000000 -11.000000 133.944162 12.821531 730.046562 -122.866556 20.539091 0.000000 0.025464
69.000000 47.479000 13.000000 -5.000000 -11.000000 139.067005 10.994651 765.893858 -323.268902 21.061245 0.000000 0.033233
71.000000 47.449000 5.000000 -4.000000 -11.000000 85.115268 26.634094 435.230679 1043.901133 21.093340 0.000000 0.114145
72.000000 50.043000 6.000000 -4.000000 -11.000000 94.247788 26.089374 447.976364 851.989999 19.996680 0.000000 0.109586
73.000000 51.697000 7.000000 -4.000000 -11.000000 102.849431 25.482839 462.029604 669.037137 19.353951 0.000000 0.095142
74.000000 52.513000 8.000000 -4.000000 -11.000000 110.874452 24.803498 477.602486 488.842291 19.050110 0.000000 0.071868
75.000000 52.629000 9.000000 -4.000000 -11.000000 118.305147 24.037634 494.955589 306.308900 19.005961 0.000000 0.043159
76.000000 52.186000 10.000000 -4.000000 -11.000000 125.145920 23.167927 514.412676 116.812288 19.165200 0.000000 0.022139
77.000000 51.320000 11.000000 -4.000000 -11.000000 131.416933 22.172219 536.381092 -84.260758 19.486704 0.000000 0.041258
78.000000 50.150000 12.000000 -4.000000 -11.000000 137.148336 21.021746 561.380584 -301.914838 19.939736 0.000000 0.071167
81.000000 45.590000 4.000000 -3.000000 -11.000000 76.637874 33.073927 274.070290 1246.092816 21.956388 0.000000 0.122566
82.000000 49.278000 5.000000 -3.000000 -11.000000 86.481396 32.881479 279.207413 1019.804642 20.309696 0.000000 0.101990
83.000000 51.896000 6.000000 -3.000000 -11.000000 95.840689 32.667223 284.900518 810.213948 19.281628 0.000000 0.079257
84.000000 53.504000 7.000000 -3.000000 -11.000000 104.635559 32.427234 291.245030 608.010992 18.699227 0.000000 0.049466
85.000000 54.223000 8.000000 -3.000000 -11.000000 112.821302 32.156593 298.359533 406.030477 18.448516 0.000000 0.014812
86.000000 54.208000 9.000000 -3.000000 -11.000000 120.383750 31.849040 306.393256 198.102523 18.451331 0.000000 0.034833
87.000000 53.619000 10.000000 -3.000000 -11.000000 127.332365 31.496492 315.536652 -21.712037 18.652277 0.000000 0.080569
88.000000 52.602000 11.000000 -3.000000 -11.000000 133.693120 31.088332 326.036692 -259.741722 19.011002 0.000000 0.126321
91.000000 46.748000 4.000000 -2.000000 -11.000000 77.146265 39.370036 91.864139 1258.683081 21.411771 0.000000 0.158072
92.000000 50.524000 5.000000 -2.000000 -11.000000 87.168605 39.519353 87.160713 1010.004506 19.807938 0.000000 0.120403
93.000000 53.165000 6.000000 -2.000000 -11.000000 96.680037 39.686048 81.885908 777.197089 18.820692 0.000000 0.091052
94.000000 54.741000 7.000000 -2.000000 -11.000000 105.598392 39.873341 75.928873 549.484077 18.275914 0.000000 0.080673
95.000000 55.390000 8.000000 -2.000000 -11.000000 113.879659 40.085294 69.148099 318.206661 18.059402 0.000000 0.104136
96.000000 55.280000 9.000000 -2.000000 -11.000000 121.512207 40.327115 61.360037 75.440966 18.093144 0.000000 0.151906
99.000000 47.219000 4.000000 -1.000000 -11.000000 76.961059 45.883492 -135.009427 1299.060165 21.197348 0.000000 0.243447
100.000000 51.062000 5.000000 -1.000000 -11.000000 87.067470 46.394764 -155.013540 1020.942749 19.598679 0.000000 0.208507
101.000000 53.730000 6.000000 -1.000000 -11.000000 96.642495 46.965377 -177.786888 757.334804 18.622438 0.000000 0.198648
102.000000 55.299000 7.000000 -1.000000 -11.000000 105.602207 47.606162 -203.947262 495.225432 18.091068 0.000000 0.219262
108.000000 45.755000 9.000000 -8.000000 -10.000000 107.055890 -3.415014 1039.226693 610.208048 21.866002 0.000000 0.154452
109.000000 45.785000 5.000000 -4.000000 -5.000000 113.208717 -5.415625 1077.035912 477.436620 10.924590 0.000000 0.134939
110.000000 45.791000 6.000000 -7.000000 -10.000000 89.073197 6.014667 861.598343 958.507777 21.856846 0.000000 0.159778
111.000000 47.466000 7.000000 -7.000000 -10.000000 97.088532 4.494027 890.406708 806.746461 21.082254 0.000000 0.165547
112.000000 48.409000 8.000000 -7.000000 -10.000000 104.559142 2.833234 921.734616 661.123668 20.668503 0.000000 0.159093
113.000000 48.726000 9.000000 -7.000000 -10.000000 111.464453 1.015194 955.927713 517.741147 20.531337 0.000000 0.142926
114.000000 48.532000 10.000000 -7.000000 -10.000000 117.802626 -0.979304 993.397905 373.388458 20.610836 0.000000 0.119285
115.000000 47.941000 11.000000 -7.000000 -10.000000 123.585481 -3.171652 1034.640022 225.208451 20.863224 0.000000 0.090353
116.000000 47.051000 12.000000 -7.000000 -10.000000 128.833784 -5.585353 1080.253800 70.458756 21.255773 0.000000 0.058690
117.000000 45.950000 13.000000 -7.000000 -10.000000 133.573307 -8.245724 1130.973235 -93.681909 21.763526 0.000000 0.029781
118.000000 46.631000 5.000000 -6.000000 -10.000000 83.642047 12.246278 741.386810 1063.718494 21.464956 0.000000 0.142305
119.000000 49.147000 3.000000 -3.000000 -5.000000 92.549725 10.978147 766.215569 892.178651 10.181414 0.000000 0.156458
120.000000 50.741000 7.000000 -6.000000 -10.000000 100.901307 9.581454 793.316783 730.780364 19.719714 0.000000 0.155979
121.000000 51.521000 4.000000 -3.000000 -5.000000 108.653544 8.037547 823.017396 574.062323 9.709165 0.000000 0.143752
122.000000 51.621000 9.000000 -6.000000 -10.000000 115.790046 6.324496 855.710224 417.745125 19.378212 0.000000 0.122531
123.000000 51.182000 5.000000 -3.000000 -5.000000 122.315107 4.416523 891.871434 258.170130 9.771160 0.000000 0.094976
124.000000 50.335000 11.000000 -6.000000 -10.000000 128.247312 2.283400 932.083885 91.925689 19.869091 0.000000 0.063864
125.000000 49.196000 6.000000 -3.000000 -5.000000 133.613829 -0.110130 977.068783 -84.438561 10.163762 0.000000 0.032421
126.000000 47.860000 13.000000 -6.000000 -10.000000 138.445788 -2.804766 1027.729323 -274.668755 20.894027 0.000000 0.008653
128.000000 46.224000 4.000000 -5.000000 -10.000000 76.694421 18.710324 610.478313 1209.737987 21.656606 0.000000 0.116380
129.000000 49.855000 2.000000 -2.000000 -4.000000 86.510774 17.750398 630.467245 1009.906216 8.030151 0.000000 0.137244
130.000000 52.377000 6.000000 -5.000000 -10.000000 95.794195 16.686391 652.374878 826.983008 19.105360 0.000000 0.143081
131.000000 53.867000 7.000000 -5.000000 -10.000000 104.467029 15.501274 676.491399 652.829725 18.574123 0.000000 0.135119
132.000000 54.461000 8.000000 -5.000000 -10.000000 112.488229 14.174334 703.168617 481.452473 18.368523 0.000000 0.116287
133.000000 54.328000 9.000000 -5.000000 -10.000000 119.847160 12.680208 732.837243 307.984469 18.411237 0.000000 0.089850
134.000000 53.634000 4.000000 -2.000000 -4.000000 126.555721 10.987651 766.030317 128.060549 7.459051 0.000000 0.059582
135.000000 52.529000 11.000000 -5.000000 -10.000000 132.640580 9.057957 803.415521 -62.626723 19.037991 0.000000 0.030973
136.000000 51.143000 12.000000 -5.000000 -10.000000 138.136459 6.842990 845.840555 -268.703732 19.552781 0.000000 0.017306
140.000000 49.043000 2.000000 -2.000000 -5.000000 78.777972 24.633625 481.469749 1175.921908 10.205236 0.000000 0.114790
141.000000 52.797000 5.000000 -4.000000 -10.000000 88.983250 23.947557 496.982847 961.900715 18.955675 0.000000 0.121464
142.000000 55.306000 3.000000 -2.000000 -5.000000 98.606045 23.179991 514.144533 763.805202 9.046202 0.000000 0.115976
143.000000 56.676000 7.000000 -4.000000 -10.000000 107.566953 22.315820 533.232346 572.676885 17.652089 0.000000 0.098210
144.000000 57.080000 4.000000 -2.000000 -5.000000 115.828473 21.336061 554.589833 381.706364 8.762328 0.000000 0.071297
145.000000 56.715000 9.000000 -4.000000 -10.000000 123.386993 20.216569 578.647403 185.096338 17.635176 0.000000 0.041055
146.000000 55.774000 5.000000 -2.000000 -5.000000 130.263212 18.926225 605.951634 -22.675702 8.965439 0.000000 0.027245
147.000000 54.426000 11.000000 -4.000000 -10.000000 136.493084 17.424355 637.207309 -247.437046 18.373520 0.000000 0.047763
150.000000 46.156000 3.000000 -3.000000 -10.000000 69.299037 31.432695 317.183866 1417.667798 21.690093 0.000000 0.133374
151.000000 51.386000 4.000000 -3.000000 -10.000000 80.323044 31.136653 324.798359 1155.418784 19.478601 0.000000 0.112287
152.000000 55.240000 5.000000 -3.000000 -10.000000 90.851117 30.805169 333.268227 922.384262 18.116122 0.000000 0.096969
153.000000 57.728000 6.000000 -3.000000 -10.000000 100.751326 30.431502 342.746182 703.980400 17.332282 0.000000 0.073751
154.000000 58.984000 7.000000 -3.000000 -10.000000 109.943485 30.007091 353.423585 490.014191 16.960491 0.000000 0.040280
155.000000 59.213000 8.000000 -3.000000 -10.000000 118.394207 29.520904 365.543505 272.388659 16.892510 0.000000 0.003288
156.000000 58.642000 9.000000 -3.000000 -10.000000 126.107108 28.958483 379.419444 43.767945 17.054957 0.000000 0.048583
157.000000 57.485000 10.000000 -3.000000 -10.000000 133.111688 28.300512 395.462845 -203.373708 17.396323 0.000000 0.095319
160.000000 47.607000 3.000000 -2.000000 -10.000000 69.864204 38.038419 132.943915 1442.055802 21.027909 0.000000 0.179233
161.000000 53.028000 2.000000 -1.000000 -5.000000 81.149014 38.119092 130.498210 1154.033875 9.437386 0.000000 0.132615
162.000000 56.963000 5.000000 -2.000000 -10.000000 91.904594 38.209771 127.742682 895.450294 17.567527 0.000000 0.095857
163.000000 59.435000 3.000000 -1.000000 -5.000000 101.993296 38.312441 124.614480 649.603594 8.416850 0.000000 0.067155
164.000000 60.603000 7.000000 -2.000000 -10.000000 111.334366 38.429647 121.032515 404.379462 16.506495 0.000000 0.070641
165.000000 60.699000 4.000000 -1.000000 -5.000000 119.897691 38.564712 116.890336 149.549269 8.239044 0.000000 0.113945
166.000000 59.973000 9.000000 -2.000000 -10.000000 127.692434 38.722052 112.045368 -124.930154 16.675683 0.000000 0.173246
169.000000 48.217000 3.000000 -1.000000 -10.000000 69.691036 44.922771 -98.396700 1503.558549 20.761560 0.000000 0.269934
170.000000 53.770000 4.000000 -1.000000 -10.000000 81.109985 45.410734 -116.837135 1180.809569 18.613584 0.000000 0.215152
171.000000 57.771000 5.000000 -1.000000 -10.000000 91.973924 45.959388 -137.955567 887.639369 17.321259 0.000000 0.186603
172.000000 60.249000 6.000000 -1.000000 -10.000000 102.140872 46.580686 -162.381035 604.131426 16.605769 0.000000 0.190858
173.000000 61.379000 7.000000 -1.000000 -10.000000 111.528952 47.289896 -190.956325 315.025220 16.297566 0.000000 0.231832
182.000000 46.963000 7.000000 -8.000000 -9.000000 95.202780 -4.521283 1060.108490 842.690960 21.308840 0.000000 0.166934
183.000000 47.863000 8.000000 -8.000000 -9.000000 102.477614 -6.534719 1098.288942 701.274984 20.904898 0.000000 0.160479
184.000000 48.144000 9.000000 -8.000000 -9.000000 109.163253 -8.711007 1139.907777 562.603623 20.780431 0.000000 0.143348
185.000000 47.922000 10.000000 -8.000000 -9.000000 115.261669 -11.063642 1185.451366 423.500765 20.873992 0.000000 0.117742
186.000000 47.313000 11.000000 -8.000000 -9.000000 120.788197 -13.606003 1235.502352 281.183448 21.140919 0.000000 0.085834
187.000000 46.415000 12.000000 -8.000000 -9.000000 125.766858 -16.350707 1290.764706 133.020595 21.547969 0.000000 0.051089
188.000000 46.878000 5.000000 -7.000000 -9.000000 82.714084 3.281071 913.298015 1078.833521 21.352788 0.000000 0.148109
189.000000 49.340000 6.000000 -7.000000 -9.000000 91.531727 1.587322 945.174719 912.208782 20.283495 0.000000 0.165499
190.000000 50.856000 7.000000 -7.000000 -9.000000 99.744810 -0.262134 979.924187 756.157262 19.675831 0.000000 0.166425
191.000000 51.545000 8.000000 -7.000000 -9.000000 107.314424 -2.285365 1017.953088 605.207318 19.409765 0.000000 0.154333
192.000000 51.555000 9.000000 -7.000000 -9.000000 114.229137 -4.502246 1059.748652 455.136892 19.403564 0.000000 0.132088
193.000000 51.034000 10.000000 -7.000000 -9.000000 120.498053 -6.934296 1105.899654 302.392229 19.599642 0.000000 0.102288
194.000000 50.117000 11.000000 -7.000000 -9.000000 126.144037 -9.604284 1157.124324 143.709740 19.956257 0.000000 0.067863
195.000000 48.922000 12.000000 -7.000000 -9.000000 131.197960 -12.535478 1214.307998 -24.164509 20.442413 0.000000 0.035416
196.000000 47.541000 13.000000 -7.000000 -9.000000 135.694312 -15.750411 1278.554717 -204.718678 21.034612 0.000000 0.036252
197.000000 46.050000 14.000000 -7.000000 -9.000000 139.668168 -19.268997 1351.259202 -401.925336 21.714715 0.000000 0.073137
198.000000 47.385000 4.000000 -6.000000 -9.000000 76.596800 9.657418 791.848817 1201.159857 21.126223 0.000000 0.122939
199.000000 51.013000 5.000000 -6.000000 -9.000000 86.464494 8.210126 819.709448 1008.187075 19.620206 0.000000 0.153278
200.000000 53.449000 2.000000 -2.000000 -3.000000 95.727020 6.614032 850.201376 832.335694 6.240869 0.000000 0.163600
201.000000 54.799000 7.000000 -6.000000 -9.000000 104.309491 4.847847 883.715848 665.480516 18.258449 0.000000 0.157834
202.000000 55.228000 8.000000 -6.000000 -9.000000 112.176463 2.886808 920.725718 501.730687 18.113976 0.000000 0.139634
203.000000 54.923000 3.000000 -2.000000 -3.000000 119.323864 0.702237 961.807901 336.376818 6.070680 0.000000 0.112268
204.000000 54.067000 10.000000 -6.000000 -9.000000 125.769739 -1.738826 1007.673662 165.258685 18.498465 0.000000 0.078958
205.000000 52.819000 11.000000 -6.000000 -9.000000 131.545686 -4.473755 1059.210145 -15.670594 18.934097 0.000000 0.043689
206.000000 51.309000 4.000000 -2.000000 -3.000000 136.689911 -7.544028 1117.538317 -210.701685 6.496642 0.000000 0.019544
207.000000 49.640000 13.000000 -6.000000 -9.000000 141.242133 -10.994102 1184.095435 -424.723099 20.144006 0.000000 0.040247
210.000000 46.219000 3.000000 -5.000000 -9.000000 68.756735 16.349346 659.263058 1377.034135 21.661944 0.000000 0.090885
211.000000 51.378000 4.000000 -5.000000 -9.000000 79.686109 15.218919 682.195654 1143.984076 19.483120 0.000000 0.128304
212.000000 55.125000 5.000000 -5.000000 -9.000000 90.064720 13.962226 707.403272 939.747223 18.155271 0.000000 0.149127
213.000000 57.492000 6.000000 -5.000000 -9.000000 99.763835 12.558297 735.242123 751.251567 17.404601 0.000000 0.150964
214.000000 58.631000 7.000000 -5.000000 -9.000000 108.707719 10.981671 766.146872 569.734318 17.063395 0.000000 0.137487
215.000000 58.761000 8.000000 -5.000000 -9.000000 116.866929 9.201290 800.653506 388.638225 17.023177 0.000000 0.112715
216.000000 58.114000 9.000000 -5.000000 -9.000000 124.247226 7.179131 839.430680 202.463662 17.210680 0.000000 0.080715
217.000000 56.905000 10.000000 -5.000000 -9.000000 130.877677 4.868585 883.323468 6.045047 17.574632 0.000000 0.045974
218.000000 55.316000 11.000000 -5.000000 -9.000000 136.800155 2.212613 933.415662 -205.998371 18.078078 0.000000 0.013948
219.000000 53.490000 12.000000 -5.000000 -9.000000 142.061103 -0.858098 991.120468 -439.781039 18.693709 0.000000 0.009629
222.000000 49.676000 3.000000 -4.000000 -9.000000 70.961439 22.426080 530.810259 1342.795044 20.153287 0.000000 0.104047
223.000000 55.144000 4.000000 -4.000000 -9.000000 82.431525 21.573159 549.448092 1094.777944 18.151364 0.000000 0.123733
224.000000 58.976000 5.000000 -4.000000 -9.000000 93.287024 20.614330 570.140326 874.957206 16.968430 0.000000 0.131673
225.000000 61.240000 6.000000 -4.000000 -9.000000 103.390699 19.529216 593.246451 669.135089 16.337924 0.000000 0.122590
226.000000 62.144000 7.000000 -4.000000 -9.000000 112.668352 18.292066 619.215026 467.550845 16.097644 0.000000 0.099723
227.000000 61.959000 8.000000 -4.000000 -9.000000 121.099084 16.869960 648.613087 262.565397 16.143226 0.000000 0.068170
228.000000 60.965000 9.000000 -4.000000 -9.000000 128.700906 15.220289 682.168026 47.351787 16.404476 0.000000 0.036377
229.000000 59.410000 10.000000 -4.000000 -9.000000 135.516159 13.287205 720.828591 -185.005998 16.832443 0.000000 0.028314
230.000000 57.494000 11.000000 -4.000000 -9.000000 141.599213 10.996592 765.856023 -442.306652 17.391947 0.000000 0.043645
233.000000 52.641000 1.000000 -1.000000 -3.000000 72.647557 29.187509 373.787345 1326.221551 6.339027 0.000000 0.117677
234.000000 58.377000 4.000000 -3.000000 -9.000000 84.583316 28.712068 385.451409 1057.363446 17.144996 0.000000 0.109922
235.000000 62.266000 5.000000 -3.000000 -9.000000 95.844485 28.172464 398.561884 816.023815 16.070677 0.000000 0.097664
236.000000 65.088000 7.000000 -3.000000 -9.000000 115.841032 26.841296 430.350594 356.807208 15.368471 0.000000 0.035230
237.000000 64.609000 8.000000 -3.000000 -9.000000 124.494600 26.007705 449.877037 118.102088 15.480211 0.000000 0.020524
240.000000 46.941000 2.000000 -2.000000 -9.000000 60.817374 36.545272 177.267292 1689.198063 21.329558 0.000000 0.217939
241.000000 54.781000 3.000000 -2.000000 -9.000000 73.591962 36.538308 177.469949 1335.462834 18.273218 0.000000 0.150080
242.000000 60.733000 4.000000 -2.000000 -9.000000 85.871934 36.530421 177.699426 1037.671704 16.478915 0.000000 0.108732
243.000000 64.665000 5.000000 -2.000000 -9.000000 97.424883 36.521415 177.961426 766.465982 15.473595 0.000000 0.071172
244.000000 66.719000 6.000000 -2.000000 -9.000000 108.102173 36.511032 178.263387 503.257242 14.994367 0.000000 0.044125
245.000000 67.205000 7.000000 -2.000000 -9.000000 117.836233 36.498931 178.615210 233.998663 14.883459 0.000000 0.072924
246.000000 66.495000 8.000000 -2.000000 -9.000000 126.624665 36.484647 179.030353 -54.061759 15.040453 0.000000 0.132948
249.000000 47.680000 2.000000 -1.000000 -9.000000 60.617439 43.838188 -58.507022 1781.191586 20.998465 0.000000 0.320780
250.000000 55.787000 3.000000 -1.000000 -9.000000 73.603071 44.291541 -75.001428 1383.455709 17.943038 0.000000 0.235674
251.000000 61.895000 4.000000 -1.000000 -9.000000 86.064066 44.805584 -94.014787 1045.372589 16.168944 0.000000 0.185191
252.000000 65.873000 5.000000 -1.000000 -9.000000 97.757379 45.393274 -116.171828 732.212249 15.189395 0.000000 0.167175
253.000000 67.885000 6.000000 -1.000000 -9.000000 108.530243 46.071504 -142.322483 421.000591 14.736466 0.000000 0.193136
258.000000 46.324000 8.000000 -9.000000 -8.000000 98.999500 -15.314741 1269.738443 764.265435 21.600520 0.000000 0.148727
259.000000 46.639000 9.000000 -9.000000 -8.000000 105.430032 -17.692418 1318.332399 629.183748 21.452256 0.000000 0.129891
260.000000 46.468000 10.000000 -9.000000 -8.000000 111.274374 -20.220501 1371.436481 494.400666 21.528856 0.000000 0.101435
261.000000 45.920000 11.000000 -9.000000 -8.000000 116.550702 -22.902920 1429.709140 357.163323 21.783609 0.000000 0.065277
262.000000 45.804000 5.000000 -8.000000 -8.000000 80.379944 -5.595066 1080.438007 1124.302398 21.854042 0.000000 0.141346
263.000000 48.226000 3.000000 -4.000000 -4.000000 88.977636 -7.618184 1118.955989 960.378062 10.376650 0.000000 0.160257
264.000000 49.712000 7.000000 -8.000000 -8.000000 96.946085 -9.799199 1160.892807 807.934225 20.129343 0.000000 0.161401
265.000000 50.390000 3.000000 -3.000000 -3.000000 104.251590 -12.150238 1206.724782 661.360077 7.445993 0.000000 0.148384
266.000000 50.404000 9.000000 -8.000000 -8.000000 110.887589 -14.683090 1257.021026 516.404105 19.847944 0.000000 0.124012
267.000000 49.901000 5.000000 -4.000000 -4.000000 116.867589 -17.408580 1312.467197 369.555346 10.022771 0.000000 0.090744
268.000000 49.016000 11.000000 -8.000000 -8.000000 122.218514 -20.335749 1373.896939 217.650816 20.405738 0.000000 0.051925
269.000000 47.861000 3.000000 -2.000000 -2.000000 126.975213 -23.470804 1442.334089 57.593611 5.224181 0.000000 0.027075
270.000000 46.527000 13.000000 -8.000000 -8.000000 131.176395 -26.815895 1519.050194 -113.882826 21.494482 0.000000 0.064457
271.000000 47.046000 4.000000 -7.000000 -8.000000 75.038705 0.374333 967.968097 1228.619184 21.279701 0.000000 0.119515
272.000000 50.630000 5.000000 -7.000000 -8.000000 84.769710 -1.502416 1003.229181 1039.558066 19.769492 0.000000 0.154723
273.000000 53.000000 6.000000 -7.000000 -8.000000 93.844814 -3.549789 1041.767808 868.527987 18.882001 0.000000 0.167044
274.000000 54.277000 7.000000 -7.000000 -8.000000 102.194608 -5.786155 1084.063225 707.211831 18.434578 0.000000 0.161607
275.000000 54.640000 8.000000 -7.000000 -8.000000 109.790039 -8.231107 1130.692904 549.690563 18.309642 0.000000 0.142322
276.000000 54.282000 9.000000 -7.000000 -8.000000 116.633342 -10.905002 1182.359062 391.322404 18.428075 0.000000 0.112421
277.000000 53.388000 10.000000 -7.000000 -8.000000 122.748334 -13.828164 1239.924266 228.086065 18.734682 0.000000 0.075197
278.000000 52.117000 11.000000 -7.000000 -8.000000 128.171874 -17.019656 1304.459983 56.142227 19.189788 0.000000 0.037901
279.000000 50.599000 12.000000 -7.000000 -8.000000 132.947297 -20.495513 1377.313883 -128.511824 19.764136 0.000000 0.041187
280.000000 48.934000 13.000000 -7.000000 -8.000000 137.119918 -24.266361 1460.204982 -330.370637 20.435684 0.000000 0.088623
282.000000 46.859000 3.000000 -6.000000 -8.000000 68.020249 6.869202 845.341043 1378.549542 21.367158 0.000000 0.079715
283.000000 52.063000 2.000000 -3.000000 -4.000000 78.979072 5.225581 876.565010 1151.493269 9.613626 0.000000 0.134804
284.000000 55.757000 5.000000 -6.000000 -8.000000 89.306183 3.411736 910.835105 954.057053 17.950017 0.000000 0.162054
285.000000 58.003000 3.000000 -3.000000 -4.000000 98.874651 1.404043 948.619945 772.894173 8.625857 0.000000 0.166657
286.000000 58.988000 7.000000 -6.000000 -8.000000 107.615121 -0.824514 990.489465 599.231299 16.960741 0.000000 0.153878
287.000000 58.957000 4.000000 -3.000000 -4.000000 115.506468 -3.304517 1037.143864 426.629554 8.483610 0.000000 0.128044
288.000000 58.160000 9.000000 -6.000000 -8.000000 122.562683 -6.070019 1089.453083 249.793071 17.197529 0.000000 0.093067
289.000000 56.823000 5.000000 -3.000000 -4.000000 128.819896 -9.157973 1148.511547 63.840755 8.800247 0.000000 0.053717
290.000000 55.130000 11.000000 -6.000000 -8.000000 134.325680 -12.606860 1215.715579 -136.224999 18.139433 0.000000 0.027204
291.000000 53.226000 6.000000 -3.000000 -4.000000 139.131340 -16.454099 1292.875204 -355.998315 9.393685 0.000000 0.055288
294.000000 51.686000 3.000000 -5.000000 -8.000000 71.224345 12.452055 737.336032 1315.704479 19.370390 0.000000 0.098627
295.000000 57.254000 4.000000 -5.000000 -8.000000 82.884887 10.976505 766.247582 1077.851509 17.482689 0.000000 0.142152
296.000000 60.998000 5.000000 -5.000000 -8.000000 93.815597 9.323990 798.287285 868.257246 16.406224 0.000000 0.159668
297.000000 63.042000 6.000000 -5.000000 -8.000000 103.879967 7.463959 833.991865 672.770651 15.871012 0.000000 0.155234
298.000000 63.658000 7.000000 -5.000000 -8.000000 113.012433 5.359473 874.028279 481.857280 15.714906 0.000000 0.134335
299.000000 63.167000 8.000000 -5.000000 -8.000000 121.203876 2.965918 919.235773 288.199052 15.834649 0.000000 0.102005
300.000000 61.883000 9.000000 -5.000000 -8.000000 128.483456 0.229686 970.685353 85.377290 16.161360 0.000000 0.063302
301.000000 60.071000 10.000000 -5.000000 -8.000000 134.901804 -2.912903 1029.765719 -132.999073 16.647329 0.000000 0.024870
302.000000 57.940000 11.000000 -5.000000 -8.000000 140.517889 -6.535851 1098.310498 -374.026845 17.258464 0.000000 0.021145
305.000000 48.460000 1.000000 -2.000000 -4.000000 61.235316 19.985231 583.575076 1569.693635 10.331339 0.000000 0.094187
306.000000 56.428000 3.000000 -4.000000 -8.000000 74.169887 18.935750 605.751658 1263.631462 17.741211 0.000000 0.109386
307.000000 66.052000 5.000000 -4.000000 -8.000000 98.021837 16.402205 658.184351 782.883515 15.149294 0.000000 0.142279
308.000000 67.832000 3.000000 -2.000000 -4.000000 108.560372 14.856996 689.485090 567.116104 7.374441 0.000000 0.126865
309.000000 68.026000 7.000000 -4.000000 -8.000000 118.069173 13.071008 725.112506 351.790217 14.704455 0.000000 0.096980
310.000000 65.256000 9.000000 -4.000000 -8.000000 134.068315 8.533080 813.511402 -112.510152 15.324802 0.000000 0.025280
311.000000 62.970000 5.000000 -2.000000 -4.000000 140.675253 5.610326 869.272590 -379.140214 7.939843 0.000000 0.019497
313.000000 52.074000 2.000000 -3.000000 -8.000000 62.957116 27.001339 426.568979 1557.629565 19.227686 0.000000 0.127597
314.000000 60.668000 3.000000 -3.000000 -8.000000 76.569653 26.348845 441.920075 1227.809009 16.499944 0.000000 0.112523
315.000000 66.829000 4.000000 -3.000000 -8.000000 89.515347 25.602951 459.258021 951.095650 14.975288 0.000000 0.115802
316.000000 70.506000 5.000000 -3.000000 -8.000000 101.535936 24.742374 478.995235 699.117266 14.191019 0.000000 0.102456
317.000000 71.996000 6.000000 -3.000000 -8.000000 112.486355 23.738957 501.666762 454.304860 13.894745 0.000000 0.071821
318.000000 71.765000 7.000000 -3.000000 -8.000000 122.321686 22.554722 527.979513 203.625587 13.937088 0.000000 0.033457
319.000000 70.308000 8.000000 -3.000000 -8.000000 131.069599 21.137305 558.887294 -64.561349 14.223991 0.000000 0.034926
320.000000 68.056000 9.000000 -3.000000 -8.000000 138.801077 19.412694 595.708913 -362.598500 14.693281 0.000000 0.071948
322.000000 54.767000 1.000000 -1.000000 -4.000000 63.947067 34.742632 228.553084 1581.333781 9.140465 0.000000 0.179864
323.000000 63.884000 3.000000 -2.000000 -8.000000 78.085768 34.606585 232.331728 1216.905707 15.668437 0.000000 0.124505
324.000000 73.870000 5.000000 -2.000000 -8.000000 103.888798 34.266921 241.711998 618.970671 13.543847 0.000000 0.047005
325.000000 74.521000 7.000000 -2.000000 -8.000000 125.187920 33.792515 254.687387 27.822946 13.420848 0.000000 0.088889
327.000000 56.066000 2.000000 -1.000000 -8.000000 63.962749 43.008346 -28.953803 1660.052516 17.856551 0.000000 0.279295
328.000000 65.547000 3.000000 -1.000000 -8.000000 78.401517 43.469982 -45.293987 1245.383571 15.270212 0.000000 0.198507
329.000000 72.078000 4.000000 -1.000000 -8.000000 92.055326 44.003591 -64.495686 887.300809 13.883071 0.000000 0.154091
330.000000 75.672000 5.000000 -1.000000 -8.000000 104.634705 44.627310 -87.382698 546.095713 13.220929 0.000000 0.154993
331.000000 76.763000 6.000000 -1.000000 -8.000000 115.993153 45.365874 -115.128610 194.057560 13.030487 0.000000 0.211175
337.000000 45.894000 6.000000 -9.000000 -7.000000 85.085607 -16.204344 1287.780893 1037.371949 21.808879 0.000000 0.143351
338.000000 47.406000 7.000000 -9.000000 -7.000000 92.746067 -18.564673 1336.474422 886.542208 21.110161 0.000000 0.143693
339.000000 48.148000 8.000000 -9.000000 -7.000000 99.752740 -21.068156 1389.620290 742.753747 20.781866 0.000000 0.128999
340.000000 48.257000 9.000000 -9.000000 -7.000000 106.102912 -23.717773 1447.858406 601.619571 20.732394 0.000000 0.101735
341.000000 47.869000 10.000000 -9.000000 -7.000000 111.812989 -26.514364 1511.957479 459.597189 20.898047 0.000000 0.063807
342.000000 47.109000 11.000000 -9.000000 -7.000000 116.912272 -29.456071 1582.849141 313.568685 21.233157 0.000000 0.017401
343.000000 46.084000 12.000000 -9.000000 -7.000000 121.437832 -32.537791 1661.673517 160.549349 21.704128 0.000000 0.040687
344.000000 48.664000 5.000000 -8.000000 -7.000000 81.488170 -10.849715 1181.282141 1105.012288 20.569126 0.000000 0.141961
345.000000 51.009000 6.000000 -8.000000 -7.000000 90.249803 -13.196172 1227.366687 936.180178 19.620135 0.000000 0.154678
346.000000 52.301000 7.000000 -8.000000 -7.000000 98.276096 -15.716655 1277.870283 778.363739 19.132396 0.000000 0.148423
347.000000 52.712000 8.000000 -8.000000 -7.000000 105.544427 -18.420373 1333.460551 625.450670 18.980398 0.000000 0.126950
348.000000 52.430000 9.000000 -8.000000 -7.000000 112.062386 -21.314653 1394.946733 472.756419 19.080380 0.000000 0.093168
349.000000 51.629000 10.000000 -8.000000 -7.000000 117.858399 -24.404000 1463.319337 316.319472 19.374303 0.000000 0.050003
350.000000 50.462000 11.000000 -8.000000 -7.000000 122.973667 -27.689014 1539.803907 152.446398 19.820684 0.000000 0.019620
351.000000 49.052000 12.000000 -8.000000 -7.000000 127.456031 -31.165251 1625.935133 -22.631046 20.389080 0.000000 0.071693
352.000000 47.494000 13.000000 -8.000000 -7.000000 131.355794 -34.822137 1723.660885 -213.066463 21.056650 0.000000 0.141041
354.000000 45.671000 3.000000 -7.000000 -7.000000 65.771232 -2.706130 1025.872159 1425.896270 21.923774 0.000000 0.063370
355.000000 50.811000 4.000000 -7.000000 -7.000000 76.517888 -4.773362 1064.875058 1199.938116 19.702003 0.000000 0.126654
356.000000 54.438000 5.000000 -7.000000 -7.000000 86.583100 -7.024569 1107.620822 1005.748269 18.385705 0.000000 0.156852
357.000000 56.632000 6.000000 -7.000000 -7.000000 95.847863 -9.477497 1154.675373 829.240068 17.670282 0.000000 0.162178
358.000000 57.554000 8.000000 -7.000000 -7.000000 111.781526 -15.060417 1264.608933 495.617663 17.381643 0.000000 0.119746
359.000000 56.780000 9.000000 -7.000000 -7.000000 118.459201 -18.224000 1329.367197 326.804508 17.616750 0.000000 0.079991
360.000000 55.483000 10.000000 -7.000000 -7.000000 124.327657 -21.653655 1402.301389 150.237225 18.026484 0.000000 0.036180
361.000000 53.846000 11.000000 -7.000000 -7.000000 129.441358 -25.356635 1485.064192 -38.771435 18.573204 0.000000 0.043760
362.000000 52.005000 12.000000 -7.000000 -7.000000 133.859208 -29.332285 1579.785901 -245.366263 19.229362 0.000000 0.104552
365.000000 51.555000 3.000000 -6.000000 -7.000000 69.730642 2.016246 937.109420 1338.725343 19.420441 0.000000 0.089808
366.000000 57.097000 4.000000 -6.000000 -7.000000 81.281838 -0.032007 975.601247 1106.045373 17.531481 0.000000 0.144725
367.000000 60.745000 5.000000 -6.000000 -7.000000 92.017196 -2.297557 1018.182471 903.061048 16.475171 0.000000 0.166285
368.000000 62.662000 6.000000 -6.000000 -7.000000 101.807896 -4.808584 1065.541344 715.200872 15.968013 0.000000 0.162908
369.000000 63.149000 7.000000 -6.000000 -7.000000 110.599236 -7.595890 1118.529741 532.882730 15.842091 0.000000 0.140855
370.000000 62.550000 8.000000 -6.000000 -7.000000 118.393303 -10.692133 1178.214858 348.933124 15.991614 0.000000 0.105140
371.000000 61.185000 9.000000 -6.000000 -7.000000 125.229369 -14.130311 1245.951831 157.216432 16.346621 0.000000 0.061227
372.000000 59.320000 10.000000 -6.000000 -7.000000 131.167032 -17.941172 1323.487878 -48.234250 16.858994 0.000000 0.030295
373.000000 57.161000 11.000000 -6.000000 -7.000000 136.274025 -22.149217 1413.115146 -273.910019 17.494549 0.000000 0.069173
376.000000 49.725000 2.000000 -5.000000 -7.000000 60.678459 9.430214 796.237470 1553.801838 20.137780 0.000000 0.047082
377.000000 57.940000 3.000000 -5.000000 -7.000000 73.800567 7.708381 829.318983 1256.532115 17.278799 0.000000 0.111529
378.000000 63.835000 4.000000 -5.000000 -7.000000 86.197905 5.776731 866.115607 1012.891997 15.679314 0.000000 0.155081
379.000000 67.390000 5.000000 -5.000000 -7.000000 97.629129 3.599730 907.290395 796.549713 14.848885 0.000000 0.166076
380.000000 68.891000 6.000000 -5.000000 -7.000000 107.959847 1.135118 953.674162 592.056028 14.522451 0.000000 0.152733
381.000000 68.777000 7.000000 -5.000000 -7.000000 117.147715 -1.666941 1006.322128 388.867212 14.544205 0.000000 0.121994
382.000000 67.503000 8.000000 -5.000000 -7.000000 125.215593 -4.864285 1066.595173 178.573143 14.816564 0.000000 0.080145
383.000000 65.469000 9.000000 -5.000000 -7.000000 132.224240 -8.522175 1136.279148 -46.659259 15.275293 0.000000 0.036101
384.000000 62.985000 10.000000 -5.000000 -7.000000 138.250666 -12.710710 1217.764804 -295.209309 15.876383 0.000000 0.035410
387.000000 55.436000 2.000000 -4.000000 -7.000000 63.639281 16.002303 666.330754 1495.858118 18.062148 0.000000 0.076139
388.000000 64.502000 3.000000 -4.000000 -7.000000 77.740299 14.550054 695.648008 1182.626536 15.519569 0.000000 0.123240
389.000000 70.672000 4.000000 -4.000000 -7.000000 90.987638 12.890783 728.677919 921.965782 14.160975 0.000000 0.151983
390.000000 74.012000 5.000000 -4.000000 -7.000000 103.110896 10.980310 766.173402 685.647890 13.518844 0.000000 0.149985
391.000000 74.971000 6.000000 -4.000000 -7.000000 113.977068 8.762311 809.105716 456.666240 13.343170 0.000000 0.125242
392.000000 74.153000 7.000000 -4.000000 -7.000000 123.564505 6.164601 858.749801 222.719031 13.488145 0.000000 0.086077
393.000000 72.139000 8.000000 -4.000000 -7.000000 131.923910 3.094530 916.813034 -26.926069 13.862998 0.000000 0.041314
394.000000 69.402000 9.000000 -4.000000 -7.000000 139.141981 -0.566158 985.635552 -303.409993 14.408264 0.000000 0.002450
397.000000 47.991000 1.000000 -3.000000 -7.000000 50.611388 24.539792 483.601425 1912.469779 20.867162 0.000000 0.199013
398.000000 60.804000 2.000000 -3.000000 -7.000000 66.149908 23.669423 503.224742 1460.531334 16.466336 0.000000 0.104497
399.000000 70.663000 3.000000 -3.000000 -7.000000 81.166762 22.667026 525.503965 1122.258999 14.165087 0.000000 0.120106
400.000000 77.018000 4.000000 -3.000000 -7.000000 95.200359 21.500875 551.017423 835.716254 12.992959 0.000000 0.127256
401.000000 80.050000 5.000000 -3.000000 -7.000000 107.956797 20.128526 580.524498 569.497578 12.497730 0.000000 0.107771
402.000000 80.405000 6.000000 -3.000000 -7.000000 119.312885 18.492076 615.042489 303.792951 12.440227 0.000000 0.069653
403.000000 78.859000 7.000000 -3.000000 -7.000000 129.276375 16.510807 655.966272 22.949440 12.682082 0.000000 0.030829
404.000000 76.115000 8.000000 -3.000000 -7.000000 137.933712 14.069559 705.261394 -288.450231 13.137687 0.000000 0.040431
407.000000 51.077000 1.000000 -2.000000 -7.000000 51.465865 32.689415 284.312121 1959.488319 19.605554 0.000000 0.260464
408.000000 65.071000 2.000000 -2.000000 -7.000000 67.808934 32.386134 292.328204 1460.898002 15.385443 0.000000 0.143786
409.000000 75.598000 3.000000 -2.000000 -7.000000 83.566111 32.032763 301.600617 1084.168526 13.239462 0.000000 0.107702
410.000000 82.064000 4.000000 -2.000000 -7.000000 98.221532 31.615812 312.449825 758.387852 12.192863 0.000000 0.075987
411.000000 84.784000 5.000000 -2.000000 -7.000000 111.464575 31.116483 325.315407 446.681642 11.798961 0.000000 0.025496
412.000000 84.587000 6.000000 -2.000000 -7.000000 123.186728 30.507790 340.817084 123.934327 11.824193 0.000000 0.041097
413.000000 82.412000 7.000000 -2.000000 -7.000000 133.427913 29.749584 359.857512 -232.452835 12.134559 0.000000 0.110961
416.000000 67.377000 2.000000 -1.000000 -7.000000 68.202054 41.907806 9.031676 1519.379932 14.858081 0.000000 0.233482
417.000000 78.380000 3.000000 -1.000000 -7.000000 84.397481 42.357289 -6.321433 1083.876018 12.768757 0.000000 0.158162
418.000000 84.940000 4.000000 -1.000000 -7.000000 99.396759 42.890604 -24.825489 697.888396 11.779486 0.000000 0.124199
419.000000 87.465000 5.000000 -1.000000 -7.000000 112.876840 43.533490 -47.561424 314.586881 11.436742 0.000000 0.158686
424.000000 47.713000 2.000000 -3.000000 -2.000000 85.314532 -21.881898 1407.272583 1036.061464 6.992326 0.000000 0.132135
425.000000 49.093000 7.000000 -9.000000 -6.000000 92.981421 -24.498086 1465.452139 879.398061 20.384265 0.000000 0.124035
426.000000 49.650000 8.000000 -9.000000 -6.000000 99.921402 -27.252724 1529.392713 729.235431 20.152991 0.000000 0.100022
427.000000 49.549000 3.000000 -3.000000 -2.000000 106.144758 -30.143357 1599.994576 580.711371 6.730479 0.000000 0.062576
428.000000 48.950000 10.000000 -9.000000 -6.000000 111.681284 -33.164525 1678.355881 429.829670 20.436496 0.000000 0.016667
429.000000 47.990000 11.000000 -9.000000 -6.000000 116.572938 -36.307380 1765.830205 272.971232 20.843323 0.000000 0.051196
430.000000 46.784000 4.000000 -3.000000 -2.000000 120.868169 -39.559438 1864.105386 106.542463 7.126391 0.000000 0.122274
431.000000 47.733000 2.000000 -4.000000 -3.000000 72.497258 -14.203025 1247.404790 1291.113031 10.486829 0.000000 0.108029
432.000000 51.297000 5.000000 -8.000000 -6.000000 82.148605 -16.708650 1298.080880 1095.960232 19.512948 0.000000 0.137119
433.000000 53.517000 3.000000 -4.000000 -3.000000 91.005714 -19.388439 1353.778968 920.969922 9.350128 0.000000 0.141429
434.000000 54.573000 7.000000 -8.000000 -6.000000 99.017324 -22.248216 1415.284494 756.459514 18.335474 0.000000 0.125486
435.000000 54.691000 4.000000 -4.000000 -3.000000 106.177198 -25.291024 1483.555693 595.672198 9.146597 0.000000 0.092930
436.000000 54.100000 9.000000 -8.000000 -6.000000 112.511454 -28.516187 1559.773886 433.344604 18.490830 0.000000 0.046416
437.000000 53.003000 5.000000 -4.000000 -3.000000 118.066771 -31.918345 1645.412408 264.887770 9.435888 0.000000 0.012765
438.000000 51.566000 11.000000 -8.000000 -6.000000 122.901055 -35.486574 1742.332782 85.841545 19.395934 0.000000 0.082543
439.000000 49.920000 6.000000 -4.000000 -3.000000 127.076881 -39.203753 1852.921585 -108.566695 10.017053 0.000000 0.164214
441.000000 49.096000 3.000000 -7.000000 -6.000000 66.461870 -8.218767 1130.456250 1414.703194 20.393928 0.000000 0.072530
442.000000 54.512000 4.000000 -7.000000 -6.000000 77.634615 -10.675238 1177.886192 1181.112711 18.363889 0.000000 0.129579
443.000000 58.102000 5.000000 -7.000000 -6.000000 87.959869 -13.342364 1230.265615 980.403370 17.225812 0.000000 0.152113
444.000000 60.032000 6.000000 -7.000000 -6.000000 97.322504 -16.235315 1288.411911 796.949302 16.668840 0.000000 0.147904
445.000000 60.594000 7.000000 -7.000000 -6.000000 105.679494 -19.367310 1353.332947 620.761262 16.511531 0.000000 0.122939
446.000000 60.115000 8.000000 -7.000000 -6.000000 113.042387 -22.748113 1426.285970 444.585994 16.640858 0.000000 0.081657
447.000000 58.898000 9.000000 -7.000000 -6.000000 119.458473 -26.382175 1508.859835 262.416966 16.982743 0.000000 0.029459
448.000000 57.195000 10.000000 -7.000000 -6.000000 124.995009 -30.266514 1603.092047 68.592747 17.486610 0.000000 0.045982
449.000000 55.202000 11.000000 -7.000000 -6.000000 129.727986 -34.388585 1711.639150 -142.878954 18.116748 0.000000 0.122629
452.000000 48.350000 1.000000 -3.000000 -3.000000 58.314772 -1.421794 1001.713718 1605.554222 10.355760 0.000000 0.003771
453.000000 56.500000 1.000000 -2.000000 -2.000000 71.219874 -3.717830 1044.937163 1307.755752 5.906643 0.000000 0.099789
454.000000 62.295000 2.000000 -3.000000 -3.000000 83.312363 -6.252642 1092.923626 1067.955306 8.033987 0.000000 0.149893
455.000000 65.752000 5.000000 -6.000000 -6.000000 94.362556 -9.053899 1146.506309 857.855260 15.219886 0.000000 0.162751
456.000000 67.049000 7.000000 -6.000000 -6.000000 112.952699 -15.569690 1274.893098 467.825167 14.920025 0.000000 0.113788
457.000000 65.795000 4.000000 -3.000000 -3.000000 120.502731 -19.337163 1352.696784 269.037261 7.601159 0.000000 0.065103
458.000000 61.407000 5.000000 -3.000000 -3.000000 132.460232 -27.977218 1546.726992 -174.196960 8.142802 0.000000 0.082507
460.000000 55.745000 2.000000 -5.000000 -6.000000 62.249218 4.140267 897.089924 1508.766270 17.962763 0.000000 0.038072
461.000000 64.915000 3.000000 -5.000000 -6.000000 76.344738 1.900146 939.292890 1202.625963 15.421642 0.000000 0.125266
462.000000 70.973000 4.000000 -5.000000 -6.000000 89.432742 -0.624283 986.727549 951.656854 14.101654 0.000000 0.163543
463.000000 74.078000 5.000000 -5.000000 -6.000000 101.250198 -3.478893 1040.431004 726.512644 13.507363 0.000000 0.164370
464.000000 74.772000 6.000000 -5.000000 -6.000000 111.683282 -6.715666 1101.733871 510.097671 13.379416 0.000000 0.138625
465.000000 73.716000 7.000000 -5.000000 -6.000000 120.732159 -10.391505 1172.372025 290.455795 13.568890 0.000000 0.094716
466.000000 71.518000 8.000000 -5.000000 -6.000000 128.466817 -14.565095 1254.653594 57.500727 13.984170 0.000000 0.043384
467.000000 68.655000 9.000000 -5.000000 -6.000000 134.990100 -19.290661 1351.715955 -198.923641 14.565803 0.000000 0.046588
470.000000 50.104000 1.000000 -4.000000 -6.000000 50.156255 12.738244 731.691605 1861.790539 19.988155 0.000000 0.136383
471.000000 63.844000 1.000000 -2.000000 -3.000000 66.242445 10.974176 766.292972 1423.575034 7.841493 0.000000 0.073142
472.000000 74.027000 3.000000 -4.000000 -6.000000 81.599918 8.951165 805.471977 1101.894370 13.521852 0.000000 0.140832
473.000000 82.675000 5.000000 -4.000000 -6.000000 108.333296 3.893380 901.750550 583.530708 12.101157 0.000000 0.150079
474.000000 80.224000 7.000000 -4.000000 -6.000000 128.739152 -3.067053 1032.669305 76.278886 12.466426 0.000000 0.061227
476.000000 56.262000 1.000000 -3.000000 -6.000000 52.435786 20.620201 570.014437 1825.449678 17.799685 0.000000 0.153070
477.000000 71.984000 2.000000 -3.000000 -6.000000 69.910116 19.299514 598.097358 1358.091277 13.908166 0.000000 0.097915
478.000000 89.129000 4.000000 -3.000000 -6.000000 101.647158 15.910963 668.186846 710.307073 11.226202 0.000000 0.139135
479.000000 90.816000 5.000000 -3.000000 -6.000000 115.014590 13.696277 712.701829 424.083245 11.014947 0.000000 0.108149
480.000000 86.049000 7.000000 -3.000000 -6.000000 136.367636 7.616439 831.077370 -197.991422 11.621319 0.000000 0.018792
482.000000 61.417000 1.000000 -2.000000 -6.000000 53.971700 29.803238 358.519680 1843.100237 16.304370 0.000000 0.207039
483.000000 90.825000 3.000000 -2.000000 -6.000000 90.309002 28.451066 391.809535 934.398014 11.018514 0.000000 0.105340
485.000000 64.281000 1.000000 -1.000000 -6.000000 54.270648 40.059099 69.988409 1952.564498 15.577135 0.000000 0.321727
486.000000 83.163000 2.000000 -1.000000 -6.000000 73.723386 40.379708 59.658836 1353.532101 12.036683 0.000000 0.183782
490.000000 45.785000 8.000000 -10.000000 -5.000000 93.482673 -34.648435 1718.829307 861.377069 21.856213 0.000000 0.083648
491.000000 45.929000 9.000000 -10.000000 -5.000000 99.457310 -37.400256 1797.896721 715.316569 21.785304 0.000000 0.060787
492.000000 45.597000 4.000000 -4.000000 -2.000000 104.798016 -40.229652 1885.494395 568.578872 8.776666 0.000000 0.068580
493.000000 46.804000 5.000000 -9.000000 -5.000000 76.527699 -25.245738 1482.515462 1226.073406 21.387834 0.000000 0.116665
494.000000 49.097000 6.000000 -9.000000 -5.000000 84.937373 -27.958519 1546.276703 1048.948012 20.385397 0.000000 0.116803
495.000000 50.337000 7.000000 -9.000000 -5.000000 92.558120 -30.798822 1616.570160 885.019115 19.880328 0.000000 0.099029
496.000000 50.712000 8.000000 -9.000000 -5.000000 99.386348 -33.760929 1694.453851 726.995087 19.730683 0.000000 0.067342
497.000000 50.417000 9.000000 -9.000000 -5.000000 105.447696 -36.836038 1781.227317 569.383409 19.843840 0.000000 0.040039
498.000000 49.629000 10.000000 -9.000000 -5.000000 110.786752 -40.012075 1878.504721 407.567040 20.156784 0.000000 0.075151
499.000000 48.498000 11.000000 -9.000000 -5.000000 115.458742 -43.273704 1988.316191 237.217746 20.625159 0.000000 0.149124
502.000000 49.920000 4.000000 -8.000000 -5.000000 72.394206 -20.315036 1373.454482 1305.194116 20.054449 0.000000 0.108711
503.000000 53.485000 5.000000 -8.000000 -5.000000 82.187282 -23.139053 1434.945749 1101.596764 18.714232 0.000000 0.126328
504.000000 55.544000 6.000000 -8.000000 -5.000000 91.062877 -26.134825 1503.082542 918.757635 18.017260 0.000000 0.119435
505.000000 56.345000 7.000000 -8.000000 -5.000000 98.986877 -29.300628 1579.003702 745.812953 17.758352 0.000000 0.091429
506.000000 56.170000 8.000000 -8.000000 -5.000000 105.974756 -32.630409 1664.124046 575.146742 17.811204 0.000000 0.047040
507.000000 55.287000 9.000000 -8.000000 -5.000000 112.074942 -36.113068 1760.223367 400.693519 18.093809 0.000000 0.030280
508.000000 53.920000 10.000000 -8.000000 -5.000000 117.354718 -39.731987 1869.572227 216.958074 18.550605 0.000000 0.102017
509.000000 52.249000 11.000000 -8.000000 -5.000000 121.889912 -43.464925 1995.113648 18.328010 19.142609 0.000000 0.194942
511.000000 52.234000 3.000000 -7.000000 -5.000000 66.653538 -14.483739 1253.022752 1420.809552 19.168504 0.000000 0.081863
512.000000 57.860000 4.000000 -7.000000 -5.000000 78.170716 -17.355851 1311.379611 1177.176775 17.300735 0.000000 0.126614
513.000000 61.331000 5.000000 -7.000000 -5.000000 88.655359 -20.453265 1376.409622 967.963402 16.318343 0.000000 0.137893
514.000000 62.928000 6.000000 -7.000000 -5.000000 98.007256 -23.783263 1449.326818 775.547020 15.901240 0.000000 0.120666
515.000000 63.053000 7.000000 -7.000000 -5.000000 106.211647 -27.347977 1531.658734 588.694113 15.867037 0.000000 0.080554
516.000000 62.117000 8.000000 -7.000000 -5.000000 113.312986 -31.142617 1625.354582 399.086032 16.104191 0.000000 0.021595
517.000000 60.471000 9.000000 -7.000000 -5.000000 119.390502 -35.153744 1732.941542 199.539390 16.540646 0.000000 0.054470
518.000000 58.393000 10.000000 -7.000000 -5.000000 124.539825 -39.357954 1857.756142 -17.121269 17.127786 0.000000 0.146328
520.000000 52.471000 2.000000 -6.000000 -5.000000 58.650021 -7.638485 1119.344193 1602.554083 19.084504 0.000000 0.030268
521.000000 61.384000 3.000000 -6.000000 -5.000000 72.251777 -10.446708 1173.444057 1291.294192 16.309728 0.000000 0.106507
522.000000 67.304000 4.000000 -6.000000 -5.000000 84.783311 -13.536055 1234.111823 1042.074116 14.871618 0.000000 0.146846
523.000000 70.409000 5.000000 -6.000000 -5.000000 96.008752 -16.930096 1302.620829 822.578379 14.212551 0.000000 0.146975
524.000000 71.224000 6.000000 -6.000000 -5.000000 105.837696 -20.648676 1380.596314 614.713938 14.047205 0.000000 0.117171
525.000000 70.375000 7.000000 -6.000000 -5.000000 114.288697 -24.704655 1470.145996 406.356417 14.214431 0.000000 0.064687
526.000000 68.431000 8.000000 -6.000000 -5.000000 121.447006 -29.099828 1574.053467 187.732374 14.616329 0.000000 0.016447
527.000000 65.840000 9.000000 -6.000000 -5.000000 127.430465 -33.820452 1696.072718 -50.586826 15.189992 0.000000 0.097985
530.000000 48.464000 1.000000 -5.000000 -5.000000 47.628015 0.260528 970.105987 1922.837272 20.665845 0.000000 0.138424
531.000000 62.253000 2.000000 -5.000000 -5.000000 63.554954 -2.313255 1018.477839 1476.768830 16.084707 0.000000 0.045780
532.000000 72.320000 3.000000 -5.000000 -5.000000 78.590148 -5.208327 1073.108178 1159.112133 13.841798 0.000000 0.135032
533.000000 78.282000 4.000000 -5.000000 -5.000000 92.243099 -8.470961 1135.295627 898.377123 12.784207 0.000000 0.162622
534.000000 80.248000 6.000000 -5.000000 -5.000000 114.552816 -16.294638 1289.621131 428.728596 12.465549 0.000000 0.104955
535.000000 78.085000 7.000000 -5.000000 -5.000000 123.216188 -20.945993 1386.987082 186.392243 12.808960 0.000000 0.044248
536.000000 74.886000 8.000000 -5.000000 -5.000000 130.378688 -26.130142 1502.973409 -78.505678 13.354589 0.000000 0.054349
538.000000 57.294000 1.000000 -4.000000 -5.000000 51.105957 6.985755 843.119305 1815.769187 17.479965 0.000000 0.102920
539.000000 73.744000 2.000000 -4.000000 -5.000000 68.891777 4.544602 889.450714 1357.795291 13.576948 0.000000 0.084553
540.000000 84.896000 3.000000 -4.000000 -5.000000 85.519962 1.720247 942.675663 1025.366926 11.789896 0.000000 0.155943
541.000000 90.498000 4.000000 -4.000000 -5.000000 100.382985 -1.567695 1004.456315 743.719564 11.056834 0.000000 0.165844
542.000000 89.564000 6.000000 -4.000000 -5.000000 123.987992 -9.934794 1163.517010 204.311653 11.167220 0.000000 0.078946
543.000000 85.772000 7.000000 -4.000000 -5.000000 132.859210 -15.244303 1268.316532 -94.150772 11.659453 0.000000 0.029421
546.000000 66.932000 1.000000 -3.000000 -5.000000 54.487487 15.426853 677.996392 1737.775103 14.961995 0.000000 0.103904
547.000000 86.288000 2.000000 -3.000000 -5.000000 74.252906 13.401730 718.556187 1252.983101 11.601992 0.000000 0.111486
550.000000 75.921000 1.000000 -2.000000 -5.000000 57.161105 25.807621 454.522389 1712.619538 13.189436 0.000000 0.149178
552.000000 81.721000 1.000000 -1.000000 -5.000000 58.241423 37.966184 135.129271 1786.098859 12.252262 0.000000 0.254870
553.000000 46.061000 4.000000 -5.000000 -2.000000 92.063417 -40.607470 1897.739202 889.921897 10.862597 0.000000 0.099046
554.000000 46.106000 9.000000 -10.000000 -4.000000 97.911351 -43.440399 1994.239408 735.012454 21.701580 0.000000 0.113770
555.000000 45.677000 5.000000 -5.000000 -2.000000 103.105472 -46.323050 2102.185137 578.166277 10.951638 0.000000 0.162883
556.000000 47.661000 5.000000 -9.000000 -4.000000 75.454683 -31.424466 1632.603840 1268.256267 21.002842 0.000000 0.118384
557.000000 49.890000 6.000000 -9.000000 -4.000000 83.842937 -34.329032 1709.997605 1081.597223 20.061377 0.000000 0.108022
558.000000 51.003000 7.000000 -9.000000 -4.000000 91.373283 -37.338655 1796.064640 908.547414 19.620782 0.000000 0.088494
559.000000 51.223000 8.000000 -9.000000 -4.000000 98.058600 -40.441691 1892.349467 740.773087 19.533772 0.000000 0.080304
560.000000 50.771000 9.000000 -9.000000 -4.000000 103.940922 -43.623589 2000.786480 571.920954 19.705651 0.000000 0.115554
561.000000 49.838000 10.000000 -9.000000 -4.000000 109.079614 -46.867126 2123.831245 396.498724 20.072769 0.000000 0.190061
564.000000 46.047000 3.000000 -8.000000 -4.000000 60.777933 -23.989630 1453.963700 1599.988720 21.744986 0.000000 0.105352
565.000000 51.439000 2.000000 -4.000000 -2.000000 71.577629 -26.938146 1521.936556 1343.135527 9.730984 0.000000 0.112677
566.000000 54.975000 5.000000 -8.000000 -4.000000 81.429267 -30.045294 1597.533755 1128.391750 18.206723 0.000000 0.114242
567.000000 56.866000 3.000000 -4.000000 -2.000000 90.248487 -33.304504 1682.114322 935.414906 8.799180 0.000000 0.095563
568.000000 57.428000 7.000000 -8.000000 -4.000000 98.024386 -36.704642 1777.380673 751.745523 17.423506 0.000000 0.065322
569.000000 55.869000 9.000000 -8.000000 -4.000000 110.641897 -43.858544 2009.242239 378.695856 17.905454 0.000000 0.136561
570.000000 54.290000 5.000000 -4.000000 -2.000000 115.644059 -47.565779 2152.279746 175.239429 9.212368 0.000000 0.238497
572.000000 46.333000 2.000000 -7.000000 -4.000000 53.350412 -18.424910 1333.555239 1785.039451 21.613914 0.000000 0.109571
573.000000 54.699000 3.000000 -7.000000 -4.000000 66.122692 -21.485353 1398.645795 1453.017568 18.304254 0.000000 0.094932
574.000000 60.465000 4.000000 -7.000000 -4.000000 77.872108 -24.763174 1471.478561 1195.706655 16.555239 0.000000 0.118680
575.000000 63.758000 5.000000 -7.000000 -4.000000 88.399413 -28.258610 1553.522234 975.143951 15.696887 0.000000 0.114056
576.000000 64.997000 6.000000 -7.000000 -4.000000 97.632613 -31.965483 1646.642066 770.988823 15.394703 0.000000 0.081371
577.000000 64.700000 7.000000 -7.000000 -4.000000 105.595714 -35.869818 1753.243399 570.271531 15.463053 0.000000 0.037442
578.000000 63.350000 8.000000 -7.000000 -4.000000 112.372807 -39.948863 1876.482392 363.112302 15.790646 0.000000 0.079989
579.000000 61.339000 9.000000 -7.000000 -4.000000 118.078443 -44.170801 2020.583781 140.505514 16.306702 0.000000 0.181739
581.000000 56.076000 1.000000 -3.000000 -2.000000 58.316634 -14.853321 1260.441037 1628.266154 8.928759 0.000000 0.064606
582.000000 65.669000 3.000000 -6.000000 -4.000000 72.499730 -18.216440 1329.209784 1298.265140 15.245141 0.000000 0.108540
583.000000 74.196000 5.000000 -6.000000 -4.000000 96.542186 -25.858187 1496.650110 803.835540 13.486676 0.000000 0.113855
584.000000 72.761000 7.000000 -6.000000 -4.000000 114.204789 -34.721435 1720.857367 352.369124 13.747977 0.000000 0.021589
586.000000 52.788000 1.000000 -5.000000 -4.000000 47.114205 -6.857815 1104.441942 1947.860765 18.972747 0.000000 0.146051
587.000000 68.691000 2.000000 -5.000000 -4.000000 64.251537 -10.134414 1167.384265 1468.334805 14.576779 0.000000 0.061712
588.000000 79.487000 3.000000 -5.000000 -4.000000 80.091327 -13.804873 1239.460300 1134.603755 12.593279 0.000000 0.135412
589.000000 85.031000 4.000000 -5.000000 -4.000000 94.085207 -17.908682 1322.813702 860.215384 11.768878 0.000000 0.145200
590.000000 86.321000 5.000000 -5.000000 -4.000000 106.014934 -22.477286 1420.315879 606.675740 11.590272 0.000000 0.108252
591.000000 84.712000 6.000000 -5.000000 -4.000000 115.912096 -27.525967 1535.903452 351.351401 11.808260 0.000000 0.037604
592.000000 81.399000 7.000000 -5.000000 -4.000000 123.948064 -33.043751 1675.122715 76.643057 12.287244 0.000000 0.063483
595.000000 65.248000 1.000000 -4.000000 -4.000000 51.658895 -0.355169 981.671885 1792.276813 15.349041 0.000000 0.081076
596.000000 90.171000 7.000000 -4.000000 -4.000000 134.861906 -30.367759 1605.644247 -300.447275 11.090266 0.000000 0.121964
598.000000 80.516000 1.000000 -3.000000 -4.000000 56.614891 8.363129 816.774348 1657.907527 12.437545 0.000000 0.052444
602.000000 45.815000 8.000000 -10.000000 -3.000000 89.971032 -46.559362 2111.533457 941.791389 21.842208 0.000000 0.176236
603.000000 45.802000 9.000000 -10.000000 -3.000000 95.691586 -49.411192 2231.230632 776.129784 21.846006 0.000000 0.224770
604.000000 47.770000 5.000000 -9.000000 -3.000000 73.636624 -37.817038 1810.372157 1341.043171 20.954853 0.000000 0.145692
605.000000 49.952000 2.000000 -3.000000 -1.000000 81.957254 -40.849953 1905.671059 1142.053900 6.678816 0.000000 0.136034
606.000000 50.976000 7.000000 -9.000000 -3.000000 89.367933 -43.955648 2012.756412 957.494181 19.631186 0.000000 0.139834
607.000000 51.094000 8.000000 -9.000000 -3.000000 95.898482 -47.117961 2133.958949 777.595426 19.583445 0.000000 0.176223
608.000000 50.543000 3.000000 -3.000000 -1.000000 101.606439 -50.318772 2272.267292 594.794673 6.598250 0.000000 0.251065
610.000000 46.472000 3.000000 -8.000000 -3.000000 59.009469 -30.752900 1615.401561 1693.240423 21.546093 0.000000 0.152867
611.000000 52.009000 4.000000 -8.000000 -3.000000 69.903032 -33.943416 1699.424161 1415.696500 19.248736 0.000000 0.135645
612.000000 55.513000 5.000000 -8.000000 -3.000000 79.732795 -37.264019 1793.848879 1185.968940 18.030331 0.000000 0.123735
613.000000 57.267000 6.000000 -8.000000 -3.000000 88.435989 -40.699258 1900.734873 979.761911 17.475101 0.000000 0.111827
614.000000 57.650000 7.000000 -8.000000 -3.000000 96.028477 -44.229336 2022.723196 782.374082 17.356579 0.000000 0.127553
615.000000 57.037000 8.000000 -8.000000 -3.000000 102.577539 -47.830505 2163.257961 583.294102 17.540875 0.000000 0.193385
618.000000 47.173000 2.000000 -7.000000 -3.000000 51.574085 -25.691624 1492.791686 1888.525197 21.228522 0.000000 0.166193
619.000000 56.018000 3.000000 -7.000000 -3.000000 64.640371 -29.118247 1574.506742 1524.931950 17.872971 0.000000 0.123698
620.000000 61.869000 4.000000 -7.000000 -3.000000 76.491811 -32.739510 1667.017185 1248.390789 16.179425 0.000000 0.119224
621.000000 64.981000 5.000000 -7.000000 -3.000000 86.949675 -36.541179 1772.613592 1012.386734 15.401270 0.000000 0.101289
622.000000 65.913000 6.000000 -7.000000 -3.000000 95.982002 -40.501284 1894.283878 792.679963 15.180847 0.000000 0.086291
623.000000 65.282000 7.000000 -7.000000 -3.000000 103.657783 -44.590018 2036.000538 573.755960 15.325351 0.000000 0.131477
624.000000 63.629000 8.000000 -7.000000 -3.000000 110.101965 -48.770454 2203.162599 343.331731 15.721662 0.000000 0.238195
626.000000 58.440000 2.000000 -6.000000 -3.000000 56.994607 -23.042590 1432.804317 1700.711978 17.134728 0.000000 0.112751
627.000000 74.365000 4.000000 -6.000000 -3.000000 84.485572 -31.115253 1624.653064 1062.370537 13.458721 0.000000 0.110176
628.000000 76.490000 5.000000 -6.000000 -3.000000 95.546639 -35.556492 1744.315489 812.525283 13.082089 0.000000 0.075172
629.000000 73.843000 7.000000 -6.000000 -3.000000 112.398249 -45.086962 2054.566384 312.731687 13.546606 0.000000 0.167489
631.000000 55.973000 1.000000 -5.000000 -3.000000 45.644161 -15.361860 1270.690155 2032.353289 17.893049 0.000000 0.183881
632.000000 73.958000 2.000000 -5.000000 -3.000000 63.828582 -19.416104 1354.363109 1501.830551 13.538328 0.000000 0.084903
633.000000 85.224000 3.000000 -5.000000 -3.000000 80.215651 -23.896018 1451.858489 1144.006872 11.745100 0.000000 0.122692
634.000000 90.095000 4.000000 -5.000000 -3.000000 94.250483 -28.808666 1566.909783 849.709739 11.107081 0.000000 0.104354
635.000000 90.228000 5.000000 -5.000000 -3.000000 105.820768 -34.137291 1704.728090 572.528663 11.088159 0.000000 0.039880
636.000000 87.442000 6.000000 -5.000000 -3.000000 115.098504 -39.833881 1872.813382 284.487943 11.439515 0.000000 0.090898
638.000000 72.866000 1.000000 -4.000000 -3.000000 51.296925 -9.682006 1158.626469 1815.829936 13.744196 0.000000 0.094923
642.000000 47.015000 5.000000 -9.000000 -2.000000 71.042634 -44.271189 2024.255509 1457.312297 21.291479 0.000000 0.219742
643.000000 49.190000 6.000000 -9.000000 -2.000000 79.263401 -47.356094 2143.662572 1242.251910 20.347291 0.000000 0.226863
644.000000 50.186000 7.000000 -9.000000 -2.000000 86.543298 -50.476199 2279.544866 1043.157069 19.940790 0.000000 0.264050
647.000000 45.737000 3.000000 -8.000000 -2.000000 56.393445 -37.793660 1809.668681 1846.144342 21.891989 0.000000 0.230885
648.000000 51.394000 2.000000 -4.000000 -1.000000 67.286737 -41.143054 1915.336522 1539.240393 9.739583 0.000000 0.201473
649.000000 54.898000 5.000000 -8.000000 -2.000000 77.028726 -44.579204 2035.600050 1289.056264 18.232610 0.000000 0.194728
650.000000 56.591000 3.000000 -4.000000 -1.000000 85.581521 -48.080005 2173.707728 1065.482085 8.842131 0.000000 0.215939
651.000000 56.896000 7.000000 -8.000000 -2.000000 92.986962 -51.620608 2333.949246 850.544710 17.586970 0.000000 0.281588
653.000000 46.506000 2.000000 -7.000000 -2.000000 48.829905 -33.468662 1686.537364 2069.322448 21.532625 0.000000 0.252117
654.000000 55.725000 3.000000 -7.000000 -2.000000 62.032959 -37.171719 1791.114815 1658.195842 17.966826 0.000000 0.189341
655.000000 61.648000 4.000000 -7.000000 -2.000000 73.859462 -41.018767 1911.227452 1353.834579 16.237331 0.000000 0.169430
656.000000 64.656000 5.000000 -7.000000 -2.000000 84.164496 -44.981906 2050.614698 1096.514160 15.479074 0.000000 0.170664
657.000000 65.416000 6.000000 -7.000000 -2.000000 92.961012 -49.027157 2214.320806 856.095742 15.296611 0.000000 0.218364
660.000000 58.696000 1.000000 -3.000000 -1.000000 54.379613 -32.022141 1648.121762 1850.520021 8.529948 0.000000 0.190919
661.000000 69.259000 3.000000 -6.000000 -2.000000 69.137199 -36.332283 1766.550807 1450.184578 14.454498 0.000000 0.151679
662.000000 76.699000 5.000000 -6.000000 -2.000000 92.740108 -45.530820 2071.424123 867.466807 13.046509 0.000000 0.153140
664.000000 56.609000 1.000000 -5.000000 -2.000000 42.779956 -25.212599 1481.754754 2226.580965 17.691516 0.000000 0.264616
665.000000 76.386000 2.000000 -5.000000 -2.000000 61.682736 -29.990313 1596.156188 1610.595329 13.107756 0.000000 0.136622
666.000000 87.904000 3.000000 -5.000000 -2.000000 78.271746 -35.137742 1732.491965 1214.234752 11.386872 0.000000 0.120887
668.000000 77.607000 1.000000 -4.000000 -2.000000 49.203209 -21.202318 1392.517131 1937.372373 12.904358 0.000000 0.162948
678.000000 59.554000 4.000000 -7.000000 -1.000000 69.953309 -49.267320 2224.864823 1542.860795 16.808694 0.000000 0.311263
682.000000 67.016000 3.000000 -6.000000 -1.000000 65.020617 -45.941654 2087.266424 1662.052155 14.938451 0.000000 0.280081
683.000000 72.733000 4.000000 -6.000000 -1.000000 77.626500 -50.551925 2283.062845 1312.615928 13.761177 0.000000 0.298689
686.000000 74.256000 2.000000 -5.000000 -1.000000 57.369487 -41.313806 1921.007231 1858.483887 13.483792 0.000000 0.265477
687.000000 86.016000 3.000000 -5.000000 -1.000000 73.826758 -46.784988 2120.535399 1396.863930 11.637106 0.000000 0.242993
688.000000 90.030000 4.000000 -5.000000 -1.000000 87.225914 -52.378594 2371.516982 1026.432687 11.115531 0.000000 0.311300
#UB matrix in q= (UB) B0 G* 
#[[-0.894599147  0.09803052   0.43541094 ]
# [-0.266655353  0.665853919 -0.697751345]
# [-0.358590697 -0.740749145 -0.569834539]]
#B0 matrix in q= UB (B0) G*
#[[ 0.19670273 -0.          0.03056101]
# [ 0.          0.19187965 -0.        ]
# [ 0.          0.          0.18806537]]
#UBB0 matrix in q= (UB B0) G* i.e. recip. basis vectors are columns in LT frame: astar = UBB0[:,0], bstar = UBB0[:,1], cstar = UBB0[:,2]. (abcstar as columns on xyzlab1, xlab1 = ui, ui = unit vector along incident beam)
#[[-0.1759701   0.01881006  0.05454587]
# [-0.05245184  0.12776382 -0.13937212]
# [-0.07053577 -0.14213469 -0.11812504]]
#Euler angles phi theta psi (deg)
#[334.146 124.684 147.986]
#deviatoric strain in direct crystal frame (10-3 unit)
#[[ 4.25 -0.17 -0.61]
# [-0.17  3.29 -0.23]
# [-0.61 -0.23 -7.54]]
#deviatoric strain in sample2 frame (10-3 unit)
#[[ 3.92 -0.38 -1.06]
# [-0.38 -1.86 -5.52]
# [-1.06 -5.52 -2.06]]
#new lattice parameters
#[ 5.1505     5.206578   5.3135829 90.0107113 99.2737743 90.0194171]
#CCDLabel
#sCMOS
#DetectorParameters
#[79.0, 975.0, 941.0, 0.0, 0.0]
#pixelsize
#0.0734
#Frame dimensions
#[2018, 2016]
#
