#Strain and Orientation Refinement from experimental file: /home/micha/LaueProjects/DepthEffects/testZrO2_28.cor
#File created at Wed Jun 28 14:19:34 2023 with indexingSpotsSet.py
#Number of indexed spots: 539
#Element
#ZrO2
#grainIndex
#G_0
#Mean Deviation(pixel): 0.115
##spot_index intensity h k l 2theta Chi Xexp Yexp Energy GrainIndex PixDev
8.000000 87.247000 -6.000000 1.000000 1.000000 79.361720 -50.452339 2278.438757 1258.513831 11.466533 0.000000 0.309628
9.000000 106.937000 -5.000000 1.000000 1.000000 82.038505 -47.540518 2151.237981 1163.978463 9.354932 0.000000 0.234858
10.000000 136.701000 -4.000000 1.000000 1.000000 85.696725 -43.041242 1980.110046 1051.812679 7.317795 0.000000 0.152239
11.000000 184.974000 -3.000000 1.000000 1.000000 90.747073 -35.317463 1737.551435 923.800069 5.407724 0.000000 0.093104
15.000000 70.724000 -8.000000 2.000000 1.000000 89.166120 -52.161913 2360.647312 966.537355 14.143097 0.000000 0.320146
16.000000 82.458000 -7.000000 2.000000 1.000000 92.441903 -50.222149 2267.824425 869.262376 12.129823 0.000000 0.262098
17.000000 98.214000 -6.000000 2.000000 1.000000 96.612904 -47.510116 2149.985500 756.270873 10.183262 0.000000 0.195760
18.000000 120.069000 -5.000000 2.000000 1.000000 102.031913 -43.474153 1995.442747 624.884729 8.329062 0.000000 0.120841
19.000000 151.326000 -4.000000 2.000000 1.000000 109.141052 -36.926538 1783.884403 473.698115 6.607947 0.000000 0.040563
20.000000 196.480000 -3.000000 2.000000 1.000000 118.081743 -24.988508 1476.621468 307.447833 5.088710 0.000000 0.043998
24.000000 66.076000 -9.000000 3.000000 1.000000 97.968621 -51.878811 2346.604018 696.944115 15.135640 0.000000 0.304171
25.000000 75.497000 -8.000000 3.000000 1.000000 101.747713 -50.022190 2258.686905 592.629748 13.246208 0.000000 0.256471
26.000000 87.485000 -7.000000 3.000000 1.000000 106.373367 -47.484441 2148.928928 473.063392 11.430274 0.000000 0.204367
27.000000 102.985000 -6.000000 3.000000 1.000000 112.098273 -43.825168 2008.037021 335.280577 9.709120 0.000000 0.149004
28.000000 123.231000 -5.000000 3.000000 1.000000 119.197883 -38.154424 1820.574658 176.112284 8.113122 0.000000 0.094412
29.000000 149.491000 -4.000000 3.000000 1.000000 127.740479 -28.479436 1558.880046 -6.760091 6.687188 0.000000 0.051574
30.000000 181.719000 -3.000000 3.000000 1.000000 136.491198 -10.164928 1167.975824 -210.909190 5.500627 0.000000 0.023380
34.000000 68.570000 -9.000000 4.000000 1.000000 108.623149 -49.846878 2250.738032 378.532716 14.582689 0.000000 0.270022
35.000000 77.719000 -8.000000 4.000000 1.000000 113.274697 -47.462471 2148.025632 256.218623 12.865195 0.000000 0.230924
36.000000 88.957000 -7.000000 4.000000 1.000000 118.826613 -44.115497 2018.566353 115.930235 11.238961 0.000000 0.191345
37.000000 102.776000 -6.000000 4.000000 1.000000 125.440443 -39.121412 1850.348711 -46.388465 9.726957 0.000000 0.152979
38.000000 119.561000 -5.000000 4.000000 1.000000 133.132389 -31.046916 1622.902924 -235.919443 8.360572 0.000000 0.115760
80.000000 64.759000 -6.000000 0.000000 2.000000 56.577563 -42.494063 1961.036832 1904.304757 15.454526 0.000000 0.316175
81.000000 74.053000 -5.000000 0.000000 2.000000 54.419690 -38.604716 1834.339481 1926.313015 13.515541 0.000000 0.281337
82.000000 84.866000 -4.000000 0.000000 2.000000 50.932653 -33.121360 1677.199298 1984.160481 11.794349 0.000000 0.254147
83.000000 94.747000 -3.000000 0.000000 2.000000 44.815981 -25.011439 1477.145885 2136.323488 10.565608 0.000000 0.262300
85.000000 48.160000 -10.000000 1.000000 2.000000 71.290702 -49.223481 2222.932523 1499.098971 20.775646 0.000000 0.326429
86.000000 53.795000 -9.000000 1.000000 2.000000 71.899681 -47.557920 2151.955542 1462.296109 18.599617 0.000000 0.287731
87.000000 60.814000 -8.000000 1.000000 2.000000 72.592014 -45.470112 2069.102801 1422.197728 16.452887 0.000000 0.246520
88.000000 69.742000 -7.000000 1.000000 2.000000 73.367900 -42.784583 1971.121634 1379.082042 14.346533 0.000000 0.203982
89.000000 81.360000 -6.000000 1.000000 2.000000 74.201412 -39.220710 1853.452198 1334.088495 12.298017 0.000000 0.163225
90.000000 96.800000 -5.000000 1.000000 2.000000 74.989589 -34.310872 1709.497470 1290.400504 10.336570 0.000000 0.131165
91.000000 117.509000 -4.000000 1.000000 2.000000 75.403247 -27.250612 1529.342529 1256.280834 8.515111 0.000000 0.117213
92.000000 144.180000 -3.000000 1.000000 2.000000 74.443450 -16.673865 1297.368695 1253.778355 6.940334 0.000000 0.116372
93.000000 170.657000 -2.000000 1.000000 2.000000 69.274400 -0.663433 987.463073 1348.274672 5.864293 0.000000 0.089378
94.000000 165.182000 -1.000000 1.000000 2.000000 54.010660 21.435967 552.425296 1780.756485 6.059797 0.000000 0.126099
96.000000 48.080000 -11.000000 2.000000 2.000000 80.600709 -49.138573 2219.199674 1213.328057 20.806989 0.000000 0.273575
97.000000 60.085000 -9.000000 2.000000 2.000000 83.719524 -45.558235 2072.474043 1110.173787 16.649252 0.000000 0.193909
98.000000 78.866000 -7.000000 2.000000 2.000000 88.026473 -39.754600 1870.290691 989.240877 12.683713 0.000000 0.114464
99.000000 110.351000 -5.000000 2.000000 2.000000 93.806876 -29.092818 1573.881018 859.042575 9.064269 0.000000 0.103845
100.000000 133.643000 -4.000000 2.000000 2.000000 96.841420 -20.014248 1367.042208 803.570784 7.484272 0.000000 0.136937
101.000000 162.137000 -3.000000 2.000000 2.000000 98.546940 -6.486007 1097.361983 778.203199 6.168944 0.000000 0.166017
102.000000 188.908000 -2.000000 2.000000 2.000000 95.430583 12.769616 731.072079 836.085707 5.294997 0.000000 0.157148
103.000000 190.871000 -1.000000 2.000000 2.000000 81.943584 35.583037 204.930843 1128.322251 5.241492 0.000000 0.115254
105.000000 46.767000 -12.000000 3.000000 2.000000 88.170772 -49.060437 2215.775821 993.457597 21.388639 0.000000 0.244021
106.000000 51.612000 -11.000000 3.000000 2.000000 90.103885 -47.524648 2150.583998 938.110096 19.380171 0.000000 0.206919
107.000000 57.437000 -10.000000 3.000000 2.000000 92.338411 -45.637721 2075.523978 878.140129 17.414190 0.000000 0.167442
108.000000 64.526000 -9.000000 3.000000 2.000000 94.935848 -43.269624 1988.171643 813.346208 15.500462 0.000000 0.126275
109.000000 73.260000 -8.000000 3.000000 2.000000 97.964221 -40.221698 1885.238082 743.792653 13.651995 0.000000 0.085888
110.000000 84.137000 -7.000000 3.000000 2.000000 101.483708 -36.179815 1762.146195 670.107491 11.886506 0.000000 0.056183
111.000000 97.767000 -6.000000 3.000000 2.000000 105.501104 -30.632049 1612.331543 594.085390 10.228766 0.000000 0.061656
112.000000 114.749000 -5.000000 3.000000 2.000000 109.839534 -22.736632 1426.032397 519.951953 8.714488 0.000000 0.093970
113.000000 135.177000 -4.000000 3.000000 2.000000 113.797154 -11.198015 1188.073254 457.149931 7.397137 0.000000 0.124056
114.000000 157.204000 -3.000000 3.000000 2.000000 115.433145 5.386944 873.507682 426.904123 6.360505 0.000000 0.128125
115.000000 174.093000 -2.000000 3.000000 2.000000 111.007597 26.505701 438.245742 479.139394 5.743783 0.000000 0.066796
116.000000 172.544000 -1.000000 3.000000 2.000000 97.115489 47.599409 -203.668212 741.751843 5.796406 0.000000 0.191493
117.000000 54.103000 -11.000000 4.000000 2.000000 99.139745 -45.709781 2078.296453 693.023540 18.485063 0.000000 0.159324
118.000000 67.129000 -9.000000 4.000000 2.000000 105.348495 -40.633749 1898.596012 551.719598 14.896904 0.000000 0.080765
119.000000 85.945000 -7.000000 4.000000 2.000000 113.421803 -31.935604 1645.862495 391.604809 11.634178 0.000000 0.015267
120.000000 112.574000 -5.000000 4.000000 2.000000 122.693386 -15.041033 1264.218491 225.700810 8.880959 0.000000 0.071682
121.000000 128.254000 -4.000000 4.000000 2.000000 126.103999 -0.784029 989.728804 155.964154 7.794849 0.000000 0.079292
122.000000 142.971000 -3.000000 4.000000 2.000000 125.960776 18.193380 621.270232 119.061395 6.992406 0.000000 0.043219
123.000000 151.817000 -2.000000 4.000000 2.000000 119.315817 39.090253 100.623337 162.315395 6.585492 0.000000 0.106102
125.000000 46.409000 -13.000000 5.000000 2.000000 101.944353 -47.496759 2149.435715 604.010156 21.548686 0.000000 0.196314
126.000000 50.661000 -12.000000 5.000000 2.000000 104.607824 -45.775409 2080.827681 538.818539 19.739407 0.000000 0.164242
127.000000 55.600000 -11.000000 5.000000 2.000000 107.613274 -43.658375 2002.034193 468.698951 17.984922 0.000000 0.130838
128.000000 61.364000 -10.000000 5.000000 2.000000 111.007283 -40.999905 1910.605210 393.362803 16.294808 0.000000 0.096577
129.000000 68.106000 -9.000000 5.000000 2.000000 114.828369 -37.579217 1803.236404 312.662133 14.681012 0.000000 0.062498
130.000000 75.980000 -8.000000 5.000000 2.000000 119.084146 -33.052673 1675.361262 226.743900 13.158632 0.000000 0.031481
131.000000 85.105000 -7.000000 5.000000 2.000000 123.697800 -26.876690 1520.484797 136.342808 11.747029 0.000000 0.018605
132.000000 95.467000 -6.000000 5.000000 2.000000 128.388193 -18.208542 1329.045373 43.351419 10.471446 0.000000 0.032785
133.000000 106.735000 -5.000000 5.000000 2.000000 132.428534 -5.907287 1086.362549 -48.027100 9.365430 0.000000 0.038640
134.000000 117.953000 -4.000000 5.000000 2.000000 134.310392 10.851538 768.682353 -128.823029 8.474543 0.000000 0.026463
135.000000 127.141000 -3.000000 5.000000 2.000000 131.826258 30.741590 334.886067 -179.682792 7.862278 0.000000 0.100683
137.000000 47.362000 -13.000000 6.000000 2.000000 109.080703 -45.835428 2083.147838 406.648312 21.112426 0.000000 0.176944
138.000000 56.214000 -11.000000 6.000000 2.000000 115.461524 -41.327405 1921.460128 258.557460 17.786194 0.000000 0.121148
139.000000 67.776000 -9.000000 6.000000 2.000000 123.310154 -34.019909 1701.513913 87.682679 14.750597 0.000000 0.070486
140.000000 82.500000 -7.000000 6.000000 2.000000 132.294301 -20.849159 1384.902891 -106.763651 12.116552 0.000000 0.038131
141.000000 99.361000 -5.000000 6.000000 2.000000 139.336402 4.517947 889.954568 -315.822130 10.059642 0.000000 0.012172
144.000000 47.786000 -13.000000 7.000000 2.000000 115.770501 -43.976891 2013.526708 218.927829 20.922975 0.000000 0.170065
145.000000 51.698000 -12.000000 7.000000 2.000000 119.048447 -41.622044 1931.319553 141.326621 19.338872 0.000000 0.147133
146.000000 56.093000 -11.000000 7.000000 2.000000 122.649824 -38.665083 1836.197941 57.766910 17.822708 0.000000 0.125159
147.000000 61.014000 -10.000000 7.000000 2.000000 126.574095 -34.865106 1724.859229 -32.274520 16.384534 0.000000 0.104694
148.000000 66.480000 -9.000000 7.000000 2.000000 130.776120 -29.854895 1592.769714 -129.288980 15.036485 0.000000 0.085788
149.000000 72.468000 -8.000000 7.000000 2.000000 135.116157 -23.075389 1433.532084 -233.651025 13.793354 0.000000 0.066909
150.000000 78.869000 -7.000000 7.000000 2.000000 139.264240 -13.722405 1237.818186 -345.448809 12.673356 0.000000 0.043274
151.000000 85.433000 -6.000000 7.000000 2.000000 142.545750 -0.876888 991.473523 -464.139997 11.699184 0.000000 0.009432
154.000000 47.757000 -13.000000 8.000000 2.000000 121.993310 -41.888520 1940.314425 37.819428 20.933911 0.000000 0.171914
155.000000 55.393000 -11.000000 8.000000 2.000000 129.165464 -35.609684 1745.826211 -137.378698 18.046343 0.000000 0.134481
156.000000 64.528000 -9.000000 8.000000 2.000000 137.237882 -24.972294 1476.250774 -342.860146 15.490182 0.000000 0.094919
159.000000 47.355000 -13.000000 9.000000 2.000000 127.740221 -39.531594 1863.225779 -139.112385 21.109766 0.000000 0.177813
177.000000 46.051000 -10.000000 1.000000 3.000000 68.347458 -42.691822 1967.891374 1522.320505 21.728883 0.000000 0.230771
178.000000 50.908000 -9.000000 1.000000 3.000000 68.402750 -40.375115 1890.192474 1500.286251 19.656024 0.000000 0.202293
179.000000 56.736000 -8.000000 1.000000 3.000000 68.351099 -37.520586 1801.484216 1479.619832 17.637441 0.000000 0.174735
180.000000 63.761000 -7.000000 1.000000 3.000000 68.098835 -33.936971 1699.248270 1462.535338 15.694489 0.000000 0.149289
181.000000 72.195000 -6.000000 1.000000 3.000000 67.469430 -29.346401 1580.134834 1453.220523 13.861410 0.000000 0.126688
182.000000 82.053000 -5.000000 1.000000 3.000000 66.122743 -23.347720 1439.588607 1459.928564 12.196799 0.000000 0.105085
183.000000 92.587000 -4.000000 1.000000 3.000000 63.399411 -15.389711 1271.252895 1500.026850 10.809921 0.000000 0.076069
184.000000 100.796000 -3.000000 1.000000 3.000000 58.076002 -4.831848 1065.981472 1613.951343 9.930589 0.000000 0.026450
185.000000 98.739000 -2.000000 1.000000 3.000000 48.260772 8.709570 810.119841 1912.468253 10.138738 0.000000 0.134388
187.000000 46.487000 -11.000000 2.000000 3.000000 77.896077 -42.873595 1974.230431 1255.951946 21.521818 0.000000 0.182975
188.000000 51.336000 -10.000000 2.000000 3.000000 78.845844 -40.678030 1900.041319 1220.828065 19.488651 0.000000 0.156184
189.000000 57.155000 -9.000000 2.000000 3.000000 79.878174 -37.996555 1815.789045 1184.818022 17.504448 0.000000 0.133188
190.000000 64.200000 -8.000000 2.000000 3.000000 80.970237 -34.664567 1719.277165 1148.954125 15.583634 0.000000 0.117996
191.000000 72.778000 -7.000000 2.000000 3.000000 82.058024 -30.445987 1607.619864 1115.168530 13.746919 0.000000 0.114772
192.000000 83.198000 -6.000000 2.000000 3.000000 82.988552 -25.002808 1476.948478 1087.058164 12.025135 0.000000 0.123581
193.000000 95.591000 -5.000000 2.000000 3.000000 83.420826 -17.867241 1321.954133 1071.425483 10.466287 0.000000 0.138180
194.000000 109.354000 -4.000000 2.000000 3.000000 82.638195 -8.463313 1135.148765 1081.587651 9.149435 0.000000 0.148096
195.000000 121.806000 -3.000000 2.000000 3.000000 79.283913 3.688340 905.619120 1145.103667 8.214659 0.000000 0.139252
196.000000 126.098000 -2.000000 2.000000 3.000000 71.344375 18.407147 616.815438 1323.970743 7.935999 0.000000 0.103742
197.000000 112.054000 -1.000000 2.000000 3.000000 57.307816 34.242882 242.372980 1776.605469 8.931911 0.000000 0.198027
199.000000 50.043000 -11.000000 3.000000 3.000000 87.207538 -40.955227 1909.132744 1010.512852 19.989464 0.000000 0.126079
200.000000 55.341000 -10.000000 3.000000 3.000000 88.889442 -38.428168 1828.922215 967.633429 18.075474 0.000000 0.104583
201.000000 69.231000 -8.000000 3.000000 3.000000 92.760999 -31.421102 1632.517044 880.175397 14.448324 0.000000 0.096641
202.000000 78.312000 -7.000000 3.000000 3.000000 94.856798 -26.452481 1510.506468 838.852012 12.772562 0.000000 0.113630
203.000000 101.500000 -5.000000 3.000000 3.000000 98.280830 -11.599433 1195.920381 781.087540 9.854351 0.000000 0.158561
204.000000 114.653000 -4.000000 3.000000 3.000000 98.303555 -0.707444 988.289930 783.905472 8.723870 0.000000 0.169433
205.000000 130.042000 -2.000000 3.000000 3.000000 87.856071 27.943128 404.093832 986.609745 7.692692 0.000000 0.114738
206.000000 120.389000 -1.000000 3.000000 3.000000 74.685168 42.909207 -25.476717 1343.412343 8.310910 0.000000 0.192261
207.000000 47.944000 -12.000000 4.000000 3.000000 93.986080 -41.209838 1917.550887 841.307201 20.862111 0.000000 0.105599
208.000000 52.588000 -11.000000 4.000000 3.000000 96.044302 -38.821307 1841.022012 794.723735 19.019117 0.000000 0.082084
209.000000 58.024000 -10.000000 4.000000 3.000000 98.320972 -35.906456 1754.291975 746.652506 17.236781 0.000000 0.067734
210.000000 64.408000 -9.000000 4.000000 3.000000 100.812463 -32.291268 1655.175429 697.836336 15.527832 0.000000 0.069821
211.000000 71.902000 -8.000000 4.000000 3.000000 103.476995 -27.731193 1540.814818 649.590427 13.908827 0.000000 0.086947
212.000000 80.637000 -7.000000 4.000000 3.000000 106.191992 -21.887756 1407.400381 604.192251 12.401708 0.000000 0.110413
213.000000 90.612000 -6.000000 4.000000 3.000000 108.674131 -14.319669 1249.737485 565.571798 11.036188 0.000000 0.132661
214.000000 101.485000 -5.000000 4.000000 3.000000 110.348198 -4.544876 1060.554466 540.577962 9.853523 0.000000 0.146685
215.000000 112.198000 -4.000000 4.000000 3.000000 110.199378 7.706800 829.349229 541.404651 8.912714 0.000000 0.143069
216.000000 120.468000 -3.000000 4.000000 3.000000 106.802807 21.989824 540.371223 590.490633 8.301214 0.000000 0.107899
217.000000 122.650000 -2.000000 4.000000 3.000000 98.872564 36.832560 168.874661 731.083553 8.154410 0.000000 0.065047
218.000000 115.062000 -1.000000 4.000000 3.000000 86.240356 50.407705 -326.372577 1051.974006 8.693691 0.000000 0.272217
220.000000 45.536000 -13.000000 5.000000 3.000000 99.555551 -41.444505 1925.367870 699.293108 21.962921 0.000000 0.094836
221.000000 49.549000 -12.000000 5.000000 3.000000 101.820239 -39.180864 1852.205785 650.417807 20.183765 0.000000 0.068351
222.000000 54.162000 -11.000000 5.000000 3.000000 104.310902 -36.440382 1769.684094 599.706663 18.463732 0.000000 0.046782
223.000000 59.477000 -10.000000 5.000000 3.000000 107.028575 -33.072219 1675.884002 547.623207 16.813343 0.000000 0.040637
224.000000 65.589000 -9.000000 5.000000 3.000000 109.945887 -28.866426 1568.323755 494.994417 15.245779 0.000000 0.054856
225.000000 72.575000 -8.000000 5.000000 3.000000 112.977545 -23.533558 1443.735835 443.237176 13.777767 0.000000 0.076976
226.000000 80.435000 -7.000000 5.000000 3.000000 115.926817 -16.691477 1297.729244 394.740390 12.430862 0.000000 0.097949
227.000000 89.007000 -6.000000 5.000000 3.000000 118.398042 -7.895459 1124.261238 353.528366 11.233332 0.000000 0.111915
228.000000 97.802000 -5.000000 5.000000 3.000000 119.687155 3.202429 914.780038 326.452652 10.222978 0.000000 0.111750
229.000000 105.785000 -4.000000 5.000000 3.000000 118.743399 16.471383 656.771767 325.423715 9.451536 0.000000 0.086067
230.000000 111.200000 -3.000000 5.000000 3.000000 114.410570 30.887687 331.165269 371.806029 8.991739 0.000000 0.017583
231.000000 111.741000 -2.000000 5.000000 3.000000 106.023304 44.767924 -92.610379 505.631792 8.949180 0.000000 0.143298
233.000000 46.532000 -13.000000 6.000000 3.000000 106.557899 -39.510941 1862.573762 526.230068 21.490235 0.000000 0.067237
234.000000 54.870000 -11.000000 6.000000 3.000000 111.943414 -33.776755 1694.884059 419.332685 18.223444 0.000000 0.017942
235.000000 59.873000 -10.000000 6.000000 3.000000 114.944707 -29.880287 1593.404007 363.628688 16.699799 0.000000 0.022372
236.000000 71.726000 -8.000000 6.000000 3.000000 121.211664 -18.771012 1340.792930 252.239866 13.938882 0.000000 0.063880
237.000000 78.481000 -7.000000 6.000000 3.000000 124.052445 -10.827288 1180.845418 200.412044 12.738775 0.000000 0.077331
238.000000 92.277000 -5.000000 6.000000 3.000000 126.595790 11.432346 757.348607 125.618380 10.833740 0.000000 0.062067
239.000000 97.930000 -4.000000 6.000000 3.000000 124.585526 25.191740 468.723876 120.916064 10.208608 0.000000 0.021418
241.000000 47.003000 -13.000000 7.000000 3.000000 113.104618 -37.370997 1797.026166 363.211822 21.272634 0.000000 0.052844
242.000000 50.716000 -12.000000 7.000000 3.000000 115.911660 -34.415385 1712.378660 307.163186 19.714628 0.000000 0.028902
243.000000 54.850000 -11.000000 7.000000 3.000000 118.906059 -30.790708 1616.363609 249.189538 18.228056 0.000000 0.009075
244.000000 59.426000 -10.000000 7.000000 3.000000 122.039028 -26.282394 1506.526322 189.777370 16.823651 0.000000 0.018908
245.000000 64.438000 -9.000000 7.000000 3.000000 125.203395 -20.604576 1379.650539 129.769115 15.514407 0.000000 0.035965
246.000000 69.829000 -8.000000 7.000000 3.000000 128.192228 -13.401450 1231.438255 70.574622 14.316213 0.000000 0.047836
247.000000 75.453000 -7.000000 7.000000 3.000000 130.641950 -4.304563 1056.013178 14.523006 13.248703 0.000000 0.050653
248.000000 81.031000 -6.000000 7.000000 3.000000 131.982610 6.880642 845.123038 -34.534304 12.336428 0.000000 0.040354
249.000000 86.097000 -5.000000 7.000000 3.000000 131.468615 19.833289 586.803691 -70.151903 11.610500 0.000000 0.031804
250.000000 89.971000 -4.000000 7.000000 3.000000 128.385966 33.484770 263.027706 -81.299690 11.110941 0.000000 0.101377
252.000000 47.024000 -13.000000 8.000000 3.000000 119.174342 -34.996804 1728.539912 207.479647 21.261531 0.000000 0.053641
253.000000 50.476000 -12.000000 8.000000 3.000000 122.113175 -31.612355 1637.460616 147.796607 19.806342 0.000000 0.037437
254.000000 54.253000 -11.000000 8.000000 3.000000 125.185440 -27.439434 1533.838095 85.975897 18.426778 0.000000 0.027696
255.000000 58.346000 -10.000000 8.000000 3.000000 128.308722 -22.230205 1414.889596 22.453535 17.133379 0.000000 0.026910
256.000000 62.717000 -9.000000 8.000000 3.000000 131.327531 -15.670927 1276.943483 -42.003631 15.938739 0.000000 0.029881
257.000000 67.277000 -8.000000 8.000000 3.000000 133.971935 -7.413993 1115.053521 -106.101058 14.858031 0.000000 0.029044
258.000000 71.862000 -7.000000 8.000000 3.000000 135.815231 2.798259 922.393218 -167.688482 13.909706 0.000000 0.021541
259.000000 76.207000 -6.000000 8.000000 3.000000 136.273097 14.867765 689.268549 -223.195973 13.116425 0.000000 0.034487
260.000000 79.926000 -5.000000 8.000000 3.000000 134.717734 28.053450 401.435626 -266.626457 12.506332 0.000000 0.099113
262.000000 46.672000 -13.000000 9.000000 3.000000 124.757342 -32.357314 1656.912848 56.860742 21.419943 0.000000 0.063523
263.000000 53.223000 -11.000000 9.000000 3.000000 130.784129 -23.679149 1446.993071 -72.871160 18.781958 0.000000 0.042215
264.000000 56.823000 -10.000000 9.000000 3.000000 133.769092 -17.680791 1318.091777 -141.131383 17.591367 0.000000 0.033983
265.000000 64.371000 -8.000000 9.000000 3.000000 138.626899 -0.848403 990.938305 -281.106228 15.527889 0.000000 0.006738
266.000000 68.057000 -7.000000 9.000000 3.000000 139.719097 10.319603 779.023750 -349.861758 14.686642 0.000000 0.031148
269.000000 46.026000 -13.000000 10.000000 3.000000 129.852567 -29.418712 1581.923847 -90.404896 21.719219 0.000000 0.074848
270.000000 48.877000 -12.000000 10.000000 3.000000 132.797997 -24.977144 1476.361645 -158.410487 20.451619 0.000000 0.063084
271.000000 51.885000 -11.000000 10.000000 3.000000 135.714883 -19.468987 1355.480287 -229.414969 19.265091 0.000000 0.050679
272.000000 55.012000 -10.000000 10.000000 3.000000 138.446211 -12.605270 1215.684213 -303.220340 18.169506 0.000000 0.035268
273.000000 58.191000 -9.000000 10.000000 3.000000 140.743555 -4.100392 1052.157136 -379.395828 17.176405 0.000000 0.013514
274.000000 61.321000 -8.000000 10.000000 3.000000 142.248589 6.188482 858.295940 -457.129988 16.299368 0.000000 0.023750
278.000000 47.702000 -12.000000 11.000000 3.000000 137.296023 -21.067299 1389.601806 -308.740601 20.954172 0.000000 0.069123
279.000000 50.343000 -11.000000 11.000000 3.000000 139.996264 -14.777297 1258.913027 -385.378319 19.854198 0.000000 0.051514
293.000000 47.099000 -9.000000 1.000000 4.000000 64.262506 -33.741905 1693.936912 1564.960530 21.248017 0.000000 0.163176
294.000000 51.503000 -8.000000 1.000000 4.000000 63.399574 -30.340362 1604.953112 1565.511131 19.431566 0.000000 0.143209
295.000000 56.387000 -7.000000 1.000000 4.000000 62.087758 -26.187887 1504.319836 1576.384056 17.749220 0.000000 0.122950
296.000000 61.537000 -6.000000 1.000000 4.000000 60.072587 -21.066714 1389.589182 1604.959449 16.264687 0.000000 0.100931
297.000000 66.334000 -5.000000 1.000000 4.000000 56.948712 -14.710719 1257.575751 1665.058666 15.089621 0.000000 0.078437
298.000000 69.328000 -4.000000 1.000000 4.000000 52.100669 -6.837577 1104.056293 1784.853829 14.439179 0.000000 0.084932
299.000000 67.698000 -3.000000 1.000000 4.000000 44.712472 2.749593 923.309536 2029.404254 14.788136 0.000000 0.182116
301.000000 53.203000 -9.000000 2.000000 4.000000 75.281157 -31.118956 1624.747976 1271.265334 18.807027 0.000000 0.121573
302.000000 65.090000 -7.000000 2.000000 4.000000 75.208422 -22.514579 1421.136571 1248.648256 15.372920 0.000000 0.116728
303.000000 79.261000 -5.000000 2.000000 4.000000 72.685484 -9.464357 1154.421674 1281.157703 12.625512 0.000000 0.110013
304.000000 87.715000 -3.000000 2.000000 4.000000 63.324500 9.758825 789.888141 1489.682572 11.410467 0.000000 0.055642
306.000000 47.809000 -11.000000 3.000000 4.000000 83.664369 -34.834334 1724.000916 1086.590266 20.925264 0.000000 0.111842
307.000000 52.405000 -10.000000 3.000000 4.000000 84.697400 -31.830392 1643.121384 1058.575954 19.089984 0.000000 0.110180
308.000000 57.725000 -9.000000 3.000000 4.000000 85.714253 -28.214708 1552.459696 1032.533551 17.330598 0.000000 0.116233
309.000000 63.854000 -8.000000 3.000000 4.000000 86.626966 -23.818919 1450.126934 1010.341396 15.667028 0.000000 0.128016
310.000000 70.816000 -7.000000 3.000000 4.000000 87.274450 -18.432536 1333.714396 995.008614 14.126835 0.000000 0.142110
311.000000 78.469000 -6.000000 3.000000 4.000000 87.373445 -11.812854 1200.101596 991.442394 12.749274 0.000000 0.154380
312.000000 86.304000 -5.000000 3.000000 4.000000 86.453298 -3.730298 1045.172371 1007.851228 11.592224 0.000000 0.159857
313.000000 93.116000 -4.000000 3.000000 4.000000 83.805491 5.920672 863.383331 1058.445102 10.744730 0.000000 0.152370
314.000000 96.663000 -3.000000 3.000000 4.000000 78.546047 16.944350 647.086564 1168.970487 10.351234 0.000000 0.127296
315.000000 93.851000 -2.000000 3.000000 4.000000 69.944506 28.713101 385.426186 1389.008849 10.662599 0.000000 0.117008
316.000000 82.329000 -1.000000 3.000000 4.000000 58.010537 40.293088 62.459287 1822.378328 12.156230 0.000000 0.258627
318.000000 50.404000 -11.000000 4.000000 4.000000 92.245555 -32.482808 1660.221141 890.968636 19.844953 0.000000 0.094292
319.000000 60.633000 -9.000000 4.000000 4.000000 95.374952 -24.998897 1476.859046 829.267373 16.496567 0.000000 0.119177
320.000000 73.705000 -7.000000 4.000000 4.000000 98.010113 -13.918304 1241.720827 784.961631 13.570488 0.000000 0.153768
321.000000 88.356000 -5.000000 4.000000 4.000000 97.927522 2.432880 929.271157 790.989630 11.320447 0.000000 0.169104
322.000000 97.553000 -3.000000 4.000000 4.000000 90.271557 24.085393 493.879556 935.412318 10.254331 0.000000 0.126296
323.000000 86.565000 -1.000000 4.000000 4.000000 70.627887 46.389069 -154.788642 1489.648222 11.558747 0.000000 0.263627
324.000000 47.908000 -12.000000 5.000000 4.000000 98.379628 -33.083104 1676.175244 751.781544 20.876665 0.000000 0.074605
325.000000 52.073000 -11.000000 5.000000 4.000000 100.263578 -29.895593 1593.786500 716.197570 19.206469 0.000000 0.084380
326.000000 56.781000 -10.000000 5.000000 4.000000 102.209548 -26.070617 1501.586882 681.729178 17.613251 0.000000 0.100083
327.000000 62.071000 -9.000000 5.000000 4.000000 104.140241 -21.442346 1397.713022 649.686815 16.111868 0.000000 0.118127
328.000000 67.933000 -8.000000 5.000000 4.000000 105.913970 -15.811690 1279.797784 622.057778 14.721264 0.000000 0.135450
329.000000 74.264000 -7.000000 5.000000 4.000000 107.287864 -8.964652 1144.787673 601.879257 13.465975 0.000000 0.149055
330.000000 80.789000 -6.000000 5.000000 4.000000 107.875231 -0.727921 988.674638 593.852159 12.378366 0.000000 0.155318
331.000000 86.945000 -5.000000 5.000000 4.000000 107.121813 8.918984 806.091431 605.381958 11.502014 0.000000 0.149327
332.000000 91.776000 -4.000000 5.000000 4.000000 104.356378 19.697582 589.682091 648.406713 10.897028 0.000000 0.124771
333.000000 93.923000 -3.000000 5.000000 4.000000 98.975372 30.969104 329.086807 742.743469 10.648711 0.000000 0.082307
334.000000 91.917000 -2.000000 5.000000 4.000000 90.731962 41.901831 9.234301 922.525276 10.882304 0.000000 0.119037
335.000000 84.857000 -1.000000 5.000000 4.000000 79.953007 51.799065 -392.680136 1249.349806 11.789458 0.000000 0.329887
337.000000 52.905000 -11.000000 6.000000 4.000000 107.655450 -27.047668 1524.527706 556.364375 18.901755 0.000000 0.076607
338.000000 62.287000 -9.000000 6.000000 4.000000 111.947208 -17.519945 1314.766239 486.205094 16.053757 0.000000 0.110654
339.000000 73.127000 -7.000000 6.000000 4.000000 115.100045 -3.588940 1042.506112 435.835178 13.673520 0.000000 0.131215
340.000000 83.498000 -5.000000 6.000000 4.000000 114.255413 15.578659 674.925338 437.546942 11.975271 0.000000 0.109037
341.000000 88.282000 -3.000000 6.000000 4.000000 105.302339 37.425807 151.342476 570.174117 11.327630 0.000000 0.047052
343.000000 45.821000 -13.000000 7.000000 4.000000 109.816181 -31.309864 1629.651006 487.059129 21.823107 0.000000 0.038008
344.000000 49.254000 -12.000000 7.000000 4.000000 112.074736 -27.941562 1545.868476 446.917788 20.301218 0.000000 0.051838
345.000000 53.030000 -11.000000 7.000000 4.000000 114.385865 -23.913917 1452.260764 407.273961 18.855334 0.000000 0.068498
346.000000 57.145000 -10.000000 7.000000 4.000000 116.667710 -19.066320 1346.991918 369.064405 17.497055 0.000000 0.084417
347.000000 61.564000 -9.000000 7.000000 4.000000 118.781683 -13.214916 1227.738179 333.667687 16.240465 0.000000 0.097289
348.000000 66.200000 -8.000000 7.000000 4.000000 120.507476 -6.178504 1091.514436 303.119864 15.102842 0.000000 0.104701
349.000000 70.879000 -7.000000 7.000000 4.000000 121.520315 2.159176 934.420929 280.451995 14.105610 0.000000 0.103457
350.000000 75.310000 -6.000000 7.000000 4.000000 121.390558 11.743193 751.263870 270.231188 13.275670 0.000000 0.088913
351.000000 79.053000 -5.000000 7.000000 4.000000 119.637304 22.236602 534.970160 279.452596 12.647258 0.000000 0.054015
352.000000 81.523000 -4.000000 7.000000 4.000000 115.852428 33.014731 275.652835 319.058980 12.264643 0.000000 0.012402
353.000000 82.055000 -3.000000 7.000000 4.000000 109.851992 43.347735 -40.942750 406.631475 12.186079 0.000000 0.128105
355.000000 45.915000 -13.000000 8.000000 4.000000 115.720091 -28.762098 1565.770950 349.583781 21.776488 0.000000 0.027511
356.000000 52.585000 -11.000000 8.000000 4.000000 120.442188 -20.470822 1376.785342 265.840086 19.012892 0.000000 0.059350
357.000000 60.169000 -9.000000 8.000000 4.000000 124.664754 -8.524304 1136.320026 188.403771 16.615416 0.000000 0.079143
358.000000 67.986000 -7.000000 8.000000 4.000000 126.670134 8.193736 820.023739 131.362426 14.704660 0.000000 0.068720
359.000000 74.271000 -5.000000 8.000000 4.000000 123.592279 28.717782 385.311875 125.855699 13.460722 0.000000 0.024756
361.000000 45.640000 -13.000000 9.000000 4.000000 121.136398 -25.972615 1499.307139 217.760178 21.905717 0.000000 0.023363
362.000000 48.581000 -12.000000 9.000000 4.000000 123.517583 -21.750642 1404.411860 173.499353 20.578805 0.000000 0.037740
363.000000 51.707000 -11.000000 9.000000 4.000000 125.828818 -16.698982 1297.882916 129.715013 19.334344 0.000000 0.049166
364.000000 54.979000 -10.000000 9.000000 4.000000 127.936027 -10.652364 1177.441267 87.328875 18.183197 0.000000 0.056290
365.000000 58.329000 -9.000000 9.000000 4.000000 129.640927 -3.465102 1040.171001 47.683048 17.138221 0.000000 0.057311
366.000000 61.651000 -8.000000 9.000000 4.000000 130.671698 4.923721 882.280153 12.740042 16.214751 0.000000 0.050047
367.000000 64.781000 -7.000000 9.000000 4.000000 130.695209 14.395485 698.744995 -14.605938 15.431221 0.000000 0.034242
368.000000 67.499000 -6.000000 9.000000 4.000000 129.367698 24.576597 482.765673 -30.031962 14.809996 0.000000 0.038018
369.000000 69.527000 -5.000000 9.000000 4.000000 126.421525 34.873549 224.905172 -26.968620 14.378474 0.000000 0.101703
372.000000 50.514000 -11.000000 10.000000 4.000000 130.562062 -12.586532 1215.314657 -2.945161 19.789464 0.000000 0.038002
373.000000 56.223000 -9.000000 10.000000 4.000000 133.769572 1.920288 938.914115 -90.611758 17.779274 0.000000 0.033404
374.000000 61.486000 -7.000000 10.000000 4.000000 133.750414 20.623462 569.944503 -159.892829 16.257368 0.000000 0.044591
376.000000 46.659000 -12.000000 11.000000 4.000000 132.706736 -14.348296 1250.310360 -84.395055 21.423630 0.000000 0.028424
377.000000 49.108000 -11.000000 11.000000 4.000000 134.666183 -8.133373 1128.819014 -133.634644 20.355027 0.000000 0.025601
378.000000 51.572000 -10.000000 11.000000 4.000000 136.212660 -0.833291 990.654373 -181.964595 19.382099 0.000000 0.019308
379.000000 53.982000 -9.000000 11.000000 4.000000 137.119588 7.561316 832.131234 -228.191526 18.516379 0.000000 0.019202
380.000000 56.245000 -8.000000 11.000000 4.000000 137.127803 16.880738 648.391991 -270.563008 17.771331 0.000000 0.045911
381.000000 58.240000 -7.000000 11.000000 4.000000 135.989884 26.733141 432.900117 -306.483468 17.162773 0.000000 0.097860
384.000000 47.568000 -11.000000 12.000000 4.000000 138.170835 -3.355719 1038.108951 -263.602607 21.012895 0.000000 0.011166
385.000000 51.702000 -9.000000 12.000000 4.000000 139.766332 13.361368 719.357305 -366.496708 19.332567 0.000000 0.043277
387.000000 45.957000 -11.000000 13.000000 4.000000 141.109778 1.709976 942.868760 -393.926498 21.748696 0.000000 0.006773
388.000000 47.758000 -10.000000 13.000000 4.000000 141.852771 10.070103 783.862173 -450.761918 20.928571 0.000000 0.037697
393.000000 45.690000 -8.000000 1.000000 5.000000 58.102059 -24.013719 1454.505903 1674.353713 21.906206 0.000000 0.125316
394.000000 48.579000 -7.000000 1.000000 5.000000 55.858167 -19.574929 1357.720568 1715.622591 20.604730 0.000000 0.111010
395.000000 50.973000 -6.000000 1.000000 5.000000 52.745559 -14.290800 1249.159922 1785.703895 19.638160 0.000000 0.107087
396.000000 52.120000 -5.000000 1.000000 5.000000 48.418236 -8.014226 1126.535823 1905.385040 19.207261 0.000000 0.135686
397.000000 50.785000 -4.000000 1.000000 5.000000 42.456372 -0.634859 986.926235 2117.438391 19.713340 0.000000 0.221394
398.000000 48.586000 -9.000000 2.000000 5.000000 70.227760 -25.006123 1477.024297 1367.919095 20.596452 0.000000 0.111628
399.000000 52.604000 -8.000000 2.000000 5.000000 69.426795 -20.847070 1384.857944 1373.277730 19.023925 0.000000 0.103503
400.000000 56.788000 -7.000000 2.000000 5.000000 68.096041 -15.914840 1281.891891 1391.002358 17.622957 0.000000 0.092614
401.000000 60.798000 -6.000000 2.000000 5.000000 65.971294 -10.068657 1166.109805 1428.349044 16.461614 0.000000 0.074517
402.000000 63.957000 -5.000000 2.000000 5.000000 62.685808 -3.188638 1034.960100 1497.716456 15.649453 0.000000 0.042642
403.000000 65.104000 -4.000000 2.000000 5.000000 57.783453 4.771207 885.165708 1621.571189 15.374827 0.000000 0.019750
404.000000 62.599000 -3.000000 2.000000 5.000000 50.816266 13.709106 712.446500 1844.021271 15.991254 0.000000 0.116986
405.000000 54.856000 -2.000000 2.000000 5.000000 41.574909 23.316646 511.103718 2262.232359 18.249284 0.000000 0.286462
406.000000 48.847000 -10.000000 3.000000 5.000000 80.001348 -25.920790 1498.103126 1151.978186 20.482803 0.000000 0.120239
407.000000 53.072000 -9.000000 3.000000 5.000000 80.177857 -22.014486 1410.167688 1141.991144 18.852312 0.000000 0.125887
408.000000 57.690000 -8.000000 3.000000 5.000000 80.048081 -17.400228 1312.294890 1138.904871 17.343497 0.000000 0.131993
409.000000 62.566000 -7.000000 3.000000 5.000000 79.420067 -11.945284 1202.699357 1146.482439 15.992434 0.000000 0.135888
410.000000 67.377000 -6.000000 3.000000 5.000000 78.011083 -5.526658 1079.140785 1170.623228 14.851022 0.000000 0.134304
411.000000 71.493000 -5.000000 3.000000 5.000000 75.432304 1.927995 938.769175 1220.864180 13.996730 0.000000 0.123440
412.000000 73.852000 -4.000000 3.000000 5.000000 71.211933 10.377377 777.902289 1313.239176 13.550556 0.000000 0.101204
413.000000 72.985000 -3.000000 3.000000 5.000000 64.903336 19.602405 591.697939 1476.109816 13.712600 0.000000 0.087328
414.000000 67.449000 -2.000000 3.000000 5.000000 56.302740 29.192749 373.658202 1763.151192 14.839326 0.000000 0.162530
416.000000 47.682000 -11.000000 4.000000 5.000000 87.933551 -26.766094 1517.876159 984.495241 20.979912 0.000000 0.119213
417.000000 51.690000 -10.000000 4.000000 5.000000 88.756209 -23.088739 1433.828416 966.402942 19.353272 0.000000 0.130486
418.000000 56.118000 -9.000000 4.000000 5.000000 89.411477 -18.762232 1340.608948 952.676179 17.826121 0.000000 0.142818
419.000000 60.917000 -8.000000 4.000000 5.000000 89.759059 -13.662687 1236.629814 945.657882 16.422004 0.000000 0.154184
420.000000 65.934000 -7.000000 4.000000 5.000000 89.586277 -7.668283 1119.914052 948.842008 15.172535 0.000000 0.162284
421.000000 70.845000 -6.000000 4.000000 5.000000 88.587714 -0.690350 987.968777 967.536914 14.121170 0.000000 0.164354
422.000000 75.057000 -5.000000 4.000000 5.000000 86.361430 7.274774 837.605136 1009.997534 13.329331 0.000000 0.157129
423.000000 77.639000 -4.000000 4.000000 5.000000 82.451272 16.083606 664.677205 1089.438257 12.886758 0.000000 0.138125
424.000000 77.386000 -3.000000 4.000000 5.000000 76.467211 25.410602 463.693812 1227.792394 12.929957 0.000000 0.115676
425.000000 73.165000 -2.000000 4.000000 5.000000 68.275997 34.790352 227.224735 1463.172733 13.677222 0.000000 0.148703
426.000000 64.564000 -1.000000 4.000000 5.000000 58.167679 43.741955 -55.038063 1865.854803 15.500687 0.000000 0.306584
428.000000 45.818000 -12.000000 5.000000 5.000000 94.437881 -27.549307 1536.461088 846.785087 21.830805 0.000000 0.109471
429.000000 49.449000 -11.000000 5.000000 5.000000 95.681110 -24.079881 1455.996202 823.724291 20.227403 0.000000 0.122643
430.000000 57.824000 -9.000000 5.000000 5.000000 97.813786 -15.237581 1268.180881 787.920566 17.297708 0.000000 0.150643
431.000000 62.473000 -8.000000 5.000000 5.000000 98.436854 -9.631976 1157.659459 779.076554 16.010354 0.000000 0.161932
432.000000 67.232000 -7.000000 5.000000 5.000000 98.474431 -3.099777 1033.285808 780.402776 14.877097 0.000000 0.168654
433.000000 71.775000 -6.000000 5.000000 5.000000 97.604074 4.394820 892.281557 796.890062 13.935728 0.000000 0.168121
434.000000 77.824000 -4.000000 5.000000 5.000000 91.548278 21.778600 544.979229 909.672700 12.853670 0.000000 0.133626
435.000000 77.632000 -3.000000 5.000000 5.000000 85.662536 31.021009 327.759900 1036.258813 12.886420 0.000000 0.108876
436.000000 74.180000 -2.000000 5.000000 5.000000 77.736703 40.030912 70.891897 1246.535753 13.487535 0.000000 0.150789
437.000000 67.188000 -1.000000 5.000000 5.000000 68.081795 48.407299 -237.570504 1593.372161 14.892751 0.000000 0.317149
438.000000 46.888000 -12.000000 6.000000 5.000000 101.345320 -24.996666 1476.808026 702.731688 21.330049 0.000000 0.107927
439.000000 50.426000 -11.000000 6.000000 5.000000 102.826036 -21.168019 1391.776045 678.227081 19.833078 0.000000 0.122498
440.000000 54.273000 -10.000000 6.000000 5.000000 104.194156 -16.684888 1297.594364 656.807474 18.427165 0.000000 0.136596
441.000000 58.386000 -9.000000 6.000000 5.000000 105.325081 -11.434945 1192.702207 640.079598 17.128580 0.000000 0.148662
442.000000 62.670000 -8.000000 6.000000 5.000000 106.035070 -5.316763 1075.162410 630.327871 15.957713 0.000000 0.156917
443.000000 66.937000 -7.000000 6.000000 5.000000 106.068863 1.727426 942.540679 630.836199 14.940472 0.000000 0.159136
444.000000 70.876000 -6.000000 6.000000 5.000000 105.101126 9.663296 791.735191 646.390674 14.110276 0.000000 0.152458
445.000000 74.022000 -5.000000 6.000000 5.000000 102.768212 18.315295 618.730934 684.084916 13.510998 0.000000 0.133568
446.000000 75.763000 -4.000000 6.000000 5.000000 98.742713 27.352358 418.236960 754.648026 13.201395 0.000000 0.101683
447.000000 75.422000 -3.000000 6.000000 5.000000 92.840199 36.343110 183.135781 874.708649 13.262005 0.000000 0.085379
448.000000 72.457000 -2.000000 6.000000 5.000000 85.114409 44.868877 -96.379276 1070.808539 13.806271 0.000000 0.172753
451.000000 47.376000 -12.000000 7.000000 5.000000 107.719260 -22.233838 1414.969244 569.489148 21.107844 0.000000 0.103957
452.000000 50.723000 -11.000000 7.000000 5.000000 109.334302 -18.017870 1325.080377 543.889288 19.714705 0.000000 0.117733
453.000000 54.299000 -10.000000 7.000000 5.000000 110.786715 -13.092981 1225.322540 521.535170 18.416027 0.000000 0.129682
454.000000 58.045000 -9.000000 7.000000 5.000000 111.931819 -7.357582 1113.976046 504.040180 17.227258 0.000000 0.138287
455.000000 61.850000 -8.000000 7.000000 5.000000 112.566982 -0.739758 988.897027 493.672174 16.167404 0.000000 0.141673
456.000000 65.527000 -7.000000 7.000000 5.000000 112.428173 6.762291 847.378049 493.652141 15.260124 0.000000 0.137382
457.000000 68.796000 -6.000000 7.000000 5.000000 111.205644 15.032673 685.949902 508.613905 14.535241 0.000000 0.122192
458.000000 71.271000 -5.000000 7.000000 5.000000 108.589720 23.809102 500.093413 545.328518 14.030894 0.000000 0.092570
459.000000 72.485000 -4.000000 7.000000 5.000000 104.345377 32.708355 283.809705 613.876782 13.796652 0.000000 0.054050
460.000000 71.962000 -3.000000 7.000000 5.000000 98.391820 41.314772 28.960595 729.606597 13.898142 0.000000 0.092686
461.000000 69.345000 -2.000000 7.000000 5.000000 90.849957 49.288019 -275.778405 916.519603 14.424123 0.000000 0.235144
463.000000 47.373000 -12.000000 8.000000 5.000000 113.541587 -19.248272 1350.822370 444.319793 21.107379 0.000000 0.097058
464.000000 50.465000 -11.000000 8.000000 5.000000 115.194247 -14.620417 1255.763247 417.722252 19.813431 0.000000 0.108615
465.000000 53.709000 -10.000000 8.000000 5.000000 116.619466 -9.237826 1150.050910 394.486536 18.616399 0.000000 0.117158
466.000000 57.034000 -9.000000 8.000000 5.000000 117.655093 -3.020280 1031.788204 376.224025 17.530890 0.000000 0.121103
467.000000 60.324000 -8.000000 8.000000 5.000000 118.087009 4.060339 898.599079 365.180655 16.574602 0.000000 0.118372
468.000000 63.406000 -7.000000 8.000000 5.000000 117.656111 11.936792 747.467302 364.518529 15.769187 0.000000 0.106146
469.000000 66.036000 -6.000000 8.000000 5.000000 116.086435 20.410497 574.505283 378.745400 15.141420 0.000000 0.080604
470.000000 67.906000 -5.000000 8.000000 5.000000 113.137014 29.153921 374.614915 414.384861 14.724810 0.000000 0.038024
471.000000 68.670000 -4.000000 8.000000 5.000000 108.664796 37.772202 140.976646 481.049912 14.561859 0.000000 0.046743
472.000000 67.997000 -3.000000 8.000000 5.000000 102.672830 45.902438 -135.744103 593.215379 14.707295 0.000000 0.159411
475.000000 46.970000 -12.000000 9.000000 5.000000 118.808602 -16.030164 1284.235725 325.145158 21.286307 0.000000 0.087404
476.000000 49.776000 -11.000000 9.000000 5.000000 120.411608 -10.972123 1183.667004 297.485250 20.086030 0.000000 0.095771
477.000000 52.664000 -10.000000 9.000000 5.000000 121.713453 -5.128098 1071.588748 273.245168 18.984291 0.000000 0.100045
478.000000 55.559000 -9.000000 9.000000 5.000000 122.539744 1.548463 945.905228 254.024006 17.994864 0.000000 0.098511
479.000000 58.349000 -8.000000 9.000000 5.000000 122.674876 9.028700 803.979038 242.037378 17.134216 0.000000 0.088844
480.000000 60.880000 -7.000000 9.000000 5.000000 121.879069 17.170230 642.443988 240.386182 16.422198 0.000000 0.067817
481.000000 62.948000 -6.000000 9.000000 5.000000 119.924310 25.703451 456.934702 253.464512 15.882961 0.000000 0.030934
482.000000 64.314000 -5.000000 9.000000 5.000000 116.643254 34.267860 241.686168 287.593228 15.546191 0.000000 0.029286
483.000000 64.724000 -4.000000 9.000000 5.000000 111.973274 42.495199 -11.076094 352.030477 15.448786 0.000000 0.121244
484.000000 63.949000 -3.000000 9.000000 5.000000 105.976774 50.096969 -312.095134 460.633685 15.637189 0.000000 0.260910
486.000000 46.258000 -12.000000 10.000000 5.000000 123.527637 -12.573995 1215.067419 210.345254 21.612421 0.000000 0.075370
487.000000 48.767000 -11.000000 10.000000 5.000000 125.004843 -7.077015 1108.621096 181.448348 20.500038 0.000000 0.079852
488.000000 53.786000 -9.000000 10.000000 5.000000 126.645669 6.305460 856.072189 135.468427 18.586641 0.000000 0.071894
489.000000 56.120000 -8.000000 10.000000 5.000000 126.423853 14.096724 704.718981 122.136270 17.813910 0.000000 0.055429
490.000000 58.167000 -7.000000 10.000000 5.000000 125.230687 22.376249 531.905375 119.000968 17.187162 0.000000 0.029087
491.000000 59.764000 -6.000000 10.000000 5.000000 122.893966 30.826742 332.718783 130.346289 16.728276 0.000000 0.035067
492.000000 60.871000 -4.000000 10.000000 5.000000 114.496469 46.853181 -173.270962 223.882256 16.425879 0.000000 0.218170
494.000000 47.534000 -11.000000 11.000000 5.000000 129.001298 -2.948742 1030.440722 68.238123 21.030598 0.000000 0.061481
495.000000 49.734000 -10.000000 11.000000 5.000000 129.835822 3.761156 904.245484 41.186759 20.100249 0.000000 0.056018
496.000000 51.844000 -9.000000 11.000000 5.000000 130.041533 11.193742 762.010157 19.011982 19.281928 0.000000 0.043922
497.000000 53.774000 -8.000000 11.000000 5.000000 129.432631 19.186974 600.469022 3.836499 18.589890 0.000000 0.029200
498.000000 55.412000 -7.000000 11.000000 5.000000 127.842002 27.471150 415.405297 -1.384034 18.040916 0.000000 0.044553
499.000000 56.625000 -6.000000 11.000000 5.000000 125.154225 35.711456 201.277727 7.519689 17.654897 0.000000 0.102020
500.000000 57.274000 -5.000000 11.000000 5.000000 121.330354 43.583316 -49.343744 36.522973 17.455594 0.000000 0.194166
502.000000 46.154000 -11.000000 12.000000 5.000000 132.434396 1.387796 948.925317 -43.265939 21.658355 0.000000 0.041541
503.000000 48.048000 -10.000000 12.000000 5.000000 132.959616 8.461149 814.892772 -72.271903 20.804679 0.000000 0.033355
504.000000 49.826000 -9.000000 12.000000 5.000000 132.800424 16.145706 663.413305 -96.599608 20.062221 0.000000 0.029202
505.000000 51.410000 -8.000000 12.000000 5.000000 131.799808 24.219971 490.843186 -114.192692 19.444260 0.000000 0.051041
506.000000 52.706000 -7.000000 12.000000 5.000000 129.835395 32.381581 292.448124 -122.187050 18.966271 0.000000 0.101156
507.000000 53.612000 -6.000000 12.000000 5.000000 126.843648 40.308477 61.962264 -116.539284 18.646405 0.000000 0.179442
510.000000 46.308000 -10.000000 13.000000 5.000000 135.529729 13.258296 721.401860 -185.405500 21.585545 0.000000 0.028219
511.000000 47.797000 -9.000000 13.000000 5.000000 134.996761 21.088277 559.945592 -212.420435 20.913180 0.000000 0.054031
512.000000 49.088000 -8.000000 13.000000 5.000000 133.620058 29.121441 375.414642 -233.074475 20.363300 0.000000 0.099882
516.000000 45.802000 -9.000000 14.000000 5.000000 136.703914 25.949202 451.236931 -329.367522 21.823518 0.000000 0.096949
520.000000 48.664000 -7.000000 2.000000 6.000000 61.167970 -10.472981 1173.954418 1543.519089 20.567489 0.000000 0.053478
521.000000 50.899000 -5.000000 2.000000 6.000000 53.860763 1.571323 945.475488 1727.272514 19.666981 0.000000 0.051217
522.000000 51.272000 -8.000000 3.000000 6.000000 73.417132 -12.035472 1204.469955 1268.710368 19.517189 0.000000 0.113276
523.000000 54.335000 -7.000000 3.000000 6.000000 71.772295 -6.714921 1101.719686 1297.892536 18.417926 0.000000 0.105161
524.000000 58.367000 -5.000000 3.000000 6.000000 65.648147 6.117086 859.652694 1430.928167 17.147406 0.000000 0.065611
525.000000 58.028000 -4.000000 3.000000 6.000000 60.620949 13.544278 715.724747 1564.276084 17.248762 0.000000 0.058351
526.000000 48.934000 -2.000000 3.000000 6.000000 45.843316 29.520187 365.561302 2141.976641 20.456702 0.000000 0.265560
527.000000 51.198000 -9.000000 4.000000 6.000000 83.248145 -13.485636 1233.110037 1072.036023 19.541644 0.000000 0.144508
528.000000 58.025000 -7.000000 4.000000 6.000000 81.397897 -2.744311 1026.591006 1104.001556 17.243362 0.000000 0.147043
529.000000 62.799000 -5.000000 4.000000 6.000000 76.019830 10.785173 769.974538 1213.773008 15.934085 0.000000 0.123311
530.000000 60.951000 -3.000000 4.000000 6.000000 65.095292 26.323388 442.515474 1498.518249 16.419480 0.000000 0.111882
532.000000 46.437000 -11.000000 5.000000 6.000000 90.768955 -18.978203 1345.139898 925.724042 21.541848 0.000000 0.142716
533.000000 49.711000 -10.000000 5.000000 6.000000 91.189733 -14.833493 1260.042405 917.877207 20.123038 0.000000 0.152854
534.000000 53.144000 -9.000000 5.000000 6.000000 91.301658 -10.088044 1166.485503 916.160285 18.823260 0.000000 0.161139
535.000000 56.620000 -8.000000 5.000000 6.000000 90.949521 -4.681721 1063.141812 923.102020 17.668164 0.000000 0.166127
536.000000 59.935000 -7.000000 5.000000 6.000000 89.930753 1.416228 948.390914 942.301202 16.691337 0.000000 0.166100
537.000000 62.771000 -6.000000 5.000000 6.000000 88.000275 8.182782 820.233768 978.966392 15.937636 0.000000 0.159136
538.000000 64.678000 -5.000000 5.000000 6.000000 84.894971 15.516900 676.175262 1040.789079 15.468345 0.000000 0.143798
539.000000 65.099000 -4.000000 5.000000 6.000000 80.385527 23.228755 513.060160 1139.404372 15.369455 0.000000 0.122902
540.000000 63.468000 -3.000000 5.000000 6.000000 74.351701 31.056986 326.839327 1292.932986 15.765503 0.000000 0.119557
541.000000 59.410000 -2.000000 5.000000 6.000000 66.856103 38.716099 112.229047 1530.619472 16.843907 0.000000 0.185963
543.000000 47.561000 -11.000000 6.000000 6.000000 97.670794 -16.088156 1285.415374 790.129297 21.030169 0.000000 0.148473
544.000000 60.397000 -7.000000 6.000000 6.000000 97.343656 5.733965 866.927130 801.592394 16.561006 0.000000 0.167107
545.000000 64.660000 -5.000000 6.000000 6.000000 92.328937 20.248593 577.964110 894.343718 15.470349 0.000000 0.138323
547.000000 48.043000 -11.000000 7.000000 6.000000 103.972895 -13.007041 1223.621438 666.138160 20.816958 0.000000 0.147734
548.000000 51.044000 -10.000000 7.000000 6.000000 104.667134 -8.167203 1129.467548 656.412903 19.592586 0.000000 0.156081
549.000000 54.093000 -9.000000 7.000000 6.000000 104.968765 -2.691472 1025.596189 652.918799 18.488254 0.000000 0.160976
550.000000 57.067000 -8.000000 7.000000 6.000000 104.705735 3.433695 910.421118 658.016323 17.525099 0.000000 0.160948
551.000000 59.781000 -7.000000 7.000000 6.000000 103.674218 10.166640 781.990984 674.963617 16.729532 0.000000 0.154211
552.000000 61.986000 -6.000000 7.000000 6.000000 101.656960 17.391854 637.877864 708.315551 16.134988 0.000000 0.138839
553.000000 63.365000 -5.000000 7.000000 6.000000 98.457630 24.916576 475.022314 764.535401 15.784430 0.000000 0.114150
554.000000 63.572000 -4.000000 7.000000 6.000000 93.947031 32.492849 289.513761 852.955349 15.734004 0.000000 0.089424
555.000000 62.292000 -3.000000 7.000000 6.000000 88.107692 39.862568 76.272403 987.326785 16.058513 0.000000 0.112165
556.000000 59.337000 -2.000000 7.000000 6.000000 81.058783 46.807136 -171.423086 1188.402970 16.859871 0.000000 0.218416
559.000000 47.990000 -11.000000 8.000000 6.000000 109.663974 -9.734873 1159.648638 550.775234 20.837647 0.000000 0.141200
560.000000 53.485000 -9.000000 8.000000 6.000000 110.584227 1.275620 951.033666 536.685501 18.696515 0.000000 0.147841
561.000000 58.420000 -7.000000 8.000000 6.000000 109.001679 14.664325 693.355630 557.887191 17.117564 0.000000 0.130412
562.000000 61.290000 -5.000000 8.000000 6.000000 103.451916 29.462174 366.999639 645.322938 16.317100 0.000000 0.076577
563.000000 60.114000 -3.000000 8.000000 6.000000 93.090320 43.871558 -59.712561 860.395148 16.638727 0.000000 0.134693
565.000000 47.513000 -11.000000 9.000000 6.000000 114.749771 -6.276630 1093.379664 441.834565 21.045039 0.000000 0.129740
566.000000 49.986000 -10.000000 9.000000 6.000000 115.343634 -0.747470 989.041932 431.191482 20.003452 0.000000 0.131565
567.000000 54.648000 -8.000000 9.000000 6.000000 114.851814 12.068951 744.872478 431.233074 18.297039 0.000000 0.117620
568.000000 56.584000 -7.000000 9.000000 6.000000 113.427600 19.172490 600.774020 447.243585 17.671558 0.000000 0.097832
569.000000 58.793000 -5.000000 9.000000 6.000000 107.487570 33.835767 253.510405 532.762006 17.008823 0.000000 0.035203
570.000000 58.674000 -4.000000 9.000000 6.000000 102.837657 40.930453 41.682875 616.353638 17.044409 0.000000 0.082192
573.000000 46.713000 -11.000000 10.000000 6.000000 119.248775 -2.643263 1024.688634 337.634501 21.403835 0.000000 0.114173
574.000000 50.993000 -9.000000 10.000000 6.000000 119.569883 9.606235 792.837982 321.643142 19.606896 0.000000 0.103071
575.000000 54.476000 -7.000000 10.000000 6.000000 117.061870 23.635840 503.976610 340.785159 18.354077 0.000000 0.058062
576.000000 56.113000 -5.000000 10.000000 6.000000 110.728535 37.999268 134.128880 424.120855 17.819882 0.000000 0.051864
577.000000 54.761000 -3.000000 10.000000 6.000000 100.373424 51.046416 -356.316502 627.616987 18.262375 0.000000 0.274563
578.000000 45.678000 -11.000000 11.000000 6.000000 123.188520 1.147563 953.440288 236.859474 21.887107 0.000000 0.095236
579.000000 47.590000 -10.000000 11.000000 6.000000 123.421712 7.274670 837.607126 224.965645 21.007547 0.000000 0.088180
580.000000 49.382000 -9.000000 11.000000 6.000000 123.057026 13.890705 708.829390 219.420067 20.245633 0.000000 0.073914
581.000000 50.966000 -8.000000 11.000000 6.000000 121.959586 20.862562 564.808790 222.398421 19.616537 0.000000 0.050193
582.000000 52.241000 -7.000000 11.000000 6.000000 120.013509 28.002301 402.668735 236.824054 19.138154 0.000000 0.014976
583.000000 53.093000 -6.000000 11.000000 6.000000 117.141429 35.093140 218.760225 266.669178 18.831746 0.000000 0.041262
584.000000 53.404000 -5.000000 11.000000 6.000000 113.319309 41.926898 8.383948 317.402031 18.722770 0.000000 0.117478
585.000000 53.070000 -4.000000 11.000000 6.000000 108.582102 48.337917 -234.616922 396.665508 18.841972 0.000000 0.225535
587.000000 49.978000 -7.000000 12.000000 6.000000 122.385089 32.226435 296.527612 134.041537 20.003875 0.000000 0.044066
588.000000 50.759000 -5.000000 12.000000 6.000000 115.382821 45.604471 -124.247106 211.066979 19.697829 0.000000 0.196186
589.000000 45.886000 -9.000000 13.000000 6.000000 128.347709 22.466084 529.930555 19.609788 21.785812 0.000000 0.027595
590.000000 46.957000 -8.000000 13.000000 6.000000 126.702545 29.412354 368.233543 19.966708 21.289665 0.000000 0.050504
591.000000 47.751000 -7.000000 13.000000 6.000000 124.269701 36.271787 185.198911 31.366475 20.936213 0.000000 0.102325
592.000000 48.197000 -6.000000 13.000000 6.000000 121.033807 42.858291 -23.695288 57.597940 20.743016 0.000000 0.178687
595.000000 45.599000 -7.000000 14.000000 6.000000 125.749611 40.111936 68.292793 -72.105214 21.923614 0.000000 0.167613
597.000000 46.642000 -7.000000 3.000000 7.000000 64.609888 -2.474339 1021.509068 1452.311202 21.458232 0.000000 0.056898
598.000000 47.561000 -6.000000 3.000000 7.000000 61.388544 3.159815 915.583006 1528.987832 21.045024 0.000000 0.029758
599.000000 47.356000 -5.000000 3.000000 7.000000 57.168182 9.311954 798.519476 1644.744539 21.136968 0.000000 0.043135
600.000000 45.569000 -4.000000 3.000000 7.000000 51.813782 15.897294 668.464457 1821.205051 21.967295 0.000000 0.115714
601.000000 46.174000 -9.000000 4.000000 7.000000 77.133668 -9.034379 1146.130343 1189.926866 21.670681 0.000000 0.129606
602.000000 48.501000 -8.000000 4.000000 7.000000 75.755377 -4.194430 1053.932916 1214.970213 20.631866 0.000000 0.125027
603.000000 50.483000 -7.000000 4.000000 7.000000 73.718793 1.181289 952.806475 1255.414125 19.822476 0.000000 0.115043
604.000000 51.823000 -6.000000 4.000000 7.000000 70.847315 7.076544 841.387896 1317.678389 19.310962 0.000000 0.098967
605.000000 52.136000 -5.000000 4.000000 7.000000 66.967015 13.428651 718.021713 1411.453515 19.196017 0.000000 0.081245
606.000000 50.998000 -4.000000 4.000000 7.000000 61.945659 20.121354 580.677310 1551.869606 19.625340 0.000000 0.086967
607.000000 48.051000 -3.000000 4.000000 7.000000 55.744372 26.990042 426.836270 1763.566965 20.830377 0.000000 0.150087
608.000000 45.748000 -10.000000 5.000000 7.000000 85.470643 -10.419425 1172.914185 1027.690606 21.869117 0.000000 0.152868
609.000000 48.309000 -9.000000 5.000000 7.000000 84.852824 -5.810446 1084.524247 1038.450694 20.710185 0.000000 0.155405
610.000000 50.736000 -8.000000 5.000000 7.000000 83.718568 -0.682821 987.827308 1059.479369 19.719928 0.000000 0.154073
611.000000 52.831000 -7.000000 5.000000 7.000000 81.907733 4.959946 881.594571 1094.606344 18.938471 0.000000 0.147587
612.000000 54.321000 -6.000000 5.000000 7.000000 79.246212 11.074221 764.342315 1149.293168 18.419756 0.000000 0.135033
613.000000 54.865000 -5.000000 5.000000 7.000000 75.569891 17.566968 634.262167 1231.495687 18.238062 0.000000 0.117868
614.000000 54.096000 -4.000000 5.000000 7.000000 70.762180 24.295902 489.127169 1353.100760 18.498575 0.000000 0.107634
615.000000 51.705000 -3.000000 5.000000 7.000000 64.798368 31.083392 326.163227 1532.421252 19.355341 0.000000 0.136851
616.000000 47.560000 -2.000000 5.000000 7.000000 57.780713 37.742473 141.870084 1798.752261 21.043350 0.000000 0.230046
617.000000 46.988000 -10.000000 6.000000 7.000000 92.314733 -7.329206 1113.434146 897.135963 21.288959 0.000000 0.165131
618.000000 49.508000 -9.000000 6.000000 7.000000 91.851811 -2.438542 1020.835391 906.170293 20.205996 0.000000 0.167976
619.000000 51.874000 -8.000000 6.000000 7.000000 90.846169 2.958264 919.379942 925.082448 19.284410 0.000000 0.166683
620.000000 53.905000 -7.000000 6.000000 7.000000 89.139210 8.833660 807.733322 957.365163 18.558370 0.000000 0.160036
621.000000 55.357000 -6.000000 6.000000 7.000000 86.566421 15.115617 684.278779 1007.891011 18.072421 0.000000 0.147144
622.000000 55.938000 -5.000000 6.000000 7.000000 82.982478 21.684005 547.038487 1083.575713 17.885753 0.000000 0.129150
623.000000 55.344000 -4.000000 6.000000 7.000000 78.295470 28.378702 393.566785 1194.435046 18.078751 0.000000 0.115775
624.000000 53.328000 -3.000000 6.000000 7.000000 72.502119 35.020266 220.803155 1355.324288 18.763421 0.000000 0.137105
625.000000 49.784000 -2.000000 6.000000 7.000000 65.710620 41.437507 24.866042 1588.911976 20.100631 0.000000 0.221550
626.000000 47.540000 -10.000000 7.000000 7.000000 98.516196 -4.092038 1051.999396 779.423797 21.039546 0.000000 0.168068
627.000000 49.917000 -9.000000 7.000000 7.000000 98.112386 1.066887 954.956338 787.556644 20.037863 0.000000 0.169435
628.000000 52.117000 -8.000000 7.000000 7.000000 97.134418 6.705269 848.464143 805.356027 19.192253 0.000000 0.166195
629.000000 55.276000 -6.000000 7.000000 7.000000 92.852675 19.160977 601.016421 884.223081 18.096431 0.000000 0.141525
630.000000 55.783000 -5.000000 7.000000 7.000000 89.280682 25.738167 456.131230 956.001321 17.932971 0.000000 0.121091
631.000000 55.252000 -4.000000 7.000000 7.000000 84.651827 32.333011 293.726761 1060.246255 18.106369 0.000000 0.108332
632.000000 53.494000 -3.000000 7.000000 7.000000 78.985916 38.774650 110.420934 1209.703091 18.702807 0.000000 0.137339
633.000000 50.430000 -2.000000 7.000000 7.000000 72.397273 44.914818 -98.098749 1423.205092 19.840604 0.000000 0.230374
635.000000 47.523000 -10.000000 8.000000 7.000000 104.072293 -0.719262 988.511966 671.185550 21.044703 0.000000 0.163151
636.000000 49.697000 -9.000000 8.000000 7.000000 103.645455 4.686271 886.772135 678.836583 20.124376 0.000000 0.161823
637.000000 51.671000 -8.000000 8.000000 7.000000 102.613438 10.529679 774.943928 696.029466 19.355728 0.000000 0.155273
638.000000 53.299000 -7.000000 8.000000 7.000000 100.836780 16.731627 651.448548 725.861588 18.765089 0.000000 0.142298
639.000000 54.402000 -6.000000 8.000000 7.000000 98.188870 23.170314 514.359627 772.527961 18.385252 0.000000 0.122408
640.000000 54.785000 -5.000000 8.000000 7.000000 94.578424 29.691587 361.302019 841.784800 18.257598 0.000000 0.099290
641.000000 54.261000 -4.000000 8.000000 7.000000 89.972081 36.129172 189.313020 941.649317 18.435092 0.000000 0.094199
642.000000 52.688000 -3.000000 8.000000 7.000000 84.410388 42.329075 -5.351288 1083.480809 18.986652 0.000000 0.145185
643.000000 50.014000 -2.000000 8.000000 7.000000 78.011265 48.169759 -227.491701 1283.695147 20.003635 0.000000 0.256587
645.000000 47.060000 -10.000000 9.000000 7.000000 108.999057 2.773084 922.867232 569.987513 21.249981 0.000000 0.151702
646.000000 49.000000 -9.000000 9.000000 7.000000 108.483045 8.395157 816.159637 577.334288 20.408454 0.000000 0.146783
647.000000 50.726000 -8.000000 9.000000 7.000000 107.335842 14.399074 698.673141 594.136962 19.714647 0.000000 0.135905
648.000000 52.108000 -7.000000 9.000000 7.000000 105.434795 20.682047 568.687646 623.365830 19.192079 0.000000 0.117866
649.000000 53.001000 -6.000000 9.000000 7.000000 102.678106 27.105733 424.096501 669.004747 18.869546 0.000000 0.092871
650.000000 53.248000 -5.000000 9.000000 7.000000 99.003618 33.512025 262.291454 736.461657 18.782684 0.000000 0.070443
651.000000 52.709000 -4.000000 9.000000 7.000000 94.404588 39.745330 80.003907 833.178860 18.976123 0.000000 0.090488
652.000000 51.280000 -3.000000 9.000000 7.000000 88.937792 45.673981 -126.918183 969.559599 19.506528 0.000000 0.171858
653.000000 48.925000 -2.000000 9.000000 7.000000 82.721265 51.203977 -363.830404 1160.408751 20.446937 0.000000 0.303443
655.000000 46.260000 -10.000000 10.000000 7.000000 113.325991 6.364296 854.953336 474.017622 21.615425 0.000000 0.134810
656.000000 47.961000 -9.000000 10.000000 7.000000 112.671081 12.164913 742.986774 481.087227 20.848893 0.000000 0.125596
657.000000 49.438000 -8.000000 10.000000 7.000000 111.367200 18.278654 619.494481 497.539549 20.226340 0.000000 0.109554
658.000000 50.584000 -7.000000 10.000000 7.000000 109.311702 24.583881 482.600216 526.243985 19.768941 0.000000 0.085534
659.000000 51.277000 -6.000000 10.000000 7.000000 106.428620 30.933462 329.997137 571.021081 19.502238 0.000000 0.056008
660.000000 51.398000 -5.000000 10.000000 7.000000 102.682872 37.174033 158.816746 637.016372 19.457328 0.000000 0.052857
661.000000 50.839000 -4.000000 10.000000 7.000000 98.089734 43.167324 -34.553116 731.250579 19.672455 0.000000 0.115454
662.000000 49.527000 -3.000000 10.000000 7.000000 92.717031 48.806580 -254.725974 863.445867 20.195194 0.000000 0.221327
664.000000 46.690000 -9.000000 11.000000 7.000000 116.263532 15.963882 667.111717 388.611636 21.415200 0.000000 0.099272
665.000000 47.934000 -8.000000 11.000000 7.000000 114.778823 22.133069 537.238419 404.641322 20.859718 0.000000 0.077306
666.000000 48.863000 -7.000000 11.000000 7.000000 112.556346 28.402812 392.981584 432.765083 20.463786 0.000000 0.046525
667.000000 49.380000 -6.000000 11.000000 7.000000 109.544992 34.625336 231.811659 476.673715 20.250246 0.000000 0.025690
668.000000 49.392000 -5.000000 11.000000 7.000000 105.733083 40.659338 50.569014 541.310354 20.246520 0.000000 0.078547
669.000000 48.818000 -4.000000 11.000000 7.000000 101.152636 46.387970 -154.745272 633.379966 20.485814 0.000000 0.167543
670.000000 47.606000 -3.000000 11.000000 7.000000 95.877662 51.729488 -389.267907 762.109820 21.008734 0.000000 0.290886
672.000000 46.307000 -8.000000 12.000000 7.000000 117.642722 25.928321 451.721988 314.213460 21.591590 0.000000 0.040132
673.000000 47.046000 -7.000000 12.000000 7.000000 115.254056 32.108860 299.609930 341.610796 21.253172 0.000000 0.005526
674.000000 47.412000 -6.000000 12.000000 7.000000 112.123297 38.159603 129.268014 384.530811 21.089640 0.000000 0.057514
675.000000 47.334000 -5.000000 12.000000 7.000000 108.257680 43.956569 -62.789788 447.757477 21.125384 0.000000 0.134000
676.000000 46.753000 -4.000000 12.000000 7.000000 103.700845 49.405968 -280.998838 537.755732 21.389548 0.000000 0.237513
678.000000 46.218000 -7.000000 5.000000 8.000000 74.522980 7.794740 827.666690 1241.797268 21.651283 0.000000 0.117889
679.000000 46.716000 -6.000000 5.000000 8.000000 71.385149 13.343058 719.720633 1313.581200 21.421674 0.000000 0.102430
680.000000 46.342000 -5.000000 5.000000 8.000000 67.392945 19.151606 601.213703 1415.431551 21.595374 0.000000 0.092020
681.000000 47.741000 -7.000000 6.000000 8.000000 81.557675 11.289787 760.134687 1103.897944 20.957895 0.000000 0.141896
682.000000 48.124000 -5.000000 6.000000 8.000000 74.686999 22.790644 522.774331 1260.660334 20.793039 0.000000 0.113485
683.000000 45.696000 -9.000000 7.000000 8.000000 91.506971 4.134312 897.202382 912.611338 21.891525 0.000000 0.166741
684.000000 47.218000 -8.000000 7.000000 8.000000 89.976209 9.322968 798.307004 941.452888 21.186429 0.000000 0.160433
685.000000 48.355000 -7.000000 7.000000 8.000000 87.781096 14.816576 690.297641 984.137018 20.689153 0.000000 0.149293
686.000000 48.939000 -6.000000 7.000000 8.000000 84.824053 20.534391 571.853549 1045.109846 20.442944 0.000000 0.133842
687.000000 48.796000 -5.000000 7.000000 8.000000 81.036511 26.371678 441.385835 1130.484681 20.503947 0.000000 0.118667
688.000000 47.768000 -4.000000 7.000000 8.000000 76.397102 32.209740 296.965773 1248.812107 20.946391 0.000000 0.119465
689.000000 45.752000 -3.000000 7.000000 8.000000 70.945763 37.929785 136.228810 1412.291209 21.870519 0.000000 0.161013
690.000000 45.825000 -9.000000 8.000000 8.000000 96.964294 7.441600 834.419070 808.411740 21.827349 0.000000 0.165405
691.000000 48.258000 -7.000000 8.000000 8.000000 93.227247 18.348654 618.035488 877.061642 20.728182 0.000000 0.143827
692.000000 48.638000 -5.000000 8.000000 8.000000 86.512262 29.868971 356.878709 1016.646103 20.567969 0.000000 0.110464
693.000000 45.935000 -3.000000 8.000000 8.000000 76.614202 41.119340 35.448705 1280.988661 21.780978 0.000000 0.164702
694.000000 45.489000 -9.000000 9.000000 8.000000 101.794118 10.803881 769.610326 712.210325 21.986587 0.000000 0.155951
695.000000 46.739000 -8.000000 9.000000 8.000000 100.206920 16.236235 661.569344 739.159909 21.399192 0.000000 0.144719
696.000000 47.635000 -7.000000 9.000000 8.000000 97.951359 21.859329 543.219676 779.022281 20.997393 0.000000 0.128176
697.000000 48.059000 -6.000000 9.000000 8.000000 94.961417 27.571351 413.012013 835.596610 20.812951 0.000000 0.108033
698.000000 47.895000 -5.000000 9.000000 8.000000 91.203611 33.260436 269.070202 913.956978 20.885314 0.000000 0.093933
699.000000 47.044000 -4.000000 9.000000 8.000000 86.686823 38.817356 109.100269 1020.968215 21.264090 0.000000 0.111450
700.000000 46.640000 -7.000000 10.000000 8.000000 102.020080 25.322866 465.712408 687.471215 21.443254 0.000000 0.104329
701.000000 46.759000 -5.000000 10.000000 8.000000 95.205521 36.528236 177.763001 818.974778 21.390555 0.000000 0.077606
702.000000 45.622000 -6.000000 11.000000 8.000000 102.396103 34.259097 241.927179 654.778827 21.921303 0.000000 0.055085
#UB matrix in q= (UB) B0 G* 
#[[ 0.528561725 -0.843738985  0.085785883]
# [ 0.760292127  0.516414078  0.39460967 ]
# [-0.377595531 -0.143553055  0.915393518]]
#B0 matrix in q= UB (B0) G*
#[[ 0.19670273 -0.          0.03056101]
# [ 0.          0.19187965 -0.        ]
# [ 0.          0.          0.18806537]]
#UBB0 matrix in q= (UB B0) G* i.e. recip. basis vectors are columns in LT frame: astar = UBB0[:,0], bstar = UBB0[:,1], cstar = UBB0[:,2]. (abcstar as columns on xyzlab1, xlab1 = ui, ui = unit vector along incident beam)
#[[ 0.10396954 -0.16189634  0.03228673]
# [ 0.14955154  0.09908935  0.09744771]
# [-0.07427407 -0.02754491  0.16061412]]
#Euler angles phi theta psi (deg)
#[290.78   23.82   12.279]
#deviatoric strain in direct crystal frame (10-3 unit)
#[[-2.41 -0.43  0.41]
# [-0.43 -1.95 -0.12]
# [ 0.41 -0.12  4.36]]
#deviatoric strain in sample2 frame (10-3 unit)
#[[ 1.05  2.    2.38]
# [ 2.   -1.38  1.86]
# [ 2.38  1.87  0.33]]
#new lattice parameters
#[ 5.1505     5.214026   5.3148957 89.9996452 99.2093692 90.0488526]
#CCDLabel
#sCMOS
#DetectorParameters
#[79.0, 975.0, 941.0, 0.0, 0.0]
#pixelsize
#0.0734
#Frame dimensions
#[2018, 2016]
#
