#Strain and Orientation Refinement from experimental file: /home/micha/LaueProjects/DepthEffects/testZrO2_60.cor
#File created at Wed Jun 28 14:22:11 2023 with indexingSpotsSet.py
#Number of indexed spots: 540
#Element
#ZrO2
#grainIndex
#G_0
#Mean Deviation(pixel): 0.114
##spot_index intensity h k l 2theta Chi Xexp Yexp Energy GrainIndex PixDev
33.000000 129.500000 2.000000 1.000000 1.000000 47.519783 19.732802 588.935529 1988.043687 7.726685 0.000000 0.191155
35.000000 170.355000 2.000000 2.000000 1.000000 78.939770 27.803725 407.444972 1178.843729 5.870599 0.000000 0.117164
36.000000 103.482000 3.000000 2.000000 1.000000 57.811744 29.694141 361.238437 1720.883190 9.667595 0.000000 0.174006
38.000000 166.235000 2.000000 3.000000 1.000000 99.236711 35.543508 206.052968 725.890098 6.013644 0.000000 0.065033
39.000000 116.859000 3.000000 3.000000 1.000000 77.825901 35.148789 217.197690 1224.973634 8.557887 0.000000 0.131592
40.000000 82.046000 4.000000 3.000000 1.000000 62.309466 34.931642 223.282728 1629.967641 12.192252 0.000000 0.192772
41.000000 58.731000 5.000000 3.000000 1.000000 50.933768 34.794247 227.116259 2004.834569 17.035134 0.000000 0.282440
42.000000 149.157000 2.000000 4.000000 1.000000 112.024096 42.715179 -18.703825 348.435624 6.700540 0.000000 0.143767
43.000000 115.860000 3.000000 4.000000 1.000000 92.382521 40.321209 61.550924 882.265091 8.629205 0.000000 0.111983
44.000000 88.207000 4.000000 4.000000 1.000000 76.869121 38.973894 104.245759 1263.951552 11.337673 0.000000 0.159302
45.000000 67.185000 5.000000 4.000000 1.000000 64.741345 38.110856 130.748146 1586.399612 14.888439 0.000000 0.210583
46.000000 51.699000 6.000000 4.000000 1.000000 55.204675 37.511019 148.801437 1883.863852 19.350858 0.000000 0.273817
48.000000 108.939000 3.000000 5.000000 1.000000 102.889153 45.155796 -107.163471 591.742575 9.175644 0.000000 0.166748
49.000000 88.134000 4.000000 5.000000 1.000000 88.243477 42.820418 -22.372089 985.999268 11.344653 0.000000 0.152711
50.000000 70.635000 5.000000 5.000000 1.000000 76.157896 41.300478 29.436472 1294.010283 14.158204 0.000000 0.185355
51.000000 56.645000 6.000000 5.000000 1.000000 66.242882 40.233750 64.373535 1561.553698 17.658109 0.000000 0.226093
52.000000 45.700000 7.000000 5.000000 1.000000 58.084395 39.444330 89.526426 1809.044929 21.889878 0.000000 0.274249
54.000000 84.888000 4.000000 6.000000 1.000000 97.097898 46.453075 -157.318817 746.472469 11.776389 0.000000 0.191852
55.000000 70.845000 5.000000 6.000000 1.000000 85.498025 44.351697 -77.209173 1059.512080 14.113710 0.000000 0.183764
56.000000 58.827000 6.000000 6.000000 1.000000 75.625426 42.860136 -23.759773 1317.303147 17.000265 0.000000 0.207150
57.000000 48.872000 7.000000 6.000000 1.000000 67.255126 41.747961 14.439439 1545.779359 20.465980 0.000000 0.239450
59.000000 80.294000 4.000000 7.000000 1.000000 104.027515 49.862504 -301.444179 523.858646 12.448667 0.000000 0.277661
60.000000 69.172000 5.000000 7.000000 1.000000 93.123410 47.257182 -189.621422 854.466462 14.453107 0.000000 0.213307
61.000000 59.115000 6.000000 7.000000 1.000000 83.550384 45.384769 -115.847895 1114.234036 16.914863 0.000000 0.207683
62.000000 50.369000 7.000000 7.000000 1.000000 75.216361 43.976900 -63.527042 1335.709051 19.855083 0.000000 0.225041
64.000000 66.513000 5.000000 8.000000 1.000000 99.367387 50.013269 -308.280995 664.704975 15.029035 0.000000 0.275172
65.000000 58.198000 6.000000 8.000000 1.000000 90.234737 47.804225 -212.163139 934.434929 17.179262 0.000000 0.230925
66.000000 50.664000 7.000000 8.000000 1.000000 82.099190 46.128311 -144.541890 1156.517794 19.736750 0.000000 0.226537
68.000000 56.566000 6.000000 9.000000 1.000000 95.882567 50.116857 -313.003398 768.060047 17.673027 0.000000 0.277702
69.000000 50.144000 7.000000 9.000000 1.000000 88.043528 48.200421 -228.787451 996.161130 19.939386 0.000000 0.245400
72.000000 49.096000 7.000000 10.000000 1.000000 93.182845 50.192417 -316.460908 847.513775 20.362809 0.000000 0.282133
74.000000 47.728000 7.000000 11.000000 1.000000 97.637051 52.104317 -407.775823 706.042773 20.944599 0.000000 0.334790
78.000000 184.059000 1.000000 1.000000 2.000000 68.727072 -11.517101 1194.309099 1368.654632 5.434835 0.000000 0.093004
79.000000 109.335000 2.000000 1.000000 2.000000 49.725632 2.901691 920.445444 1854.107177 9.151945 0.000000 0.093218
81.000000 143.720000 2.000000 2.000000 2.000000 77.656433 9.463345 795.597876 1179.777078 6.959140 0.000000 0.130068
82.000000 95.702000 3.000000 2.000000 2.000000 60.112089 15.898138 668.447334 1584.196652 10.453896 0.000000 0.080135
83.000000 191.484000 1.000000 3.000000 2.000000 121.311411 6.663901 849.251903 281.855985 5.218879 0.000000 0.094760
84.000000 147.623000 2.000000 3.000000 2.000000 97.922645 16.289679 660.479972 784.953892 6.772369 0.000000 0.141940
85.000000 108.513000 3.000000 3.000000 2.000000 79.140524 21.017778 561.466120 1162.188063 9.216433 0.000000 0.123183
86.000000 79.172000 4.000000 3.000000 2.000000 64.790846 23.791477 500.488888 1494.732011 12.635059 0.000000 0.111458
87.000000 58.430000 5.000000 3.000000 2.000000 53.867030 25.607110 459.161959 1812.384722 17.123138 0.000000 0.169450
88.000000 166.089000 1.000000 4.000000 2.000000 133.608699 17.103445 643.817807 -131.692300 6.015687 0.000000 0.033692
89.000000 138.086000 2.000000 4.000000 2.000000 111.917575 23.196835 513.770064 469.860662 7.238060 0.000000 0.075526
90.000000 109.503000 3.000000 4.000000 2.000000 93.668009 26.107273 447.559448 864.163077 9.130466 0.000000 0.111031
91.000000 66.142000 5.000000 4.000000 2.000000 67.197948 28.912865 380.538298 1457.907208 15.123304 0.000000 0.130481
93.000000 124.963000 2.000000 5.000000 2.000000 121.489202 29.987688 353.909549 179.829219 7.996803 0.000000 0.027294
94.000000 104.674000 3.000000 5.000000 2.000000 104.550775 31.088502 326.032342 614.778592 9.549591 0.000000 0.056191
95.000000 85.674000 4.000000 5.000000 2.000000 90.260011 31.732024 309.435783 935.257255 11.670473 0.000000 0.097924
96.000000 69.482000 5.000000 5.000000 2.000000 78.393722 32.154097 298.424956 1202.102309 14.393241 0.000000 0.120912
97.000000 56.338000 6.000000 5.000000 2.000000 68.582180 32.452217 290.586142 1441.310126 17.754422 0.000000 0.145577
98.000000 45.902000 7.000000 5.000000 2.000000 60.446577 32.673986 284.721224 1665.988581 21.793560 0.000000 0.183184
99.000000 112.115000 2.000000 6.000000 2.000000 128.072451 36.484064 179.047294 -107.586840 8.912210 0.000000 0.147528
100.000000 97.649000 3.000000 6.000000 2.000000 112.689566 35.892987 196.093619 385.530408 10.234963 0.000000 0.045220
101.000000 69.861000 5.000000 6.000000 2.000000 87.676501 35.312651 212.584328 994.517231 14.312572 0.000000 0.103221
102.000000 48.878000 7.000000 6.000000 2.000000 69.448755 35.026456 220.629746 1433.751081 20.463572 0.000000 0.159278
104.000000 90.210000 3.000000 7.000000 2.000000 118.815326 40.466715 56.838644 162.758820 11.077823 0.000000 0.140105
105.000000 79.111000 4.000000 7.000000 2.000000 106.354331 39.211305 96.842136 533.371451 12.634543 0.000000 0.075291
106.000000 68.436000 5.000000 7.000000 2.000000 95.335471 38.373276 122.756737 812.786901 14.608455 0.000000 0.088012
107.000000 58.757000 6.000000 7.000000 2.000000 85.698304 37.774385 140.910999 1043.424149 17.017684 0.000000 0.117900
108.000000 50.302000 7.000000 7.000000 2.000000 77.313669 37.325144 154.336805 1245.679730 19.881418 0.000000 0.145191
110.000000 66.015000 5.000000 8.000000 2.000000 101.655657 41.323864 28.657811 645.361548 15.142117 0.000000 0.103155
111.000000 50.593000 7.000000 8.000000 2.000000 84.150538 39.564741 85.726994 1084.032862 19.764416 0.000000 0.135093
113.000000 70.006000 4.000000 9.000000 2.000000 116.571889 46.041513 -141.152614 165.493551 14.275199 0.000000 0.234276
114.000000 63.119000 5.000000 9.000000 2.000000 106.887588 44.155480 -70.024524 485.570941 15.835515 0.000000 0.154069
115.000000 56.397000 6.000000 9.000000 2.000000 98.058647 42.783162 -21.072080 733.368473 17.725494 0.000000 0.127250
116.000000 50.100000 7.000000 9.000000 2.000000 90.081633 41.740930 14.676692 938.944866 19.956415 0.000000 0.133687
117.000000 60.057000 5.000000 10.000000 2.000000 111.239574 46.862206 -173.633505 329.198481 16.641391 0.000000 0.225602
118.000000 49.092000 7.000000 10.000000 2.000000 95.227325 43.850362 -58.946672 804.457239 20.364120 0.000000 0.147877
121.000000 52.350000 6.000000 11.000000 2.000000 107.013992 47.436196 -196.946329 454.101199 19.092658 0.000000 0.223789
122.000000 47.765000 7.000000 11.000000 2.000000 99.698339 45.890612 -135.285449 676.726729 20.928361 0.000000 0.179638
124.000000 46.255000 7.000000 12.000000 2.000000 103.592617 47.860111 -214.492689 553.133697 21.609795 0.000000 0.225871
126.000000 158.104000 0.000000 1.000000 3.000000 72.441855 -40.854313 1905.814208 1391.246715 6.325830 0.000000 0.175319
127.000000 124.360000 1.000000 1.000000 3.000000 61.372542 -21.444496 1397.759627 1572.179151 8.044470 0.000000 0.093568
128.000000 87.286000 2.000000 1.000000 3.000000 49.131788 -8.070708 1127.618001 1881.586624 11.463730 0.000000 0.098577
129.000000 59.231000 3.000000 1.000000 3.000000 38.836265 0.799588 959.978861 2278.036607 16.895146 0.000000 0.252346
130.000000 182.673000 0.000000 2.000000 3.000000 102.446050 -36.510888 1771.732432 645.451019 5.472209 0.000000 0.049736
131.000000 152.375000 1.000000 2.000000 3.000000 88.801841 -16.070082 1285.047640 964.425950 6.562393 0.000000 0.147333
132.000000 115.061000 2.000000 2.000000 3.000000 73.324625 -3.112748 1033.530189 1263.875968 8.693259 0.000000 0.114457
133.000000 83.485000 3.000000 2.000000 3.000000 59.888220 5.049600 879.897527 1567.633699 11.984022 0.000000 0.035038
134.000000 60.377000 4.000000 2.000000 3.000000 49.202122 10.459070 776.315814 1885.658391 16.572833 0.000000 0.123948
135.000000 175.806000 0.000000 3.000000 3.000000 124.274852 -30.934583 1620.031494 85.853323 5.683924 0.000000 0.050322
136.000000 153.819000 1.000000 3.000000 3.000000 109.421039 -9.879666 1162.449848 555.820570 6.498222 0.000000 0.137567
137.000000 124.019000 2.000000 3.000000 3.000000 92.637013 2.221447 933.249456 891.391743 8.062322 0.000000 0.165171
138.000000 73.036000 4.000000 3.000000 3.000000 65.332496 14.143967 703.775365 1450.753976 13.697010 0.000000 0.082110
139.000000 55.848000 5.000000 3.000000 3.000000 55.443701 17.378127 638.160999 1717.728979 17.915043 0.000000 0.104334
141.000000 143.185000 1.000000 4.000000 3.000000 124.106893 -2.851322 1028.605994 211.201632 6.979037 0.000000 0.085550
142.000000 121.522000 2.000000 4.000000 3.000000 107.266919 7.874316 826.143559 603.268767 8.225599 0.000000 0.145432
143.000000 99.031000 3.000000 4.000000 3.000000 91.958627 13.995595 706.737592 903.067015 10.096615 0.000000 0.150200
144.000000 79.162000 4.000000 4.000000 3.000000 78.965452 17.870494 627.978417 1161.523695 12.633893 0.000000 0.126534
145.000000 62.979000 5.000000 4.000000 3.000000 68.218121 20.521483 572.130016 1400.234863 15.883055 0.000000 0.102670
146.000000 50.289000 6.000000 4.000000 3.000000 59.383794 22.441792 530.464802 1630.118049 19.893987 0.000000 0.116124
148.000000 129.313000 1.000000 5.000000 3.000000 134.335195 4.944111 881.894267 -114.530472 7.726451 0.000000 0.026460
149.000000 113.952000 2.000000 5.000000 3.000000 118.098536 13.757097 711.491166 349.375555 8.770228 0.000000 0.092435
150.000000 96.856000 3.000000 5.000000 3.000000 103.188302 18.592859 612.936288 674.901093 10.321019 0.000000 0.125496
151.000000 80.593000 4.000000 5.000000 3.000000 90.201646 21.607561 548.700649 936.925788 12.406670 0.000000 0.129990
152.000000 66.420000 5.000000 5.000000 3.000000 79.156331 23.656400 503.516367 1166.078132 15.057104 0.000000 0.120209
153.000000 54.645000 6.000000 5.000000 3.000000 69.846686 25.135981 470.002456 1377.322550 18.304521 0.000000 0.114169
155.000000 104.883000 2.000000 6.000000 3.000000 126.056021 19.754965 588.465582 108.417230 9.527248 0.000000 0.030851
156.000000 79.131000 4.000000 6.000000 3.000000 99.343544 25.323552 465.696651 745.083830 12.633491 0.000000 0.104088
157.000000 67.209000 5.000000 6.000000 3.000000 88.388108 26.764326 432.165509 974.921299 14.877569 0.000000 0.114603
158.000000 47.949000 7.000000 6.000000 3.000000 70.819926 28.588493 388.465692 1367.368967 20.860109 0.000000 0.123170
160.000000 95.937000 2.000000 7.000000 3.000000 131.891411 25.738877 456.114790 -130.748589 10.414665 0.000000 0.067695
161.000000 86.278000 3.000000 7.000000 3.000000 118.691144 27.748711 408.765106 275.419267 11.582913 0.000000 0.012295
162.000000 76.103000 4.000000 7.000000 3.000000 106.745836 28.987902 378.697388 570.776665 13.134353 0.000000 0.059837
163.000000 66.276000 5.000000 7.000000 3.000000 96.122255 29.827658 357.910312 807.925491 15.084681 0.000000 0.090267
164.000000 57.301000 6.000000 7.000000 3.000000 86.772139 30.434061 342.681528 1011.399350 17.450461 0.000000 0.107232
165.000000 49.388000 7.000000 7.000000 3.000000 78.585908 30.892418 331.044580 1194.217775 20.249186 0.000000 0.118670
167.000000 80.373000 3.000000 8.000000 3.000000 123.959084 32.193566 297.390109 84.457222 12.432821 0.000000 0.065194
168.000000 72.354000 4.000000 8.000000 3.000000 112.739981 32.572555 287.407290 405.695838 13.813294 0.000000 0.016002
169.000000 64.320000 5.000000 8.000000 3.000000 102.585089 32.830302 280.569762 655.040333 15.541417 0.000000 0.056178
170.000000 56.710000 6.000000 8.000000 3.000000 93.487624 33.016958 275.593347 862.771129 17.629901 0.000000 0.086781
171.000000 49.768000 7.000000 8.000000 3.000000 85.388538 33.158367 271.809203 1044.699523 20.092083 0.000000 0.107536
173.000000 68.381000 4.000000 9.000000 3.000000 117.607375 36.053118 191.500891 244.810569 14.614473 0.000000 0.068678
174.000000 61.818000 5.000000 9.000000 3.000000 107.988409 35.758117 199.947481 510.350218 16.168660 0.000000 0.040170
175.000000 49.394000 7.000000 9.000000 3.000000 91.329100 35.380374 210.672196 910.372424 20.241797 0.000000 0.091950
177.000000 64.457000 4.000000 10.000000 3.000000 121.576334 39.409629 90.618958 84.793728 15.503188 0.000000 0.141291
178.000000 59.077000 5.000000 10.000000 3.000000 112.516764 38.599203 115.830064 370.087616 16.917531 0.000000 0.079653
179.000000 53.693000 6.000000 10.000000 3.000000 104.161183 38.006059 133.923442 596.346034 18.616517 0.000000 0.063118
180.000000 48.510000 7.000000 10.000000 3.000000 96.511694 37.553232 147.540494 786.039442 20.608628 0.000000 0.079897
183.000000 56.283000 5.000000 11.000000 3.000000 116.325032 41.344052 27.985194 231.684786 17.756205 0.000000 0.140243
184.000000 51.752000 6.000000 11.000000 3.000000 108.387329 40.398282 59.057423 471.211435 19.313208 0.000000 0.094182
185.000000 47.298000 7.000000 11.000000 3.000000 101.035147 39.672523 82.314857 668.304015 21.134737 0.000000 0.083930
187.000000 53.545000 5.000000 12.000000 3.000000 119.540670 43.985540 -63.840502 93.280542 18.663070 0.000000 0.209068
188.000000 45.891000 7.000000 12.000000 3.000000 104.989077 41.734626 14.889353 554.832255 21.781154 0.000000 0.109453
191.000000 47.678000 6.000000 13.000000 3.000000 115.163762 44.953043 -99.531563 226.510238 20.961163 0.000000 0.202495
198.000000 108.366000 0.000000 1.000000 4.000000 63.729105 -41.788699 1936.936222 1653.516546 9.230435 0.000000 0.226394
199.000000 90.800000 1.000000 1.000000 4.000000 56.378830 -26.905821 1521.172750 1743.534703 11.018227 0.000000 0.135461
200.000000 70.220000 2.000000 1.000000 4.000000 47.864829 -15.295913 1269.358277 1950.466360 14.249702 0.000000 0.132822
201.000000 52.266000 3.000000 1.000000 4.000000 39.918689 -6.650268 1100.488513 2236.094575 19.146226 0.000000 0.227930
203.000000 131.906000 0.000000 2.000000 4.000000 88.483862 -38.813426 1840.778132 977.559864 7.580189 0.000000 0.103923
204.000000 114.214000 1.000000 2.000000 4.000000 79.447951 -23.164183 1435.504108 1159.071464 8.756374 0.000000 0.124337
205.000000 71.384000 3.000000 2.000000 4.000000 58.530429 -3.154918 1034.324721 1600.767939 14.015778 0.000000 0.012872
207.000000 137.197000 0.000000 3.000000 4.000000 108.635118 -35.247823 1735.588283 496.572628 7.285300 0.000000 0.026939
208.000000 122.305000 1.000000 3.000000 4.000000 98.532166 -18.919250 1343.901939 770.307549 8.174169 0.000000 0.136294
209.000000 102.490000 2.000000 3.000000 4.000000 86.496520 -7.418677 1115.143004 1007.450850 9.757065 0.000000 0.156039
210.000000 82.752000 3.000000 3.000000 4.000000 74.880798 0.524006 965.156333 1231.805652 12.087118 0.000000 0.121607
211.000000 65.717000 4.000000 3.000000 4.000000 64.659696 6.139286 859.230849 1453.628566 15.223024 0.000000 0.065154
212.000000 52.030000 5.000000 3.000000 4.000000 56.013688 10.246740 780.437539 1678.355829 19.229795 0.000000 0.062393
213.000000 120.386000 1.000000 4.000000 4.000000 113.558542 -14.119089 1245.727682 457.087107 8.302201 0.000000 0.112997
214.000000 104.387000 2.000000 4.000000 4.000000 100.941268 -3.005600 1031.511681 732.647715 9.577063 0.000000 0.162733
215.000000 87.433000 3.000000 4.000000 4.000000 88.658034 4.368761 892.773930 966.286746 11.436902 0.000000 0.160323
216.000000 58.633000 5.000000 4.000000 4.000000 68.168647 13.140290 723.740511 1383.763505 17.060868 0.000000 0.091497
217.000000 122.141000 0.000000 5.000000 4.000000 136.160275 -25.678830 1492.495766 -302.615699 8.179906 0.000000 0.095367
218.000000 113.596000 1.000000 5.000000 4.000000 125.092787 -8.728689 1140.247740 175.908837 8.796693 0.000000 0.073261
219.000000 101.259000 2.000000 5.000000 4.000000 112.377129 1.701593 943.026386 497.690567 9.870709 0.000000 0.137097
220.000000 87.502000 3.000000 5.000000 4.000000 99.968783 8.354071 816.948166 749.796017 11.425280 0.000000 0.157576
221.000000 74.151000 4.000000 5.000000 4.000000 88.691940 12.854235 729.400326 966.207743 13.485343 0.000000 0.150437
222.000000 62.206000 5.000000 5.000000 4.000000 78.788018 16.064725 665.061324 1163.015700 16.077591 0.000000 0.128084
223.000000 52.015000 6.000000 5.000000 4.000000 70.227010 18.456646 615.782325 1348.897557 19.230632 0.000000 0.103933
225.000000 105.118000 1.000000 6.000000 4.000000 133.832111 -2.745591 1026.615114 -93.475140 9.504909 0.000000 0.031330
226.000000 84.863000 3.000000 6.000000 4.000000 109.123487 12.447420 737.427346 558.822126 11.778338 0.000000 0.130477
227.000000 63.464000 5.000000 6.000000 4.000000 87.926628 19.005139 604.294181 982.211524 15.756133 0.000000 0.136821
228.000000 46.315000 7.000000 6.000000 4.000000 71.471626 22.565672 527.738333 1331.621670 21.596541 0.000000 0.110774
229.000000 96.540000 1.000000 7.000000 4.000000 140.390272 3.782298 903.846610 -362.405571 10.348639 0.000000 0.011374
230.000000 89.400000 2.000000 7.000000 4.000000 128.246334 11.823004 749.699379 74.241546 11.176899 0.000000 0.047030
231.000000 80.863000 3.000000 7.000000 4.000000 116.484050 16.610174 653.934627 381.402525 12.359220 0.000000 0.089039
232.000000 71.866000 4.000000 7.000000 4.000000 105.582428 19.745547 588.665295 622.098339 13.909318 0.000000 0.114851
233.000000 63.111000 5.000000 7.000000 4.000000 95.719547 21.946127 541.325623 824.778800 15.841629 0.000000 0.125041
234.000000 55.029000 6.000000 7.000000 4.000000 86.919259 23.571329 505.419827 1004.200441 18.171354 0.000000 0.124438
235.000000 47.818000 7.000000 7.000000 4.000000 79.125420 24.818877 477.251849 1168.806857 20.914510 0.000000 0.119035
237.000000 76.330000 3.000000 8.000000 4.000000 122.388190 20.799505 566.164806 210.678044 13.091934 0.000000 0.041087
238.000000 61.725000 5.000000 8.000000 4.000000 102.333597 24.872271 476.033815 681.609642 16.195192 0.000000 0.098962
239.000000 48.340000 7.000000 8.000000 4.000000 85.891104 27.054527 425.309856 1027.817828 20.685687 0.000000 0.115547
241.000000 77.048000 2.000000 9.000000 4.000000 137.740410 22.418185 530.983819 -340.346935 12.966913 0.000000 0.085168
242.000000 71.727000 3.000000 9.000000 4.000000 127.123156 24.970922 473.780588 42.313798 13.930905 0.000000 0.031431
243.000000 65.819000 4.000000 9.000000 4.000000 117.154712 26.618735 435.591721 323.482863 15.183819 0.000000 0.028291
244.000000 59.729000 5.000000 9.000000 4.000000 107.937512 27.768610 408.287766 547.241420 16.734678 0.000000 0.062909
245.000000 53.767000 6.000000 9.000000 4.000000 99.505749 28.615995 387.795458 735.701769 18.592885 0.000000 0.086962
246.000000 48.142000 7.000000 9.000000 4.000000 91.848080 29.266116 371.848489 901.190674 20.768243 0.000000 0.101817
247.000000 67.297000 3.000000 10.000000 4.000000 130.923165 29.081058 376.408254 -126.676047 14.847137 0.000000 0.087479
248.000000 57.412000 5.000000 10.000000 4.000000 112.686769 30.621092 337.946447 418.160836 17.408395 0.000000 0.020987
249.000000 47.439000 7.000000 10.000000 4.000000 97.082619 31.447566 316.800094 784.247962 21.073939 0.000000 0.080868
252.000000 59.198000 4.000000 11.000000 4.000000 125.083931 33.282303 268.482595 36.691012 16.879727 0.000000 0.085037
253.000000 54.964000 5.000000 11.000000 4.000000 116.717656 33.416948 264.857814 291.970404 18.182189 0.000000 0.032511
254.000000 50.646000 6.000000 11.000000 4.000000 108.912799 33.516591 262.168087 498.688560 19.735076 0.000000 0.029000
255.000000 46.398000 7.000000 11.000000 4.000000 101.679880 33.593309 260.092939 673.893792 21.544998 0.000000 0.057443
257.000000 52.505000 5.000000 12.000000 4.000000 120.146367 36.144981 188.857708 166.945225 19.032586 0.000000 0.085142
260.000000 50.106000 5.000000 13.000000 4.000000 123.070449 38.795750 109.768626 41.781825 19.942922 0.000000 0.142402
261.000000 46.959000 6.000000 13.000000 4.000000 115.966101 38.211430 127.692181 273.908984 21.282042 0.000000 0.089212
262.000000 47.807000 5.000000 14.000000 4.000000 125.571149 41.361656 27.398338 -84.551955 20.901038 0.000000 0.203608
266.000000 80.888000 0.000000 1.000000 5.000000 58.320263 -42.324252 1955.185521 1839.371025 12.366906 0.000000 0.265390
267.000000 70.380000 1.000000 1.000000 5.000000 52.920319 -30.303166 1604.015382 1883.119044 14.215404 0.000000 0.178657
268.000000 57.775000 2.000000 1.000000 5.000000 46.589021 -20.267401 1372.437334 2026.392425 17.318911 0.000000 0.167108
269.000000 45.813000 3.000000 1.000000 5.000000 40.320159 -12.227763 1208.249023 2238.657248 21.842899 0.000000 0.224758
271.000000 100.014000 0.000000 2.000000 5.000000 79.095614 -40.066792 1880.258317 1211.937570 9.998905 0.000000 0.143282
272.000000 88.874000 1.000000 2.000000 5.000000 72.555196 -27.493330 1535.124092 1322.274049 11.254215 0.000000 0.117179
273.000000 74.866000 2.000000 2.000000 5.000000 64.706948 -17.299906 1310.226396 1473.700999 13.362333 0.000000 0.084474
274.000000 61.001000 3.000000 2.000000 5.000000 56.821872 -9.341722 1152.054801 1654.178920 16.401823 0.000000 0.038139
275.000000 48.903000 4.000000 2.000000 5.000000 49.594722 -3.177465 1034.749555 1858.579865 20.461205 0.000000 0.088283
277.000000 108.648000 0.000000 3.000000 5.000000 97.117072 -37.465998 1799.855310 771.688200 9.201417 0.000000 0.070252
278.000000 98.403000 1.000000 3.000000 5.000000 89.738374 -24.358562 1462.290464 946.394888 10.161234 0.000000 0.125791
279.000000 84.990000 2.000000 3.000000 5.000000 80.811936 -14.087164 1245.090106 1120.489399 11.767334 0.000000 0.137934
280.000000 71.116000 3.000000 3.000000 5.000000 71.754649 -6.289164 1093.617971 1297.960106 14.065471 0.000000 0.106775
281.000000 58.485000 4.000000 3.000000 5.000000 63.356121 -0.370482 981.959547 1481.010679 17.105821 0.000000 0.051265
282.000000 47.773000 5.000000 3.000000 5.000000 55.919067 4.185225 896.240920 1671.130801 20.943532 0.000000 0.033581
284.000000 109.388000 0.000000 4.000000 5.000000 112.103990 -34.450687 1713.353463 410.902964 9.136811 0.000000 0.017725
285.000000 100.753000 1.000000 4.000000 5.000000 104.158688 -20.861396 1385.166126 650.433019 9.921666 0.000000 0.117768
286.000000 89.056000 2.000000 4.000000 5.000000 94.575350 -10.620271 1176.817154 853.368330 11.227006 0.000000 0.158885
287.000000 76.439000 3.000000 4.000000 5.000000 84.797766 -3.074072 1032.801552 1039.133983 13.082753 0.000000 0.154761
288.000000 64.442000 4.000000 4.000000 5.000000 75.634202 2.537223 927.307388 1216.931164 15.521163 0.000000 0.124675
289.000000 53.849000 5.000000 4.000000 5.000000 67.418371 6.797766 846.702239 1391.782178 18.577066 0.000000 0.082402
291.000000 98.533000 1.000000 5.000000 5.000000 115.953669 -16.966121 1303.360416 393.295661 10.143012 0.000000 0.093301
292.000000 88.866000 2.000000 5.000000 5.000000 106.038231 -6.896299 1105.175383 629.345419 11.248589 0.000000 0.150988
293.000000 78.043000 3.000000 5.000000 5.000000 95.912484 0.295066 969.457175 829.537306 12.811025 0.000000 0.166376
294.000000 67.328000 4.000000 5.000000 5.000000 86.340679 5.535436 870.692777 1010.156009 14.852790 0.000000 0.155907
295.000000 48.863000 6.000000 5.000000 5.000000 69.946647 12.490722 736.574153 1343.398834 20.471795 0.000000 0.098606
296.000000 99.388000 0.000000 6.000000 5.000000 134.042879 -26.815875 1519.049717 -225.351504 10.052831 0.000000 0.088771
297.000000 93.903000 1.000000 6.000000 5.000000 125.463403 -12.643265 1216.433761 155.270980 10.641467 0.000000 0.062330
298.000000 86.122000 2.000000 6.000000 5.000000 115.439516 -2.920518 1029.909139 428.362103 11.604924 0.000000 0.125758
299.000000 77.139000 3.000000 6.000000 5.000000 105.236599 3.804703 903.423875 647.191390 12.958862 0.000000 0.154905
300.000000 67.923000 4.000000 6.000000 5.000000 95.532750 8.611330 812.008081 835.554994 14.719824 0.000000 0.159982
301.000000 59.152000 5.000000 6.000000 5.000000 86.635890 12.171747 742.852415 1005.722066 16.905300 0.000000 0.149095
302.000000 51.200000 6.000000 6.000000 5.000000 78.643065 14.895602 688.708704 1164.694325 19.533801 0.000000 0.128886
304.000000 88.268000 1.000000 7.000000 5.000000 133.066624 -7.876057 1123.889776 -74.583215 11.319491 0.000000 0.033002
305.000000 82.067000 2.000000 7.000000 5.000000 123.083066 1.291446 950.736234 239.647637 12.176756 0.000000 0.091207
306.000000 74.728000 3.000000 7.000000 5.000000 112.987301 7.435965 834.526725 480.549345 13.374961 0.000000 0.128957
307.000000 66.971000 4.000000 7.000000 5.000000 103.348500 11.749634 751.137648 680.146926 14.926792 0.000000 0.146157
308.000000 59.353000 5.000000 7.000000 5.000000 94.432767 14.911668 688.385514 854.656748 16.845576 0.000000 0.148034
309.000000 52.231000 6.000000 7.000000 5.000000 86.336045 17.315457 639.453100 1013.192662 19.145312 0.000000 0.139443
310.000000 45.791000 7.000000 7.000000 5.000000 79.060076 19.198417 600.228021 1161.290866 21.840725 0.000000 0.125196
312.000000 82.428000 1.000000 8.000000 5.000000 139.105911 -2.668609 1025.165781 -303.116358 12.120515 0.000000 0.009672
313.000000 77.485000 2.000000 8.000000 5.000000 129.265307 5.711972 867.344404 56.760673 12.895461 0.000000 0.053352
314.000000 71.521000 3.000000 8.000000 5.000000 119.398228 11.164788 762.575289 322.884961 13.972962 0.000000 0.094263
315.000000 65.061000 4.000000 8.000000 5.000000 109.957632 14.932965 687.957048 536.501254 15.363054 0.000000 0.120356
316.000000 58.543000 5.000000 8.000000 5.000000 101.161084 17.670967 632.111502 718.131626 17.076224 0.000000 0.132914
317.000000 52.284000 6.000000 8.000000 5.000000 93.095787 19.741746 588.745887 879.154356 19.123430 0.000000 0.134925
318.000000 46.476000 7.000000 8.000000 5.000000 85.773694 21.358807 554.097278 1026.400421 21.516135 0.000000 0.129798
320.000000 72.830000 2.000000 9.000000 5.000000 134.246317 10.300875 779.387192 -124.518342 13.718759 0.000000 0.024767
321.000000 67.978000 3.000000 9.000000 5.000000 124.687509 14.962541 687.361863 169.942767 14.699983 0.000000 0.055644
322.000000 62.615000 4.000000 9.000000 5.000000 115.531440 18.142342 622.332223 400.014189 15.961283 0.000000 0.086597
323.000000 57.082000 5.000000 9.000000 5.000000 106.947775 20.436975 573.938929 590.985218 17.511125 0.000000 0.107809
324.000000 51.643000 6.000000 9.000000 5.000000 99.011250 22.165789 536.521934 756.694161 19.358320 0.000000 0.119250
325.000000 46.479000 7.000000 9.000000 5.000000 91.739155 23.512834 506.727232 905.361074 21.512041 0.000000 0.122991
327.000000 68.340000 2.000000 10.000000 5.000000 138.243841 15.006391 686.479143 -307.192122 14.619175 0.000000 0.046362
328.000000 64.374000 3.000000 10.000000 5.000000 129.045576 18.797141 608.659473 18.832085 15.521828 0.000000 0.027281
329.000000 59.919000 4.000000 10.000000 5.000000 120.227713 21.357826 554.118538 267.641160 16.678161 0.000000 0.048301
330.000000 50.537000 6.000000 10.000000 5.000000 104.176835 24.578953 482.712157 642.028534 19.780036 0.000000 0.095278
331.000000 45.986000 7.000000 10.000000 5.000000 97.024941 25.654481 458.067262 793.867999 21.740323 0.000000 0.107353
334.000000 60.866000 3.000000 11.000000 5.000000 132.633227 22.634581 526.219590 -132.542126 16.415406 0.000000 0.052698
335.000000 57.152000 4.000000 11.000000 5.000000 124.184942 24.559247 483.159717 137.250999 17.484553 0.000000 0.019268
336.000000 53.184000 5.000000 11.000000 5.000000 116.185269 25.937863 451.500356 352.456635 18.791376 0.000000 0.038149
337.000000 49.136000 6.000000 11.000000 5.000000 108.684283 26.972838 427.243209 532.598261 20.341925 0.000000 0.065087
339.000000 57.537000 3.000000 12.000000 5.000000 135.584113 26.440704 439.769502 -285.794061 17.364558 0.000000 0.100140
340.000000 54.423000 4.000000 12.000000 5.000000 127.521519 27.726961 409.286648 7.272460 18.360141 0.000000 0.051168
341.000000 51.054000 5.000000 12.000000 5.000000 119.852597 28.647887 387.017819 237.120567 19.574135 0.000000 0.008262
342.000000 47.567000 6.000000 12.000000 5.000000 112.618371 29.339444 370.037150 426.595428 21.011671 0.000000 0.030364
345.000000 51.796000 4.000000 13.000000 5.000000 130.337239 30.842550 332.316036 -123.511013 19.290325 0.000000 0.099569
346.000000 48.924000 5.000000 13.000000 5.000000 123.007775 31.315562 320.202367 122.614351 20.425037 0.000000 0.049705
347.000000 45.915000 6.000000 13.000000 5.000000 116.055083 31.671322 311.011081 322.692715 21.766185 0.000000 0.011420
349.000000 49.305000 4.000000 14.000000 5.000000 132.715641 33.889414 252.048887 -256.086573 20.264340 0.000000 0.152294
350.000000 46.845000 5.000000 14.000000 5.000000 125.726325 33.930619 250.925064 7.972593 21.330556 0.000000 0.097182
356.000000 56.977000 1.000000 1.000000 6.000000 50.421303 -32.605670 1663.468979 1997.167140 17.559517 0.000000 0.215267
357.000000 48.641000 2.000000 1.000000 6.000000 45.466450 -23.847774 1450.774725 2098.756960 20.570799 0.000000 0.197135
359.000000 71.556000 1.000000 2.000000 6.000000 67.403824 -30.379833 1605.948977 1460.228099 13.978929 0.000000 0.127203
360.000000 52.529000 3.000000 2.000000 6.000000 55.113378 -14.071598 1244.779323 1714.675701 19.047371 0.000000 0.067596
361.000000 91.620000 -1.000000 3.000000 6.000000 92.020274 -51.103716 2309.043175 880.535629 10.912001 0.000000 0.271471
362.000000 80.667000 1.000000 3.000000 6.000000 82.797634 -27.931432 1545.624680 1094.946100 12.396851 0.000000 0.118575
363.000000 71.297000 2.000000 3.000000 6.000000 75.921375 -18.855446 1342.563089 1226.225701 14.028316 0.000000 0.121370
364.000000 51.921000 4.000000 3.000000 6.000000 61.795486 -5.641136 1081.311794 1521.022100 19.268822 0.000000 0.043048
365.000000 94.571000 -1.000000 4.000000 6.000000 106.270805 -49.558181 2237.772981 456.728261 10.569019 0.000000 0.247407
366.000000 84.813000 1.000000 4.000000 6.000000 96.275804 -25.235739 1482.285885 810.147662 11.788035 0.000000 0.115328
367.000000 66.757000 3.000000 4.000000 6.000000 80.946677 -8.820311 1142.009859 1114.547580 14.981387 0.000000 0.142543
368.000000 49.108000 5.000000 4.000000 6.000000 66.262318 1.413907 948.434543 1414.448802 20.371008 0.000000 0.072733
370.000000 90.817000 0.000000 5.000000 6.000000 114.317945 -33.902009 1698.294511 355.005253 11.004767 0.000000 0.016825
371.000000 85.243000 1.000000 5.000000 6.000000 107.797455 -22.267200 1415.700845 567.650588 11.726104 0.000000 0.100526
372.000000 77.717000 2.000000 5.000000 6.000000 99.939827 -13.079924 1225.064013 747.361673 12.863778 0.000000 0.150649
373.000000 69.260000 3.000000 5.000000 6.000000 91.672501 -5.981953 1087.780344 909.401281 14.436951 0.000000 0.163201
374.000000 60.735000 4.000000 5.000000 6.000000 83.605979 -0.489825 984.201534 1061.616423 16.465977 0.000000 0.152187
375.000000 52.719000 5.000000 5.000000 6.000000 76.072417 3.812739 903.272247 1208.497902 18.972499 0.000000 0.126273
376.000000 45.512000 6.000000 5.000000 6.000000 69.213422 7.238607 838.295552 1352.839715 21.979551 0.000000 0.092722
378.000000 83.269000 1.000000 6.000000 6.000000 117.498505 -19.000742 1345.613428 348.467871 12.001999 0.000000 0.077808
379.000000 54.678000 5.000000 6.000000 6.000000 84.827082 6.267783 856.788527 1039.023471 18.289614 0.000000 0.152424
381.000000 83.736000 0.000000 7.000000 6.000000 132.563153 -27.548914 1536.451695 -173.830194 11.932186 0.000000 0.083605
382.000000 79.933000 1.000000 7.000000 6.000000 125.592262 -15.413804 1271.739835 141.927284 12.501176 0.000000 0.053348
383.000000 74.651000 2.000000 7.000000 6.000000 117.412477 -6.468466 1097.028225 379.228415 13.387746 0.000000 0.114318
384.000000 68.448000 3.000000 7.000000 6.000000 108.869275 0.101856 973.086650 573.146230 14.603131 0.000000 0.148114
385.000000 61.867000 4.000000 7.000000 6.000000 100.487821 5.012889 880.592473 740.992257 16.159099 0.000000 0.161165
386.000000 55.340000 5.000000 7.000000 6.000000 92.559613 8.771733 808.924526 892.316549 18.067990 0.000000 0.159453
387.000000 49.158000 6.000000 7.000000 6.000000 85.224127 11.717841 751.760636 1032.836461 20.342746 0.000000 0.147519
388.000000 75.949000 1.000000 8.000000 6.000000 132.305885 -11.489275 1193.764750 -58.584210 13.155616 0.000000 0.033129
389.000000 66.392000 3.000000 8.000000 6.000000 115.607207 3.329838 912.378875 424.287359 15.053471 0.000000 0.124267
390.000000 55.048000 5.000000 8.000000 6.000000 99.341577 11.316244 759.617839 760.437697 18.161044 0.000000 0.152915
391.000000 71.761000 1.000000 9.000000 6.000000 137.848920 -7.219348 1111.336844 -257.527325 13.922381 0.000000 0.020852
392.000000 68.170000 2.000000 9.000000 6.000000 129.691700 0.959625 956.971874 47.581324 14.657444 0.000000 0.054789
393.000000 59.044000 4.000000 9.000000 6.000000 113.096713 10.793642 769.809660 473.727608 16.927619 0.000000 0.121624
394.000000 54.097000 5.000000 9.000000 6.000000 105.263283 13.892067 708.802241 638.450783 18.478351 0.000000 0.136622
395.000000 67.625000 1.000000 10.000000 6.000000 142.402165 -2.610054 1024.063486 -458.157356 14.773028 0.000000 0.011342
396.000000 61.030000 3.000000 10.000000 6.000000 126.128699 10.085790 783.558188 142.994769 16.373254 0.000000 0.062658
397.000000 52.714000 5.000000 10.000000 6.000000 110.420372 16.489219 656.407390 523.107470 18.961106 0.000000 0.113267
399.000000 61.211000 2.000000 11.000000 6.000000 138.182714 9.073363 803.118766 -277.283102 16.321829 0.000000 0.023863
400.000000 58.172000 3.000000 11.000000 6.000000 130.189958 13.573799 715.137936 5.658556 17.176405 0.000000 0.033763
401.000000 54.735000 4.000000 11.000000 6.000000 122.384852 16.749554 651.081323 228.116904 18.257079 0.000000 0.060321
402.000000 51.071000 5.000000 11.000000 6.000000 114.905710 19.097204 602.358504 412.166014 19.569410 0.000000 0.084854
403.000000 47.329000 6.000000 11.000000 6.000000 107.829555 20.897725 564.052152 570.452041 21.119138 0.000000 0.102865
405.000000 49.290000 5.000000 12.000000 6.000000 118.805113 21.705261 546.576003 304.013936 20.275239 0.000000 0.053168
407.000000 52.663000 3.000000 13.000000 6.000000 136.482000 20.648407 569.409451 -270.274035 18.971396 0.000000 0.065657
408.000000 50.170000 4.000000 13.000000 6.000000 129.199676 22.756858 523.520871 -10.894613 19.916038 0.000000 0.033213
409.000000 47.454000 5.000000 13.000000 6.000000 122.195567 24.302626 488.975121 197.447240 21.058332 0.000000 0.022621
411.000000 45.620000 5.000000 14.000000 6.000000 125.144892 26.878797 429.465470 91.535161 21.903676 0.000000 0.029492
413.000000 45.863000 4.000000 15.000000 6.000000 134.196017 28.685310 386.104709 -251.911845 21.784984 0.000000 0.109095
418.000000 47.631000 1.000000 1.000000 7.000000 48.543608 -34.264209 1708.213413 2091.420677 21.005420 0.000000 0.245427
421.000000 64.592000 0.000000 2.000000 7.000000 67.512993 -41.394815 1923.707958 1534.904361 15.485078 0.000000 0.202661
422.000000 59.270000 1.000000 2.000000 7.000000 63.455505 -32.432244 1658.887055 1578.023473 16.877512 0.000000 0.146489
423.000000 52.673000 2.000000 2.000000 7.000000 58.635449 -24.530912 1466.197001 1662.152236 18.993467 0.000000 0.112962
424.000000 45.710000 3.000000 2.000000 7.000000 53.537293 -17.758480 1319.700131 1776.125443 21.888681 0.000000 0.095118
425.000000 75.792000 -1.000000 3.000000 7.000000 84.920916 -49.942152 2255.050696 1089.642843 13.192500 0.000000 0.258035
426.000000 72.752000 0.000000 3.000000 7.000000 81.852778 -39.717778 1869.121001 1141.317521 13.745187 0.000000 0.131195
427.000000 67.419000 1.000000 3.000000 7.000000 77.289338 -30.439899 1607.465987 1222.575980 14.834177 0.000000 0.118890
428.000000 60.651000 2.000000 3.000000 7.000000 71.809074 -22.389370 1418.382910 1323.513839 16.491810 0.000000 0.111560
429.000000 53.344000 3.000000 3.000000 7.000000 65.969262 -15.592572 1275.356356 1439.225094 18.753077 0.000000 0.085253
430.000000 46.199000 4.000000 3.000000 7.000000 60.186787 -9.928011 1163.385687 1567.105032 21.655901 0.000000 0.045259
431.000000 79.915000 -1.000000 4.000000 7.000000 98.038568 -48.604955 2196.029084 711.127995 12.509123 0.000000 0.209579
432.000000 77.126000 0.000000 4.000000 7.000000 94.728833 -37.861102 1811.699339 828.229010 12.962645 0.000000 0.079482
433.000000 72.130000 1.000000 4.000000 7.000000 89.761352 -28.270654 1553.813882 946.090163 13.862315 0.000000 0.112634
434.000000 65.659000 2.000000 4.000000 7.000000 83.770981 -20.096223 1368.787334 1066.090456 15.230604 0.000000 0.134634
435.000000 58.518000 3.000000 4.000000 7.000000 77.360034 -13.307044 1229.564897 1189.028067 17.091518 0.000000 0.128848
436.000000 51.374000 4.000000 4.000000 7.000000 70.978518 -7.725654 1121.011448 1315.448104 19.470729 0.000000 0.103001
437.000000 80.905000 -1.000000 5.000000 7.000000 109.571020 -47.095880 2133.063564 378.936654 12.353641 0.000000 0.201251
438.000000 78.442000 0.000000 5.000000 7.000000 106.045976 -35.798892 1751.216276 559.337078 12.742656 0.000000 0.036130
439.000000 73.975000 1.000000 5.000000 7.000000 100.766941 -25.906974 1497.782321 713.463008 13.513788 0.000000 0.102599
440.000000 68.092000 2.000000 5.000000 7.000000 94.408110 -17.642948 1317.308820 853.935214 14.683558 0.000000 0.144084
441.000000 61.463000 3.000000 5.000000 7.000000 87.592248 -10.899593 1182.253686 987.087383 16.269459 0.000000 0.154323
442.000000 54.681000 4.000000 5.000000 7.000000 80.780624 -5.434204 1077.388051 1116.483874 18.290018 0.000000 0.143616
443.000000 48.170000 5.000000 5.000000 7.000000 74.263598 -0.990430 993.606955 1244.315967 20.764881 0.000000 0.118871
444.000000 79.710000 -1.000000 6.000000 7.000000 119.576302 -45.382071 2065.745166 71.335153 12.536995 0.000000 0.220969
445.000000 77.585000 0.000000 6.000000 7.000000 115.852208 -33.501356 1687.420281 315.591125 12.881269 0.000000 0.019294
446.000000 73.712000 1.000000 6.000000 7.000000 110.334629 -23.330703 1439.209423 506.608656 13.559788 0.000000 0.085845
447.000000 68.539000 2.000000 6.000000 7.000000 103.725515 -15.022144 1263.838062 668.818297 14.585216 0.000000 0.139409
448.000000 62.601000 3.000000 6.000000 7.000000 96.648688 -8.369389 1133.345787 814.191081 15.970863 0.000000 0.161487
449.000000 56.396000 4.000000 6.000000 7.000000 89.558363 -3.055912 1032.459434 949.308077 17.730729 0.000000 0.162735
450.000000 50.307000 5.000000 6.000000 7.000000 82.741844 1.217281 952.130076 1078.108569 19.879551 0.000000 0.149743
452.000000 72.046000 1.000000 7.000000 7.000000 118.571147 -20.523739 1377.918281 315.164580 13.871286 0.000000 0.065521
453.000000 67.593000 2.000000 7.000000 7.000000 111.803056 -12.228175 1208.257126 500.451167 14.787180 0.000000 0.124697
454.000000 62.397000 3.000000 7.000000 7.000000 104.580747 -5.717422 1082.758985 659.632809 16.020640 0.000000 0.155290
455.000000 56.862000 4.000000 7.000000 7.000000 97.337277 -0.594400 986.166129 802.404270 17.582618 0.000000 0.166053
456.000000 51.319000 5.000000 7.000000 7.000000 90.346239 3.481308 909.523457 934.483845 19.484574 0.000000 0.162815
457.000000 46.004000 6.000000 7.000000 7.000000 83.761763 6.770128 847.228772 1059.475912 21.738507 0.000000 0.149698
459.000000 72.322000 0.000000 8.000000 7.000000 131.471609 -28.060632 1548.737619 -136.992033 13.815483 0.000000 0.079567
460.000000 69.538000 1.000000 8.000000 7.000000 125.617275 -17.469049 1313.715177 132.677615 14.369985 0.000000 0.046154
461.000000 65.749000 2.000000 8.000000 7.000000 118.757963 -9.257931 1150.438584 342.534573 15.199991 0.000000 0.103696
462.000000 61.267000 3.000000 8.000000 7.000000 111.478583 -2.946863 1030.405321 516.940320 16.313953 0.000000 0.139835
463.000000 56.412000 4.000000 8.000000 7.000000 104.180775 1.945232 938.444999 668.883091 17.720669 0.000000 0.158047
464.000000 51.458000 5.000000 8.000000 7.000000 97.116633 5.796507 865.740304 805.932528 19.429307 0.000000 0.162943
465.000000 46.618000 6.000000 8.000000 7.000000 90.430841 8.881310 806.816495 932.808345 21.449420 0.000000 0.158005
467.000000 68.928000 0.000000 9.000000 7.000000 137.600586 -24.838211 1473.189084 -357.865053 14.494544 0.000000 0.099174
468.000000 66.586000 1.000000 9.000000 7.000000 131.619498 -14.152121 1246.387539 -45.164019 15.005620 0.000000 0.032781
469.000000 63.380000 2.000000 9.000000 7.000000 124.718988 -6.111677 1090.244535 190.947574 15.766516 0.000000 0.079349
470.000000 59.544000 3.000000 9.000000 7.000000 117.448714 -0.063380 976.190580 381.940218 16.784195 0.000000 0.118203
471.000000 55.327000 4.000000 9.000000 7.000000 110.171731 4.556333 889.228953 544.350079 18.065884 0.000000 0.141975
472.000000 50.954000 5.000000 9.000000 7.000000 103.113588 8.156836 820.731202 687.706919 19.619080 0.000000 0.153581
473.000000 46.607000 6.000000 9.000000 7.000000 96.405627 11.020944 765.381254 817.896881 21.451570 0.000000 0.155721
475.000000 63.457000 1.000000 10.000000 7.000000 136.714913 -10.562891 1175.701590 -221.429715 15.744443 0.000000 0.027552
476.000000 60.747000 2.000000 10.000000 7.000000 129.811373 -2.793943 1027.525511 42.835752 16.448550 0.000000 0.053903
477.000000 57.475000 3.000000 10.000000 7.000000 122.599660 2.924613 920.013731 251.792424 17.387020 0.000000 0.092747
478.000000 53.832000 4.000000 10.000000 7.000000 115.399555 7.230692 838.446626 425.851375 18.565891 0.000000 0.120241
479.000000 50.000000 5.000000 10.000000 7.000000 108.407370 10.555405 774.443927 576.645252 19.991411 0.000000 0.137229
480.000000 46.132000 6.000000 10.000000 7.000000 101.738840 13.183537 722.883708 711.295187 21.670046 0.000000 0.145441
482.000000 60.318000 1.000000 11.000000 7.000000 141.024941 -6.698116 1101.399632 -398.438713 16.562954 0.000000 0.023894
483.000000 58.023000 2.000000 11.000000 7.000000 134.149555 0.685666 962.119235 -103.883109 17.219583 0.000000 0.029332
484.000000 55.232000 3.000000 11.000000 7.000000 127.033990 6.005824 861.766294 124.470863 18.091758 0.000000 0.065496
485.000000 52.092000 4.000000 11.000000 7.000000 119.952179 9.958600 786.022042 311.310830 19.184600 0.000000 0.094722
486.000000 48.747000 5.000000 11.000000 7.000000 113.070442 12.984566 726.823251 470.548545 20.503395 0.000000 0.115749
489.000000 55.318000 2.000000 12.000000 7.000000 137.834644 4.311847 893.849218 -250.803755 18.060640 0.000000 0.012847
490.000000 52.932000 3.000000 12.000000 7.000000 130.844676 9.166109 801.331641 -1.533331 18.876522 0.000000 0.039361
491.000000 50.225000 4.000000 12.000000 7.000000 123.911698 12.728994 731.874226 199.210401 19.896331 0.000000 0.067165
492.000000 47.310000 5.000000 12.000000 7.000000 117.172857 15.436038 677.810713 367.828952 21.124597 0.000000 0.090617
494.000000 52.699000 2.000000 13.000000 7.000000 140.954491 8.063340 822.523173 -399.206113 18.957781 0.000000 0.028138
495.000000 50.652000 3.000000 13.000000 7.000000 134.114016 12.388683 738.584218 -127.390210 19.725274 0.000000 0.025818
496.000000 48.313000 4.000000 13.000000 7.000000 127.352425 15.529674 675.916795 88.399261 20.682313 0.000000 0.040573
497.000000 45.772000 5.000000 13.000000 7.000000 120.779742 17.901062 627.344386 267.300857 21.832825 0.000000 0.063240
500.000000 48.439000 3.000000 14.000000 7.000000 136.913942 15.654534 673.388675 -254.042994 20.625993 0.000000 0.042789
501.000000 46.412000 4.000000 14.000000 7.000000 130.340391 18.347599 618.057489 -22.025213 21.528509 0.000000 0.027767
503.000000 46.318000 3.000000 15.000000 7.000000 139.306951 18.943026 605.598890 -382.281118 21.569491 0.000000 0.072794
508.000000 50.238000 1.000000 2.000000 8.000000 60.352232 -33.962844 1699.954587 1679.615491 19.912277 0.000000 0.168548
510.000000 63.893000 -1.000000 3.000000 8.000000 79.327017 -49.118410 2218.315111 1250.920529 15.650884 0.000000 0.260458
511.000000 61.391000 0.000000 3.000000 8.000000 76.635809 -40.366444 1889.911851 1276.598858 16.290255 0.000000 0.154590
512.000000 57.358000 1.000000 3.000000 8.000000 72.857534 -32.291424 1655.179529 1333.722533 17.437444 0.000000 0.126348
513.000000 52.313000 2.000000 3.000000 8.000000 68.362830 -25.094343 1479.043494 1412.442030 19.121228 0.000000 0.110313
514.000000 46.807000 3.000000 3.000000 8.000000 63.522097 -18.828470 1341.997335 1507.411592 21.372599 0.000000 0.085779
515.000000 68.321000 -1.000000 4.000000 8.000000 91.381652 -47.943734 2167.987789 902.246828 14.633581 0.000000 0.200925
516.000000 62.059000 1.000000 4.000000 8.000000 84.369504 -30.488228 1608.687947 1064.135496 16.113310 0.000000 0.112839
517.000000 51.610000 3.000000 4.000000 8.000000 74.124508 -16.866979 1301.325761 1260.852570 19.380386 0.000000 0.116837
519.000000 70.352000 -1.000000 5.000000 8.000000 102.236330 -46.643079 2114.864805 601.009366 14.208613 0.000000 0.171587
520.000000 68.189000 0.000000 5.000000 8.000000 99.155292 -37.113371 1789.389883 723.479934 14.660407 0.000000 0.062391
521.000000 64.588000 1.000000 5.000000 8.000000 94.769005 -28.541061 1560.379203 838.785771 15.479462 0.000000 0.103493
522.000000 59.943000 2.000000 5.000000 8.000000 89.515743 -21.108117 1390.482586 950.751198 16.680961 0.000000 0.135605
523.000000 54.704000 3.000000 5.000000 8.000000 83.822020 -14.802922 1259.427940 1061.503941 18.280937 0.000000 0.143386
524.000000 49.278000 4.000000 5.000000 8.000000 78.030705 -9.507853 1155.261552 1172.348669 20.296330 0.000000 0.133067
525.000000 70.523000 -1.000000 6.000000 8.000000 111.881380 -45.196616 2058.706555 327.581639 14.171767 0.000000 0.171509
526.000000 65.368000 1.000000 6.000000 8.000000 104.032108 -26.437040 1510.144637 640.593715 15.292206 0.000000 0.090383
527.000000 56.327000 3.000000 6.000000 8.000000 92.571505 -12.633828 1216.247566 891.462718 17.751331 0.000000 0.155478
528.000000 46.194000 5.000000 6.000000 8.000000 80.549304 -3.089152 1033.085633 1120.418644 21.650333 0.000000 0.143441
529.000000 69.382000 -1.000000 7.000000 8.000000 120.377734 -43.580565 1999.245253 70.084764 14.403025 0.000000 0.190849
530.000000 67.696000 0.000000 7.000000 8.000000 116.977604 -33.195974 1679.199238 286.282423 14.762778 0.000000 0.022288
531.000000 64.857000 1.000000 7.000000 8.000000 112.201136 -24.162827 1457.866746 459.567241 15.410481 0.000000 0.073569
532.000000 61.117000 2.000000 7.000000 8.000000 106.524656 -16.591321 1295.679748 607.811203 16.355503 0.000000 0.127866
533.000000 56.778000 3.000000 7.000000 8.000000 100.385005 -10.358170 1171.724833 740.486418 17.607628 0.000000 0.155484
534.000000 52.138000 4.000000 7.000000 8.000000 94.122703 -5.250593 1073.908779 863.094693 19.177070 0.000000 0.164752
535.000000 47.450000 5.000000 7.000000 8.000000 87.974969 -1.051376 994.752183 979.062226 21.074503 0.000000 0.160924
537.000000 63.464000 1.000000 8.000000 8.000000 119.356604 -21.704998 1403.418272 289.415772 15.746974 0.000000 0.055661
538.000000 56.355000 3.000000 8.000000 8.000000 107.311000 -7.975612 1125.796158 602.268491 17.737364 0.000000 0.146536
539.000000 47.923000 5.000000 8.000000 8.000000 94.675597 1.041037 955.442093 852.959458 20.863289 0.000000 0.166232
541.000000 63.636000 0.000000 9.000000 8.000000 130.633548 -28.438061 1557.874473 -109.330290 15.701372 0.000000 0.076357
542.000000 61.513000 1.000000 9.000000 8.000000 125.595707 -19.050590 1346.661165 125.930167 16.244747 0.000000 0.040470
543.000000 58.678000 2.000000 9.000000 8.000000 119.717979 -11.498794 1193.950959 314.061554 17.031396 0.000000 0.094129
544.000000 55.318000 3.000000 9.000000 8.000000 113.418268 -5.487263 1078.393875 472.692378 18.067905 0.000000 0.131249
545.000000 51.629000 4.000000 9.000000 8.000000 107.004991 -0.686786 987.901814 611.817645 19.361101 0.000000 0.152796
546.000000 47.792000 5.000000 9.000000 8.000000 100.688901 3.184517 915.117557 737.533821 20.918059 0.000000 0.162391
548.000000 59.245000 1.000000 10.000000 8.000000 131.018243 -16.187875 1287.445416 -33.860749 16.865088 0.000000 0.032392
549.000000 53.874000 3.000000 10.000000 8.000000 118.784000 -2.895922 1029.445910 348.937462 18.550252 0.000000 0.111677
550.000000 47.212000 5.000000 10.000000 8.000000 106.064289 5.374749 873.738794 629.701540 21.172812 0.000000 0.151673
552.000000 56.830000 1.000000 11.000000 8.000000 135.718632 -13.107383 1225.607728 -192.160006 17.580754 0.000000 0.031798
553.000000 54.720000 2.000000 11.000000 8.000000 129.770484 -5.809615 1084.508468 40.579547 18.260137 0.000000 0.051948
554.000000 52.182000 3.000000 11.000000 8.000000 123.486060 -0.206304 978.875406 228.988268 19.150145 0.000000 0.089451
555.000000 49.340000 4.000000 11.000000 8.000000 117.124199 4.154059 896.829497 388.206399 20.255660 0.000000 0.117302
556.000000 46.313000 5.000000 11.000000 8.000000 110.856438 7.606683 831.263915 527.300023 21.581717 0.000000 0.135794
557.000000 54.380000 1.000000 12.000000 8.000000 139.782172 -9.803190 1160.970019 -350.679269 18.372019 0.000000 0.032131
558.000000 50.357000 3.000000 12.000000 8.000000 127.598491 2.574788 926.600327 111.349380 19.842915 0.000000 0.065960
561.000000 50.392000 2.000000 13.000000 8.000000 137.350545 0.455657 966.440350 -227.472398 19.826272 0.000000 0.012612
562.000000 48.479000 3.000000 13.000000 8.000000 131.189297 5.438368 872.533013 -5.128114 20.610343 0.000000 0.042849
563.000000 46.305000 4.000000 13.000000 8.000000 125.000070 9.223217 800.230766 177.497648 21.580130 0.000000 0.070731
565.000000 46.604000 3.000000 14.000000 8.000000 134.319645 8.373272 816.579687 -121.356618 21.438684 0.000000 0.024835
570.000000 46.416000 0.000000 2.000000 9.000000 60.739168 -42.088472 1947.113227 1753.575640 21.550849 0.000000 0.247149
572.000000 54.773000 -1.000000 3.000000 9.000000 74.828202 -48.504058 2191.703012 1381.489612 18.258378 0.000000 0.268459
573.000000 49.568000 1.000000 3.000000 9.000000 69.236499 -33.711466 1693.110270 1431.551027 20.178869 0.000000 0.138541
574.000000 45.701000 2.000000 3.000000 9.000000 65.461632 -27.222646 1528.678007 1493.571493 21.888293 0.000000 0.116511
576.000000 59.106000 -1.000000 4.000000 9.000000 85.923828 -47.458281 2147.853422 1054.439999 16.916814 0.000000 0.205343
577.000000 57.100000 0.000000 4.000000 9.000000 83.359042 -39.520793 1862.884750 1103.447855 17.512347 0.000000 0.124811
578.000000 54.011000 1.000000 4.000000 9.000000 79.872896 -32.174805 1652.117902 1168.122316 18.515771 0.000000 0.116848
579.000000 50.144000 2.000000 4.000000 9.000000 75.741863 -25.566911 1489.909769 1244.194901 19.945644 0.000000 0.118318
580.000000 45.838000 3.000000 4.000000 9.000000 71.247233 -19.739787 1361.212572 1329.224155 21.821665 0.000000 0.108499
582.000000 61.618000 -1.000000 5.000000 9.000000 96.098981 -46.316307 2101.919586 774.491818 16.224401 0.000000 0.164148
583.000000 59.739000 0.000000 5.000000 9.000000 93.374885 -38.077043 1818.226355 860.370345 16.735893 0.000000 0.084732
584.000000 56.808000 1.000000 5.000000 9.000000 89.652993 -30.527954 1609.693306 948.567560 17.600944 0.000000 0.105306
585.000000 53.096000 2.000000 5.000000 9.000000 85.230947 -23.810834 1449.945453 1039.147540 18.833558 0.000000 0.127718
586.000000 48.908000 3.000000 5.000000 9.000000 80.408135 -17.949275 1323.656046 1132.189624 20.448484 0.000000 0.132647
588.000000 62.607000 -1.000000 6.000000 9.000000 105.312849 -45.065271 2053.749285 523.755323 15.965394 0.000000 0.146421
589.000000 58.191000 1.000000 6.000000 9.000000 98.529831 -28.761653 1565.760086 756.855722 17.179955 0.000000 0.093673
590.000000 54.736000 2.000000 6.000000 9.000000 93.878268 -21.948622 1408.728839 862.333977 18.266319 0.000000 0.131149
591.000000 46.613000 4.000000 6.000000 9.000000 83.562851 -11.046247 1185.112124 1064.724682 21.454546 0.000000 0.147278
593.000000 62.424000 -1.000000 7.000000 9.000000 113.581389 -43.690147 2003.175108 291.277612 16.010116 0.000000 0.150951
594.000000 60.884000 0.000000 7.000000 9.000000 110.584451 -34.808737 1723.287442 448.687586 16.416353 0.000000 0.021008
595.000000 58.448000 1.000000 7.000000 9.000000 106.508727 -26.866165 1520.236316 583.412396 17.101978 0.000000 0.079400
596.000000 55.305000 2.000000 7.000000 9.000000 101.681254 -19.974661 1366.200128 704.234475 18.075779 0.000000 0.127094
597.000000 51.677000 3.000000 7.000000 9.000000 96.417833 -14.099805 1245.342535 816.174397 19.346917 0.000000 0.151717
598.000000 47.786000 4.000000 7.000000 9.000000 90.981685 -9.130704 1147.986033 922.320678 20.924944 0.000000 0.159791
600.000000 61.398000 -1.000000 8.000000 9.000000 120.957100 -42.173358 1950.012506 69.873504 16.275932 0.000000 0.169487
601.000000 60.031000 0.000000 8.000000 9.000000 117.838133 -32.955505 1672.765940 263.624341 16.647473 0.000000 0.025022
602.000000 57.866000 1.000000 8.000000 9.000000 113.630265 -24.831413 1473.034026 422.130560 17.271934 0.000000 0.063299
603.000000 55.052000 2.000000 8.000000 9.000000 108.671079 -17.883709 1322.295654 558.834328 18.156528 0.000000 0.116952
604.000000 51.773000 3.000000 8.000000 9.000000 103.277094 -12.036663 1204.493329 681.319871 19.308745 0.000000 0.147769
605.000000 48.214000 4.000000 8.000000 9.000000 97.707361 -7.143819 1109.895517 794.198898 20.736367 0.000000 0.162376
607.000000 56.694000 1.000000 9.000000 9.000000 119.955254 -22.647197 1424.058641 268.897879 17.626909 0.000000 0.047669
608.000000 54.202000 2.000000 9.000000 9.000000 114.899486 -15.671128 1276.947561 422.124941 18.439127 0.000000 0.102559
609.000000 48.061000 4.000000 9.000000 9.000000 103.770717 -5.086574 1070.802504 676.177062 20.799984 0.000000 0.157338
611.000000 56.807000 0.000000 10.000000 9.000000 129.970011 -28.727907 1564.935451 -87.790118 17.589056 0.000000 0.073761
612.000000 55.136000 1.000000 10.000000 9.000000 125.553385 -20.303512 1373.208340 120.812518 18.123618 0.000000 0.036041
613.000000 52.943000 2.000000 10.000000 9.000000 120.428435 -13.333184 1230.083457 291.311635 18.875975 0.000000 0.085612
614.000000 50.347000 3.000000 10.000000 9.000000 114.902394 -7.628797 1119.158942 436.884201 19.851402 0.000000 0.122881
615.000000 47.473000 4.000000 10.000000 9.000000 109.214545 -2.960750 1030.666887 565.386904 21.055350 0.000000 0.146563
617.000000 54.804000 0.000000 11.000000 9.000000 134.998800 -26.316160 1507.315539 -259.686652 18.230671 0.000000 0.091879
618.000000 53.343000 1.000000 11.000000 9.000000 130.495628 -17.790978 1320.373358 -24.261315 18.731299 0.000000 0.032121
619.000000 51.420000 2.000000 11.000000 9.000000 125.322888 -10.867372 1181.626030 164.367571 19.433344 0.000000 0.067557
620.000000 49.130000 3.000000 11.000000 9.000000 119.778508 -5.285192 1074.564256 322.506973 20.341327 0.000000 0.105152
621.000000 46.574000 4.000000 11.000000 9.000000 114.087593 -0.768998 989.446395 459.786644 21.459908 0.000000 0.131549
623.000000 51.428000 1.000000 12.000000 9.000000 134.849693 -15.101424 1265.435189 -167.958632 19.427493 0.000000 0.034630
624.000000 49.745000 2.000000 12.000000 9.000000 129.646263 -8.272803 1131.492617 39.769140 20.086674 0.000000 0.049560
625.000000 45.462000 4.000000 12.000000 9.000000 118.440316 1.485094 947.096437 357.874872 21.982827 0.000000 0.113498
627.000000 49.470000 1.000000 13.000000 9.000000 138.677690 -12.228611 1208.265702 -311.579119 20.195417 0.000000 0.037567
628.000000 47.995000 2.000000 13.000000 9.000000 133.457910 -5.550599 1079.594738 -83.668016 20.817653 0.000000 0.032463
629.000000 46.221000 3.000000 13.000000 9.000000 127.942535 -0.331148 981.220643 101.829781 21.618416 0.000000 0.065064
632.000000 46.228000 2.000000 14.000000 9.000000 136.811951 -2.704293 1025.837572 -206.894541 21.612349 0.000000 0.016663
635.000000 47.643000 -1.000000 3.000000 10.000000 71.143360 -48.028362 2171.536475 1490.654087 20.992093 0.000000 0.278173
636.000000 45.912000 0.000000 3.000000 10.000000 69.006150 -41.234532 1918.370827 1490.213247 21.784711 0.000000 0.193987
637.000000 51.710000 -1.000000 4.000000 10.000000 81.388050 -47.086783 2132.694900 1180.398244 19.337767 0.000000 0.214756
638.000000 47.514000 1.000000 4.000000 10.000000 76.086656 -33.498597 1687.345730 1260.729154 21.049038 0.000000 0.124222
640.000000 54.389000 -1.000000 5.000000 10.000000 90.916313 -46.069390 2092.239985 916.187923 18.382232 0.000000 0.168329
641.000000 50.351000 1.000000 5.000000 10.000000 85.270643 -32.076645 1649.546914 1046.085170 19.859592 0.000000 0.108956
642.000000 47.345000 2.000000 5.000000 10.000000 81.486291 -25.968905 1499.220922 1120.211167 21.122544 0.000000 0.121911
643.000000 55.842000 -1.000000 6.000000 10.000000 99.675294 -44.967370 2050.069081 681.644089 17.901315 0.000000 0.139000
644.000000 52.056000 1.000000 6.000000 10.000000 93.730708 -30.561188 1610.534967 859.498197 19.206481 0.000000 0.097045
645.000000 45.953000 3.000000 6.000000 10.000000 85.365652 -18.879230 1343.062055 1033.206474 21.761474 0.000000 0.138734
647.000000 56.287000 -1.000000 7.000000 10.000000 107.655926 -43.770632 2006.070638 466.591697 17.757466 0.000000 0.128808
648.000000 54.896000 0.000000 7.000000 10.000000 104.983861 -36.015179 1757.409304 584.860710 18.208634 0.000000 0.040090
649.000000 52.805000 1.000000 7.000000 10.000000 101.452014 -28.945032 1570.250535 691.840056 18.931146 0.000000 0.084206
650.000000 50.155000 2.000000 7.000000 10.000000 97.292674 -22.657595 1424.287987 791.744354 19.933261 0.000000 0.124421
651.000000 47.111000 3.000000 7.000000 10.000000 92.737800 -17.156254 1307.268430 887.134794 21.223575 0.000000 0.145920
652.000000 55.952000 -1.000000 8.000000 10.000000 114.880918 -42.467609 1960.123228 264.314091 17.861606 0.000000 0.135996
653.000000 52.797000 1.000000 8.000000 10.000000 108.449701 -27.220639 1528.630325 537.208019 18.931924 0.000000 0.069737
654.000000 47.573000 3.000000 8.000000 10.000000 99.466204 -15.353754 1270.526400 754.900690 21.014916 0.000000 0.145702
656.000000 55.047000 -1.000000 9.000000 10.000000 121.393197 -41.045029 1912.094419 70.139652 18.153501 0.000000 0.153594
657.000000 53.919000 0.000000 9.000000 10.000000 118.517352 -32.761246 1667.594431 245.579144 18.534319 0.000000 0.027371
658.000000 52.215000 1.000000 9.000000 10.000000 114.758843 -25.380218 1485.606780 391.593193 19.140626 0.000000 0.054660
659.000000 50.031000 2.000000 9.000000 10.000000 110.365409 -18.965577 1344.874684 518.535325 19.978147 0.000000 0.106955
660.000000 47.482000 3.000000 9.000000 10.000000 105.573089 -13.469916 1232.797764 632.553466 21.052799 0.000000 0.139536
661.000000 53.747000 -1.000000 10.000000 10.000000 127.246455 -39.487667 1861.839504 -119.338073 18.590965 0.000000 0.174452
662.000000 51.222000 1.000000 10.000000 10.000000 120.425960 -23.415852 1441.107706 252.156279 19.509809 0.000000 0.041150
663.000000 46.970000 3.000000 10.000000 10.000000 111.092716 -11.503461 1194.042244 517.339591 21.280084 0.000000 0.128872
665.000000 51.298000 0.000000 11.000000 10.000000 129.431695 -28.957476 1570.555838 -70.538980 19.478033 0.000000 0.071622
666.000000 49.949000 1.000000 11.000000 10.000000 125.502621 -21.319695 1395.055873 116.810113 20.005443 0.000000 0.032655
667.000000 48.207000 2.000000 11.000000 10.000000 120.970196 -14.859576 1260.566797 272.709430 20.729998 0.000000 0.078056
668.000000 46.150000 3.000000 11.000000 10.000000 116.065996 -9.453773 1154.217335 407.271846 21.656021 0.000000 0.114961
670.000000 48.499000 1.000000 12.000000 10.000000 130.041060 -19.084229 1347.368563 -16.032821 20.602484 0.000000 0.032001
673.000000 46.947000 1.000000 13.000000 10.000000 134.091441 -16.702604 1297.957079 -147.619485 21.282093 0.000000 0.036605
674.000000 45.575000 2.000000 13.000000 10.000000 129.480647 -10.315542 1170.897425 39.815578 21.924459 0.000000 0.047067
678.000000 45.707000 -1.000000 4.000000 11.000000 77.570528 -46.793352 2120.870544 1287.491576 21.878951 0.000000 0.225696
681.000000 48.382000 -1.000000 5.000000 11.000000 86.498881 -45.876250 2084.728709 1035.583596 20.666146 0.000000 0.177515
682.000000 46.971000 0.000000 5.000000 11.000000 84.307946 -39.394271 1858.897880 1079.817426 21.288333 0.000000 0.120854
684.000000 50.748000 -2.000000 6.000000 11.000000 96.313505 -51.883118 2346.816366 748.084042 19.699085 0.000000 0.291218
685.000000 50.074000 -1.000000 6.000000 11.000000 94.806194 -44.891583 2047.228766 813.260633 19.965193 0.000000 0.142147
686.000000 48.735000 0.000000 6.000000 11.000000 92.503194 -38.213158 1822.360394 881.115513 20.514947 0.000000 0.088122
687.000000 46.816000 1.000000 6.000000 11.000000 89.534896 -31.992881 1647.357373 951.301814 21.357502 0.000000 0.101209
688.000000 51.540000 -2.000000 7.000000 11.000000 104.039720 -51.081340 2307.977592 512.576108 19.393988 0.000000 0.281149
689.000000 50.916000 -1.000000 7.000000 11.000000 102.470375 -43.832251 2008.292701 611.037939 19.632268 0.000000 0.121041
690.000000 49.668000 0.000000 7.000000 11.000000 100.065912 -36.950910 1784.601055 701.925451 20.126835 0.000000 0.058882
691.000000 47.869000 1.000000 7.000000 11.000000 96.965557 -30.589399 1611.249902 788.246667 20.885170 0.000000 0.088775
692.000000 45.623000 2.000000 7.000000 11.000000 93.339115 -24.828374 1472.964714 871.808630 21.915050 0.000000 0.121183
694.000000 51.065000 -1.000000 8.000000 11.000000 109.495566 -42.690241 1967.836404 422.596659 19.572816 0.000000 0.115958
695.000000 49.917000 0.000000 8.000000 11.000000 106.998367 -35.600229 1745.557529 536.347109 20.024139 0.000000 0.032650
696.000000 48.255000 1.000000 8.000000 11.000000 103.785058 -29.099877 1574.054683 638.787017 20.715472 0.000000 0.075462
697.000000 46.169000 2.000000 8.000000 11.000000 100.032069 -23.263498 1437.712910 733.749208 21.653268 0.000000 0.116896
699.000000 50.673000 -1.000000 9.000000 11.000000 115.904585 -41.456503 1925.769067 243.527331 19.722116 0.000000 0.124685
700.000000 49.628000 0.000000 9.000000 11.000000 113.321235 -34.153156 1705.163171 380.303731 20.138766 0.000000 0.016554
701.000000 48.110000 1.000000 9.000000 11.000000 110.010848 -27.518362 1535.721812 499.026499 20.775616 0.000000 0.061285
702.000000 46.196000 2.000000 9.000000 11.000000 106.155517 -21.616560 1401.494935 605.626756 21.638108 0.000000 0.108845
704.000000 49.879000 -1.000000 10.000000 11.000000 121.732079 -40.120818 1881.992504 70.623801 20.034378 0.000000 0.141332
705.000000 48.933000 0.000000 10.000000 11.000000 119.067047 -32.601048 1663.346644 230.865887 20.422687 0.000000 0.029368
706.000000 47.559000 1.000000 10.000000 11.000000 115.672242 -25.838706 1496.198285 366.189687 21.014423 0.000000 0.047347
707.000000 45.818000 2.000000 10.000000 11.000000 111.734728 -19.883875 1364.270518 484.733810 21.814238 0.000000 0.097913
709.000000 48.799000 -1.000000 11.000000 11.000000 127.019022 -38.671653 1836.400385 -98.535105 20.476292 0.000000 0.160395
710.000000 46.709000 1.000000 11.000000 11.000000 120.805391 -24.054652 1455.427751 238.232149 21.394859 0.000000 0.035826
713.000000 46.762000 0.000000 12.000000 11.000000 128.986251 -29.143794 1575.135692 -56.410258 21.367974 0.000000 0.069834
714.000000 45.650000 1.000000 12.000000 11.000000 125.449479 -22.159953 1413.350247 113.601499 21.889463 0.000000 0.030134
717.000000 46.851000 -2.000000 7.000000 12.000000 99.416125 -50.358748 2274.110740 661.224801 21.336320 0.000000 0.252594
718.000000 46.232000 -1.000000 7.000000 12.000000 97.912033 -43.880941 2010.051780 733.477310 21.623229 0.000000 0.122916
720.000000 46.710000 -1.000000 8.000000 12.000000 104.709931 -42.864559 1973.914432 555.496773 21.399364 0.000000 0.107787
721.000000 47.225000 -2.000000 9.000000 12.000000 112.594209 -48.695902 2199.943351 262.435078 21.162896 0.000000 0.253200
722.000000 46.695000 -1.000000 9.000000 12.000000 110.975904 -41.775588 1936.493277 387.696736 21.404326 0.000000 0.106267
723.000000 46.291000 -1.000000 10.000000 12.000000 116.730687 -40.606840 1897.718665 227.029179 21.589086 0.000000 0.115863
725.000000 45.593000 -1.000000 11.000000 12.000000 122.002278 -39.350305 1857.515817 71.199298 21.917687 0.000000 0.131600
#UB matrix in q= (UB) B0 G* 
#[[ 0.093389063 -0.939307195 -0.326610626]
# [ 0.55924309   0.321214928 -0.763941379]
# [ 0.823726683 -0.111537939  0.556128303]]
#B0 matrix in q= UB (B0) G*
#[[ 0.19670273 -0.          0.03056101]
# [ 0.          0.19187965 -0.        ]
# [ 0.          0.          0.18806537]]
#UBB0 matrix in q= (UB B0) G* i.e. recip. basis vectors are columns in LT frame: astar = UBB0[:,0], bstar = UBB0[:,1], cstar = UBB0[:,2]. (abcstar as columns on xyzlab1, xlab1 = ui, ui = unit vector along incident beam)
#[[ 0.01836988 -0.18023394 -0.05857008]
# [ 0.11000464  0.06163461 -0.12657989]
# [ 0.16202929 -0.02140186  0.12976239]]
#Euler angles phi theta psi (deg)
#[ 82.279  56.229 156.812]
#deviatoric strain in direct crystal frame (10-3 unit)
#[[ 1.98 -0.07 -0.4 ]
# [-0.07  2.96  0.58]
# [-0.4   0.58 -4.95]]
#deviatoric strain in sample2 frame (10-3 unit)
#[[ 2.44  0.87 -1.3 ]
# [ 0.86 -1.94  3.42]
# [-1.3   3.42 -0.5 ]]
#new lattice parameters
#[ 5.1505     5.2167023  5.318133  89.9637959 99.2524873 90.0080534]
#CCDLabel
#sCMOS
#DetectorParameters
#[79.0, 975.0, 941.0, 0.0, 0.0]
#pixelsize
#0.0734
#Frame dimensions
#[2018, 2016]
#
