#Strain and Orientation Refinement from experimental file: /home/micha/LaueProjects/DepthEffects/testZrO2_150.cor
#File created at Wed Jun 28 14:27:19 2023 with indexingSpotsSet.py
#Number of indexed spots: 532
#Element
#ZrO2
#grainIndex
#G_0
#Mean Deviation(pixel): 0.112
##spot_index intensity h k l 2theta Chi Xexp Yexp Energy GrainIndex PixDev
30.000000 47.450000 5.000000 -7.000000 1.000000 59.746649 40.178530 66.151919 1762.635525 21.103314 0.000000 0.251108
31.000000 50.017000 6.000000 -7.000000 1.000000 68.619643 42.826079 -22.569796 1515.526489 20.017388 0.000000 0.229268
32.000000 50.930000 7.000000 -7.000000 1.000000 76.203998 45.353683 -114.664772 1317.082141 19.655623 0.000000 0.225993
33.000000 50.721000 8.000000 -7.000000 1.000000 82.670877 47.760142 -210.329116 1146.928575 19.734150 0.000000 0.240839
34.000000 49.792000 9.000000 -7.000000 1.000000 88.188074 50.046077 -309.774441 994.020372 20.100322 0.000000 0.275387
35.000000 48.428000 10.000000 -7.000000 1.000000 92.906999 52.213578 -413.229420 851.800114 20.664743 0.000000 0.328524
38.000000 54.476000 4.000000 -6.000000 1.000000 57.499517 38.198341 128.090369 1813.515373 18.382178 0.000000 0.242631
39.000000 58.505000 5.000000 -6.000000 1.000000 68.186591 41.352109 27.716628 1514.864554 17.113423 0.000000 0.212310
40.000000 59.794000 6.000000 -6.000000 1.000000 77.095916 44.347194 -77.043761 1285.817664 16.741556 0.000000 0.205931
41.000000 59.332000 7.000000 -6.000000 1.000000 84.493944 47.180153 -186.484789 1093.642135 16.869696 0.000000 0.222458
42.000000 57.833000 8.000000 -6.000000 1.000000 90.642400 49.851068 -300.927316 922.283577 17.305026 0.000000 0.265301
47.000000 63.367000 3.000000 -5.000000 1.000000 54.112003 35.378236 210.732615 1896.130507 15.803957 0.000000 0.236670
48.000000 70.341000 4.000000 -5.000000 1.000000 67.508211 39.262693 95.233023 1516.568052 14.234001 0.000000 0.192162
49.000000 72.311000 5.000000 -5.000000 1.000000 78.304593 42.929891 -26.201245 1245.293361 13.843432 0.000000 0.180953
50.000000 71.322000 6.000000 -5.000000 1.000000 86.945347 46.370093 -154.039660 1024.240468 14.033163 0.000000 0.198993
51.000000 68.774000 7.000000 -5.000000 1.000000 93.870321 49.581233 -288.802550 828.696264 14.551106 0.000000 0.254231
54.000000 73.899000 2.000000 -4.000000 1.000000 48.507800 31.068578 326.542581 2052.392566 13.552946 0.000000 0.243674
55.000000 87.828000 3.000000 -4.000000 1.000000 66.328679 36.082173 190.665552 1524.807754 11.400336 0.000000 0.168398
56.000000 91.237000 4.000000 -4.000000 1.000000 80.027813 40.789299 46.318440 1190.949534 10.971613 0.000000 0.150160
57.000000 89.048000 5.000000 -4.000000 1.000000 90.410693 45.159840 -107.316225 930.058848 11.239091 0.000000 0.168122
58.000000 84.398000 6.000000 -4.000000 1.000000 98.296929 49.183304 -271.164607 700.875213 11.856535 0.000000 0.243318
62.000000 115.522000 2.000000 -3.000000 1.000000 63.922791 30.704053 335.840249 1553.619757 8.667975 0.000000 0.140094
63.000000 122.852000 3.000000 -3.000000 1.000000 82.653671 37.197074 158.134802 1115.200313 8.147924 0.000000 0.116536
64.000000 117.536000 4.000000 -3.000000 1.000000 95.659626 43.158178 -34.230186 794.780414 8.514239 0.000000 0.126088
65.000000 108.151000 5.000000 -3.000000 1.000000 104.715943 48.537775 -243.146730 514.071318 9.251467 0.000000 0.236782
67.000000 160.405000 1.000000 -2.000000 1.000000 57.535676 19.995550 583.355593 1669.657344 6.243509 0.000000 0.098812
68.000000 184.418000 2.000000 -2.000000 1.000000 86.968469 30.021652 353.058775 1006.832467 5.427564 0.000000 0.106284
69.000000 169.194000 3.000000 -2.000000 1.000000 104.435460 39.228684 96.298189 583.337285 5.913830 0.000000 0.067406
70.000000 147.319000 4.000000 -2.000000 1.000000 114.768745 47.309712 -191.765715 208.581452 6.790639 0.000000 0.248461
72.000000 45.996000 4.000000 -7.000000 2.000000 55.472222 30.910341 330.587300 1804.064200 21.772579 0.000000 0.183254
73.000000 49.990000 5.000000 -7.000000 2.000000 65.365062 33.785260 254.884687 1534.843976 20.030198 0.000000 0.154984
74.000000 51.932000 6.000000 -7.000000 2.000000 73.892313 36.568662 176.586334 1327.995376 19.278086 0.000000 0.142241
75.000000 52.400000 7.000000 -7.000000 2.000000 81.191254 39.252371 95.556404 1156.385613 19.103119 0.000000 0.133045
76.000000 51.876000 8.000000 -7.000000 2.000000 87.420905 41.830529 11.649416 1006.064272 19.293916 0.000000 0.132230
77.000000 50.721000 9.000000 -7.000000 2.000000 92.737833 44.299428 -75.290629 869.085694 19.731091 0.000000 0.148810
78.000000 49.193000 10.000000 -7.000000 2.000000 97.284271 46.657287 -165.431216 740.557034 20.342116 0.000000 0.185627
79.000000 47.467000 11.000000 -7.000000 2.000000 101.183816 48.903982 -258.952392 617.268547 21.080387 0.000000 0.238992
80.000000 45.657000 12.000000 -7.000000 2.000000 104.541190 51.040765 -356.047968 496.997449 21.914591 0.000000 0.304612
81.000000 51.301000 3.000000 -6.000000 2.000000 51.861069 27.290481 419.709521 1891.951218 19.522703 0.000000 0.180367
82.000000 60.789000 5.000000 -6.000000 2.000000 74.123932 34.011602 248.713200 1310.279190 16.469291 0.000000 0.128884
83.000000 60.542000 7.000000 -6.000000 2.000000 89.752635 40.248567 63.895834 947.088122 16.531419 0.000000 0.109641
84.000000 56.524000 9.000000 -6.000000 2.000000 100.587497 45.921629 -136.488812 651.799491 17.702834 0.000000 0.171179
87.000000 56.335000 2.000000 -5.000000 2.000000 46.318850 22.236800 534.965829 2051.437711 17.779672 0.000000 0.197697
88.000000 67.772000 3.000000 -5.000000 2.000000 61.607550 26.385807 441.055155 1590.422488 14.775935 0.000000 0.122271
89.000000 72.974000 4.000000 -5.000000 2.000000 74.263229 30.423915 342.937864 1292.707409 13.719485 0.000000 0.118832
90.000000 73.942000 5.000000 -5.000000 2.000000 84.529140 34.317325 240.324835 1065.808617 13.537220 0.000000 0.104896
91.000000 72.406000 6.000000 -5.000000 2.000000 92.787538 38.039875 132.899831 874.461017 13.822156 0.000000 0.086164
92.000000 69.558000 7.000000 -5.000000 2.000000 99.425801 41.573345 20.316243 702.160652 14.386005 0.000000 0.099185
93.000000 66.133000 8.000000 -5.000000 2.000000 104.780914 44.907019 -97.806646 540.033759 15.129674 0.000000 0.156497
94.000000 62.546000 9.000000 -5.000000 2.000000 109.126559 48.036729 -221.887960 382.775433 15.996038 0.000000 0.238762
98.000000 90.426000 3.000000 -4.000000 2.000000 74.069724 25.081410 471.252683 1280.188798 11.071970 0.000000 0.114608
99.000000 89.422000 5.000000 -4.000000 2.000000 96.863998 34.753037 228.263585 783.311184 11.191174 0.000000 0.068705
100.000000 79.117000 7.000000 -4.000000 2.000000 110.256386 43.418900 -43.473645 394.151610 12.645524 0.000000 0.143856
102.000000 91.994000 1.000000 -3.000000 2.000000 49.512715 9.931645 786.543963 1873.808005 10.887944 0.000000 0.101650
103.000000 116.072000 2.000000 -3.000000 2.000000 72.747030 16.497214 656.244045 1289.610492 8.626157 0.000000 0.112729
104.000000 120.535000 3.000000 -3.000000 2.000000 90.080979 23.040201 517.248691 939.346961 8.303834 0.000000 0.127160
105.000000 115.254000 4.000000 -3.000000 2.000000 102.511179 29.395228 368.657433 666.879220 8.682153 0.000000 0.073874
106.000000 106.523000 5.000000 -3.000000 2.000000 111.342225 35.423919 209.441025 424.923287 9.392142 0.000000 0.031296
107.000000 97.262000 6.000000 -3.000000 2.000000 117.646422 41.029523 38.417571 193.644180 10.285220 0.000000 0.138244
110.000000 150.087000 1.000000 -2.000000 2.000000 67.348500 1.537745 946.106713 1390.315359 6.671995 0.000000 0.083778
111.000000 166.680000 2.000000 -2.000000 2.000000 93.298361 10.344436 778.541760 877.947298 6.004758 0.000000 0.158738
112.000000 156.855000 3.000000 -2.000000 2.000000 110.354058 19.406810 595.833167 517.658928 6.378698 0.000000 0.102792
113.000000 139.980000 4.000000 -2.000000 2.000000 121.165547 28.285321 395.830874 201.795342 7.146197 0.000000 0.013978
114.000000 123.414000 5.000000 -2.000000 2.000000 127.978660 36.590246 175.957588 -105.491491 8.104500 0.000000 0.145131
116.000000 152.531000 0.000000 -1.000000 2.000000 47.579695 -24.491111 1465.293915 2021.729408 6.566471 0.000000 0.185909
117.000000 191.759000 3.000000 -1.000000 2.000000 134.616515 11.263931 760.639688 -141.840304 5.215618 0.000000 0.020277
119.000000 46.019000 7.000000 -8.000000 3.000000 77.659627 32.994619 276.190025 1221.742321 21.753823 0.000000 0.118190
120.000000 46.181000 8.000000 -8.000000 3.000000 83.849366 35.396789 210.208248 1083.284630 21.674978 0.000000 0.107800
121.000000 45.726000 9.000000 -8.000000 3.000000 89.247136 37.728732 142.282783 958.882118 21.888112 0.000000 0.096854
122.000000 47.783000 4.000000 -7.000000 3.000000 60.513974 24.544191 483.501549 1610.045722 20.957567 0.000000 0.115150
123.000000 51.104000 5.000000 -7.000000 3.000000 69.997995 27.455824 415.770970 1382.510575 19.592512 0.000000 0.115926
124.000000 52.616000 6.000000 -7.000000 3.000000 78.210944 30.306839 345.892047 1201.194438 19.026407 0.000000 0.114931
125.000000 52.823000 7.000000 -7.000000 3.000000 85.271564 33.085490 273.760916 1047.253582 18.949144 0.000000 0.103439
126.000000 52.147000 8.000000 -7.000000 3.000000 91.320056 35.781967 199.266910 910.427986 19.192717 0.000000 0.086228
127.000000 50.907000 9.000000 -7.000000 3.000000 96.496894 38.388479 122.291992 784.625567 19.658196 0.000000 0.075817
128.000000 49.333000 10.000000 -7.000000 3.000000 100.931764 40.899225 42.710127 665.975722 20.283531 0.000000 0.089156
129.000000 47.583000 11.000000 -7.000000 3.000000 104.739027 43.310289 -39.613400 551.878306 21.027835 0.000000 0.127007
130.000000 45.762000 12.000000 -7.000000 3.000000 108.016871 45.619466 -124.822752 440.500540 21.863071 0.000000 0.179464
131.000000 58.784000 4.000000 -6.000000 3.000000 68.986132 23.398764 509.273439 1391.497035 17.033520 0.000000 0.107673
132.000000 61.162000 5.000000 -6.000000 3.000000 78.746063 26.747769 432.555570 1180.827522 16.368044 0.000000 0.116701
133.000000 60.450000 7.000000 -6.000000 3.000000 93.855774 33.202366 270.629281 854.306847 16.555916 0.000000 0.082174
134.000000 58.635000 8.000000 -6.000000 3.000000 99.614986 36.275149 185.101752 714.834627 17.066239 0.000000 0.058454
135.000000 53.976000 10.000000 -6.000000 3.000000 108.480714 42.055035 4.026690 456.529456 18.536085 0.000000 0.113837
136.000000 51.517000 11.000000 -6.000000 3.000000 111.887603 44.749392 -91.919935 332.155471 19.419829 0.000000 0.176609
138.000000 59.152000 2.000000 -5.000000 3.000000 52.867051 13.842131 709.797453 1780.344064 16.932270 0.000000 0.088716
139.000000 68.352000 3.000000 -5.000000 3.000000 67.145359 17.861412 628.166742 1417.612923 14.649973 0.000000 0.095396
140.000000 72.466000 4.000000 -5.000000 3.000000 79.123690 21.858882 543.229431 1163.820075 13.815057 0.000000 0.123621
141.000000 73.051000 5.000000 -5.000000 3.000000 88.973092 25.796486 454.780457 962.427793 13.701639 0.000000 0.118109
142.000000 71.484000 6.000000 -5.000000 3.000000 96.990731 29.639519 362.597444 789.156276 13.999702 0.000000 0.088825
143.000000 68.749000 7.000000 -5.000000 3.000000 103.494742 33.358271 266.438832 631.761590 14.554590 0.000000 0.048039
144.000000 65.477000 8.000000 -5.000000 3.000000 108.774154 36.929049 166.041770 483.321936 15.280522 0.000000 0.043598
145.000000 62.038000 9.000000 -5.000000 3.000000 113.072408 40.334550 61.119710 339.558234 16.126092 0.000000 0.102618
146.000000 58.643000 10.000000 -5.000000 3.000000 116.586975 43.563661 -48.640321 197.617056 17.058617 0.000000 0.177708
150.000000 62.232000 1.000000 -4.000000 3.000000 45.153951 5.304117 875.077204 2016.129503 16.095813 0.000000 0.142572
151.000000 79.543000 2.000000 -4.000000 3.000000 63.613634 10.041407 784.418173 1483.264330 12.589798 0.000000 0.068201
152.000000 87.554000 3.000000 -4.000000 3.000000 78.949769 14.856437 689.496321 1158.459184 11.434672 0.000000 0.132437
153.000000 88.970000 4.000000 -4.000000 3.000000 91.226785 19.682403 590.003751 916.521286 11.249799 0.000000 0.137666
154.000000 86.575000 5.000000 -4.000000 3.000000 100.867954 24.451593 485.602181 714.003614 11.558652 0.000000 0.106499
155.000000 82.330000 6.000000 -4.000000 3.000000 108.381825 29.100942 375.919104 531.671857 12.152857 0.000000 0.053324
156.000000 77.392000 7.000000 -4.000000 3.000000 114.232381 33.576669 260.543344 359.545086 12.926837 0.000000 0.019538
157.000000 72.377000 8.000000 -4.000000 3.000000 118.799901 37.837228 139.019910 191.787686 13.821379 0.000000 0.096150
158.000000 67.584000 9.000000 -4.000000 3.000000 122.381619 41.854325 10.843994 24.629372 14.800701 0.000000 0.184439
161.000000 89.168000 1.000000 -3.000000 3.000000 56.477948 -1.273018 998.917423 1654.155542 11.232237 0.000000 0.004609
162.000000 106.889000 2.000000 -3.000000 3.000000 77.113806 4.419430 891.816508 1187.965672 9.366729 0.000000 0.132780
163.000000 107.705000 4.000000 -3.000000 3.000000 105.495580 16.384609 658.543501 629.975844 9.290422 0.000000 0.129476
164.000000 100.981000 5.000000 -3.000000 3.000000 114.524304 22.408132 531.204801 409.846612 9.907244 0.000000 0.070788
165.000000 85.817000 7.000000 -3.000000 3.000000 126.046068 33.904542 251.636396 -2.767070 11.655453 0.000000 0.096660
167.000000 83.961000 0.000000 -2.000000 3.000000 41.992462 -17.371234 1311.696838 2193.802064 11.930163 0.000000 0.210385
168.000000 125.824000 1.000000 -2.000000 3.000000 70.585155 -11.299199 1190.049166 1327.834381 7.958034 0.000000 0.102423
169.000000 140.243000 2.000000 -2.000000 3.000000 93.402729 -4.497942 1059.667289 876.807184 7.136761 0.000000 0.163659
170.000000 137.083000 3.000000 -2.000000 3.000000 110.100287 2.947880 919.575515 546.604223 7.298869 0.000000 0.142250
171.000000 126.720000 4.000000 -2.000000 3.000000 121.801070 10.853342 768.647208 261.486574 7.894070 0.000000 0.082772
172.000000 114.727000 5.000000 -2.000000 3.000000 129.819863 18.944191 605.574424 -7.756037 8.718110 0.000000 0.025736
173.000000 103.342000 6.000000 -2.000000 3.000000 135.228572 26.905709 428.829905 -275.611309 9.677726 0.000000 0.097945
175.000000 119.650000 0.000000 -1.000000 3.000000 53.125760 -32.986218 1673.585652 1903.502007 8.370090 0.000000 0.209378
176.000000 165.976000 1.000000 -1.000000 3.000000 85.863174 -27.016038 1523.778878 1028.380060 6.030899 0.000000 0.113545
177.000000 172.746000 2.000000 -1.000000 3.000000 110.735771 -19.635525 1359.003260 508.376848 5.791906 0.000000 0.094809
178.000000 160.062000 3.000000 -1.000000 3.000000 127.914488 -10.624391 1176.897263 88.068761 6.249081 0.000000 0.049108
179.000000 142.425000 4.000000 -1.000000 3.000000 139.180396 0.022623 974.575026 -305.036866 7.021832 0.000000 0.007614
181.000000 46.051000 7.000000 -8.000000 4.000000 80.938304 27.574041 412.947714 1134.652861 21.737939 0.000000 0.115815
182.000000 45.598000 9.000000 -8.000000 4.000000 92.247599 32.416788 291.520429 890.959730 21.948972 0.000000 0.088944
183.000000 48.188000 4.000000 -7.000000 4.000000 64.553969 18.460334 615.705327 1480.903929 20.780999 0.000000 0.090091
184.000000 51.013000 5.000000 -7.000000 4.000000 73.647348 21.337889 554.550248 1280.045715 19.626615 0.000000 0.114211
185.000000 52.264000 6.000000 -7.000000 4.000000 81.578429 24.186869 491.590629 1115.682013 19.154056 0.000000 0.122228
186.000000 52.361000 7.000000 -7.000000 4.000000 88.443320 26.993883 426.745402 973.825411 19.115897 0.000000 0.114313
187.000000 51.664000 8.000000 -7.000000 4.000000 94.359929 29.746732 359.928568 846.486493 19.371509 0.000000 0.094529
188.000000 50.451000 9.000000 -7.000000 4.000000 99.449767 32.434675 291.048822 728.749704 19.835053 0.000000 0.067461
189.000000 48.927000 10.000000 -7.000000 4.000000 103.827692 35.048605 220.009128 617.406316 20.451165 0.000000 0.042826
190.000000 47.234000 11.000000 -7.000000 4.000000 107.597098 37.581133 146.706271 510.255853 21.182533 0.000000 0.049702
192.000000 53.559000 3.000000 -6.000000 4.000000 61.884993 13.206475 722.429125 1531.671390 18.698150 0.000000 0.068632
193.000000 60.043000 5.000000 -6.000000 4.000000 82.108329 19.782251 587.886806 1099.545146 16.672639 0.000000 0.131537
194.000000 59.310000 7.000000 -6.000000 4.000000 96.824878 26.250719 444.213604 797.373014 16.873432 0.000000 0.106235
195.000000 55.539000 9.000000 -6.000000 4.000000 107.302149 32.457478 290.447349 543.658665 18.015311 0.000000 0.035922
196.000000 50.931000 11.000000 -6.000000 4.000000 114.755492 38.283873 125.485770 308.726534 19.642670 0.000000 0.079806
197.000000 46.412000 13.000000 -6.000000 4.000000 120.101984 43.655749 -51.939979 78.587675 21.553133 0.000000 0.202159
198.000000 46.394000 1.000000 -5.000000 4.000000 42.495335 2.678593 924.646264 2117.046061 21.591040 0.000000 0.176419
199.000000 58.740000 2.000000 -5.000000 4.000000 57.628147 6.352572 855.176313 1627.510947 17.050124 0.000000 0.032362
200.000000 66.294000 3.000000 -5.000000 4.000000 70.933970 10.105058 783.184758 1318.847097 15.103970 0.000000 0.105587
201.000000 69.799000 4.000000 -5.000000 4.000000 82.290044 13.905634 708.531767 1091.110442 14.342339 0.000000 0.141401
202.000000 70.385000 5.000000 -5.000000 4.000000 91.795552 17.721434 631.066978 905.578922 14.220191 0.000000 0.143196
203.000000 69.099000 6.000000 -5.000000 4.000000 99.661959 21.518796 550.628480 744.031832 14.482409 0.000000 0.122604
204.000000 66.734000 7.000000 -5.000000 4.000000 106.134459 25.265021 467.041693 596.708465 14.993650 0.000000 0.086911
205.000000 63.825000 8.000000 -5.000000 4.000000 111.448815 28.930002 380.118094 457.855803 15.675439 0.000000 0.040724
206.000000 60.707000 9.000000 -5.000000 4.000000 115.812933 32.487545 289.653806 323.814871 16.479139 0.000000 0.014572
207.000000 57.580000 10.000000 -5.000000 4.000000 119.402131 35.916235 195.427992 192.102886 17.373003 0.000000 0.074288
208.000000 54.555000 11.000000 -5.000000 4.000000 122.360765 39.199832 97.201066 60.934273 18.335426 0.000000 0.140124
212.000000 61.572000 1.000000 -4.000000 4.000000 50.661841 -2.648475 1024.786740 1824.077598 16.267557 0.000000 0.066604
213.000000 81.734000 3.000000 -4.000000 4.000000 81.571223 5.883080 864.097030 1101.330154 12.248392 0.000000 0.146712
214.000000 81.751000 5.000000 -4.000000 4.000000 102.776390 14.870880 689.205891 688.480568 12.240654 0.000000 0.140263
215.000000 74.321000 7.000000 -4.000000 4.000000 116.381104 23.895923 498.143644 357.116342 13.460643 0.000000 0.053309
216.000000 65.735000 9.000000 -4.000000 4.000000 124.962824 32.529004 288.558706 48.375376 15.216438 0.000000 0.073620
218.000000 56.818000 0.000000 -3.000000 4.000000 39.311981 -14.287369 1249.091289 2297.365960 17.629982 0.000000 0.236614
219.000000 81.161000 1.000000 -3.000000 4.000000 60.373741 -9.899532 1162.834354 1562.323934 12.339463 0.000000 0.049785
220.000000 94.853000 2.000000 -3.000000 4.000000 78.706759 -5.166155 1072.309440 1156.809446 10.554990 0.000000 0.137307
221.000000 99.365000 3.000000 -3.000000 4.000000 93.772294 -0.116676 977.191742 870.035191 10.072729 0.000000 0.165801
222.000000 97.949000 4.000000 -3.000000 4.000000 105.711787 5.196141 877.122640 636.979029 10.215934 0.000000 0.152160
223.000000 93.435000 5.000000 -3.000000 4.000000 114.979243 10.696243 771.705181 430.724313 10.707548 0.000000 0.114577
224.000000 87.647000 6.000000 -3.000000 4.000000 122.088956 16.288755 660.498814 237.909106 11.413096 0.000000 0.064140
225.000000 81.589000 7.000000 -3.000000 4.000000 127.504018 21.868795 543.013238 50.962683 12.259420 0.000000 0.024384
226.000000 75.751000 8.000000 -3.000000 4.000000 131.605914 27.332859 418.701174 -134.897005 13.203305 0.000000 0.075147
230.000000 104.037000 1.000000 -2.000000 4.000000 71.202722 -19.934114 1365.338053 1330.691662 9.624226 0.000000 0.106813
231.000000 116.468000 2.000000 -2.000000 4.000000 91.178636 -14.793885 1259.246326 918.097131 8.593924 0.000000 0.147116
232.000000 117.383000 3.000000 -2.000000 4.000000 107.006234 -9.050242 1146.435861 607.666023 8.524351 0.000000 0.141569
233.000000 112.064000 4.000000 -2.000000 4.000000 119.068616 -2.726069 1026.247546 342.036420 8.926923 0.000000 0.107032
234.000000 104.231000 5.000000 -2.000000 4.000000 128.048478 4.095611 897.933141 96.482572 9.596332 0.000000 0.059400
235.000000 87.912000 7.000000 -2.000000 4.000000 139.334983 18.571133 613.390527 -380.674989 11.375844 0.000000 0.066345
238.000000 95.895000 0.000000 -1.000000 4.000000 55.700117 -37.746926 1808.263704 1869.511615 10.442881 0.000000 0.240768
239.000000 125.603000 1.000000 -1.000000 4.000000 81.606025 -33.640650 1691.189401 1131.765462 7.969820 0.000000 0.112318
240.000000 135.538000 2.000000 -1.000000 4.000000 103.077559 -28.716269 1564.651183 655.920878 7.382795 0.000000 0.070595
241.000000 132.395000 3.000000 -1.000000 4.000000 119.701114 -22.800937 1427.453165 275.023314 7.555921 0.000000 0.038491
242.000000 123.315000 4.000000 -1.000000 4.000000 132.078528 -15.732381 1278.189115 -68.594860 8.110729 0.000000 0.034366
243.000000 112.566000 5.000000 -1.000000 4.000000 141.043123 -7.421351 1115.194080 -401.405241 8.884235 0.000000 0.036633
247.000000 138.073000 1.000000 0.000000 4.000000 88.745767 -50.964745 2302.441823 978.415745 7.248609 0.000000 0.298448
248.000000 145.987000 2.000000 0.000000 4.000000 111.245479 -47.592318 2153.375317 320.523547 6.853105 0.000000 0.244560
252.000000 45.499000 8.000000 -8.000000 5.000000 89.409275 24.756345 478.677022 953.220162 21.998447 0.000000 0.121513
253.000000 47.536000 4.000000 -7.000000 5.000000 67.671815 12.766214 731.139268 1394.243348 21.065373 0.000000 0.091545
254.000000 50.008000 5.000000 -7.000000 5.000000 76.393567 15.550956 675.486104 1211.409972 20.020615 0.000000 0.124671
255.000000 51.119000 6.000000 -7.000000 5.000000 84.067579 18.336074 618.297775 1058.821862 19.582596 0.000000 0.137018
256.000000 51.211000 7.000000 -7.000000 5.000000 90.767003 21.108466 559.509872 925.554698 19.544589 0.000000 0.133338
257.000000 50.585000 8.000000 -7.000000 5.000000 96.586836 23.855385 499.054335 805.109888 19.784204 0.000000 0.117746
258.000000 49.479000 9.000000 -7.000000 5.000000 101.628662 26.564782 436.859181 693.364274 20.224360 0.000000 0.093275
259.000000 48.073000 10.000000 -7.000000 5.000000 105.991365 29.225599 372.848230 587.561867 20.814093 0.000000 0.062274
260.000000 46.496000 11.000000 -7.000000 5.000000 109.766197 31.828003 306.940785 485.777897 21.518360 0.000000 0.027932
261.000000 45.837000 2.000000 -6.000000 5.000000 53.481157 3.984102 900.038267 1739.894399 21.851148 0.000000 0.041830
262.000000 52.220000 3.000000 -6.000000 5.000000 65.081268 7.040351 842.078203 1444.825742 19.176912 0.000000 0.072384
263.000000 56.089000 4.000000 -6.000000 5.000000 75.381931 10.146611 782.379289 1226.176237 17.850510 0.000000 0.124426
264.000000 57.902000 5.000000 -6.000000 5.000000 84.372862 13.285516 720.862083 1049.962442 17.288581 0.000000 0.146188
265.000000 58.184000 6.000000 -6.000000 5.000000 92.128496 16.438555 657.442230 899.293249 17.201969 0.000000 0.146515
266.000000 57.412000 7.000000 -6.000000 5.000000 98.768195 19.586713 592.030072 764.796585 17.431018 0.000000 0.131718
267.000000 55.963000 8.000000 -6.000000 5.000000 104.427474 22.711150 524.530232 640.830142 17.880376 0.000000 0.106024
268.000000 54.113000 9.000000 -6.000000 5.000000 109.240461 25.793867 454.841142 523.771870 18.489581 0.000000 0.072288
269.000000 52.057000 10.000000 -6.000000 5.000000 113.330823 28.818297 382.854541 411.169915 19.218441 0.000000 0.032449
270.000000 49.922000 11.000000 -6.000000 5.000000 116.808059 31.769781 308.454908 301.286699 20.039198 0.000000 0.012337
271.000000 47.790000 12.000000 -6.000000 5.000000 119.766826 34.635890 231.518844 192.839047 20.932063 0.000000 0.061012
272.000000 45.712000 13.000000 -6.000000 5.000000 122.287797 37.406601 151.914393 84.842407 21.882547 0.000000 0.113388
273.000000 46.403000 1.000000 -5.000000 5.000000 47.063695 -3.463509 1040.140959 1944.258469 21.586129 0.000000 0.111450
274.000000 56.424000 2.000000 -5.000000 5.000000 60.953465 -0.157934 977.966787 1538.745202 17.749323 0.000000 0.036917
275.000000 62.764000 3.000000 -5.000000 5.000000 73.343760 3.258994 913.714086 1263.529560 15.952864 0.000000 0.116938
276.000000 65.919000 4.000000 -5.000000 5.000000 84.111092 6.767603 847.276856 1052.792547 15.186313 0.000000 0.152358
277.000000 65.797000 6.000000 -5.000000 5.000000 101.044417 13.963017 707.387488 724.527154 15.209156 0.000000 0.145759
278.000000 63.915000 7.000000 -5.000000 5.000000 107.527973 17.594936 633.684034 584.384518 15.654992 0.000000 0.119549
279.000000 61.472000 8.000000 -5.000000 5.000000 112.932554 21.211153 557.291909 452.543393 16.275259 0.000000 0.084125
280.000000 58.768000 9.000000 -5.000000 5.000000 117.428465 24.783370 478.061257 325.759319 17.022635 0.000000 0.042516
281.000000 53.257000 11.000000 -5.000000 5.000000 124.271805 31.693834 310.427117 79.030056 18.781898 0.000000 0.060213
282.000000 50.629000 12.000000 -5.000000 5.000000 126.854789 34.989567 221.662673 -43.767716 19.756154 0.000000 0.115669
283.000000 48.140000 13.000000 -5.000000 5.000000 129.004022 38.157392 129.335194 -167.575179 20.776735 0.000000 0.175772
285.000000 58.360000 1.000000 -4.000000 5.000000 54.377692 -9.146370 1148.287940 1722.116561 17.161930 0.000000 0.049859
286.000000 69.066000 2.000000 -4.000000 5.000000 69.475771 -5.516894 1078.955649 1345.803875 14.498333 0.000000 0.096306
287.000000 74.861000 3.000000 -4.000000 5.000000 82.655264 -1.700655 1006.955989 1079.791839 13.372723 0.000000 0.150319
288.000000 76.760000 4.000000 -4.000000 5.000000 93.832424 2.280842 932.132013 868.843653 13.039015 0.000000 0.165711
289.000000 76.002000 5.000000 -4.000000 5.000000 103.130433 6.397899 854.314211 688.362343 13.166524 0.000000 0.156030
290.000000 73.643000 6.000000 -4.000000 5.000000 110.771598 10.613257 773.319235 525.659217 13.586187 0.000000 0.130183
291.000000 70.439000 7.000000 -4.000000 5.000000 117.004214 14.883682 688.948451 373.459555 14.202572 0.000000 0.093944
292.000000 66.877000 8.000000 -4.000000 5.000000 122.064074 19.162407 600.986316 227.233525 14.957731 0.000000 0.051944
293.000000 63.249000 9.000000 -4.000000 5.000000 126.158848 23.402123 509.198537 83.957803 15.814440 0.000000 0.022797
294.000000 59.722000 10.000000 -4.000000 5.000000 129.464591 27.558049 413.329990 -58.514290 16.747694 0.000000 0.061596
295.000000 56.378000 11.000000 -4.000000 5.000000 132.127623 31.590615 313.102349 -201.797457 17.740077 0.000000 0.118312
299.000000 54.533000 0.000000 -3.000000 5.000000 44.202506 -20.060541 1368.027493 2119.158933 18.367701 0.000000 0.195320
300.000000 72.370000 1.000000 -3.000000 5.000000 62.508467 -16.469058 1293.180754 1525.042725 13.837696 0.000000 0.077565
301.000000 83.268000 2.000000 -3.000000 5.000000 78.850078 -12.571501 1215.018243 1158.345411 12.023324 0.000000 0.132343
302.000000 87.871000 3.000000 -3.000000 5.000000 92.793672 -8.367765 1133.314632 887.914454 11.390509 0.000000 0.159307
303.000000 87.951000 4.000000 -3.000000 5.000000 104.324811 -3.870819 1047.823702 665.531225 11.377554 0.000000 0.154904
304.000000 85.292000 5.000000 -3.000000 5.000000 113.669678 0.890226 958.275867 469.162090 11.730091 0.000000 0.130825
305.000000 81.222000 6.000000 -3.000000 5.000000 121.144077 5.868420 864.375332 287.181538 12.316183 0.000000 0.095186
306.000000 76.585000 7.000000 -3.000000 5.000000 127.067091 10.999628 765.796833 112.760319 13.060578 0.000000 0.054075
307.000000 71.866000 8.000000 -3.000000 5.000000 131.724458 16.206173 662.181865 -58.483527 13.917213 0.000000 0.025179
308.000000 67.320000 9.000000 -3.000000 5.000000 135.358843 21.403256 553.134335 -229.590781 14.856320 0.000000 0.059675
312.000000 67.558000 0.000000 -2.000000 5.000000 50.946737 -29.420179 1581.960177 1943.506147 14.824703 0.000000 0.194100
313.000000 87.126000 1.000000 -2.000000 5.000000 70.909819 -25.889656 1497.380308 1355.049115 11.492063 0.000000 0.112419
314.000000 97.578000 2.000000 -2.000000 5.000000 88.453658 -21.927426 1408.266084 972.320715 10.257974 0.000000 0.127592
315.000000 100.424000 3.000000 -2.000000 5.000000 103.129673 -17.494603 1314.242828 677.775425 9.964517 0.000000 0.126747
316.000000 98.341000 4.000000 -2.000000 5.000000 115.011345 -12.565171 1214.893418 426.534392 10.173307 0.000000 0.105957
317.000000 93.646000 5.000000 -2.000000 5.000000 124.429284 -7.136301 1109.752091 197.477885 10.681744 0.000000 0.074487
318.000000 87.864000 6.000000 -2.000000 5.000000 131.780561 -1.240014 998.297153 -20.886522 11.383282 0.000000 0.039164
319.000000 81.865000 7.000000 -2.000000 5.000000 137.437903 5.047234 879.942312 -235.578591 12.216534 0.000000 0.008111
324.000000 79.378000 0.000000 -1.000000 5.000000 57.130121 -40.752983 1902.492122 1859.092640 12.615377 0.000000 0.268151
325.000000 99.899000 1.000000 -1.000000 5.000000 78.464524 -37.693808 1806.668964 1218.608376 10.020886 0.000000 0.135525
326.000000 109.451000 2.000000 -1.000000 5.000000 97.040720 -34.123207 1704.341954 780.425580 9.143311 0.000000 0.068581
327.000000 110.467000 3.000000 -1.000000 5.000000 112.416345 -29.937152 1594.825672 428.665123 9.056832 0.000000 0.020456
328.000000 106.414000 4.000000 -1.000000 5.000000 124.743182 -25.019701 1477.334880 117.237947 9.399857 0.000000 0.028118
329.000000 99.994000 5.000000 -1.000000 5.000000 134.425464 -19.255071 1350.965664 -176.432026 10.002026 0.000000 0.056544
333.000000 46.158000 4.000000 -7.000000 6.000000 69.996512 7.526124 832.803907 1336.217993 21.693408 0.000000 0.100546
334.000000 48.376000 5.000000 -7.000000 6.000000 78.362533 10.175872 781.811972 1166.207553 20.695411 0.000000 0.134779
335.000000 49.424000 6.000000 -7.000000 6.000000 85.794464 12.849216 729.499513 1022.175406 20.253819 0.000000 0.149072
336.000000 49.573000 7.000000 -7.000000 6.000000 92.344712 15.534726 675.814562 895.259274 20.189972 0.000000 0.148703
337.000000 49.071000 8.000000 -7.000000 6.000000 98.086864 18.220658 620.702387 779.999733 20.394304 0.000000 0.137439
338.000000 48.118000 9.000000 -7.000000 6.000000 103.103234 20.895255 564.105306 672.838523 20.795887 0.000000 0.117949
339.000000 46.872000 10.000000 -7.000000 6.000000 107.476694 23.547056 505.962488 571.346799 21.346777 0.000000 0.092145
340.000000 55.157000 5.000000 -6.000000 6.000000 85.749114 7.359687 835.983754 1021.663765 18.148596 0.000000 0.155119
341.000000 55.023000 7.000000 -6.000000 6.000000 99.846105 13.358211 719.419936 749.005173 18.187758 0.000000 0.148975
342.000000 48.589000 11.000000 -6.000000 6.000000 118.100284 25.372577 464.569037 304.952712 20.588603 0.000000 0.035279
343.000000 53.196000 2.000000 -5.000000 6.000000 63.215055 -5.732965 1083.053906 1487.051644 18.825715 0.000000 0.057433
344.000000 58.612000 3.000000 -5.000000 6.000000 74.753696 -2.666856 1025.132768 1234.674975 17.082761 0.000000 0.122851
345.000000 61.529000 4.000000 -5.000000 6.000000 84.953325 0.511632 965.388794 1036.050903 16.269489 0.000000 0.155973
346.000000 62.481000 5.000000 -5.000000 6.000000 93.818967 3.788237 903.734559 868.997412 16.018715 0.000000 0.165194
347.000000 62.025000 6.000000 -5.000000 6.000000 101.434553 7.145261 840.076956 721.601608 16.134123 0.000000 0.157827
348.000000 60.637000 7.000000 -5.000000 6.000000 107.924205 10.561949 774.316727 586.864212 16.501230 0.000000 0.138867
349.000000 58.683000 8.000000 -5.000000 6.000000 113.425193 14.015122 706.347947 460.376634 17.048773 0.000000 0.111765
350.000000 56.424000 9.000000 -5.000000 6.000000 118.071925 17.480061 636.057455 339.199734 17.730071 0.000000 0.079073
351.000000 54.033000 10.000000 -5.000000 6.000000 121.987913 20.931537 563.324226 221.276347 18.513265 0.000000 0.043602
352.000000 51.624000 11.000000 -5.000000 6.000000 125.282654 24.344903 488.018671 105.102680 19.375872 0.000000 0.021510
353.000000 49.268000 12.000000 -5.000000 6.000000 128.051221 27.697120 410.001873 -10.465617 20.301570 0.000000 0.052747
354.000000 47.005000 13.000000 -5.000000 6.000000 130.375151 30.967620 329.124728 -126.333221 21.278223 0.000000 0.098379
355.000000 54.237000 1.000000 -4.000000 6.000000 56.881912 -14.428143 1251.908991 1665.976808 18.465604 0.000000 0.066466
356.000000 68.009000 3.000000 -4.000000 6.000000 82.793170 -7.986660 1126.007758 1078.430955 14.720059 0.000000 0.147014
357.000000 70.051000 5.000000 -4.000000 6.000000 102.460843 -0.846454 990.901692 703.136942 14.285293 0.000000 0.159873
358.000000 66.175000 7.000000 -4.000000 6.000000 116.489411 6.858604 845.543022 400.761792 15.118075 0.000000 0.115423
359.000000 60.367000 9.000000 -4.000000 6.000000 126.196691 14.895106 688.718683 125.980894 16.569611 0.000000 0.047819
360.000000 54.447000 11.000000 -4.000000 6.000000 132.795034 22.960466 519.016383 -141.226383 18.369352 0.000000 0.052924
362.000000 64.345000 1.000000 -3.000000 6.000000 63.670927 -21.516037 1399.311633 1513.513083 15.562968 0.000000 0.096286
363.000000 73.192000 2.000000 -3.000000 6.000000 78.316992 -18.287184 1330.683248 1175.394932 13.678505 0.000000 0.124655
364.000000 78.674000 4.000000 -3.000000 6.000000 102.178410 -11.031515 1184.824862 704.348603 12.719642 0.000000 0.147647
365.000000 77.385000 5.000000 -3.000000 6.000000 111.413602 -7.003960 1107.227830 515.736669 12.929174 0.000000 0.132340
366.000000 71.313000 7.000000 -3.000000 6.000000 125.354392 1.774381 941.657813 177.039855 14.026610 0.000000 0.075992
367.000000 67.629000 8.000000 -3.000000 6.000000 130.475561 6.455850 853.211810 16.690283 14.789453 0.000000 0.042821
368.000000 60.331000 10.000000 -3.000000 6.000000 137.937821 16.134284 663.645818 -300.644914 16.576735 0.000000 0.045927
371.000000 74.278000 1.000000 -2.000000 6.000000 70.337138 -30.160406 1600.422924 1385.798023 13.479676 0.000000 0.123307
372.000000 86.558000 3.000000 -2.000000 6.000000 99.344555 -23.518483 1443.398979 747.845454 11.561378 0.000000 0.109400
373.000000 83.836000 5.000000 -2.000000 6.000000 120.183018 -15.341707 1270.283062 291.877337 11.932416 0.000000 0.073007
374.000000 75.679000 7.000000 -2.000000 6.000000 134.172265 -5.491167 1078.467894 -109.457821 13.215747 0.000000 0.026777
378.000000 67.497000 0.000000 -1.000000 6.000000 58.023483 -42.813047 1972.114767 1856.966309 14.835693 0.000000 0.291257
379.000000 82.463000 1.000000 -1.000000 6.000000 76.119091 -40.404271 1891.136589 1290.282789 12.139969 0.000000 0.164891
380.000000 90.820000 2.000000 -1.000000 6.000000 92.366365 -37.652212 1805.421734 884.823045 11.019791 0.000000 0.089015
381.000000 93.508000 3.000000 -1.000000 6.000000 106.398327 -34.493691 1714.542085 556.698994 10.700480 0.000000 0.033720
382.000000 92.254000 4.000000 -1.000000 6.000000 118.198605 -30.855591 1618.016329 268.786520 10.843710 0.000000 0.021311
383.000000 88.687000 5.000000 -1.000000 6.000000 127.949933 -26.656724 1515.301433 1.792414 11.278198 0.000000 0.056513
384.000000 83.988000 6.000000 -1.000000 6.000000 135.907374 -21.813556 1405.782418 -255.615761 11.907941 0.000000 0.080305
390.000000 95.207000 2.000000 0.000000 6.000000 96.816310 -49.933063 2254.638546 741.132605 10.510797 0.000000 0.265448
393.000000 46.364000 5.000000 -7.000000 7.000000 79.695452 5.254113 876.024542 1137.509748 21.593499 0.000000 0.141475
394.000000 47.388000 6.000000 -7.000000 7.000000 86.892421 7.783704 827.877883 999.976194 21.123625 0.000000 0.156635
395.000000 47.267000 8.000000 -7.000000 7.000000 98.968213 12.926510 727.971545 766.727318 21.172529 0.000000 0.151037
396.000000 46.488000 9.000000 -7.000000 7.000000 103.966818 15.519615 676.120345 663.182131 21.524881 0.000000 0.135876
397.000000 47.416000 3.000000 -6.000000 7.000000 68.904816 -3.317373 1037.386183 1356.900387 21.118566 0.000000 0.092963
398.000000 50.474000 4.000000 -6.000000 7.000000 78.160170 -0.674215 987.665629 1166.646176 19.835574 0.000000 0.136767
399.000000 52.127000 5.000000 -6.000000 7.000000 86.447063 2.042202 936.621233 1007.869652 19.203490 0.000000 0.158735
400.000000 52.662000 6.000000 -6.000000 7.000000 93.786845 4.822287 884.199412 869.507746 19.005523 0.000000 0.164632
401.000000 52.363000 7.000000 -6.000000 7.000000 100.236348 7.654809 830.343647 744.891516 19.111534 0.000000 0.158751
402.000000 51.476000 8.000000 -6.000000 7.000000 105.871566 10.527087 774.994287 629.748113 19.438674 0.000000 0.144168
403.000000 50.198000 9.000000 -6.000000 7.000000 110.775869 13.425296 718.088325 521.201133 19.931695 0.000000 0.123114
404.000000 48.678000 10.000000 -6.000000 7.000000 115.032419 16.334831 659.559159 417.231983 20.552338 0.000000 0.097268
405.000000 47.025000 11.000000 -6.000000 7.000000 118.719817 19.240741 599.336333 316.371849 21.273271 0.000000 0.068051
406.000000 49.672000 2.000000 -5.000000 7.000000 64.723638 -10.475781 1174.008815 1457.833481 20.160720 0.000000 0.072518
407.000000 54.356000 3.000000 -5.000000 7.000000 75.477479 -7.743428 1121.351476 1222.365685 18.419723 0.000000 0.124280
408.000000 57.080000 4.000000 -5.000000 7.000000 85.128775 -4.893695 1067.151651 1033.062085 17.537751 0.000000 0.154428
409.000000 58.197000 5.000000 -5.000000 7.000000 93.659892 -1.933830 1011.340558 872.116471 17.197965 0.000000 0.165273
410.000000 58.107000 6.000000 -5.000000 7.000000 101.116337 1.126013 953.845262 729.479893 17.222284 0.000000 0.161965
411.000000 57.168000 7.000000 -5.000000 7.000000 107.580604 4.272720 894.588358 599.029890 17.502918 0.000000 0.148470
412.000000 55.673000 8.000000 -5.000000 7.000000 113.152065 7.490348 833.487627 476.804100 17.970803 0.000000 0.127673
413.000000 53.844000 9.000000 -5.000000 7.000000 117.933673 10.760456 770.455650 360.107175 18.579642 0.000000 0.101728
414.000000 51.838000 10.000000 -5.000000 7.000000 122.024238 14.062647 705.399393 247.025466 19.297238 0.000000 0.072450
415.000000 49.763000 11.000000 -5.000000 7.000000 125.514578 17.375278 638.219750 136.147485 20.100506 0.000000 0.042491
416.000000 47.692000 12.000000 -5.000000 7.000000 128.486056 20.676297 568.811038 26.394927 20.972465 0.000000 0.025193
417.000000 45.670000 13.000000 -5.000000 7.000000 131.010447 23.944107 497.060442 -83.083752 21.900340 0.000000 0.047522
418.000000 50.015000 1.000000 -4.000000 7.000000 58.586585 -18.737581 1340.092524 1635.106563 20.023520 0.000000 0.085422
419.000000 57.163000 2.000000 -4.000000 7.000000 71.076850 -16.034644 1284.326832 1324.920282 17.516381 0.000000 0.105111
420.000000 61.670000 3.000000 -4.000000 7.000000 82.391869 -13.164835 1226.745742 1088.644028 16.232908 0.000000 0.140256
421.000000 63.884000 4.000000 -4.000000 7.000000 92.427313 -10.127959 1167.259138 894.653731 15.667465 0.000000 0.156573
422.000000 64.317000 5.000000 -4.000000 7.000000 101.186939 -6.927539 1105.770843 726.577552 15.559272 0.000000 0.156570
423.000000 63.488000 6.000000 -4.000000 7.000000 108.744364 -3.571546 1042.178092 575.054638 15.760195 0.000000 0.144795
424.000000 61.834000 7.000000 -4.000000 7.000000 115.209616 -0.072982 976.370967 434.313300 16.179849 0.000000 0.124881
425.000000 59.687000 8.000000 -4.000000 7.000000 120.705598 3.549812 908.231758 300.572218 16.759959 0.000000 0.099546
426.000000 57.286000 9.000000 -4.000000 7.000000 125.353989 7.273249 837.634260 171.223666 17.461263 0.000000 0.070958
427.000000 54.787000 10.000000 -4.000000 7.000000 129.268022 11.069059 764.442998 44.385838 18.256341 0.000000 0.041836
428.000000 52.295000 11.000000 -4.000000 7.000000 132.549580 14.905363 688.512352 -81.356989 19.125465 0.000000 0.024351
429.000000 49.871000 12.000000 -4.000000 7.000000 135.288662 18.748173 609.685597 -207.112685 20.054079 0.000000 0.044895
430.000000 47.553000 13.000000 -4.000000 7.000000 137.563999 22.563153 527.793819 -333.781710 21.031206 0.000000 0.081091
431.000000 46.928000 0.000000 -3.000000 7.000000 49.992430 -27.960249 1546.318335 1963.741976 21.342042 0.000000 0.189957
432.000000 57.445000 1.000000 -3.000000 7.000000 64.294549 -25.458156 1487.401519 1514.830857 17.431745 0.000000 0.111515
433.000000 64.739000 2.000000 -3.000000 7.000000 77.506264 -22.749946 1426.326445 1199.604322 15.464552 0.000000 0.118272
434.000000 68.899000 3.000000 -3.000000 7.000000 89.364142 -19.822736 1362.972308 953.697364 14.527717 0.000000 0.133786
435.000000 70.461000 4.000000 -3.000000 7.000000 99.772141 -16.666069 1297.209116 747.502232 14.202768 0.000000 0.136033
436.000000 70.113000 5.000000 -3.000000 7.000000 108.758549 -13.273357 1228.896799 565.435293 14.270824 0.000000 0.126172
437.000000 68.493000 6.000000 -3.000000 7.000000 116.425574 -9.643605 1157.884211 398.457202 14.606279 0.000000 0.107967
438.000000 66.107000 7.000000 -3.000000 7.000000 122.908906 -5.783246 1084.008020 240.913388 15.131899 0.000000 0.084670
439.000000 63.316000 8.000000 -3.000000 7.000000 128.351666 -1.707860 1007.091448 89.038545 15.797582 0.000000 0.058709
440.000000 60.362000 9.000000 -3.000000 7.000000 132.890427 2.556590 926.942860 -59.815447 16.569403 0.000000 0.032014
441.000000 57.400000 10.000000 -3.000000 7.000000 136.649228 6.973436 843.354172 -207.606648 17.423579 0.000000 0.012492
442.000000 54.521000 11.000000 -3.000000 7.000000 139.738115 11.496238 756.099046 -355.853235 18.342934 0.000000 0.032944
446.000000 53.335000 0.000000 -2.000000 7.000000 54.622185 -35.666813 1747.450980 1881.713142 18.776593 0.000000 0.225435
447.000000 64.413000 1.000000 -2.000000 7.000000 69.712038 -33.340180 1683.074135 1417.257773 15.544230 0.000000 0.138189
448.000000 71.683000 2.000000 -2.000000 7.000000 83.576695 -30.774206 1615.943614 1082.027024 13.964475 0.000000 0.108530
449.000000 75.383000 3.000000 -2.000000 7.000000 95.936739 -27.941994 1545.878875 814.308905 13.276106 0.000000 0.095644
450.000000 76.246000 4.000000 -2.000000 7.000000 106.707247 -24.816030 1472.683242 585.082449 13.123185 0.000000 0.081383
451.000000 75.124000 5.000000 -2.000000 7.000000 115.939999 -21.369857 1396.142059 378.798027 13.317018 0.000000 0.064019
452.000000 72.759000 6.000000 -2.000000 7.000000 123.761532 -17.580648 1316.020589 186.278819 13.748253 0.000000 0.046921
453.000000 69.705000 7.000000 -2.000000 7.000000 130.326838 -13.432847 1232.061609 1.671644 14.349146 0.000000 0.034404
454.000000 66.341000 8.000000 -2.000000 7.000000 135.791809 -8.922833 1143.982651 -179.015428 15.075486 0.000000 0.027938
455.000000 62.908000 9.000000 -2.000000 7.000000 140.300127 -4.064148 1051.472830 -358.676815 15.897199 0.000000 0.022262
459.000000 58.618000 0.000000 -1.000000 7.000000 58.628508 -44.309404 2025.656513 1858.073922 17.082623 0.000000 0.310728
460.000000 69.992000 1.000000 -1.000000 7.000000 74.321661 -42.336479 1955.605786 1349.675147 14.303407 0.000000 0.193032
461.000000 77.115000 2.000000 -1.000000 7.000000 88.704044 -40.119653 1881.955086 972.840603 12.979047 0.000000 0.116202
462.000000 80.360000 3.000000 -1.000000 7.000000 101.488211 -37.618756 1804.419585 664.839507 12.452168 0.000000 0.061375
463.000000 80.620000 4.000000 -1.000000 7.000000 112.600188 -34.787061 1722.683594 395.481701 12.409599 0.000000 0.034641
464.000000 78.869000 5.000000 -1.000000 7.000000 122.109961 -31.571244 1636.396267 148.245323 12.683165 0.000000 0.054467
465.000000 75.919000 6.000000 -1.000000 7.000000 130.160795 -27.912392 1545.166566 -86.853456 13.174476 0.000000 0.082251
466.000000 72.355000 7.000000 -1.000000 7.000000 136.918548 -23.748953 1448.557337 -316.375746 13.822135 0.000000 0.100473
470.000000 45.501000 7.000000 -7.000000 8.000000 93.751721 5.575244 869.937911 870.088029 21.996551 0.000000 0.164116
471.000000 49.030000 5.000000 -6.000000 8.000000 86.650526 -2.678196 1025.346260 1004.060123 20.416458 0.000000 0.158385
472.000000 49.599000 7.000000 -6.000000 8.000000 100.107984 2.511052 927.799970 748.943640 20.176781 0.000000 0.162877
473.000000 47.971000 9.000000 -6.000000 8.000000 110.646931 7.928354 825.108900 531.527098 20.857208 0.000000 0.135571
474.000000 46.188000 2.000000 -5.000000 8.000000 65.711473 -14.507686 1253.502673 1442.703348 21.680748 0.000000 0.083199
475.000000 50.278000 3.000000 -5.000000 8.000000 75.747739 -12.076816 1205.282012 1220.576730 19.913661 0.000000 0.122978
476.000000 52.820000 4.000000 -5.000000 8.000000 84.873762 -9.532640 1155.740261 1038.905456 18.952162 0.000000 0.149724
477.000000 54.051000 5.000000 -5.000000 8.000000 93.059913 -6.877777 1104.822377 883.048161 18.517555 0.000000 0.161254
478.000000 54.251000 6.000000 -5.000000 8.000000 100.326265 -4.116973 1052.470213 744.387107 18.446408 0.000000 0.160813
479.000000 53.691000 7.000000 -5.000000 8.000000 106.725141 -1.257315 998.622302 617.503500 18.636547 0.000000 0.151437
480.000000 52.601000 8.000000 -5.000000 8.000000 112.326515 1.691635 943.213613 498.804860 19.020812 0.000000 0.135499
481.000000 51.164000 9.000000 -5.000000 8.000000 117.207434 4.717830 886.175288 385.802230 19.553245 0.000000 0.114825
482.000000 49.519000 10.000000 -5.000000 8.000000 121.445190 7.806880 827.434361 276.704438 20.201333 0.000000 0.090862
483.000000 47.766000 11.000000 -5.000000 8.000000 125.113362 10.942339 766.913443 170.178128 20.941427 0.000000 0.064977
484.000000 45.975000 12.000000 -5.000000 8.000000 128.279846 14.106168 704.530381 65.199479 21.755916 0.000000 0.039562
485.000000 46.043000 1.000000 -4.000000 8.000000 59.763799 -22.283081 1416.049210 1618.957653 21.750161 0.000000 0.101720
486.000000 56.015000 3.000000 -4.000000 8.000000 81.706619 -17.438953 1313.093951 1105.445825 17.871976 0.000000 0.132435
487.000000 59.007000 5.000000 -4.000000 8.000000 99.599781 -11.997290 1203.720204 754.897727 16.959990 0.000000 0.149261
488.000000 57.612000 7.000000 -4.000000 8.000000 113.467373 -5.957103 1087.308443 471.205573 17.366031 0.000000 0.126759
489.000000 54.152000 9.000000 -4.000000 8.000000 123.899836 0.630441 963.156756 217.720945 18.472184 0.000000 0.084099
490.000000 50.023000 11.000000 -4.000000 8.000000 131.596014 7.648375 830.466688 -23.021270 19.994582 0.000000 0.034915
491.000000 45.909000 13.000000 -4.000000 8.000000 137.176435 14.914624 688.326047 -260.822522 21.784551 0.000000 0.036759
492.000000 51.624000 1.000000 -3.000000 8.000000 64.614124 -28.594891 1561.690188 1522.688009 19.396998 0.000000 0.125500
493.000000 57.718000 2.000000 -3.000000 8.000000 76.612049 -26.291215 1506.732436 1226.727568 17.345813 0.000000 0.115262
494.000000 61.525000 3.000000 -3.000000 8.000000 87.561493 -23.808365 1449.890053 991.098046 16.269198 0.000000 0.122042
495.000000 63.348000 4.000000 -3.000000 8.000000 97.367115 -21.135068 1391.064406 791.806077 15.798207 0.000000 0.123400
496.000000 63.615000 5.000000 -3.000000 8.000000 106.021897 -18.261581 1330.149856 615.540896 15.729259 0.000000 0.116421
497.000000 62.762000 6.000000 -3.000000 8.000000 113.578033 -15.180686 1267.033126 454.285949 15.940825 0.000000 0.102882
498.000000 61.163000 7.000000 -3.000000 8.000000 120.120567 -11.888879 1201.592599 302.889628 16.355872 0.000000 0.085113
499.000000 59.107000 8.000000 -3.000000 8.000000 125.748050 -8.387716 1133.697532 157.857814 16.923208 0.000000 0.065102
500.000000 56.805000 9.000000 -3.000000 8.000000 130.560369 -4.685178 1063.207190 16.706371 17.607484 0.000000 0.044284
501.000000 54.404000 10.000000 -3.000000 8.000000 134.652172 -0.796859 989.969867 -122.408009 18.383505 0.000000 0.023443
502.000000 51.999000 11.000000 -3.000000 8.000000 138.110034 3.253278 913.821799 -260.909261 19.232831 0.000000 0.003962
503.000000 49.651000 12.000000 -3.000000 8.000000 141.011808 7.432866 834.585941 -399.940731 20.141651 0.000000 0.020943
505.000000 56.692000 1.000000 -2.000000 8.000000 69.114583 -35.785780 1750.841920 1447.260380 17.661140 0.000000 0.154911
506.000000 66.361000 3.000000 -2.000000 8.000000 92.957709 -31.291309 1629.173582 875.924318 15.081721 0.000000 0.088978
507.000000 67.548000 5.000000 -2.000000 8.000000 111.970039 -25.893395 1497.467100 458.349209 14.811668 0.000000 0.053109
508.000000 64.131000 7.000000 -2.000000 8.000000 126.368083 -19.419117 1354.426738 100.603839 15.597134 0.000000 0.031898
509.000000 58.994000 9.000000 -2.000000 8.000000 136.937835 -11.732354 1198.523727 -235.250640 16.952858 0.000000 0.038307
513.000000 60.685000 1.000000 -1.000000 8.000000 72.907964 -43.780523 2006.426992 1399.379050 16.497373 0.000000 0.218167
514.000000 66.731000 2.000000 -1.000000 8.000000 85.781897 -41.935713 1941.915251 1047.708598 14.999453 0.000000 0.143040
515.000000 70.041000 3.000000 -1.000000 8.000000 97.461729 -39.882956 1874.377826 757.297079 14.287603 0.000000 0.088885
516.000000 71.094000 4.000000 -1.000000 8.000000 107.859345 -37.591263 1803.596742 503.344791 14.073440 0.000000 0.056488
517.000000 70.479000 5.000000 -1.000000 8.000000 116.988374 -35.025111 1729.332573 271.658346 14.194276 0.000000 0.058282
518.000000 68.741000 6.000000 -1.000000 8.000000 124.924783 -32.144430 1651.321732 53.416323 14.551361 0.000000 0.080848
519.000000 66.319000 7.000000 -1.000000 8.000000 131.773958 -28.905181 1569.273351 -157.258345 15.081286 0.000000 0.103223
520.000000 63.533000 8.000000 -1.000000 8.000000 137.648290 -25.260987 1482.865651 -364.533344 15.741472 0.000000 0.117345
525.000000 72.163000 3.000000 0.000000 8.000000 100.639457 -49.384576 2230.050140 630.405680 13.866419 0.000000 0.255012
530.000000 46.004000 5.000000 -6.000000 9.000000 86.507417 -6.842797 1104.155761 1007.160414 21.759412 0.000000 0.155329
531.000000 46.846000 7.000000 -6.000000 9.000000 99.606788 -2.080609 1014.101175 758.707107 21.362899 0.000000 0.162953
532.000000 46.450000 8.000000 -6.000000 9.000000 105.156997 0.403627 967.417785 649.437346 21.542344 0.000000 0.155273
533.000000 46.504000 3.000000 -5.000000 9.000000 75.726751 -15.779125 1279.137082 1225.530818 21.529435 0.000000 0.120412
534.000000 48.870000 4.000000 -5.000000 9.000000 84.355047 -13.508154 1233.557405 1050.410872 20.483991 0.000000 0.143367
535.000000 50.163000 5.000000 -5.000000 9.000000 92.192860 -11.132244 1186.789623 898.996934 19.952891 0.000000 0.154805
536.000000 50.582000 6.000000 -5.000000 9.000000 99.244160 -8.652685 1138.786670 763.810266 19.785003 0.000000 0.156278
537.000000 50.326000 7.000000 -5.000000 9.000000 105.540141 -6.072434 1089.498956 640.016161 19.883120 0.000000 0.149975
538.000000 49.576000 8.000000 -5.000000 9.000000 111.128782 -3.396315 1038.874205 524.339512 20.181884 0.000000 0.137802
539.000000 48.481000 9.000000 -5.000000 9.000000 116.066679 -0.631188 986.857263 414.472867 20.635726 0.000000 0.121291
540.000000 47.161000 10.000000 -5.000000 9.000000 120.413288 2.213982 933.389901 308.734339 21.211907 0.000000 0.101664
541.000000 45.704000 11.000000 -5.000000 9.000000 124.227240 5.128132 878.410597 205.860353 21.886295 0.000000 0.079941
542.000000 47.501000 2.000000 -4.000000 9.000000 71.116235 -23.172951 1435.698978 1341.466347 21.078718 0.000000 0.109010
543.000000 51.052000 3.000000 -4.000000 9.000000 80.889362 -20.989765 1387.930085 1125.866293 19.609495 0.000000 0.125149
544.000000 53.212000 4.000000 -4.000000 9.000000 89.822252 -18.675573 1338.794160 944.524567 18.810190 0.000000 0.137054
545.000000 54.197000 5.000000 -4.000000 9.000000 97.885150 -16.226470 1288.231672 785.751774 18.465538 0.000000 0.140008
546.000000 54.254000 6.000000 -4.000000 9.000000 105.091256 -13.640054 1236.179578 642.346625 18.443577 0.000000 0.135008
547.000000 53.622000 7.000000 -4.000000 9.000000 111.482363 -10.915884 1182.571068 509.613684 18.658911 0.000000 0.123912
548.000000 52.505000 8.000000 -4.000000 9.000000 117.116620 -8.055953 1127.335273 384.345138 19.053832 0.000000 0.108447
549.000000 51.069000 9.000000 -4.000000 9.000000 122.059437 -5.065154 1070.396958 264.260500 19.587940 0.000000 0.090032
550.000000 49.440000 10.000000 -4.000000 9.000000 126.377459 -1.951676 1011.676175 147.680617 20.232110 0.000000 0.069789
551.000000 47.709000 11.000000 -4.000000 9.000000 130.134965 1.272735 951.087894 33.329000 20.964812 0.000000 0.048645
552.000000 45.943000 12.000000 -4.000000 9.000000 133.392005 4.592692 888.541586 -79.794111 21.769787 0.000000 0.027842
553.000000 46.725000 1.000000 -3.000000 9.000000 64.758770 -31.136020 1625.185420 1533.811009 21.430221 0.000000 0.139006
554.000000 51.878000 2.000000 -3.000000 9.000000 75.725054 -29.149402 1575.273800 1254.553575 19.298512 0.000000 0.116244
555.000000 57.240000 4.000000 -3.000000 9.000000 95.085938 -24.725657 1470.624098 835.541186 17.484540 0.000000 0.111877
556.000000 57.893000 5.000000 -3.000000 9.000000 103.369379 -22.268433 1415.727893 664.582740 17.284561 0.000000 0.105652
557.000000 56.579000 7.000000 -3.000000 9.000000 117.236604 -16.819752 1300.357303 362.230501 17.681817 0.000000 0.080745
558.000000 55.111000 8.000000 -3.000000 9.000000 122.938715 -13.816441 1239.690724 222.904408 18.151115 0.000000 0.065048
559.000000 51.439000 10.000000 -3.000000 9.000000 132.235709 -7.246917 1111.863077 -44.015626 19.443897 0.000000 0.033925
560.000000 49.458000 11.000000 -3.000000 9.000000 135.970211 -3.692855 1044.466049 -174.692887 20.221568 0.000000 0.019934
561.000000 45.531000 13.000000 -3.000000 9.000000 141.922942 3.877567 902.048964 -435.933520 21.964295 0.000000 0.011704
562.000000 50.529000 1.000000 -2.000000 9.000000 68.569863 -37.718647 1807.414409 1475.052141 19.815288 0.000000 0.171959
563.000000 55.708000 2.000000 -2.000000 9.000000 79.916443 -35.888689 1753.783365 1177.248600 17.969537 0.000000 0.122269
564.000000 59.018000 3.000000 -2.000000 9.000000 90.377352 -33.898889 1698.209440 932.459743 16.958895 0.000000 0.090328
565.000000 60.679000 4.000000 -2.000000 9.000000 99.865733 -31.732829 1640.585112 720.920041 16.491668 0.000000 0.065910
566.000000 61.017000 5.000000 -2.000000 9.000000 108.363275 -29.373087 1580.794773 531.026121 16.397843 0.000000 0.044752
567.000000 60.370000 6.000000 -2.000000 9.000000 115.900144 -26.801637 1518.713958 355.475008 16.571630 0.000000 0.027997
568.000000 59.038000 7.000000 -2.000000 9.000000 122.535654 -24.000506 1454.208480 189.401138 16.943753 0.000000 0.023707
569.000000 57.264000 8.000000 -2.000000 9.000000 128.343065 -20.952789 1387.133461 29.400547 17.466946 0.000000 0.033079
570.000000 55.233000 9.000000 -2.000000 9.000000 133.399219 -17.644080 1317.332247 -127.014918 18.107860 0.000000 0.044151
571.000000 53.077000 10.000000 -2.000000 9.000000 137.778347 -14.064379 1244.635184 -281.739827 18.842286 0.000000 0.050831
572.000000 50.888000 11.000000 -2.000000 9.000000 141.548955 -10.210433 1168.858245 -436.274351 19.652228 0.000000 0.050156
576.000000 53.499000 1.000000 -1.000000 9.000000 71.770314 -44.899343 2047.519255 1441.439922 18.713247 0.000000 0.240183
577.000000 58.651000 2.000000 -1.000000 9.000000 83.407113 -43.325682 1990.159645 1111.999347 17.066312 0.000000 0.167673
578.000000 61.817000 3.000000 -1.000000 9.000000 94.125151 -41.594028 1930.378169 837.205340 16.189265 0.000000 0.114341
579.000000 63.261000 4.000000 -1.000000 9.000000 103.838795 -39.683023 1868.018135 596.483448 15.817094 0.000000 0.079089
580.000000 63.345000 5.000000 -1.000000 9.000000 112.534400 -37.568270 1802.909034 377.591604 15.793899 0.000000 0.068657
581.000000 62.435000 6.000000 -1.000000 9.000000 120.248043 -35.222135 1734.864983 172.717474 16.021975 0.000000 0.081447
582.000000 60.853000 7.000000 -1.000000 9.000000 127.044564 -32.613752 1663.682959 -23.427084 16.436979 0.000000 0.102127
583.000000 58.851000 8.000000 -1.000000 9.000000 133.001385 -29.709372 1589.140766 -214.614266 16.994808 0.000000 0.120411
592.000000 47.160000 6.000000 -5.000000 10.000000 97.998491 -12.568723 1214.963464 786.052396 21.220877 0.000000 0.149714
593.000000 47.141000 7.000000 -5.000000 10.000000 104.161493 -10.246917 1169.565896 665.023471 21.227121 0.000000 0.145642
594.000000 46.668000 8.000000 -5.000000 10.000000 109.699553 -7.830149 1123.010996 552.013525 21.439957 0.000000 0.136364
595.000000 45.863000 9.000000 -5.000000 10.000000 114.653546 -5.321593 1075.253937 444.878422 21.814305 0.000000 0.123146
596.000000 46.725000 3.000000 -4.000000 10.000000 80.027476 -23.965132 1453.412479 1148.101193 21.425286 0.000000 0.119430
597.000000 49.894000 5.000000 -4.000000 10.000000 96.154561 -19.771875 1361.893093 817.669895 20.058781 0.000000 0.130207
598.000000 49.918000 7.000000 -4.000000 10.000000 109.402384 -15.092819 1265.261783 548.383423 20.043985 0.000000 0.118242
599.000000 48.103000 9.000000 -4.000000 10.000000 120.003545 -9.912115 1163.077945 310.094873 20.796337 0.000000 0.091052
600.000000 46.989000 2.000000 -3.000000 10.000000 74.885075 -31.493893 1634.396198 1281.927288 21.306179 0.000000 0.120829
601.000000 50.096000 3.000000 -3.000000 10.000000 84.302788 -29.637971 1587.364064 1064.538414 19.981667 0.000000 0.109142
602.000000 52.004000 4.000000 -3.000000 10.000000 92.977506 -27.652242 1538.923210 877.798695 19.245468 0.000000 0.102910
603.000000 52.888000 5.000000 -3.000000 10.000000 100.878135 -25.527894 1489.009381 711.787590 18.921096 0.000000 0.095627
604.000000 52.951000 6.000000 -3.000000 10.000000 108.009353 -23.256374 1437.554356 560.151569 18.896239 0.000000 0.085775
605.000000 52.391000 7.000000 -3.000000 10.000000 114.400614 -20.829758 1384.485633 418.614843 19.096022 0.000000 0.073850
606.000000 51.383000 8.000000 -3.000000 10.000000 120.096394 -18.241235 1329.726091 284.177224 19.468606 0.000000 0.061011
607.000000 50.072000 9.000000 -3.000000 10.000000 125.148632 -15.485703 1273.193616 154.655517 19.976965 0.000000 0.048584
608.000000 48.568000 10.000000 -3.000000 10.000000 129.611465 -12.560468 1214.800689 28.408081 20.593943 0.000000 0.037793
609.000000 46.958000 11.000000 -3.000000 10.000000 133.537906 -9.466028 1154.453933 -95.837602 21.299176 0.000000 0.029397
610.000000 45.517000 1.000000 -2.000000 10.000000 68.082197 -39.281426 1855.354144 1500.471041 21.996865 0.000000 0.188506
611.000000 52.976000 3.000000 -2.000000 10.000000 88.143225 -35.978586 1756.359135 984.116583 18.893417 0.000000 0.098093
612.000000 55.402000 5.000000 -2.000000 10.000000 105.128678 -32.114166 1650.529008 597.448940 18.060958 0.000000 0.042943
613.000000 54.439000 7.000000 -2.000000 10.000000 118.938183 -27.577315 1537.130554 269.642471 18.375876 0.000000 0.012403
614.000000 51.688000 9.000000 -2.000000 10.000000 129.886795 -22.249918 1415.321807 -30.864323 19.350855 0.000000 0.044302
615.000000 48.220000 11.000000 -2.000000 10.000000 138.413294 -16.025019 1284.131099 -320.860432 20.740320 0.000000 0.063156
616.000000 47.799000 1.000000 -1.000000 10.000000 70.836667 -45.791060 2081.432217 1477.419812 20.945374 0.000000 0.259409
617.000000 52.218000 2.000000 -1.000000 10.000000 81.444476 -44.422579 2029.816420 1167.715800 19.169289 0.000000 0.189800
618.000000 55.159000 3.000000 -1.000000 10.000000 91.327687 -42.930397 1976.218965 906.930720 18.144204 0.000000 0.137482
619.000000 56.770000 4.000000 -1.000000 10.000000 100.408882 -41.299275 1920.523496 677.833925 17.626640 0.000000 0.100704
620.000000 57.277000 5.000000 -1.000000 10.000000 108.662125 -39.511910 1862.604368 469.818783 17.468102 0.000000 0.082869
621.000000 56.929000 6.000000 -1.000000 10.000000 116.100160 -37.548755 1802.325697 275.950106 17.572877 0.000000 0.085802
622.000000 55.956000 7.000000 -1.000000 10.000000 122.761100 -35.387893 1739.540299 91.456429 17.876498 0.000000 0.101350
623.000000 54.555000 8.000000 -1.000000 10.000000 128.697094 -33.005047 1674.088487 -87.096207 18.333954 0.000000 0.119574
624.000000 52.882000 9.000000 -1.000000 10.000000 133.965872 -30.373800 1605.796718 -262.283841 18.912867 0.000000 0.134718
629.000000 53.615000 2.000000 0.000000 10.000000 83.642363 -51.545162 2330.278721 1133.829209 18.668586 0.000000 0.326421
630.000000 56.480000 3.000000 0.000000 10.000000 93.655135 -50.355826 2273.975898 833.237245 17.718687 0.000000 0.276657
631.000000 57.994000 4.000000 0.000000 10.000000 102.864299 -49.044292 2215.069709 566.007161 17.253438 0.000000 0.250562
632.000000 57.938000 6.000000 0.000000 10.000000 118.813409 -45.978275 2088.689962 89.079752 17.265819 0.000000 0.252259
641.000000 46.066000 5.000000 -4.000000 11.000000 94.471208 -22.765403 1426.667911 849.727600 21.726125 0.000000 0.120846
642.000000 46.561000 6.000000 -4.000000 11.000000 101.199492 -20.749778 1382.766661 713.116614 21.492262 0.000000 0.117931
643.000000 46.519000 7.000000 -4.000000 11.000000 107.321243 -18.624010 1337.715228 586.785274 21.509266 0.000000 0.111062
644.000000 46.061000 8.000000 -4.000000 11.000000 112.861326 -16.385163 1291.467812 468.001512 21.721026 0.000000 0.101053
645.000000 45.659000 3.000000 -3.000000 11.000000 82.886009 -31.812674 1642.660367 1099.072753 21.923736 0.000000 0.108918
646.000000 47.506000 4.000000 -3.000000 11.000000 91.053619 -30.071640 1598.194411 918.126933 21.068371 0.000000 0.097418
647.000000 48.517000 5.000000 -3.000000 11.000000 98.576905 -28.215009 1552.466977 756.780502 20.626424 0.000000 0.087652
648.000000 48.833000 6.000000 -3.000000 11.000000 105.450449 -26.235183 1505.423612 609.355699 20.490409 0.000000 0.077293
649.000000 48.598000 7.000000 -3.000000 11.000000 111.689345 -24.124702 1457.006683 471.955026 20.587125 0.000000 0.066084
650.000000 47.947000 8.000000 -3.000000 11.000000 117.322388 -21.876514 1407.155139 341.801562 20.865002 0.000000 0.054766
651.000000 46.993000 9.000000 -3.000000 11.000000 122.386396 -19.484316 1355.804261 216.851361 21.286658 0.000000 0.044580
652.000000 45.832000 10.000000 -3.000000 11.000000 126.921908 -16.942983 1302.885374 95.555357 21.824333 0.000000 0.036950
653.000000 47.950000 3.000000 -2.000000 11.000000 86.202035 -37.671817 1806.009419 1031.267594 20.874605 0.000000 0.109722
654.000000 49.694000 4.000000 -2.000000 11.000000 94.556529 -36.057791 1758.633430 834.898780 20.138952 0.000000 0.077113
655.000000 50.565000 5.000000 -2.000000 11.000000 102.241793 -34.319870 1709.745245 658.248867 19.789369 0.000000 0.048748
656.000000 50.720000 6.000000 -2.000000 11.000000 109.255075 -32.446813 1659.271290 495.484817 19.726565 0.000000 0.022902
657.000000 50.317000 7.000000 -2.000000 11.000000 115.614679 -30.426726 1607.133136 342.569818 19.882609 0.000000 0.001648
658.000000 49.498000 8.000000 -2.000000 11.000000 121.352546 -28.247245 1553.247096 196.602387 20.209454 0.000000 0.022870
659.000000 48.386000 9.000000 -2.000000 11.000000 126.508173 -25.895837 1497.523779 55.425563 20.672160 0.000000 0.041962
660.000000 47.079000 10.000000 -2.000000 11.000000 131.124101 -23.360238 1439.867589 -82.614568 21.244708 0.000000 0.057590
661.000000 45.653000 11.000000 -2.000000 11.000000 135.242845 -20.629089 1380.176184 -218.823775 21.907325 0.000000 0.068829
662.000000 46.994000 2.000000 -1.000000 11.000000 79.798136 -45.309651 2062.991109 1216.414394 21.300901 0.000000 0.209563
663.000000 49.689000 3.000000 -1.000000 11.000000 88.955205 -44.001920 2014.434993 968.287741 20.142640 0.000000 0.158413
664.000000 51.342000 4.000000 -1.000000 11.000000 97.460831 -42.583721 1964.139104 749.569347 19.491217 0.000000 0.120882
665.000000 52.098000 5.000000 -1.000000 11.000000 105.284483 -41.042420 1912.008232 551.026130 19.205730 0.000000 0.098561
666.000000 52.126000 6.000000 -1.000000 11.000000 112.425493 -39.363808 1857.940091 366.485603 19.193076 0.000000 0.093589
667.000000 51.593000 7.000000 -1.000000 11.000000 118.904553 -37.531985 1801.824647 191.633142 19.389266 0.000000 0.102655
668.000000 50.649000 8.000000 -1.000000 11.000000 124.755877 -35.529279 1743.543374 23.331870 19.748870 0.000000 0.118190
669.000000 49.420000 9.000000 -1.000000 11.000000 130.020845 -33.336252 1682.968417 -140.782256 20.238744 0.000000 0.134105
670.000000 48.004000 10.000000 -1.000000 11.000000 134.743309 -30.931848 1619.961654 -302.552268 20.834139 0.000000 0.146807
677.000000 46.385000 5.000000 -2.000000 12.000000 99.666767 -36.128105 1760.656251 714.020028 21.573670 0.000000 0.059580
678.000000 46.632000 7.000000 -2.000000 12.000000 112.568930 -32.739516 1667.017353 409.180665 21.454830 0.000000 0.014543
679.000000 46.759000 4.000000 -1.000000 12.000000 94.906988 -43.628051 2000.946453 813.342025 21.402227 0.000000 0.139542
680.000000 47.654000 5.000000 -1.000000 12.000000 102.323969 -42.277229 1953.570796 623.197230 20.997750 0.000000 0.114447
681.000000 47.932000 6.000000 -1.000000 12.000000 109.164368 -40.816603 1904.576683 446.745025 20.873502 0.000000 0.103706
682.000000 47.715000 7.000000 -1.000000 12.000000 115.437632 -39.234368 1853.879740 280.076105 20.966414 0.000000 0.106454
683.000000 47.116000 8.000000 -1.000000 12.000000 121.165394 -37.517418 1801.389620 120.318099 21.231020 0.000000 0.117877
684.000000 46.235000 9.000000 -1.000000 12.000000 126.376779 -35.651297 1747.009473 -34.707255 21.633718 0.000000 0.132483
685.000000 48.443000 5.000000 0.000000 12.000000 104.318672 -48.812588 2204.986178 523.828452 20.654785 0.000000 0.248306
686.000000 48.386000 7.000000 0.000000 12.000000 117.607084 -46.259572 2099.687754 126.928952 20.674684 0.000000 0.250345
#UB matrix in q= (UB) B0 G* 
#[[-0.921638689 -0.119432038 -0.368818396]
# [ 0.373642772 -0.530478567 -0.761946605]
# [-0.104753071 -0.840462624  0.53378777 ]]
#B0 matrix in q= UB (B0) G*
#[[ 0.19670273 -0.          0.03056101]
# [ 0.          0.19187965 -0.        ]
# [ 0.          0.          0.18806537]]
#UBB0 matrix in q= (UB B0) G* i.e. recip. basis vectors are columns in LT frame: astar = UBB0[:,0], bstar = UBB0[:,1], cstar = UBB0[:,2]. (abcstar as columns on xyzlab1, xlab1 = ui, ui = unit vector along incident beam)
#[[-0.18128885 -0.02291658 -0.09752817]
# [ 0.07349655 -0.10178804 -0.13187687]
# [-0.02060522 -0.16126768  0.09718564]]
#Euler angles phi theta psi (deg)
#[352.888  57.792 154.127]
#deviatoric strain in direct crystal frame (10-3 unit)
#[[-4.46  0.02  0.85]
# [ 0.02 -5.36  0.37]
# [ 0.85  0.37  9.82]]
#deviatoric strain in sample2 frame (10-3 unit)
#[[-4.86 -0.27 -0.32]
# [-0.26  3.38 -7.39]
# [-0.33 -7.39  1.48]]
#new lattice parameters
#[ 5.1505     5.2069414  5.3139535 89.978057  99.1843773 89.9981202]
#CCDLabel
#sCMOS
#DetectorParameters
#[79.0, 975.0, 941.0, 0.0, 0.0]
#pixelsize
#0.0734
#Frame dimensions
#[2018, 2016]
#
