#Strain and Orientation Refinement from experimental file: /home/micha/LaueProjects/DepthEffects/testZrO2_112.cor
#File created at Wed Jun 28 14:25:08 2023 with indexingSpotsSet.py
#Number of indexed spots: 535
#Element
#ZrO2
#grainIndex
#G_0
#Mean Deviation(pixel): 0.116
##spot_index intensity h k l 2theta Chi Xexp Yexp Energy GrainIndex PixDev
8.000000 85.217000 2.000000 3.000000 -1.000000 43.789551 -10.680610 1177.990689 2083.553161 11.746366 0.000000 0.193620
9.000000 78.018000 3.000000 3.000000 -1.000000 46.998370 -23.366597 1440.009332 2034.391303 12.829070 0.000000 0.204578
10.000000 67.764000 4.000000 3.000000 -1.000000 48.027246 -32.721454 1666.537891 2091.794801 14.769381 0.000000 0.266126
14.000000 73.000000 1.000000 4.000000 -1.000000 42.863177 10.280065 779.790995 2119.644930 13.712201 0.000000 0.206481
15.000000 76.931000 2.000000 4.000000 -1.000000 48.994487 -3.212897 1035.417220 1878.263376 13.010980 0.000000 0.104896
16.000000 73.315000 3.000000 4.000000 -1.000000 52.210932 -14.849800 1260.370233 1804.366123 13.651819 0.000000 0.103815
17.000000 66.288000 4.000000 4.000000 -1.000000 53.413114 -24.251025 1459.858383 1817.271366 15.098264 0.000000 0.148336
18.000000 58.641000 5.000000 4.000000 -1.000000 53.486579 -31.632171 1637.974007 1876.841660 17.066157 0.000000 0.204209
19.000000 51.609000 6.000000 4.000000 -1.000000 53.011106 -37.402957 1797.977146 1961.563863 19.390919 0.000000 0.267041
22.000000 64.365000 1.000000 5.000000 -1.000000 46.612824 13.408485 718.422085 1986.853029 15.551114 0.000000 0.160980
23.000000 67.925000 2.000000 5.000000 -1.000000 52.087583 2.000525 937.405099 1779.758138 14.735651 0.000000 0.064210
24.000000 66.541000 3.000000 5.000000 -1.000000 55.369933 -8.403907 1134.008309 1692.387703 15.041343 0.000000 0.048977
25.000000 62.185000 4.000000 5.000000 -1.000000 56.904648 -17.361481 1311.495710 1675.988215 16.094085 0.000000 0.086499
26.000000 56.638000 5.000000 5.000000 -1.000000 57.280329 -24.809134 1472.526006 1702.796301 17.669553 0.000000 0.128328
27.000000 50.993000 6.000000 5.000000 -1.000000 56.981456 -30.905403 1619.286702 1756.193013 19.625066 0.000000 0.173374
28.000000 45.767000 7.000000 5.000000 -1.000000 56.331993 -35.882074 1753.594061 1825.854244 21.865538 0.000000 0.223038
29.000000 50.250000 0.000000 6.000000 -1.000000 42.627625 25.425329 463.354689 2235.729457 19.919073 0.000000 0.273017
30.000000 56.896000 1.000000 6.000000 -1.000000 49.108911 15.602038 674.451979 1908.678448 17.591979 0.000000 0.139336
31.000000 60.010000 2.000000 6.000000 -1.000000 54.056296 5.788808 865.886412 1725.358875 16.678492 0.000000 0.050509
32.000000 59.819000 3.000000 6.000000 -1.000000 57.334762 -3.471043 1040.283005 1632.315061 16.731092 0.000000 0.016306
33.000000 57.276000 4.000000 6.000000 -1.000000 59.150768 -11.798461 1199.819426 1597.729044 17.473128 0.000000 0.054103
34.000000 53.447000 5.000000 6.000000 -1.000000 59.870926 -19.034238 1346.317394 1601.763889 18.724373 0.000000 0.087579
35.000000 49.146000 6.000000 6.000000 -1.000000 59.860062 -25.193327 1481.312550 1631.601007 20.362386 0.000000 0.120378
36.000000 45.711000 0.000000 7.000000 -1.000000 45.210883 25.734936 456.206045 2127.040973 21.896526 0.000000 0.241022
37.000000 50.718000 1.000000 7.000000 -1.000000 50.879982 17.220940 641.400180 1857.386594 19.734367 0.000000 0.128792
38.000000 53.402000 2.000000 7.000000 -1.000000 55.385450 8.643074 811.398063 1692.422554 18.741901 0.000000 0.051211
39.000000 53.811000 3.000000 7.000000 -1.000000 58.597047 0.372827 967.996389 1598.062897 18.599008 0.000000 0.008525
40.000000 52.417000 4.000000 7.000000 -1.000000 60.601170 -7.291771 1112.719358 1552.376100 19.092615 0.000000 0.040148
41.000000 49.850000 5.000000 7.000000 -1.000000 61.618375 -14.176189 1246.868442 1540.768767 20.075405 0.000000 0.067391
42.000000 46.671000 6.000000 7.000000 -1.000000 61.907424 -20.226367 1371.561636 1553.264287 21.442267 0.000000 0.091647
43.000000 45.629000 1.000000 8.000000 -1.000000 52.197722 18.463026 615.649110 1821.235226 21.934971 0.000000 0.123640
44.000000 47.935000 2.000000 8.000000 -1.000000 56.327236 10.860683 768.504244 1671.138156 20.878939 0.000000 0.056773
45.000000 48.627000 3.000000 8.000000 -1.000000 59.433825 3.426987 910.547588 1577.800059 20.581299 0.000000 0.022655
46.000000 47.946000 4.000000 8.000000 -1.000000 61.544348 -3.609140 1042.887073 1525.461070 20.872861 0.000000 0.037734
47.000000 46.264000 5.000000 8.000000 -1.000000 62.788395 -10.087979 1166.484250 1503.105907 21.631276 0.000000 0.059119
52.000000 173.922000 2.000000 2.000000 0.000000 72.666997 -27.273370 1529.883550 1318.922042 5.752673 0.000000 0.117121
53.000000 127.345000 3.000000 2.000000 0.000000 67.510254 -40.664578 1899.602048 1528.433213 7.856861 0.000000 0.205322
57.000000 155.818000 1.000000 3.000000 0.000000 71.965116 6.142858 859.162989 1293.457566 6.421568 0.000000 0.108230
58.000000 140.351000 2.000000 3.000000 0.000000 74.683851 -13.119513 1225.847959 1243.666884 7.128760 0.000000 0.119774
59.000000 94.025000 4.000000 3.000000 0.000000 69.249290 -37.000543 1786.061909 1451.607877 10.640977 0.000000 0.163326
60.000000 76.951000 5.000000 3.000000 0.000000 65.854104 -43.736957 2004.858178 1608.779205 13.002325 0.000000 0.254331
64.000000 106.590000 0.000000 4.000000 0.000000 60.941833 27.770594 408.240148 1616.876123 9.388381 0.000000 0.134612
65.000000 116.854000 1.000000 4.000000 0.000000 70.045008 11.533321 755.373539 1339.834909 8.562978 0.000000 0.099687
66.000000 112.827000 2.000000 4.000000 0.000000 74.195197 -4.064931 1051.487619 1246.426369 8.868091 0.000000 0.119428
67.000000 100.814000 3.000000 4.000000 0.000000 74.457241 -17.146129 1307.060123 1254.271022 9.924441 0.000000 0.117687
68.000000 74.294000 5.000000 4.000000 0.000000 70.132305 -34.901443 1725.873587 1415.221546 13.466988 0.000000 0.146249
69.000000 55.037000 7.000000 4.000000 0.000000 65.066722 -45.089392 2054.657981 1649.721364 18.179465 0.000000 0.280508
72.000000 92.850000 1.000000 5.000000 0.000000 68.617401 14.810332 690.423142 1376.899842 10.776901 0.000000 0.095652
73.000000 92.655000 2.000000 5.000000 0.000000 73.100977 1.946421 938.422650 1268.171931 10.798955 0.000000 0.114096
74.000000 86.856000 3.000000 5.000000 0.000000 74.660200 -9.654531 1158.095386 1240.486195 11.519514 0.000000 0.120656
75.000000 78.440000 4.000000 5.000000 0.000000 74.210675 -19.400444 1354.032421 1263.664900 12.755207 0.000000 0.116380
76.000000 61.338000 6.000000 5.000000 0.000000 70.659930 -33.544513 1688.586754 1394.242612 16.311631 0.000000 0.137606
77.000000 54.135000 7.000000 5.000000 0.000000 68.546720 -38.545961 1832.533665 1481.781861 18.481951 0.000000 0.179038
78.000000 47.997000 8.000000 5.000000 0.000000 66.504269 -42.570784 1963.690924 1576.339405 20.845900 0.000000 0.234100
79.000000 61.297000 -1.000000 6.000000 0.000000 52.690051 37.752605 141.565645 1978.373992 16.326285 0.000000 0.274816
80.000000 76.791000 1.000000 6.000000 0.000000 67.551094 16.999845 645.946999 1406.009991 13.030736 0.000000 0.094535
81.000000 64.127000 5.000000 6.000000 0.000000 74.008431 -20.837339 1384.648665 1271.037428 15.602255 0.000000 0.115663
82.000000 52.202000 7.000000 6.000000 0.000000 71.008716 -32.596253 1663.219731 1380.667823 19.166174 0.000000 0.132588
83.000000 53.895000 -1.000000 7.000000 0.000000 53.936507 36.394928 181.634490 1914.726216 18.568620 0.000000 0.248608
84.000000 65.364000 1.000000 7.000000 0.000000 66.734330 18.561968 613.582118 1429.155121 15.308880 0.000000 0.095004
85.000000 66.886000 2.000000 7.000000 0.000000 70.937724 9.208256 800.519209 1317.762130 14.959903 0.000000 0.103328
86.000000 65.784000 3.000000 7.000000 0.000000 73.484903 0.190592 971.419740 1260.123151 15.209926 0.000000 0.116069
87.000000 62.792000 4.000000 7.000000 0.000000 74.584149 -8.104333 1128.262402 1240.775069 15.934147 0.000000 0.120667
88.000000 58.716000 5.000000 7.000000 0.000000 74.585302 -15.461950 1272.713225 1248.901567 17.040182 0.000000 0.118649
89.000000 54.205000 6.000000 7.000000 0.000000 73.847778 -21.832025 1406.184982 1276.803852 18.458182 0.000000 0.115284
90.000000 48.021000 -1.000000 8.000000 0.000000 54.859810 35.360445 211.235220 1869.921091 20.839552 0.000000 0.230321
91.000000 56.846000 1.000000 8.000000 0.000000 66.092237 19.730972 588.974329 1447.882444 17.602923 0.000000 0.096253
92.000000 58.155000 3.000000 8.000000 0.000000 72.715257 3.504923 909.078196 1276.541582 17.205406 0.000000 0.112086
93.000000 53.682000 5.000000 8.000000 0.000000 74.693105 -10.979087 1183.802754 1241.072310 18.638092 0.000000 0.120449
94.000000 46.930000 7.000000 8.000000 0.000000 73.719272 -22.561012 1422.159032 1281.386819 21.319481 0.000000 0.115095
95.000000 50.265000 1.000000 9.000000 0.000000 65.575684 20.637973 569.633283 1463.297441 19.907935 0.000000 0.097845
96.000000 51.774000 2.000000 9.000000 0.000000 69.277496 13.351826 719.546645 1359.492587 19.327008 0.000000 0.097200
97.000000 50.968000 4.000000 9.000000 0.000000 73.672812 -0.772276 989.507989 1256.313588 19.631448 0.000000 0.117010
98.000000 49.150000 5.000000 9.000000 0.000000 74.523113 -7.226611 1111.475476 1241.401576 20.357173 0.000000 0.120557
99.000000 46.819000 3.000000 10.000000 0.000000 71.265339 8.283849 818.295492 1309.880100 21.371889 0.000000 0.104824
100.000000 156.475000 3.000000 2.000000 1.000000 93.928070 -48.603497 2195.966430 829.238426 6.391113 0.000000 0.217544
104.000000 198.146000 0.000000 3.000000 1.000000 96.275574 34.082724 246.767177 798.093220 5.047084 0.000000 0.078630
105.000000 199.387000 1.000000 3.000000 1.000000 106.152266 7.134490 840.282468 626.847370 5.015034 0.000000 0.152703
106.000000 171.987000 2.000000 3.000000 1.000000 104.017425 -16.631789 1296.507592 660.569908 5.814147 0.000000 0.136859
107.000000 139.043000 3.000000 3.000000 1.000000 96.729905 -32.403923 1658.140490 790.571978 7.192391 0.000000 0.083460
108.000000 111.249000 4.000000 3.000000 1.000000 89.095238 -42.226646 1951.836511 963.954000 8.990278 0.000000 0.128964
109.000000 90.096000 5.000000 3.000000 1.000000 82.544572 -48.583225 2195.095922 1153.907674 11.101958 0.000000 0.248067
115.000000 119.592000 -1.000000 4.000000 1.000000 73.540555 48.212625 -229.303577 1418.190227 8.365103 0.000000 0.287736
116.000000 141.590000 0.000000 4.000000 1.000000 87.906549 32.252471 295.843976 987.520650 7.064209 0.000000 0.105366
117.000000 146.600000 1.000000 4.000000 1.000000 96.697121 13.257391 721.419790 811.159009 6.822019 0.000000 0.154680
118.000000 136.389000 2.000000 4.000000 1.000000 98.604684 -5.217972 1073.290855 777.458055 7.332523 0.000000 0.166436
119.000000 119.099000 3.000000 4.000000 1.000000 95.773730 -20.109891 1369.078469 825.107137 8.397279 0.000000 0.137841
120.000000 101.211000 4.000000 4.000000 1.000000 91.002218 -30.980381 1621.201351 919.038599 9.881967 0.000000 0.102699
121.000000 85.545000 5.000000 4.000000 1.000000 85.955469 -38.745020 1838.663699 1038.574927 11.692426 0.000000 0.115246
122.000000 72.691000 6.000000 4.000000 1.000000 81.306285 -44.377382 2028.153240 1171.256199 13.760689 0.000000 0.183106
123.000000 62.379000 7.000000 4.000000 1.000000 77.237083 -48.574959 2194.741147 1309.471894 16.036464 0.000000 0.271679
127.000000 95.258000 -1.000000 5.000000 1.000000 71.684167 44.092288 -67.720833 1437.060111 10.502523 0.000000 0.228979
128.000000 108.959000 0.000000 5.000000 1.000000 82.695460 31.244021 322.042268 1102.366847 9.180715 0.000000 0.115206
129.000000 113.964000 1.000000 5.000000 1.000000 90.315164 16.614385 653.848483 934.821677 8.776704 0.000000 0.147700
130.000000 110.414000 2.000000 5.000000 1.000000 93.661083 1.876887 939.730296 872.096284 9.058422 0.000000 0.168643
131.000000 101.376000 3.000000 5.000000 1.000000 93.388347 -11.225252 1188.605006 876.033154 9.865958 0.000000 0.160277
132.000000 90.225000 4.000000 5.000000 1.000000 90.909987 -21.879560 1407.221585 922.577592 11.085538 0.000000 0.134719
133.000000 79.170000 5.000000 5.000000 1.000000 87.460988 -30.174693 1600.781974 996.206997 12.634001 0.000000 0.110633
134.000000 69.227000 6.000000 5.000000 1.000000 83.794053 -36.566830 1773.360327 1086.718971 14.449156 0.000000 0.114598
135.000000 60.685000 7.000000 5.000000 1.000000 80.278201 -41.528898 1928.192928 1187.313871 16.483562 0.000000 0.155530
136.000000 53.493000 8.000000 5.000000 1.000000 77.060645 -45.438161 2067.883055 1293.415562 18.700399 0.000000 0.217237
137.000000 47.477000 9.000000 5.000000 1.000000 74.178597 -48.570469 2194.548526 1401.927335 21.070658 0.000000 0.287656
140.000000 78.778000 -1.000000 6.000000 1.000000 70.252971 41.328058 28.518103 1455.509407 12.700131 0.000000 0.201987
141.000000 88.081000 0.000000 6.000000 1.000000 79.155365 30.605727 338.336117 1180.555400 11.357582 0.000000 0.119267
142.000000 92.400000 1.000000 6.000000 1.000000 85.796639 18.720714 610.260735 1024.520295 10.825791 0.000000 0.139835
143.000000 91.577000 2.000000 6.000000 1.000000 89.588457 6.580308 850.843344 948.782179 10.922568 0.000000 0.162720
144.000000 86.852000 3.000000 6.000000 1.000000 90.695027 -4.790931 1065.207394 927.897592 11.516505 0.000000 0.165594
145.000000 79.952000 4.000000 6.000000 1.000000 89.808141 -14.702830 1257.417341 944.726070 12.510440 0.000000 0.152465
146.000000 72.320000 5.000000 6.000000 1.000000 87.721482 -22.949416 1430.738811 987.505167 13.830979 0.000000 0.131540
147.000000 64.862000 6.000000 6.000000 1.000000 85.060535 -29.656531 1587.825663 1048.039165 15.421649 0.000000 0.114387
148.000000 58.028000 7.000000 6.000000 1.000000 82.226191 -35.079490 1730.856838 1120.546391 17.238287 0.000000 0.115817
149.000000 51.977000 8.000000 6.000000 1.000000 79.442056 -39.481279 1861.638043 1200.908016 19.245859 0.000000 0.142394
150.000000 46.711000 9.000000 6.000000 1.000000 76.817931 -43.085806 1981.678384 1286.168187 21.416219 0.000000 0.186798
153.000000 66.990000 -1.000000 7.000000 1.000000 69.136926 39.353494 92.383973 1471.492091 14.935265 0.000000 0.187134
154.000000 73.703000 0.000000 7.000000 1.000000 76.598978 30.165493 349.449264 1237.595416 13.573851 0.000000 0.121156
155.000000 77.315000 1.000000 7.000000 1.000000 82.453355 20.161951 579.812113 1092.896212 12.938872 0.000000 0.133018
156.000000 77.644000 2.000000 7.000000 1.000000 86.297065 9.885996 787.427642 1011.706093 12.883431 0.000000 0.154757
157.000000 75.222000 3.000000 7.000000 1.000000 88.128173 -0.026970 975.506624 976.174555 13.297738 0.000000 0.163599
158.000000 70.951000 4.000000 7.000000 1.000000 88.282743 -9.063057 1146.682719 973.676065 14.098086 0.000000 0.159238
159.000000 65.724000 5.000000 7.000000 1.000000 87.245011 -16.955219 1303.136563 995.145612 15.219544 0.000000 0.145787
160.000000 60.219000 6.000000 7.000000 1.000000 85.475408 -23.665579 1446.689161 1033.991232 16.610966 0.000000 0.128925
161.000000 54.867000 7.000000 7.000000 1.000000 83.327896 -29.295340 1578.873085 1085.367601 18.231523 0.000000 0.116330
162.000000 49.896000 8.000000 7.000000 1.000000 81.040571 -34.000650 1700.987414 1145.681216 20.048223 0.000000 0.116999
163.000000 51.599000 -2.000000 8.000000 1.000000 61.071299 45.091240 -104.727596 1783.587763 19.391912 0.000000 0.311583
164.000000 58.186000 -1.000000 8.000000 1.000000 68.249656 37.875735 137.859580 1485.002706 17.195370 0.000000 0.177840
165.000000 63.252000 0.000000 8.000000 1.000000 74.668382 29.843548 357.513625 1281.193149 15.817262 0.000000 0.122160
166.000000 66.264000 1.000000 8.000000 1.000000 79.888605 21.208939 557.339760 1146.883072 15.097333 0.000000 0.127576
167.000000 67.073000 2.000000 8.000000 1.000000 83.625246 12.321499 739.906806 1064.080650 14.914603 0.000000 0.146867
168.000000 65.915000 3.000000 8.000000 1.000000 85.822778 3.596134 907.358212 1019.763030 15.176031 0.000000 0.158629
169.000000 63.276000 4.000000 8.000000 1.000000 86.641381 -4.594712 1061.496604 1004.367266 15.808889 0.000000 0.160015
170.000000 59.700000 5.000000 8.000000 1.000000 86.371232 -12.003847 1203.848933 1010.783155 16.755504 0.000000 0.152901
171.000000 55.667000 6.000000 8.000000 1.000000 85.332989 -18.528443 1335.717238 1033.666940 17.969556 0.000000 0.140479
172.000000 51.528000 7.000000 8.000000 1.000000 83.809671 -24.178417 1458.218580 1068.964965 19.413417 0.000000 0.126868
173.000000 47.508000 8.000000 8.000000 1.000000 82.019118 -29.029194 1572.316771 1113.577573 21.056199 0.000000 0.117398
174.000000 46.328000 -2.000000 9.000000 1.000000 61.277257 43.243345 -37.240945 1750.676506 21.598197 0.000000 0.280514
175.000000 51.382000 -1.000000 9.000000 1.000000 67.530446 36.729641 171.888472 1496.414189 19.472930 0.000000 0.171473
176.000000 55.337000 0.000000 9.000000 1.000000 73.159775 29.597878 363.632472 1315.666046 18.080161 0.000000 0.122781
177.000000 57.866000 1.000000 9.000000 1.000000 77.862742 22.003497 540.072473 1190.654223 17.289140 0.000000 0.123394
178.000000 58.852000 2.000000 9.000000 1.000000 81.431479 14.184254 702.970389 1108.268981 16.998487 0.000000 0.139772
179.000000 58.404000 3.000000 9.000000 1.000000 83.797494 6.423477 853.827670 1058.709573 17.128386 0.000000 0.152658
180.000000 56.789000 4.000000 9.000000 1.000000 85.032609 -1.007713 993.931716 1034.560806 17.615137 0.000000 0.157688
181.000000 54.345000 5.000000 9.000000 1.000000 85.309565 -7.902326 1124.392708 1030.153218 18.407288 0.000000 0.155311
182.000000 51.397000 6.000000 9.000000 1.000000 84.846058 -14.141387 1246.173092 1041.111978 19.462826 0.000000 0.147368
183.000000 48.216000 7.000000 9.000000 1.000000 83.856903 -19.687835 1360.111355 1064.033855 20.747103 0.000000 0.136321
184.000000 45.975000 -1.000000 10.000000 1.000000 66.937128 35.815499 198.309417 1506.114265 21.763170 0.000000 0.166819
185.000000 49.147000 0.000000 10.000000 1.000000 71.948881 29.404254 368.434051 1343.640344 20.357526 0.000000 0.123230
186.000000 51.290000 1.000000 10.000000 1.000000 76.223974 22.626873 526.389543 1226.890817 19.506169 0.000000 0.120251
187.000000 52.316000 2.000000 10.000000 1.000000 79.606715 15.652173 673.436509 1146.008868 19.122906 0.000000 0.133665
188.000000 52.272000 3.000000 10.000000 1.000000 82.030293 8.681095 810.667258 1093.429320 19.138535 0.000000 0.146601
189.000000 51.310000 4.000000 10.000000 1.000000 83.521528 1.913967 939.032974 1063.286825 19.496853 0.000000 0.153845
190.000000 49.642000 5.000000 10.000000 1.000000 84.182580 -4.481990 1059.365793 1050.992961 20.151742 0.000000 0.154868
191.000000 47.489000 6.000000 10.000000 1.000000 84.159576 -10.392785 1172.396864 1052.929527 21.065005 0.000000 0.150648
192.000000 46.015000 1.000000 11.000000 1.000000 74.872025 23.128898 515.279849 1257.401581 21.742737 0.000000 0.117935
193.000000 47.016000 2.000000 11.000000 1.000000 78.069584 16.837320 649.282503 1178.592953 21.279166 0.000000 0.128530
194.000000 47.202000 3.000000 11.000000 1.000000 80.488092 10.520121 775.129676 1124.423033 21.194653 0.000000 0.140878
195.000000 46.662000 4.000000 11.000000 1.000000 82.131388 4.328008 893.543902 1090.172627 21.439272 0.000000 0.149362
196.000000 45.531000 5.000000 11.000000 1.000000 83.059023 -1.605383 1005.164813 1072.078466 21.971497 0.000000 0.152765
197.000000 176.243000 2.000000 3.000000 2.000000 128.456114 -22.069158 1411.363039 18.641824 5.671311 0.000000 0.026059
198.000000 145.287000 3.000000 3.000000 2.000000 117.065707 -39.303436 1856.044451 230.282246 6.880745 0.000000 0.095583
199.000000 118.206000 4.000000 3.000000 2.000000 106.247913 -48.630967 2197.147149 466.396250 8.458433 0.000000 0.226854
204.000000 155.668000 0.000000 4.000000 2.000000 111.560082 38.410623 121.614697 398.274537 6.422477 0.000000 0.064386
205.000000 156.674000 1.000000 4.000000 2.000000 120.236204 15.772985 670.987454 289.125457 6.380549 0.000000 0.078895
206.000000 144.525000 2.000000 4.000000 2.000000 120.288257 -6.864037 1104.560509 307.822028 6.916939 0.000000 0.103776
207.000000 126.453000 3.000000 4.000000 2.000000 114.767080 -24.055920 1455.456313 397.202597 7.906071 0.000000 0.066318
208.000000 108.019000 4.000000 4.000000 2.000000 107.445271 -35.589924 1745.264757 525.083810 9.256274 0.000000 0.034775
209.000000 91.747000 5.000000 4.000000 2.000000 100.282366 -43.283419 1988.660510 672.783836 10.899058 0.000000 0.115780
210.000000 67.279000 7.000000 4.000000 2.000000 88.480717 -52.440763 2374.655393 987.829266 14.865303 0.000000 0.323684
213.000000 110.558000 -1.000000 5.000000 2.000000 90.845970 49.527624 -286.409676 916.515254 9.045919 0.000000 0.248495
214.000000 121.995000 0.000000 5.000000 2.000000 102.639356 35.697747 201.668284 643.801753 8.196584 0.000000 0.052575
215.000000 124.577000 1.000000 5.000000 2.000000 110.230493 19.016964 604.045671 521.452309 8.025857 0.000000 0.107898
216.000000 119.147000 2.000000 5.000000 2.000000 112.575783 1.784225 941.472714 493.298511 8.391389 0.000000 0.139731
217.000000 108.820000 3.000000 5.000000 2.000000 110.629366 -13.253399 1228.501060 524.730828 9.188042 0.000000 0.129116
218.000000 96.735000 4.000000 5.000000 2.000000 106.301941 -24.945460 1475.637508 593.843604 10.336476 0.000000 0.094474
219.000000 84.918000 5.000000 5.000000 2.000000 101.140354 -33.621042 1690.658102 686.474595 11.775694 0.000000 0.063415
220.000000 74.308000 6.000000 5.000000 2.000000 95.996856 -40.041306 1879.441166 793.316873 13.458030 0.000000 0.088634
221.000000 65.172000 7.000000 5.000000 2.000000 91.237928 -44.872451 2046.512935 908.181264 15.345698 0.000000 0.154906
222.000000 57.453000 8.000000 5.000000 2.000000 86.977439 -48.590661 2195.415158 1026.921140 17.408356 0.000000 0.232593
223.000000 50.976000 9.000000 5.000000 2.000000 83.216168 -51.517974 2328.958963 1146.750706 19.621357 0.000000 0.313817
225.000000 90.981000 -1.000000 6.000000 2.000000 86.836606 45.556714 -122.415789 1025.953132 10.993340 0.000000 0.183248
226.000000 101.911000 1.000000 6.000000 2.000000 102.935918 20.886752 564.288302 676.397660 9.812170 0.000000 0.121285
227.000000 93.815000 3.000000 6.000000 2.000000 106.201410 -5.698305 1082.396289 626.725901 10.658524 0.000000 0.155122
228.000000 77.611000 5.000000 6.000000 2.000000 100.611473 -25.449796 1487.208887 717.683815 12.884874 0.000000 0.107887
229.000000 62.146000 7.000000 6.000000 2.000000 92.816102 -37.878545 1812.225142 873.925586 16.092898 0.000000 0.088975
230.000000 49.950000 9.000000 6.000000 2.000000 85.662722 -45.726023 2078.922350 1057.935075 20.024115 0.000000 0.185291
233.000000 76.801000 -1.000000 7.000000 2.000000 83.696106 42.782956 -21.064870 1103.001438 13.023959 0.000000 0.158498
234.000000 82.799000 0.000000 7.000000 2.000000 91.545418 33.012860 275.702808 906.371666 12.079197 0.000000 0.095400
235.000000 85.470000 1.000000 7.000000 2.000000 97.441135 22.100507 537.951115 789.280403 11.700871 0.000000 0.126852
236.000000 84.816000 2.000000 7.000000 2.000000 100.937831 10.713375 771.371848 729.311439 11.790601 0.000000 0.155882
237.000000 81.490000 3.000000 7.000000 2.000000 102.080122 -0.291224 980.470662 710.650065 12.271540 0.000000 0.164998
238.000000 76.438000 4.000000 7.000000 2.000000 101.325276 -10.210562 1168.860747 721.972633 13.082792 0.000000 0.157404
239.000000 70.547000 5.000000 7.000000 2.000000 99.292669 -18.708017 1339.473377 755.067803 14.175477 0.000000 0.138484
240.000000 64.480000 6.000000 7.000000 2.000000 96.542936 -25.774559 1494.711531 803.916496 15.509906 0.000000 0.114614
241.000000 58.646000 7.000000 7.000000 2.000000 93.484789 -31.577717 1636.563778 864.066291 17.053516 0.000000 0.095348
242.000000 53.258000 8.000000 7.000000 2.000000 90.377414 -36.337089 1766.689922 932.198773 18.779344 0.000000 0.094658
243.000000 48.401000 9.000000 7.000000 2.000000 87.368376 -40.260414 1886.486245 1005.825776 20.664867 0.000000 0.118790
245.000000 66.183000 -1.000000 8.000000 2.000000 81.196673 40.744668 47.780045 1161.007255 15.114247 0.000000 0.148853
246.000000 73.184000 1.000000 8.000000 2.000000 93.176964 22.951261 519.220322 876.124110 13.666265 0.000000 0.128592
247.000000 71.460000 3.000000 8.000000 2.000000 98.431847 3.704327 905.317558 781.121327 13.994940 0.000000 0.167198
248.000000 64.066000 5.000000 8.000000 2.000000 97.587492 -13.193932 1227.322290 793.743704 15.610344 0.000000 0.155437
249.000000 54.990000 7.000000 8.000000 2.000000 93.496729 -26.001150 1499.970544 867.826450 18.187520 0.000000 0.118120
250.000000 46.515000 9.000000 8.000000 2.000000 88.454577 -35.184370 1733.802478 976.528633 21.502437 0.000000 0.100080
252.000000 53.077000 -2.000000 9.000000 2.000000 72.552261 45.929346 -136.788419 1427.345727 18.848450 0.000000 0.252029
253.000000 57.995000 -1.000000 9.000000 2.000000 79.171699 39.187202 97.596061 1206.603097 17.248782 0.000000 0.144876
254.000000 61.646000 0.000000 9.000000 2.000000 85.027208 31.684428 310.671146 1051.051272 16.226148 0.000000 0.111418
255.000000 63.746000 1.000000 9.000000 2.000000 89.782503 23.580420 505.216536 945.457907 15.690590 0.000000 0.128483
256.000000 64.237000 2.000000 9.000000 2.000000 93.213057 15.151837 683.548614 878.403708 15.569927 0.000000 0.151558
257.000000 63.278000 3.000000 9.000000 2.000000 95.259452 6.749951 847.613116 841.231864 15.805568 0.000000 0.165630
258.000000 61.172000 4.000000 9.000000 2.000000 96.028110 -1.280413 999.056412 827.314619 16.349459 0.000000 0.169248
259.000000 58.277000 5.000000 9.000000 2.000000 95.741382 -8.678401 1139.280950 831.533085 17.161814 0.000000 0.164001
260.000000 54.924000 6.000000 9.000000 2.000000 94.667204 -15.302378 1269.488817 849.902987 18.209412 0.000000 0.152167
261.000000 51.384000 7.000000 9.000000 2.000000 93.060938 -21.118943 1390.716282 879.301909 19.464298 0.000000 0.136390
262.000000 47.849000 8.000000 9.000000 2.000000 91.133712 -26.168234 1503.861439 917.268124 20.902775 0.000000 0.119973
263.000000 51.521000 -1.000000 10.000000 2.000000 77.503276 37.960048 135.314685 1243.552090 19.417036 0.000000 0.143072
264.000000 56.318000 1.000000 10.000000 2.000000 87.021762 24.064479 494.350849 1002.326324 17.761177 0.000000 0.127523
265.000000 56.552000 3.000000 10.000000 2.000000 92.512786 9.135960 801.912681 893.160456 17.686321 0.000000 0.162242
266.000000 53.176000 5.000000 10.000000 2.000000 93.892863 -4.955929 1068.329406 867.485460 18.808873 0.000000 0.167510
267.000000 47.947000 7.000000 10.000000 2.000000 92.336844 -16.867666 1301.339865 895.103740 20.860047 0.000000 0.148675
268.000000 46.290000 -1.000000 11.000000 2.000000 76.107694 36.969044 164.865417 1274.186074 21.611576 0.000000 0.142128
269.000000 48.735000 0.000000 11.000000 2.000000 80.770468 30.892615 331.039565 1144.804511 20.526377 0.000000 0.117647
270.000000 50.346000 1.000000 11.000000 2.000000 84.735370 24.448393 485.674718 1049.943147 19.868745 0.000000 0.126225
271.000000 51.077000 2.000000 11.000000 2.000000 87.875039 17.776218 629.932437 982.937707 19.583425 0.000000 0.143695
272.000000 50.969000 3.000000 11.000000 2.000000 90.130665 11.049551 764.823437 938.499098 19.624292 0.000000 0.158052
273.000000 50.130000 4.000000 11.000000 2.000000 91.517593 4.450396 891.231310 912.399294 19.952537 0.000000 0.166171
274.000000 48.707000 5.000000 11.000000 2.000000 92.114713 -1.858923 1009.931901 901.236402 20.535271 0.000000 0.167962
275.000000 46.860000 6.000000 11.000000 2.000000 92.042714 -7.756900 1121.609244 902.257094 21.344442 0.000000 0.164279
277.000000 46.289000 3.000000 12.000000 2.000000 88.055575 12.615141 734.121073 978.443739 21.609560 0.000000 0.153613
279.000000 152.067000 1.000000 4.000000 3.000000 139.502253 19.765762 588.236576 -398.179458 6.572013 0.000000 0.079868
280.000000 141.068000 2.000000 4.000000 3.000000 138.389376 -9.399576 1153.171180 -287.298670 7.084522 0.000000 0.021111
281.000000 125.174000 3.000000 4.000000 3.000000 130.723582 -29.504631 1584.052859 -123.590592 7.984828 0.000000 0.079337
282.000000 108.588000 4.000000 4.000000 3.000000 121.442764 -41.389633 1923.535000 63.835232 9.205501 0.000000 0.156021
283.000000 93.486000 5.000000 4.000000 3.000000 112.702007 -48.648715 2197.910724 259.471651 10.693885 0.000000 0.252738
288.000000 124.893000 0.000000 5.000000 3.000000 119.672867 41.530090 21.767111 121.836459 8.003990 0.000000 0.153484
289.000000 125.824000 1.000000 5.000000 3.000000 127.473374 22.360378 532.253995 48.842850 7.944011 0.000000 0.027657
290.000000 120.006000 2.000000 5.000000 3.000000 129.160482 1.654596 943.909973 64.065604 8.328985 0.000000 0.060215
291.000000 110.041000 3.000000 5.000000 3.000000 125.829901 -15.964590 1282.902685 132.724226 9.083659 0.000000 0.051833
292.000000 98.499000 4.000000 5.000000 3.000000 119.939370 -28.808716 1566.911025 233.561602 10.148845 0.000000 0.010015
293.000000 87.106000 5.000000 5.000000 3.000000 113.354525 -37.748437 1808.309094 353.246666 11.477350 0.000000 0.056514
294.000000 76.727000 6.000000 5.000000 3.000000 106.998084 -44.045465 2016.017078 483.261889 13.031082 0.000000 0.133236
295.000000 67.659000 7.000000 5.000000 3.000000 101.217762 -48.618886 2196.627730 618.098472 14.778959 0.000000 0.216822
296.000000 59.897000 8.000000 5.000000 3.000000 96.093094 -52.050894 2355.118969 754.172825 16.695366 0.000000 0.303534
300.000000 97.228000 -1.000000 6.000000 3.000000 101.664919 50.574538 -334.115559 591.115225 10.284198 0.000000 0.272598
301.000000 105.406000 1.000000 6.000000 3.000000 118.328499 23.686891 502.833517 307.407171 9.484209 0.000000 0.048238
302.000000 102.495000 2.000000 6.000000 3.000000 121.135056 7.859158 826.433736 284.674544 9.753210 0.000000 0.096902
303.000000 88.483000 4.000000 6.000000 3.000000 116.960394 -19.027212 1346.169715 361.897549 11.298411 0.000000 0.083226
304.000000 80.113000 5.000000 6.000000 3.000000 112.392045 -28.443653 1558.010328 436.679784 12.479700 0.000000 0.047525
305.000000 64.579000 7.000000 6.000000 3.000000 102.595466 -41.041518 1911.978446 622.145566 15.483680 0.000000 0.084420
306.000000 57.959000 8.000000 6.000000 3.000000 98.063170 -45.266552 2061.355464 724.359625 17.253415 0.000000 0.148777
307.000000 47.116000 10.000000 6.000000 3.000000 90.199303 -51.288818 2317.897681 935.013553 21.226275 0.000000 0.288145
309.000000 82.773000 -1.000000 7.000000 3.000000 97.082371 46.774035 -170.096655 745.748621 12.081262 0.000000 0.182293
310.000000 87.835000 0.000000 7.000000 3.000000 105.267359 36.435334 180.462416 575.839354 11.383790 0.000000 0.045211
311.000000 89.649000 1.000000 7.000000 3.000000 111.237270 24.491574 484.695579 481.370923 11.152541 0.000000 0.075571
312.000000 88.346000 2.000000 7.000000 3.000000 114.468209 11.745607 751.216549 440.750800 11.316550 0.000000 0.117697
313.000000 84.593000 3.000000 7.000000 3.000000 115.012388 -0.618995 986.628190 438.803091 11.818560 0.000000 0.131368
314.000000 79.274000 4.000000 7.000000 3.000000 113.436094 -11.607430 1196.076941 464.699944 12.611865 0.000000 0.123642
315.000000 73.205000 5.000000 7.000000 3.000000 110.497660 -20.790116 1383.633397 510.616575 13.657982 0.000000 0.101527
316.000000 66.994000 6.000000 7.000000 3.000000 106.859294 -28.218832 1552.559471 570.837304 14.924924 0.000000 0.072811
317.000000 61.024000 7.000000 7.000000 3.000000 102.980790 -34.165423 1705.499711 641.149669 16.385880 0.000000 0.054114
318.000000 55.499000 8.000000 7.000000 3.000000 99.137912 -38.937406 1844.620761 718.426606 18.018210 0.000000 0.072326
319.000000 50.500000 9.000000 7.000000 3.000000 95.477477 -42.801582 1971.714647 800.333804 19.802667 0.000000 0.116683
320.000000 46.039000 10.000000 7.000000 3.000000 92.066665 -45.967641 2088.276387 885.121870 21.722780 0.000000 0.170095
322.000000 65.705000 -2.000000 8.000000 3.000000 85.271098 51.703786 -388.010111 1084.666616 15.222456 0.000000 0.316508
323.000000 71.597000 -1.000000 8.000000 3.000000 93.324411 44.029588 -65.439963 854.045227 13.968140 0.000000 0.142283
324.000000 75.606000 0.000000 8.000000 3.000000 100.290054 35.075254 219.261956 702.237416 13.226273 0.000000 0.061980
325.000000 77.388000 1.000000 8.000000 3.000000 105.620937 25.031539 472.394260 608.874348 12.920731 0.000000 0.093369
326.000000 76.974000 2.000000 8.000000 3.000000 108.964957 14.386141 698.932081 559.165257 12.989754 0.000000 0.129212
327.000000 74.712000 3.000000 8.000000 3.000000 110.288115 3.834729 902.857334 542.227635 13.382715 0.000000 0.145702
328.000000 71.125000 4.000000 8.000000 3.000000 109.867513 -5.961650 1087.394789 549.962133 14.057718 0.000000 0.145490
329.000000 66.749000 5.000000 8.000000 3.000000 108.156209 -14.591535 1255.183861 576.280232 14.979789 0.000000 0.132818
330.000000 62.031000 6.000000 8.000000 3.000000 105.621932 -21.933820 1408.405668 616.565169 16.119512 0.000000 0.111974
331.000000 57.298000 7.000000 8.000000 3.000000 102.647758 -28.066466 1548.878354 667.289947 17.451960 0.000000 0.088286
332.000000 52.754000 8.000000 8.000000 3.000000 99.505169 -33.156083 1678.129587 725.742955 18.955872 0.000000 0.071312
333.000000 48.515000 9.000000 8.000000 3.000000 96.367964 -37.385323 1797.452337 789.828428 20.613004 0.000000 0.075703
335.000000 58.208000 -2.000000 9.000000 3.000000 83.285271 48.909611 -259.197151 1133.797642 17.183865 0.000000 0.256576
336.000000 62.805000 -1.000000 9.000000 3.000000 90.219298 41.963439 7.143149 935.459850 15.924494 0.000000 0.126662
337.000000 67.713000 1.000000 9.000000 3.000000 101.084127 25.418899 463.502765 707.549628 14.768253 0.000000 0.104552
338.000000 67.788000 2.000000 9.000000 3.000000 104.396423 16.289686 660.479823 653.171581 14.751235 0.000000 0.135251
339.000000 64.048000 4.000000 9.000000 3.000000 106.486147 -1.599968 1005.063023 622.345909 15.612062 0.000000 0.157073
340.000000 60.897000 5.000000 9.000000 3.000000 105.668291 -9.578626 1156.628589 634.841528 16.420215 0.000000 0.150871
341.000000 53.603000 7.000000 9.000000 3.000000 101.829729 -22.735233 1426.001506 696.575923 18.655536 0.000000 0.118001
342.000000 49.902000 8.000000 9.000000 3.000000 99.342974 -27.956392 1546.225472 740.526756 20.039538 0.000000 0.098142
344.000000 52.092000 -2.000000 10.000000 3.000000 81.554069 46.678014 -166.258017 1173.933403 19.202097 0.000000 0.221157
345.000000 55.765000 -1.000000 10.000000 3.000000 87.625911 40.355639 60.437728 999.556657 17.935696 0.000000 0.122024
346.000000 58.438000 0.000000 10.000000 3.000000 92.979631 33.326906 267.283067 873.951277 17.114148 0.000000 0.090752
347.000000 59.957000 1.000000 10.000000 3.000000 97.354275 25.710314 456.775909 786.823481 16.679845 0.000000 0.111540
348.000000 60.298000 2.000000 10.000000 3.000000 100.567778 17.724093 631.011932 730.197375 16.584714 0.000000 0.138022
349.000000 59.565000 3.000000 10.000000 3.000000 102.555895 9.661888 791.762410 697.840341 16.788322 0.000000 0.155489
350.000000 57.949000 4.000000 10.000000 3.000000 103.380583 1.834112 940.534647 684.844716 17.256420 0.000000 0.162693
351.000000 55.679000 5.000000 10.000000 3.000000 103.203551 -5.499158 1078.619381 687.319546 17.959800 0.000000 0.160988
352.000000 52.985000 6.000000 10.000000 3.000000 102.239040 -12.170768 1207.128335 702.160930 18.873400 0.000000 0.152208
353.000000 50.062000 7.000000 10.000000 3.000000 100.707406 -18.111399 1327.024207 726.879150 19.975599 0.000000 0.138311
354.000000 47.066000 8.000000 10.000000 3.000000 98.803848 -23.327804 1439.144835 759.467321 21.247639 0.000000 0.121493
355.000000 47.039000 -2.000000 11.000000 3.000000 80.044253 44.859761 -96.038373 1207.525478 21.265456 0.000000 0.199387
356.000000 50.034000 -1.000000 11.000000 3.000000 85.435368 39.070770 101.230702 1051.679374 19.990955 0.000000 0.121760
357.000000 52.272000 0.000000 11.000000 3.000000 90.230807 32.732332 283.173379 935.845838 19.134051 0.000000 0.099304
358.000000 53.643000 1.000000 11.000000 3.000000 94.240064 25.937491 451.508997 852.267308 18.643925 0.000000 0.115871
359.000000 54.124000 2.000000 11.000000 3.000000 97.325786 18.842474 607.708991 794.796101 18.477681 0.000000 0.138832
360.000000 53.770000 3.000000 11.000000 3.000000 99.427695 11.652527 753.040023 758.525386 18.598862 0.000000 0.155809
361.000000 52.699000 4.000000 11.000000 3.000000 100.570044 4.589687 888.598403 739.513254 18.976285 0.000000 0.164741
362.000000 51.066000 5.000000 11.000000 3.000000 100.849650 -2.146350 1015.337796 734.574288 19.583120 0.000000 0.166191
363.000000 49.031000 6.000000 11.000000 3.000000 100.409989 -8.408251 1134.091692 741.120616 20.396156 0.000000 0.161360
364.000000 46.742000 7.000000 11.000000 3.000000 99.411866 -14.112284 1245.591757 757.039646 21.395211 0.000000 0.151614
365.000000 48.431000 1.000000 12.000000 3.000000 91.604460 26.119556 447.273274 907.423621 20.651542 0.000000 0.118505
366.000000 48.977000 2.000000 12.000000 3.000000 94.552592 19.738272 588.819564 849.950061 20.420367 0.000000 0.138472
367.000000 48.174000 4.000000 12.000000 3.000000 98.042546 6.840076 845.896091 787.831433 20.760107 0.000000 0.164617
368.000000 47.001000 5.000000 12.000000 3.000000 98.646372 0.640230 962.972861 777.324460 21.277793 0.000000 0.168289
371.000000 106.944000 3.000000 5.000000 4.000000 138.807881 -19.752331 1361.478564 -365.663415 9.344981 0.000000 0.066747
372.000000 96.766000 4.000000 5.000000 4.000000 131.627725 -33.773459 1694.794439 -209.700307 10.328811 0.000000 0.129002
373.000000 86.510000 5.000000 5.000000 4.000000 123.928320 -42.722628 1968.963065 -44.524309 11.554359 0.000000 0.197580
379.000000 104.254000 1.000000 6.000000 4.000000 131.669907 27.425606 416.491642 -138.224049 9.586946 0.000000 0.076891
380.000000 101.219000 2.000000 6.000000 4.000000 134.313410 8.846895 807.478703 -122.455617 9.874150 0.000000 0.028377
381.000000 95.432000 3.000000 6.000000 4.000000 132.763576 -8.415235 1134.225746 -65.222796 10.473134 0.000000 0.033625
382.000000 80.300000 5.000000 6.000000 4.000000 122.899416 -32.070712 1649.391708 119.338668 12.448319 0.000000 0.045216
383.000000 65.524000 7.000000 6.000000 4.000000 111.446245 -44.620804 2037.141436 346.992201 15.257877 0.000000 0.158125
386.000000 89.276000 0.000000 7.000000 4.000000 117.439808 40.593124 52.728252 205.044971 11.197596 0.000000 0.123885
387.000000 90.417000 1.000000 7.000000 4.000000 123.568081 27.502365 414.660187 135.779154 11.055444 0.000000 0.022222
388.000000 88.795000 2.000000 7.000000 4.000000 126.668768 13.068514 725.161886 118.361200 11.257011 0.000000 0.055342
389.000000 85.014000 3.000000 7.000000 4.000000 126.742192 -1.036276 994.468441 137.389950 11.757748 0.000000 0.074501
390.000000 79.837000 4.000000 7.000000 4.000000 124.453426 -13.342488 1230.268060 182.086264 12.520486 0.000000 0.067805
391.000000 73.972000 5.000000 7.000000 4.000000 120.715345 -23.296512 1438.447871 244.791741 13.513968 0.000000 0.042576
392.000000 67.953000 6.000000 7.000000 4.000000 116.297961 -31.073840 1623.592158 319.997845 14.711719 0.000000 0.006066
393.000000 62.132000 7.000000 7.000000 4.000000 111.707673 -37.111136 1789.323869 403.702953 16.091164 0.000000 0.043816
394.000000 56.703000 8.000000 7.000000 4.000000 107.230706 -41.836247 1938.544058 492.977653 17.632939 0.000000 0.097345
395.000000 51.754000 9.000000 7.000000 4.000000 103.009451 -45.587687 2073.603158 585.665448 19.320334 0.000000 0.155028
396.000000 47.304000 10.000000 7.000000 4.000000 99.102331 -48.614185 2196.425692 680.173341 21.138859 0.000000 0.215244
397.000000 74.475000 -1.000000 8.000000 4.000000 104.356876 47.801061 -212.031362 530.877518 13.425732 0.000000 0.209041
398.000000 79.095000 1.000000 8.000000 4.000000 116.992555 27.551184 413.494059 322.655282 12.639281 0.000000 0.027429
399.000000 75.901000 3.000000 8.000000 4.000000 121.228766 3.994960 899.833318 286.844763 13.170516 0.000000 0.101894
400.000000 67.903000 5.000000 8.000000 4.000000 117.952046 -16.253919 1288.791058 346.101485 14.722574 0.000000 0.090294
401.000000 58.531000 7.000000 8.000000 4.000000 111.166582 -30.419638 1606.954087 457.727831 17.081535 0.000000 0.038789
402.000000 49.773000 9.000000 8.000000 4.000000 103.783645 -39.809543 1872.038315 597.280351 20.089349 0.000000 0.069704
404.000000 61.622000 -2.000000 9.000000 4.000000 93.260425 52.216266 -413.363917 840.927175 16.228763 0.000000 0.315148
405.000000 65.775000 -1.000000 9.000000 4.000000 100.458116 45.108723 -105.386739 659.509694 15.202622 0.000000 0.150426
406.000000 68.567000 0.000000 9.000000 4.000000 106.700437 36.857659 168.138461 537.423760 14.582240 0.000000 0.044256
407.000000 69.832000 1.000000 9.000000 4.000000 111.582414 27.584968 412.686440 460.642445 14.317144 0.000000 0.053659
408.000000 69.597000 2.000000 9.000000 4.000000 114.819660 17.645890 632.630318 418.656809 14.364900 0.000000 0.096025
409.000000 68.058000 3.000000 9.000000 4.000000 116.335986 7.594052 831.505399 403.506650 14.689571 0.000000 0.119294
410.000000 65.512000 4.000000 9.000000 4.000000 116.284638 -1.979562 1012.200636 409.103829 15.260523 0.000000 0.126039
411.000000 62.285000 5.000000 9.000000 4.000000 114.982469 -10.634811 1177.099894 430.752275 16.051479 0.000000 0.120007
412.000000 58.674000 6.000000 9.000000 4.000000 112.801199 -18.167333 1328.187704 464.802592 17.039772 0.000000 0.104552
413.000000 54.918000 7.000000 9.000000 4.000000 110.079131 -24.571983 1467.129526 508.400272 18.205745 0.000000 0.083044
414.000000 51.191000 8.000000 9.000000 4.000000 107.080167 -29.957445 1595.333392 559.299963 19.532269 0.000000 0.060520
415.000000 47.605000 9.000000 9.000000 4.000000 103.989939 -34.474004 1713.997796 615.726984 21.004346 0.000000 0.048999
417.000000 58.647000 -1.000000 10.000000 4.000000 97.136116 43.039063 -30.033417 756.637336 17.051287 0.000000 0.120984
418.000000 62.210000 1.000000 10.000000 4.000000 107.071880 27.609737 412.094030 567.990231 16.072667 0.000000 0.072731
419.000000 61.347000 3.000000 10.000000 4.000000 112.041357 10.276830 779.853775 498.140244 16.297752 0.000000 0.130255
420.000000 57.190000 5.000000 10.000000 4.000000 112.022201 -6.127945 1090.553634 503.161882 17.482573 0.000000 0.138577
421.000000 51.420000 7.000000 10.000000 4.000000 108.649617 -19.518044 1356.517286 555.602698 19.444921 0.000000 0.113586
423.000000 49.971000 -2.000000 11.000000 4.000000 88.716114 47.350615 -193.438331 976.603424 20.014611 0.000000 0.208055
424.000000 52.749000 -1.000000 11.000000 4.000000 94.289011 41.402404 26.038704 833.386124 18.958978 0.000000 0.108706
425.000000 54.749000 0.000000 11.000000 4.000000 99.207245 34.799107 226.980859 728.542362 18.265155 0.000000 0.066552
426.000000 55.885000 1.000000 11.000000 4.000000 103.264863 27.628674 411.640922 654.615709 17.893073 0.000000 0.086238
427.000000 56.148000 2.000000 11.000000 4.000000 106.311210 20.062969 581.920814 605.693229 17.808369 0.000000 0.115942
428.000000 55.607000 3.000000 11.000000 4.000000 108.279892 12.345351 739.437339 577.053011 17.981404 0.000000 0.136999
429.000000 54.381000 4.000000 11.000000 4.000000 109.200138 4.749639 885.573679 564.900259 18.386481 0.000000 0.147985
430.000000 52.622000 5.000000 11.000000 4.000000 109.184681 -2.474926 1021.520123 566.167677 19.001207 0.000000 0.150117
431.000000 50.484000 6.000000 11.000000 4.000000 108.399509 -9.147337 1148.306557 578.363060 19.805983 0.000000 0.144983
432.000000 48.110000 7.000000 11.000000 4.000000 107.028686 -15.170545 1266.828604 599.451940 20.783578 0.000000 0.134178
433.000000 45.620000 8.000000 11.000000 4.000000 105.246263 -20.521429 1377.868811 627.766475 21.918782 0.000000 0.119333
434.000000 47.816000 -1.000000 12.000000 4.000000 91.831341 40.077735 69.390645 896.025467 20.915795 0.000000 0.105523
435.000000 50.587000 1.000000 12.000000 4.000000 100.015423 27.643622 411.283150 726.428304 19.768243 0.000000 0.095846
436.000000 50.683000 3.000000 12.000000 4.000000 104.979116 13.984954 706.949879 644.231813 19.729527 0.000000 0.140939
437.000000 48.551000 5.000000 12.000000 4.000000 106.522710 0.523163 965.172164 621.709703 20.595404 0.000000 0.157078
438.000000 46.107000 1.000000 13.000000 4.000000 97.213675 27.655721 410.993490 787.200196 21.690058 0.000000 0.102726
439.000000 46.532000 2.000000 13.000000 4.000000 100.005310 21.552074 549.906016 736.843644 21.491118 0.000000 0.124731
440.000000 46.440000 3.000000 13.000000 4.000000 102.071558 15.314494 680.266541 702.346854 21.533158 0.000000 0.142993
441.000000 45.883000 4.000000 13.000000 4.000000 103.408226 9.087769 802.841225 681.165684 21.794311 0.000000 0.155077
453.000000 88.684000 1.000000 7.000000 5.000000 134.326896 31.384321 318.431372 -290.470780 11.269699 0.000000 0.133654
454.000000 86.991000 2.000000 7.000000 5.000000 137.474027 14.822740 690.173745 -272.896814 11.488713 0.000000 0.044042
455.000000 83.445000 3.000000 7.000000 5.000000 137.217070 -1.585465 1004.790363 -222.432331 11.977035 0.000000 0.014121
456.000000 78.671000 4.000000 7.000000 5.000000 134.316460 -15.550737 1274.509464 -149.847598 12.704274 0.000000 0.028264
457.000000 73.254000 5.000000 7.000000 5.000000 129.877565 -26.358323 1508.301652 -62.538827 13.644445 0.000000 0.049423
458.000000 67.652000 6.000000 7.000000 5.000000 124.791079 -34.434159 1712.896967 34.335618 14.775200 0.000000 0.083416
459.000000 62.177000 7.000000 7.000000 5.000000 119.602705 -40.475401 1893.443292 137.135491 16.077212 0.000000 0.128757
460.000000 57.017000 8.000000 7.000000 5.000000 114.599835 -45.070481 2053.945482 243.270147 17.533682 0.000000 0.181825
461.000000 52.262000 9.000000 7.000000 5.000000 109.915131 -48.640702 2197.565924 350.886353 19.129938 0.000000 0.239805
464.000000 77.935000 0.000000 8.000000 5.000000 121.570445 42.382102 -7.175354 45.635062 12.826259 0.000000 0.181617
465.000000 78.787000 1.000000 8.000000 5.000000 127.172140 30.652143 337.158537 -7.678053 12.686575 0.000000 0.069638
466.000000 77.851000 2.000000 8.000000 5.000000 130.419492 17.515511 635.325349 -20.195086 12.838704 0.000000 0.031074
467.000000 75.432000 3.000000 8.000000 5.000000 131.180233 4.196572 896.026626 -3.099980 13.250303 0.000000 0.046933
468.000000 71.941000 4.000000 8.000000 5.000000 129.798683 -7.981369 1125.906427 35.536330 13.893642 0.000000 0.050589
469.000000 67.790000 5.000000 8.000000 5.000000 126.907499 -18.260412 1330.125501 89.811093 14.744803 0.000000 0.038217
470.000000 63.334000 6.000000 8.000000 5.000000 123.143841 -26.548278 1512.753350 155.358965 15.783053 0.000000 0.017097
471.000000 58.837000 7.000000 8.000000 5.000000 118.992522 -33.115492 1677.042178 228.921840 16.990326 0.000000 0.029730
472.000000 54.478000 8.000000 8.000000 5.000000 114.767886 -38.320199 1825.622258 308.049952 18.350811 0.000000 0.069937
473.000000 50.365000 9.000000 8.000000 5.000000 110.653294 -42.482686 1960.643818 390.890730 19.850607 0.000000 0.116576
474.000000 46.553000 10.000000 8.000000 5.000000 106.745670 -45.854388 2083.881777 476.037435 21.477449 0.000000 0.166885
476.000000 67.083000 -1.000000 9.000000 5.000000 109.744342 48.678646 -249.199607 355.932732 14.903803 0.000000 0.246878
477.000000 69.430000 0.000000 9.000000 5.000000 116.169694 40.088880 69.032997 249.675283 14.398665 0.000000 0.108692
478.000000 70.360000 1.000000 9.000000 5.000000 121.162977 30.166530 349.423203 188.165737 14.207529 0.000000 0.022499
479.000000 69.920000 2.000000 9.000000 5.000000 124.388060 19.287903 598.342199 160.570365 14.296207 0.000000 0.043629
480.000000 68.299000 3.000000 9.000000 5.000000 125.731677 8.152884 820.806960 158.795863 14.635301 0.000000 0.072273
481.000000 65.765000 4.000000 9.000000 5.000000 125.353925 -2.437825 1020.821892 176.727676 15.199393 0.000000 0.081835
482.000000 62.607000 5.000000 9.000000 5.000000 123.619192 -11.890379 1201.622023 209.700981 15.966391 0.000000 0.076405
483.000000 59.091000 6.000000 9.000000 5.000000 120.957665 -19.958163 1365.849308 254.126897 16.917004 0.000000 0.059578
484.000000 55.433000 7.000000 9.000000 5.000000 117.752741 -26.672928 1515.682584 307.224316 18.034311 0.000000 0.034458
485.000000 51.791000 8.000000 9.000000 5.000000 114.294067 -32.205950 1652.934786 366.824826 19.303409 0.000000 0.010426
486.000000 48.273000 9.000000 9.000000 5.000000 110.778305 -36.764338 1779.126665 431.229055 20.711120 0.000000 0.038511
489.000000 60.246000 -1.000000 10.000000 5.000000 105.911296 46.051360 -141.536567 498.904822 16.596219 0.000000 0.174904
490.000000 63.209000 1.000000 10.000000 5.000000 116.072072 29.820927 358.078301 334.003070 15.816019 0.000000 0.013368
491.000000 63.092000 2.000000 10.000000 5.000000 119.214631 20.540713 571.718135 298.254990 15.844723 0.000000 0.062180
492.000000 62.031000 3.000000 10.000000 5.000000 120.893022 11.005286 765.686535 284.964417 16.115454 0.000000 0.091062
493.000000 60.203000 4.000000 10.000000 5.000000 121.179832 1.725288 942.580867 289.395316 16.604819 0.000000 0.103755
494.000000 55.049000 6.000000 10.000000 5.000000 118.503488 -14.504332 1253.435437 337.294170 18.160044 0.000000 0.093984
495.000000 52.091000 7.000000 10.000000 5.000000 116.112005 -21.119771 1390.734145 375.461579 19.192033 0.000000 0.076847
496.000000 49.070000 8.000000 10.000000 5.000000 113.357286 -26.761008 1517.756318 420.442578 20.374248 0.000000 0.055063
497.000000 46.087000 9.000000 10.000000 5.000000 110.424786 -31.541010 1635.614104 470.723875 21.694183 0.000000 0.034478
499.000000 51.941000 -2.000000 11.000000 5.000000 96.832711 50.079245 -311.286353 740.036847 19.252577 0.000000 0.255821
500.000000 54.464000 -1.000000 11.000000 5.000000 102.565463 43.994719 -64.173587 607.530573 18.359299 0.000000 0.131877
501.000000 56.217000 0.000000 11.000000 5.000000 107.602203 37.131228 160.082492 512.697663 17.785539 0.000000 0.045234
502.000000 57.135000 1.000000 11.000000 5.000000 111.720529 29.562430 364.512902 448.073915 17.498832 0.000000 0.038549
503.000000 57.224000 2.000000 11.000000 5.000000 114.751904 21.472390 551.635422 407.768772 17.470966 0.000000 0.077924
504.000000 56.555000 3.000000 11.000000 5.000000 116.617448 13.149463 723.558815 387.098645 17.677310 0.000000 0.104775
505.000000 55.245000 4.000000 11.000000 5.000000 117.346110 4.935214 882.062645 382.314449 18.096262 0.000000 0.118867
506.000000 53.436000 5.000000 11.000000 5.000000 117.064234 -2.854142 1028.659100 390.396905 18.708796 0.000000 0.122403
507.000000 51.274000 6.000000 11.000000 5.000000 115.960541 -9.992858 1164.641391 408.901199 19.498093 0.000000 0.117466
508.000000 48.890000 7.000000 11.000000 5.000000 114.243485 -16.368218 1291.122006 435.837990 20.449225 0.000000 0.105913
509.000000 46.397000 8.000000 11.000000 5.000000 112.107537 -21.963933 1409.063211 469.581473 21.548900 0.000000 0.089539
510.000000 47.411000 -2.000000 12.000000 5.000000 94.505867 47.958022 -218.586145 814.345877 21.093221 0.000000 0.208455
511.000000 49.547000 -1.000000 12.000000 5.000000 99.637167 42.344959 -5.897362 693.727498 20.182190 0.000000 0.108183
512.000000 51.078000 0.000000 12.000000 5.000000 104.179856 36.124532 189.446615 604.329093 19.576043 0.000000 0.047590
513.000000 51.954000 1.000000 12.000000 5.000000 107.968619 29.361801 369.484369 540.493731 19.245287 0.000000 0.057517
514.000000 52.172000 2.000000 12.000000 5.000000 110.877005 22.192031 535.947063 497.656552 19.164113 0.000000 0.090145
515.000000 51.777000 3.000000 12.000000 5.000000 112.839211 14.815748 690.314277 472.111504 19.309839 0.000000 0.114669
516.000000 50.847000 4.000000 12.000000 5.000000 113.861844 7.470959 833.858116 460.833083 19.662450 0.000000 0.129244
517.000000 49.484000 5.000000 12.000000 5.000000 114.020119 0.389758 967.678336 461.338889 20.204221 0.000000 0.135047
518.000000 47.793000 6.000000 12.000000 5.000000 113.439434 -6.242488 1092.730584 471.582778 20.919392 0.000000 0.133532
519.000000 45.876000 7.000000 12.000000 5.000000 112.269814 -12.309104 1209.849248 489.871153 21.793908 0.000000 0.126088
520.000000 46.686000 0.000000 13.000000 5.000000 101.199033 35.312209 212.596798 679.861092 21.419050 0.000000 0.058204
521.000000 47.510000 1.000000 13.000000 5.000000 104.707116 29.201568 373.440800 617.365486 21.046657 0.000000 0.071778
522.000000 47.806000 2.000000 13.000000 5.000000 107.489882 22.764457 523.352983 573.204642 20.915263 0.000000 0.099393
523.000000 47.603000 3.000000 13.000000 5.000000 109.492177 16.145809 663.411197 544.385978 21.003910 0.000000 0.121724
524.000000 46.954000 4.000000 13.000000 5.000000 110.709151 9.517295 794.556101 528.427073 21.294001 0.000000 0.136290
525.000000 45.929000 5.000000 13.000000 5.000000 111.185218 3.052103 917.612322 523.259840 21.768977 0.000000 0.143558
536.000000 73.757000 3.000000 8.000000 6.000000 140.140493 4.457967 891.088236 -351.995568 13.549728 0.000000 0.017477
537.000000 66.711000 5.000000 8.000000 6.000000 135.001242 -20.723322 1382.198448 -209.797442 14.981632 0.000000 0.049728
538.000000 58.394000 7.000000 8.000000 6.000000 126.094685 -36.219794 1763.299473 -31.653617 17.117408 0.000000 0.114587
539.000000 50.392000 9.000000 8.000000 6.000000 116.948547 -45.431570 2067.631631 161.271992 19.838113 0.000000 0.202534
541.000000 69.636000 1.000000 9.000000 6.000000 129.772374 33.281591 268.501717 -130.618659 14.353291 0.000000 0.116517
542.000000 69.083000 2.000000 9.000000 6.000000 133.064602 21.312920 555.090773 -138.778679 14.467726 0.000000 0.048586
543.000000 65.060000 4.000000 9.000000 6.000000 133.670065 -3.001956 1031.443035 -87.865713 15.362306 0.000000 0.033232
544.000000 62.072000 5.000000 9.000000 6.000000 131.551159 -13.406039 1231.529354 -39.660938 16.102094 0.000000 0.031811
545.000000 55.277000 7.000000 9.000000 6.000000 124.818607 -29.092407 1573.870906 84.361082 18.083075 0.000000 0.033730
546.000000 51.804000 8.000000 9.000000 6.000000 120.953468 -34.742446 1721.441731 155.437872 19.296407 0.000000 0.059969
548.000000 63.162000 1.000000 10.000000 6.000000 124.296286 32.418970 291.462912 71.373126 15.825813 0.000000 0.064849
549.000000 61.806000 3.000000 10.000000 6.000000 129.073656 11.881568 748.550818 48.008662 16.172033 0.000000 0.046244
550.000000 57.683000 5.000000 10.000000 6.000000 127.970571 -7.737145 1121.231277 93.279122 17.328261 0.000000 0.061424
551.000000 52.168000 7.000000 10.000000 6.000000 123.063081 -22.957074 1430.908463 180.094670 19.161260 0.000000 0.033741
552.000000 46.356000 9.000000 10.000000 6.000000 116.657819 -33.682111 1692.313653 291.667637 21.565498 0.000000 0.022696
555.000000 55.278000 -1.000000 11.000000 6.000000 110.194093 46.881431 -174.406238 361.823414 18.086439 0.000000 0.206427
556.000000 56.791000 0.000000 11.000000 6.000000 115.350517 39.773872 79.096611 277.534191 17.603287 0.000000 0.099531
557.000000 57.519000 1.000000 11.000000 6.000000 119.549480 31.789464 307.943251 223.149311 17.379631 0.000000 0.025566
558.000000 57.476000 2.000000 11.000000 6.000000 122.598886 23.116102 515.564030 192.624406 17.391855 0.000000 0.032362
559.000000 56.734000 3.000000 11.000000 6.000000 124.399151 14.093610 704.781162 181.198701 17.619123 0.000000 0.063906
560.000000 55.401000 4.000000 11.000000 6.000000 124.972195 5.153101 877.937765 185.093597 18.042982 0.000000 0.081108
561.000000 53.607000 5.000000 11.000000 6.000000 124.455498 -3.296639 1036.995392 201.289538 18.647034 0.000000 0.086258
562.000000 51.483000 6.000000 11.000000 6.000000 123.061706 -10.969129 1183.608657 227.358866 19.416652 0.000000 0.081718
563.000000 49.150000 7.000000 11.000000 6.000000 121.025917 -17.733509 1319.183015 261.339273 20.338754 0.000000 0.069472
564.000000 46.711000 8.000000 11.000000 6.000000 118.564446 -23.586523 1444.919957 301.637045 21.401598 0.000000 0.051252
565.000000 50.546000 -1.000000 12.000000 6.000000 106.919090 44.848963 -95.634763 479.209331 19.780721 0.000000 0.153696
566.000000 52.606000 1.000000 12.000000 6.000000 115.410304 31.309932 320.347250 342.547265 19.003912 0.000000 0.005651
567.000000 49.865000 5.000000 12.000000 6.000000 121.105837 0.236337 970.560420 291.582709 20.047392 0.000000 0.104554
568.000000 46.273000 7.000000 12.000000 6.000000 118.850441 -13.302010 1229.465050 331.721254 21.604337 0.000000 0.096191
569.000000 46.433000 -1.000000 13.000000 6.000000 104.003668 43.197687 -35.625846 572.790294 21.533896 0.000000 0.119804
570.000000 47.631000 0.000000 13.000000 6.000000 108.221812 37.322860 154.404646 495.442226 20.991369 0.000000 0.046673
571.000000 48.323000 1.000000 13.000000 6.000000 111.778841 30.932533 330.020850 439.671658 20.689668 0.000000 0.028210
572.000000 48.511000 2.000000 13.000000 6.000000 114.567491 24.133146 492.802879 401.849568 20.608688 0.000000 0.063205
573.000000 48.225000 3.000000 13.000000 6.000000 116.524502 17.089330 644.108034 378.990691 20.730500 0.000000 0.090975
574.000000 47.517000 4.000000 13.000000 6.000000 117.641551 10.005758 785.108742 368.627100 21.039066 0.000000 0.108789
575.000000 46.455000 5.000000 13.000000 6.000000 117.965987 3.094002 916.822996 368.709280 21.519996 0.000000 0.117925
588.000000 63.647000 4.000000 9.000000 7.000000 141.243994 -3.713275 1044.851241 -402.567574 15.701686 0.000000 0.008574
589.000000 60.890000 5.000000 9.000000 7.000000 138.779319 -15.268983 1268.814626 -332.500438 16.413027 0.000000 0.043806
590.000000 57.816000 6.000000 9.000000 7.000000 135.288641 -24.586987 1467.470333 -254.597535 17.286472 0.000000 0.074625
591.000000 54.590000 7.000000 9.000000 7.000000 131.263772 -31.897867 1644.878584 -171.311082 18.309027 0.000000 0.105940
592.000000 51.340000 8.000000 9.000000 7.000000 127.043333 -37.613931 1804.275154 -84.477292 19.469054 0.000000 0.140384
593.000000 48.159000 9.000000 9.000000 7.000000 122.836674 -42.122383 1948.270527 4.520584 20.756091 0.000000 0.178611
597.000000 61.971000 2.000000 10.000000 7.000000 134.993044 24.566420 482.996829 -242.129998 16.127656 0.000000 0.080482
598.000000 60.876000 3.000000 10.000000 7.000000 136.577580 12.955184 727.404462 -225.961732 16.417470 0.000000 0.034147
599.000000 59.155000 4.000000 10.000000 7.000000 136.513981 1.568240 945.533436 -194.157120 16.895184 0.000000 0.018825
600.000000 56.963000 5.000000 10.000000 7.000000 135.062195 -8.788905 1141.405743 -150.449282 17.545529 0.000000 0.023038
601.000000 54.453000 6.000000 10.000000 7.000000 132.597057 -17.689039 1318.262452 -97.712003 18.354843 0.000000 0.028771
602.000000 51.759000 7.000000 10.000000 7.000000 129.487875 -25.081286 1478.744469 -38.175125 19.310873 0.000000 0.039447
603.000000 48.992000 8.000000 10.000000 7.000000 126.031551 -31.129775 1625.025308 26.419614 20.402590 0.000000 0.058853
604.000000 46.235000 9.000000 10.000000 7.000000 122.439631 -36.067416 1758.910109 94.704235 21.620045 0.000000 0.085873
607.000000 56.624000 0.000000 11.000000 7.000000 122.415534 42.779670 -20.950289 9.837057 17.653307 0.000000 0.195087
608.000000 57.192000 1.000000 11.000000 7.000000 126.721273 34.373430 238.778809 -31.729299 17.477018 0.000000 0.104414
609.000000 57.057000 2.000000 11.000000 7.000000 129.829126 25.054299 471.873405 -49.898652 17.517694 0.000000 0.047754
610.000000 56.286000 3.000000 11.000000 7.000000 131.608432 15.217186 682.230620 -49.594483 17.757453 0.000000 0.031448
611.000000 54.976000 4.000000 11.000000 7.000000 132.065245 5.412536 873.022640 -34.671442 18.180326 0.000000 0.040944
612.000000 53.244000 5.000000 11.000000 7.000000 131.345512 -3.819631 1046.857785 -8.171867 18.772007 0.000000 0.046349
613.000000 51.206000 6.000000 11.000000 7.000000 129.688472 -12.108294 1205.900467 27.485961 19.519642 0.000000 0.043120
614.000000 48.970000 7.000000 11.000000 7.000000 127.359754 -19.302318 1351.961772 70.367860 20.411650 0.000000 0.032771
615.000000 46.628000 8.000000 11.000000 7.000000 124.599787 -25.422004 1486.568728 118.918471 21.437570 0.000000 0.020010
617.000000 50.903000 -1.000000 12.000000 7.000000 113.635852 47.617668 -204.422827 242.229222 19.639728 0.000000 0.239621
618.000000 52.069000 0.000000 12.000000 7.000000 118.378573 40.978872 40.088224 170.844414 19.198853 0.000000 0.135878
619.000000 52.648000 1.000000 12.000000 7.000000 122.307634 33.531936 261.753311 124.512891 18.986753 0.000000 0.061984
620.000000 52.651000 2.000000 12.000000 7.000000 125.263136 25.413311 463.631453 98.451670 18.984822 0.000000 0.024214
621.000000 52.124000 3.000000 12.000000 7.000000 127.148021 16.887226 648.258877 88.839557 19.176417 0.000000 0.040933
622.000000 51.137000 4.000000 12.000000 7.000000 127.953446 8.311964 817.756121 92.602297 19.546607 0.000000 0.059721
623.000000 49.774000 5.000000 12.000000 7.000000 127.763059 0.058033 973.909851 107.251046 20.081960 0.000000 0.068708
624.000000 48.125000 6.000000 12.000000 7.000000 126.731273 -7.580530 1118.236075 130.759586 20.770356 0.000000 0.068706
625.000000 46.276000 7.000000 12.000000 7.000000 125.046213 -14.434162 1252.029532 161.470076 21.600834 0.000000 0.061196
627.000000 46.987000 -1.000000 13.000000 7.000000 110.476111 45.616799 -124.720372 366.410892 21.277822 0.000000 0.180500
628.000000 48.041000 0.000000 13.000000 7.000000 114.778439 39.558416 85.926900 296.587499 20.809876 0.000000 0.093439
629.000000 48.615000 1.000000 13.000000 7.000000 118.396077 32.880179 279.242059 248.156980 20.563060 0.000000 0.029106
630.000000 48.715000 2.000000 13.000000 7.000000 121.209644 25.688537 457.279716 217.408305 20.520086 0.000000 0.022750
631.000000 48.372000 3.000000 13.000000 7.000000 123.144195 18.168786 621.782075 201.309548 20.665421 0.000000 0.054491
632.000000 47.634000 4.000000 13.000000 7.000000 124.184424 10.566095 774.236142 197.369838 20.985072 0.000000 0.075308
633.000000 46.566000 5.000000 13.000000 7.000000 124.378425 3.141993 915.918798 203.532490 21.466397 0.000000 0.086340
644.000000 55.798000 5.000000 10.000000 8.000000 141.573990 -10.079409 1166.318170 -436.946797 17.910457 0.000000 0.032784
645.000000 50.968000 7.000000 10.000000 8.000000 135.383528 -27.557837 1536.664944 -289.396140 19.608978 0.000000 0.097784
646.000000 45.793000 9.000000 10.000000 8.000000 127.762584 -38.731378 1838.242504 -127.769641 21.826922 0.000000 0.162074
649.000000 56.119000 2.000000 11.000000 8.000000 136.438995 27.368002 417.864405 -333.402742 17.808881 0.000000 0.112831
650.000000 55.352000 3.000000 11.000000 8.000000 138.247741 16.575535 654.643099 -317.069894 18.055306 0.000000 0.055486
651.000000 54.100000 4.000000 11.000000 8.000000 138.630084 5.726640 867.066116 -287.238978 18.473309 0.000000 0.019306
652.000000 52.462000 5.000000 11.000000 8.000000 137.737171 -4.447162 1058.707568 -246.951241 19.050284 0.000000 0.012244
653.000000 50.541000 6.000000 11.000000 8.000000 135.839670 -13.453658 1232.474861 -198.583963 19.774833 0.000000 0.026730
654.000000 48.432000 7.000000 11.000000 8.000000 133.239956 -21.120840 1390.757225 -144.009160 20.636619 0.000000 0.041792
655.000000 46.217000 8.000000 11.000000 8.000000 130.205880 -27.510591 1535.536231 -84.710254 21.626251 0.000000 0.059630
657.000000 52.191000 1.000000 12.000000 8.000000 128.644744 36.081607 190.681814 -123.827791 19.151034 0.000000 0.140735
658.000000 51.579000 3.000000 12.000000 8.000000 133.568285 18.199457 621.143756 -136.718620 19.377351 0.000000 0.038869
659.000000 49.296000 5.000000 12.000000 8.000000 133.988434 -0.151735 977.850331 -97.949146 20.274863 0.000000 0.032189
660.000000 45.948000 7.000000 12.000000 8.000000 130.850120 -15.735956 1278.261605 -25.914801 21.752707 0.000000 0.030308
663.000000 47.994000 0.000000 13.000000 8.000000 120.846847 42.050764 4.172193 75.345127 20.828192 0.000000 0.170553
664.000000 48.465000 1.000000 13.000000 8.000000 124.539886 35.082438 219.060450 35.712461 20.624522 0.000000 0.095911
665.000000 48.497000 2.000000 13.000000 8.000000 127.401145 27.468790 415.461604 13.514115 20.610406 0.000000 0.046182
666.000000 48.118000 3.000000 13.000000 8.000000 129.339715 19.414869 595.662968 5.628198 20.772242 0.000000 0.030145
667.000000 47.375000 4.000000 13.000000 8.000000 130.328900 11.215291 761.589469 9.514010 21.097699 0.000000 0.041602
668.000000 46.326000 5.000000 13.000000 8.000000 130.414845 3.197512 914.872684 23.091821 21.575572 0.000000 0.052077
682.000000 45.546000 8.000000 11.000000 9.000000 135.381909 -29.901631 1593.937418 -317.231576 21.943514 0.000000 0.118597
685.000000 49.759000 4.000000 12.000000 9.000000 140.222817 9.488398 795.114148 -369.787966 20.084512 0.000000 0.034697
686.000000 48.513000 5.000000 12.000000 9.000000 139.789163 -0.402096 982.553448 -332.165116 20.600239 0.000000 0.003742
690.000000 47.937000 2.000000 13.000000 9.000000 133.137138 29.522150 365.512611 -217.961126 20.849400 0.000000 0.105918
691.000000 47.541000 3.000000 13.000000 9.000000 135.109643 20.867884 564.694294 -215.267621 21.022559 0.000000 0.058708
692.000000 46.812000 4.000000 13.000000 9.000000 136.075946 11.976092 746.695939 -201.360182 21.350025 0.000000 0.030380
693.000000 45.800000 5.000000 13.000000 9.000000 136.076753 3.262479 913.648397 -178.341499 21.821789 0.000000 0.021448
#UB matrix in q= (UB) B0 G* 
#[[-0.33279975  -0.506811739 -0.794185907]
# [-0.907474     0.401604588  0.12399181 ]
# [ 0.256388897  0.762835095 -0.594320825]]
#B0 matrix in q= UB (B0) G*
#[[ 0.19670273 -0.          0.03056101]
# [ 0.          0.19187965 -0.        ]
# [ 0.          0.          0.18806537]]
#UBB0 matrix in q= (UB B0) G* i.e. recip. basis vectors are columns in LT frame: astar = UBB0[:,0], bstar = UBB0[:,1], cstar = UBB0[:,2]. (abcstar as columns on xyzlab1, xlab1 = ui, ui = unit vector along incident beam)
#[[-0.06546262 -0.09724686 -0.15952956]
# [-0.17850262  0.07705975 -0.00441475]
# [ 0.0504324   0.14637253 -0.10393566]]
#Euler angles phi theta psi (deg)
#[161.423 126.41   81.142]
#deviatoric strain in direct crystal frame (10-3 unit)
#[[-2.69  0.01  0.43]
# [ 0.01 -2.64  1.03]
# [ 0.43  1.03  5.33]]
#deviatoric strain in sample2 frame (10-3 unit)
#[[ 5.05 -1.   -1.54]
# [-1.   -2.56  0.21]
# [-1.53  0.21 -2.49]]
#new lattice parameters
#[ 5.1505     5.2118844  5.3195576 89.9386471 99.2000241 89.9986984]
#CCDLabel
#sCMOS
#DetectorParameters
#[79.0, 975.0, 941.0, 0.0, 0.0]
#pixelsize
#0.0734
#Frame dimensions
#[2018, 2016]
#
