#Strain and Orientation Refinement from experimental file: /home/micha/LaueProjects/DepthEffects/testZrO2_146.cor
#File created at Wed Jun 28 14:27:08 2023 with indexingSpotsSet.py
#Number of indexed spots: 509
#Element
#ZrO2
#grainIndex
#G_0
#Mean Deviation(pixel): 0.117
##spot_index intensity h k l 2theta Chi Xexp Yexp Energy GrainIndex PixDev
11.000000 45.457000 -5.000000 -3.000000 -1.000000 83.461423 -51.107053 2309.202140 1137.478442 11.009424 0.000000 0.299651
15.000000 46.661000 -12.000000 -5.000000 -2.000000 99.139291 -49.358167 2228.880137 675.156373 21.445249 0.000000 0.230842
16.000000 48.814000 -11.000000 -5.000000 -2.000000 95.790031 -50.359620 2274.150988 769.930307 20.500417 0.000000 0.255227
17.000000 50.966000 -10.000000 -5.000000 -2.000000 91.895101 -51.440164 2325.190678 883.867930 19.636203 0.000000 0.286637
24.000000 47.848000 -13.000000 -4.000000 -2.000000 109.553254 -48.453903 2189.558976 364.629277 20.909684 0.000000 0.231450
25.000000 50.537000 -6.000000 -2.000000 -1.000000 107.117282 -49.495770 2234.990334 430.661872 9.898941 0.000000 0.248485
26.000000 53.439000 -11.000000 -4.000000 -2.000000 104.281025 -50.627249 2286.573336 509.126724 18.723454 0.000000 0.270086
48.000000 45.793000 -10.000000 -6.000000 -1.000000 82.087724 -45.158928 2057.281804 1153.131860 21.858298 0.000000 0.190273
49.000000 46.774000 -9.000000 -6.000000 -1.000000 76.940683 -45.979012 2088.718644 1300.257755 21.401929 0.000000 0.225383
50.000000 47.187000 -8.000000 -6.000000 -1.000000 70.923868 -46.864639 2123.731267 1485.368943 21.216386 0.000000 0.272054
52.000000 47.140000 -12.000000 -5.000000 -1.000000 98.019044 -43.206883 1985.950949 732.972901 21.228134 0.000000 0.117108
53.000000 49.361000 -11.000000 -5.000000 -1.000000 94.617939 -43.974436 2013.437640 820.197108 20.274214 0.000000 0.133856
54.000000 51.584000 -10.000000 -5.000000 -1.000000 90.655431 -44.806191 2044.037434 923.645788 19.401518 0.000000 0.155446
55.000000 53.690000 -9.000000 -5.000000 -1.000000 85.995601 -45.710157 2078.310959 1048.899353 18.642147 0.000000 0.183558
56.000000 55.463000 -8.000000 -5.000000 -1.000000 80.461603 -46.695651 2116.962052 1204.680447 18.047684 0.000000 0.220914
57.000000 56.537000 -7.000000 -5.000000 -1.000000 73.823323 -47.773550 2160.886611 1405.565945 17.706624 0.000000 0.272232
61.000000 45.844000 -14.000000 -4.000000 -1.000000 110.674763 -41.137905 1915.165974 401.708064 21.823614 0.000000 0.094531
62.000000 48.404000 -13.000000 -4.000000 -1.000000 108.550027 -41.842731 1938.763496 456.196485 20.670041 0.000000 0.099641
63.000000 51.196000 -12.000000 -4.000000 -1.000000 106.098262 -42.609198 1965.022261 518.953949 19.543772 0.000000 0.107071
64.000000 54.224000 -11.000000 -4.000000 -1.000000 103.242275 -43.445449 1994.419358 592.142911 18.453057 0.000000 0.117608
65.000000 57.476000 -10.000000 -4.000000 -1.000000 99.880176 -44.361058 2027.553164 678.799531 17.409839 0.000000 0.132308
66.000000 60.900000 -9.000000 -4.000000 -1.000000 95.875528 -45.367343 2065.184503 783.348278 16.432084 0.000000 0.152644
67.000000 64.368000 -8.000000 -4.000000 -1.000000 91.043057 -46.477750 2108.295782 912.543948 15.548129 0.000000 0.180814
68.000000 67.603000 -7.000000 -4.000000 -1.000000 85.128073 -47.708342 2158.177996 1077.333937 14.805426 0.000000 0.220377
69.000000 70.050000 -6.000000 -4.000000 -1.000000 77.777819 -49.078405 2216.562222 1296.923838 14.289919 0.000000 0.277666
73.000000 45.803000 -15.000000 -3.000000 -1.000000 119.470783 -39.577896 1864.688905 151.890022 21.839972 0.000000 0.113566
74.000000 48.543000 -14.000000 -3.000000 -1.000000 118.060615 -40.266331 1886.677115 189.098439 20.607887 0.000000 0.115288
75.000000 51.600000 -13.000000 -3.000000 -1.000000 116.437909 -41.020403 1911.281454 231.679791 19.387327 0.000000 0.117814
76.000000 55.024000 -12.000000 -3.000000 -1.000000 114.552682 -41.849669 1938.998350 280.921347 18.181361 0.000000 0.121533
77.000000 58.870000 -11.000000 -3.000000 -1.000000 112.338580 -42.765558 1970.458313 338.569373 16.994252 0.000000 0.127021
78.000000 63.194000 -10.000000 -3.000000 -1.000000 109.705890 -43.781841 2006.474480 407.059697 15.832102 0.000000 0.135150
79.000000 68.046000 -9.000000 -3.000000 -1.000000 106.530823 -44.915222 2048.113899 489.906638 14.703964 0.000000 0.147232
80.000000 73.445000 -8.000000 -3.000000 -1.000000 102.638733 -46.186116 2096.805035 592.396739 13.623874 0.000000 0.165273
81.000000 79.326000 -7.000000 -3.000000 -1.000000 97.777305 -47.619654 2154.504935 722.915455 12.614819 0.000000 0.192437
82.000000 85.411000 -6.000000 -3.000000 -1.000000 91.573099 -49.246998 2223.968648 895.721300 11.717232 0.000000 0.234001
85.000000 47.846000 -15.000000 -2.000000 -1.000000 126.560998 -38.427022 1828.887136 -77.879359 20.905227 0.000000 0.147902
86.000000 50.941000 -14.000000 -2.000000 -1.000000 125.634516 -39.151413 1851.285431 -53.908946 19.635354 0.000000 0.151170
87.000000 54.449000 -13.000000 -2.000000 -1.000000 124.561804 -39.955457 1876.693191 -26.233825 18.370704 0.000000 0.155074
88.000000 58.453000 -12.000000 -2.000000 -1.000000 123.306479 -40.852682 1905.760630 6.080504 17.112626 0.000000 0.159836
89.000000 63.059000 -11.000000 -2.000000 -1.000000 121.819382 -41.859753 1939.339811 44.313108 15.862977 0.000000 0.165786
90.000000 68.401000 -10.000000 -2.000000 -1.000000 120.032605 -42.997406 1978.569563 90.263301 14.624389 0.000000 0.173430
91.000000 74.650000 -9.000000 -2.000000 -1.000000 117.849936 -44.291699 2025.007196 146.546532 13.400716 0.000000 0.183584
92.000000 82.014000 -8.000000 -2.000000 -1.000000 115.131033 -45.775732 2080.840179 217.119290 12.197837 0.000000 0.197596
93.000000 90.742000 -7.000000 -2.000000 -1.000000 111.664169 -47.492021 2149.240747 308.271665 11.025190 0.000000 0.217804
103.000000 45.514000 -5.000000 -3.000000 0.000000 80.034123 -39.151252 1851.280416 1184.872677 10.996835 0.000000 0.137020
104.000000 46.357000 -3.000000 -2.000000 0.000000 74.718387 -39.735595 1869.686836 1323.403895 7.198591 0.000000 0.161492
105.000000 46.565000 -4.000000 -3.000000 0.000000 68.497207 -40.368444 1889.976561 1497.538774 10.750749 0.000000 0.195671
106.000000 45.734000 -7.000000 -6.000000 0.000000 61.168483 -41.055922 1912.454219 1726.696111 21.894465 0.000000 0.247084
107.000000 47.124000 -12.000000 -5.000000 0.000000 96.193828 -37.037375 1787.147205 794.671502 21.236534 0.000000 0.075038
108.000000 49.308000 -11.000000 -5.000000 0.000000 92.675727 -37.550450 1802.376354 877.555635 20.297206 0.000000 0.087901
109.000000 51.471000 -4.000000 -2.000000 0.000000 88.574258 -38.107753 1819.157721 975.044441 7.778183 0.000000 0.103069
110.000000 53.478000 -9.000000 -5.000000 0.000000 83.746376 -38.715140 1837.741360 1092.156685 18.717272 0.000000 0.121678
111.000000 55.090000 -8.000000 -5.000000 0.000000 78.005173 -39.379523 1858.434087 1236.839036 18.171488 0.000000 0.145954
112.000000 55.896000 -7.000000 -5.000000 0.000000 71.106374 -40.109113 1881.616547 1422.635738 17.911340 0.000000 0.180460
113.000000 55.210000 -6.000000 -5.000000 0.000000 62.733880 -40.913729 1907.766847 1675.039541 18.136080 0.000000 0.234872
115.000000 45.937000 -7.000000 -2.000000 0.000000 108.988976 -34.814943 1723.460373 489.884199 10.890087 0.000000 0.027583
116.000000 48.503000 -13.000000 -4.000000 0.000000 106.779775 -35.246713 1735.557000 543.610560 20.628831 0.000000 0.035720
117.000000 51.297000 -6.000000 -2.000000 0.000000 104.231591 -35.717056 1748.881839 604.785494 9.752978 0.000000 0.045275
118.000000 54.323000 -11.000000 -4.000000 0.000000 101.263799 -36.231312 1763.631950 675.257663 18.420410 0.000000 0.056364
119.000000 57.562000 -5.000000 -2.000000 0.000000 97.769563 -36.795834 1780.048933 757.613232 8.692575 0.000000 0.069266
120.000000 60.950000 -9.000000 -4.000000 0.000000 93.605151 -37.418243 1798.432262 855.618435 16.419922 0.000000 0.084500
121.000000 67.413000 -7.000000 -4.000000 0.000000 82.405147 -38.875596 1842.703362 1125.339065 14.848555 0.000000 0.127092
122.000000 69.467000 -5.000000 -4.000000 0.000000 64.985487 -40.704933 1900.920360 1603.486024 14.413564 0.000000 0.218541
124.000000 45.948000 -5.000000 -1.000000 0.000000 117.790921 -32.822528 1669.223418 265.989266 7.257371 0.000000 0.019512
125.000000 48.709000 -14.000000 -3.000000 0.000000 116.306395 -33.193866 1679.142696 305.157899 20.538391 0.000000 0.015427
126.000000 51.792000 -13.000000 -3.000000 0.000000 114.601244 -33.601126 1690.118707 349.346589 19.316202 0.000000 0.013534
127.000000 55.248000 -4.000000 -1.000000 0.000000 112.623626 -34.049737 1702.329820 399.647201 6.036232 0.000000 0.016097
128.000000 59.130000 -11.000000 -3.000000 0.000000 110.304559 -34.546267 1715.996935 457.515826 16.920285 0.000000 0.022969
129.000000 63.497000 -10.000000 -3.000000 0.000000 107.550459 -35.098742 1731.396975 524.949725 15.757350 0.000000 0.032851
130.000000 73.841000 -8.000000 -3.000000 0.000000 100.163760 -36.413553 1768.905623 701.233150 13.551701 0.000000 0.060444
131.000000 79.747000 -7.000000 -3.000000 0.000000 95.078574 -37.203810 1792.064622 820.909284 12.549193 0.000000 0.079115
133.000000 48.044000 -15.000000 -2.000000 0.000000 124.780709 -30.823337 1617.194467 70.542219 20.820019 0.000000 0.048049
134.000000 51.175000 -7.000000 -1.000000 0.000000 123.777561 -31.139252 1625.268294 99.902895 9.773214 0.000000 0.043625
135.000000 54.729000 -13.000000 -2.000000 0.000000 122.621527 -31.490189 1634.300497 133.136884 18.277579 0.000000 0.038587
136.000000 58.792000 -6.000000 -1.000000 0.000000 121.275243 -31.882282 1644.472484 171.086711 8.507364 0.000000 0.032849
137.000000 63.476000 -11.000000 -2.000000 0.000000 119.688270 -32.323177 1656.014529 214.867098 15.759617 0.000000 0.026395
138.000000 75.311000 -9.000000 -2.000000 0.000000 115.484303 -33.392691 1684.488330 326.563500 13.283788 0.000000 0.014046
139.000000 46.785000 -16.000000 -1.000000 0.000000 132.251951 -28.065542 1548.856046 -166.992672 21.378213 0.000000 0.080520
140.000000 49.806000 -15.000000 -1.000000 0.000000 131.813115 -28.250797 1553.333059 -151.949109 20.081481 0.000000 0.078714
141.000000 53.242000 -14.000000 -1.000000 0.000000 131.311336 -28.458551 1558.372351 -134.939246 18.785638 0.000000 0.076623
142.000000 57.183000 -13.000000 -1.000000 0.000000 130.732075 -28.693161 1564.086948 -115.548381 17.490893 0.000000 0.074179
143.000000 61.750000 -12.000000 -1.000000 0.000000 130.055961 -28.960186 1570.622344 -93.235530 16.197530 0.000000 0.071288
144.000000 67.101000 -11.000000 -1.000000 0.000000 129.256610 -29.266827 1578.169059 -67.280958 14.905936 0.000000 0.067829
145.000000 73.456000 -10.000000 -1.000000 0.000000 128.297148 -29.622584 1586.981525 -36.704879 13.616663 0.000000 0.063629
146.000000 81.119000 -9.000000 -1.000000 0.000000 127.124461 -30.040250 1597.407332 -0.136698 12.330514 0.000000 0.058448
147.000000 90.532000 -8.000000 -1.000000 0.000000 125.659214 -30.537467 1609.934166 44.404916 11.048711 0.000000 0.051944
159.000000 46.571000 -12.000000 -5.000000 1.000000 93.671857 -30.990012 1621.447503 860.429103 21.490050 0.000000 0.095364
160.000000 48.602000 -11.000000 -5.000000 1.000000 89.971508 -31.246297 1628.016235 941.626034 20.593458 0.000000 0.101585
161.000000 50.558000 -10.000000 -5.000000 1.000000 85.659926 -31.524746 1635.193572 1036.826689 19.798283 0.000000 0.107490
162.000000 52.280000 -9.000000 -5.000000 1.000000 80.588272 -31.828349 1643.068205 1150.980020 19.147927 0.000000 0.113471
163.000000 53.496000 -8.000000 -5.000000 1.000000 74.562939 -32.160655 1651.746938 1292.080085 18.714671 0.000000 0.121446
164.000000 53.749000 -7.000000 -5.000000 1.000000 67.332643 -32.525911 1661.359563 1474.124837 18.628501 0.000000 0.137777
165.000000 52.295000 -6.000000 -5.000000 1.000000 58.575765 -32.929240 1672.065389 1724.467809 19.149051 0.000000 0.178828
166.000000 47.964000 -5.000000 -5.000000 1.000000 47.895624 -33.376873 1684.062148 2105.759634 20.880917 0.000000 0.276607
167.000000 45.620000 -14.000000 -4.000000 1.000000 106.618766 -28.672186 1563.574986 574.862823 21.932975 0.000000 0.070192
168.000000 48.104000 -13.000000 -4.000000 1.000000 104.253898 -28.835565 1567.568071 628.877246 20.801267 0.000000 0.077632
169.000000 50.789000 -12.000000 -4.000000 1.000000 101.527635 -29.013444 1571.929833 689.983746 19.702618 0.000000 0.085251
170.000000 53.665000 -11.000000 -4.000000 1.000000 98.354315 -29.207839 1576.713802 759.920152 18.647637 0.000000 0.092827
171.000000 56.696000 -10.000000 -4.000000 1.000000 94.620611 -29.421158 1581.984400 841.134299 17.652009 0.000000 0.100016
172.000000 59.790000 -9.000000 -4.000000 1.000000 90.174416 -29.656298 1587.819855 937.229739 16.739962 0.000000 0.106322
173.000000 62.753000 -8.000000 -4.000000 1.000000 84.808734 -29.916778 1594.316113 1053.817945 15.950978 0.000000 0.111218
174.000000 65.201000 -7.000000 -4.000000 1.000000 78.238646 -30.206916 1601.592155 1200.301548 15.354059 0.000000 0.114938
175.000000 66.388000 -6.000000 -4.000000 1.000000 70.069916 -30.532064 1609.797348 1394.073259 15.081652 0.000000 0.122294
176.000000 64.923000 -5.000000 -4.000000 1.000000 59.761693 -30.898941 1619.121810 1672.150980 15.424330 0.000000 0.155695
177.000000 58.342000 -4.000000 -4.000000 1.000000 46.600712 -31.316094 1629.811324 2132.338194 17.167171 0.000000 0.273073
178.000000 45.723000 -15.000000 -3.000000 1.000000 115.390241 -26.324965 1507.521407 371.055474 21.880252 0.000000 0.049068
179.000000 48.428000 -14.000000 -3.000000 1.000000 113.750945 -26.392675 1509.105626 412.289795 20.658690 0.000000 0.056131
180.000000 51.436000 -13.000000 -3.000000 1.000000 111.869279 -26.466824 1510.842635 458.425272 19.451026 0.000000 0.063911
181.000000 54.790000 -12.000000 -3.000000 1.000000 109.688495 -26.548377 1512.755658 510.479406 18.261161 0.000000 0.072364
182.000000 58.532000 -11.000000 -3.000000 1.000000 107.133166 -26.638499 1514.872876 569.805421 17.094605 0.000000 0.081393
183.000000 62.698000 -10.000000 -3.000000 1.000000 104.101103 -26.738616 1517.228826 638.258936 15.959403 0.000000 0.090793
184.000000 67.306000 -9.000000 -3.000000 1.000000 100.450937 -26.850488 1519.866298 718.483940 14.867788 0.000000 0.100159
185.000000 72.314000 -8.000000 -3.000000 1.000000 95.982558 -26.976313 1522.838959 814.437426 13.839304 0.000000 0.108715
186.000000 77.544000 -7.000000 -3.000000 1.000000 90.405756 -27.118873 1526.215044 932.436336 12.907236 0.000000 0.115053
187.000000 82.502000 -6.000000 -3.000000 1.000000 83.289397 -27.281743 1530.082652 1083.487266 12.133251 0.000000 0.116921
188.000000 85.969000 -5.000000 -3.000000 1.000000 73.980206 -27.469593 1534.557553 1289.292867 11.645864 0.000000 0.113180
189.000000 85.118000 -4.000000 -3.000000 1.000000 61.483356 -27.688641 1539.794969 1601.411523 11.764665 0.000000 0.126159
190.000000 73.834000 -3.000000 -3.000000 1.000000 44.339584 -27.947356 1546.007950 2187.799969 13.565539 0.000000 0.276024
191.000000 47.849000 -15.000000 -2.000000 1.000000 122.165537 -23.610193 1445.449444 202.288664 20.905832 0.000000 0.036270
192.000000 50.930000 -14.000000 -2.000000 1.000000 120.982815 -23.547821 1444.054610 236.031560 19.641482 0.000000 0.041713
193.000000 54.416000 -13.000000 -2.000000 1.000000 119.620647 -23.478750 1442.511489 273.830253 18.383524 0.000000 0.048376
194.000000 58.387000 -12.000000 -2.000000 1.000000 118.035338 -23.401838 1440.795108 316.502413 17.133696 0.000000 0.056271
195.000000 62.942000 -11.000000 -2.000000 1.000000 116.167968 -23.315670 1438.874551 365.117114 15.894431 0.000000 0.065417
196.000000 68.201000 -10.000000 -2.000000 1.000000 113.937244 -23.218471 1436.711080 421.107814 14.669237 0.000000 0.075828
197.000000 74.313000 -9.000000 -2.000000 1.000000 111.228028 -23.107975 1434.255499 486.457798 13.463371 0.000000 0.087459
198.000000 81.446000 -8.000000 -2.000000 1.000000 107.872202 -22.981258 1431.444365 564.023334 12.285082 0.000000 0.100093
199.000000 89.760000 -7.000000 -2.000000 1.000000 103.615490 -22.834463 1428.194428 658.141310 11.148088 0.000000 0.113098
200.000000 99.310000 -6.000000 -2.000000 1.000000 98.057305 -22.662412 1424.394246 775.890918 10.077019 0.000000 0.124850
201.000000 109.736000 -5.000000 -2.000000 1.000000 90.536808 -22.457978 1419.891155 930.088281 9.120946 0.000000 0.131322
202.000000 119.268000 -4.000000 -2.000000 1.000000 79.909733 -22.211075 1414.470257 1147.879546 8.393721 0.000000 0.122816
203.000000 121.622000 -3.000000 -2.000000 1.000000 64.118000 -21.906947 1407.819115 1503.845103 8.233514 0.000000 0.092682
205.000000 46.650000 -16.000000 -1.000000 1.000000 129.544692 -20.428288 1375.875244 -7.276805 21.440771 0.000000 0.031410
206.000000 49.638000 -15.000000 -1.000000 1.000000 128.917556 -20.187315 1370.728671 15.117894 20.150333 0.000000 0.031524
207.000000 53.030000 -14.000000 -1.000000 1.000000 128.199700 -19.918523 1365.006684 40.158968 18.861744 0.000000 0.032833
208.000000 56.912000 -13.000000 -1.000000 1.000000 127.370035 -19.616813 1358.607066 68.353130 17.575452 0.000000 0.035634
209.000000 61.396000 -12.000000 -1.000000 1.000000 126.400438 -19.275764 1351.401868 100.348350 16.292064 0.000000 0.040147
210.000000 66.630000 -11.000000 -1.000000 1.000000 125.252568 -18.887175 1343.228765 136.988348 15.012420 0.000000 0.046525
211.000000 72.814000 -10.000000 -1.000000 1.000000 123.872810 -18.440407 1333.878679 179.395447 13.737718 0.000000 0.054904
212.000000 80.220000 -9.000000 -1.000000 1.000000 122.183915 -17.921404 1323.077644 229.101580 12.469729 0.000000 0.065452
213.000000 89.229000 -8.000000 -1.000000 1.000000 120.070553 -17.311217 1310.459512 288.265646 11.211187 0.000000 0.078404
214.000000 100.377000 -7.000000 -1.000000 1.000000 117.352988 -16.583687 1295.523624 360.056984 9.966540 0.000000 0.094012
215.000000 114.424000 -6.000000 -1.000000 1.000000 113.735950 -15.701683 1277.566792 449.389134 8.743551 0.000000 0.112397
216.000000 132.401000 -5.000000 -1.000000 1.000000 108.701411 -14.610753 1255.569374 564.489288 7.557087 0.000000 0.133008
217.000000 155.398000 -4.000000 -1.000000 1.000000 101.261716 -13.227857 1227.994681 720.841669 6.439663 0.000000 0.152688
218.000000 182.698000 -3.000000 -1.000000 1.000000 89.326423 -11.420188 1192.413665 953.909232 5.478670 0.000000 0.157787
219.000000 199.606000 -2.000000 -1.000000 1.000000 67.919362 -8.962549 1144.747179 1383.010940 5.016639 0.000000 0.082162
220.000000 45.826000 -17.000000 1.000000 1.000000 141.585087 -11.818197 1200.206367 -445.612450 21.822963 0.000000 0.045015
221.000000 48.714000 -16.000000 1.000000 1.000000 141.695214 -10.947811 1183.193196 -446.848955 20.529261 0.000000 0.041695
222.000000 51.987000 -15.000000 1.000000 1.000000 141.810092 -9.955479 1163.917523 -448.138996 19.236768 0.000000 0.037963
223.000000 55.727000 -14.000000 1.000000 1.000000 141.928320 -8.814386 1141.895880 -449.468647 17.945742 0.000000 0.033738
224.000000 60.040000 -13.000000 1.000000 1.000000 142.047238 -7.489517 1116.496492 -450.811335 16.656520 0.000000 0.028906
225.000000 65.067000 -12.000000 1.000000 1.000000 142.162027 -5.934418 1086.877674 -452.118834 15.369552 0.000000 0.023324
226.000000 70.999000 -11.000000 1.000000 1.000000 142.264104 -4.086390 1051.892764 -453.305116 14.085449 0.000000 0.016791
227.000000 78.098000 -10.000000 1.000000 1.000000 142.338186 -1.859259 1009.938229 -454.216415 12.805066 0.000000 0.009043
228.000000 86.737000 -9.000000 1.000000 1.000000 142.356687 0.867602 958.700949 -454.573216 11.529638 0.000000 0.001664
229.000000 97.461000 -8.000000 1.000000 1.000000 142.268630 4.265916 894.716891 -453.851756 10.261010 0.000000 0.012617
230.000000 111.092000 -7.000000 1.000000 1.000000 141.976622 8.582938 812.553612 -451.025331 9.002075 0.000000 0.028117
246.000000 47.237000 -11.000000 -5.000000 2.000000 86.568403 -25.203682 1481.550137 1012.329966 21.190234 0.000000 0.122524
247.000000 48.844000 -10.000000 -5.000000 2.000000 81.988938 -25.219346 1481.909596 1108.434529 20.494813 0.000000 0.120335
248.000000 50.107000 -9.000000 -5.000000 2.000000 76.615729 -25.236394 1482.300937 1224.119154 19.980145 0.000000 0.114763
249.000000 50.720000 -8.000000 -5.000000 2.000000 70.253871 -25.255019 1482.728596 1368.177643 19.741025 0.000000 0.107289
250.000000 50.188000 -7.000000 -5.000000 2.000000 62.655205 -25.275450 1483.197877 1556.508296 19.952572 0.000000 0.109245
251.000000 47.741000 -6.000000 -5.000000 2.000000 53.510743 -25.297963 1483.715167 1821.550391 20.978178 0.000000 0.154760
252.000000 47.193000 -13.000000 -4.000000 2.000000 101.032395 -22.751985 1426.371497 713.451926 21.204156 0.000000 0.119300
253.000000 52.236000 -11.000000 -4.000000 2.000000 94.598794 -22.564789 1422.242215 847.249242 19.159696 0.000000 0.129164
254.000000 57.419000 -9.000000 -4.000000 2.000000 85.711826 -22.340621 1417.312119 1028.252719 17.433145 0.000000 0.129898
255.000000 61.045000 -7.000000 -4.000000 2.000000 72.841459 -22.067338 1411.323236 1299.584336 16.401443 0.000000 0.108106
256.000000 57.471000 -5.000000 -4.000000 2.000000 53.227435 -21.726831 1403.893457 1806.880211 17.426879 0.000000 0.133914
257.000000 47.685000 -14.000000 -3.000000 2.000000 110.465372 -20.023796 1367.245382 513.488447 20.982103 0.000000 0.106204
258.000000 50.514000 -13.000000 -3.000000 2.000000 108.325893 -19.804395 1362.583043 562.099904 19.807520 0.000000 0.114238
259.000000 53.630000 -12.000000 -3.000000 2.000000 105.847395 -19.564080 1357.491014 616.758339 18.657594 0.000000 0.122354
260.000000 57.050000 -11.000000 -3.000000 2.000000 102.945516 -19.299722 1351.907024 678.864314 17.540192 0.000000 0.130212
261.000000 60.772000 -10.000000 -3.000000 2.000000 99.506774 -19.007534 1345.756159 750.365063 16.466932 0.000000 0.137219
262.000000 64.754000 -9.000000 -3.000000 2.000000 95.375686 -18.682898 1338.947481 834.087376 15.455708 0.000000 0.142333
263.000000 68.859000 -8.000000 -3.000000 2.000000 90.335139 -18.320113 1331.369502 934.368250 14.535596 0.000000 0.143689
264.000000 72.764000 -7.000000 -3.000000 2.000000 84.076327 -17.912072 1322.884032 1058.362250 13.757214 0.000000 0.137920
265.000000 75.749000 -6.000000 -3.000000 2.000000 76.153413 -17.449793 1313.317676 1219.088980 13.217190 0.000000 0.119036
266.000000 76.290000 -5.000000 -3.000000 2.000000 65.919573 -16.921765 1302.449859 1443.777211 13.125825 0.000000 0.081199
267.000000 71.317000 -4.000000 -3.000000 2.000000 52.455525 -16.313002 1289.995610 1802.896379 14.043884 0.000000 0.110931
269.000000 47.247000 -15.000000 -2.000000 2.000000 118.802178 -16.964126 1303.319448 322.329086 21.173495 0.000000 0.085862
270.000000 53.490000 -13.000000 -2.000000 2.000000 115.682176 -16.164892 1286.977352 402.122027 18.703293 0.000000 0.102864
271.000000 61.424000 -11.000000 -2.000000 2.000000 111.442060 -15.186672 1267.153854 502.997015 16.288694 0.000000 0.122519
272.000000 71.613000 -9.000000 -2.000000 2.000000 105.374843 -13.962583 1242.603854 636.036930 13.972801 0.000000 0.143390
273.000000 84.394000 -7.000000 -2.000000 2.000000 96.064208 -12.388295 1211.408149 823.931505 11.858787 0.000000 0.158902
274.000000 97.475000 -5.000000 -2.000000 2.000000 80.329658 -10.292270 1170.445824 1127.400331 10.270512 0.000000 0.139816
275.000000 90.885000 -3.000000 -2.000000 2.000000 50.274496 -7.373452 1114.279129 1842.823764 11.020734 0.000000 0.103622
276.000000 46.163000 -16.000000 -1.000000 2.000000 126.087028 -13.529648 1233.984497 134.134577 21.668127 0.000000 0.062249
277.000000 49.043000 -15.000000 -1.000000 2.000000 125.183719 -12.951260 1222.517936 162.409317 20.395947 0.000000 0.068748
278.000000 52.294000 -14.000000 -1.000000 2.000000 124.145750 -12.311488 1209.896168 193.857813 19.128448 0.000000 0.076092
279.000000 55.988000 -13.000000 -1.000000 2.000000 122.941350 -11.600198 1195.935361 229.070164 17.866793 0.000000 0.084355
280.000000 60.216000 -12.000000 -1.000000 2.000000 121.528148 -10.804950 1180.410490 268.801116 16.612565 0.000000 0.093619
281.000000 65.095000 -11.000000 -1.000000 2.000000 119.848448 -9.910316 1163.043120 314.035945 15.367975 0.000000 0.103959
282.000000 70.769000 -10.000000 -1.000000 2.000000 117.821820 -8.896954 1143.484557 366.093255 14.136205 0.000000 0.115421
283.000000 77.422000 -9.000000 -1.000000 2.000000 115.333050 -7.740329 1121.292193 426.793144 12.922017 0.000000 0.127973
284.000000 85.274000 -8.000000 -1.000000 2.000000 112.211844 -6.408930 1095.895611 498.749049 11.732860 0.000000 0.141386
285.000000 94.563000 -7.000000 -1.000000 2.000000 108.197173 -4.861732 1066.546861 585.913730 10.581085 0.000000 0.154980
286.000000 105.460000 -6.000000 -1.000000 2.000000 102.871795 -3.044559 1032.245559 694.705628 9.488768 0.000000 0.166976
287.000000 117.750000 -5.000000 -1.000000 2.000000 95.536528 -0.884821 991.622584 836.659623 8.499628 0.000000 0.172824
288.000000 129.766000 -4.000000 -1.000000 2.000000 84.961095 1.716136 942.752940 1035.942593 7.714161 0.000000 0.160152
289.000000 134.840000 -3.000000 -1.000000 2.000000 68.903234 4.894042 882.841768 1357.757025 7.426125 0.000000 0.091646
290.000000 111.085000 -2.000000 -1.000000 2.000000 43.428260 8.836929 807.670435 2091.684505 9.017246 0.000000 0.213117
291.000000 47.384000 -16.000000 0.000000 2.000000 131.898734 -8.858178 1142.738390 -36.317631 21.108190 0.000000 0.042888
292.000000 50.445000 -15.000000 0.000000 2.000000 131.332365 -7.948930 1125.285117 -14.809029 19.827282 0.000000 0.047179
293.000000 53.920000 -14.000000 0.000000 2.000000 130.671763 -6.933514 1105.884747 9.350075 18.549636 0.000000 0.052257
294.000000 57.896000 -13.000000 0.000000 2.000000 129.892683 -5.792951 1084.192202 36.693631 17.276040 0.000000 0.058177
295.000000 62.485000 -12.000000 0.000000 2.000000 128.962191 -4.503679 1059.775744 67.913584 16.007559 0.000000 0.065002
296.000000 67.833000 -11.000000 0.000000 2.000000 127.834567 -3.036192 1032.087942 103.925038 14.745665 0.000000 0.072813
297.000000 74.135000 -10.000000 0.000000 2.000000 126.444735 -1.353185 1000.424145 145.967838 13.492456 0.000000 0.081700
298.000000 81.650000 -9.000000 0.000000 2.000000 124.697367 0.592920 963.861668 195.771793 12.251026 0.000000 0.091748
299.000000 90.724000 -8.000000 0.000000 2.000000 122.448086 2.863302 921.168396 255.839728 11.026138 0.000000 0.103003
300.000000 101.814000 -7.000000 0.000000 2.000000 119.469572 5.537101 870.661197 329.965180 9.825521 0.000000 0.115376
301.000000 115.490000 -6.000000 0.000000 2.000000 115.387242 8.716908 809.978769 424.262830 8.662610 0.000000 0.128399
302.000000 132.295000 -5.000000 0.000000 2.000000 109.550401 12.534980 735.701818 549.465642 7.562998 0.000000 0.140563
303.000000 152.032000 -4.000000 0.000000 2.000000 100.760307 17.158480 642.685765 726.930835 6.582212 0.000000 0.147434
304.000000 170.592000 -3.000000 0.000000 2.000000 86.684771 22.788782 522.815494 1008.624606 5.867563 0.000000 0.137102
305.000000 167.412000 -2.000000 0.000000 2.000000 62.773229 29.643452 362.499627 1578.168566 5.981350 0.000000 0.140857
306.000000 48.245000 -16.000000 1.000000 2.000000 137.355829 -3.030683 1031.984178 -229.288525 20.729990 0.000000 0.019970
307.000000 51.412000 -15.000000 1.000000 2.000000 137.066901 -1.652022 1006.041643 -216.370705 19.453070 0.000000 0.020848
308.000000 55.012000 -14.000000 1.000000 2.000000 136.709432 -0.098851 976.856899 -201.514197 18.179910 0.000000 0.022422
309.000000 59.139000 -13.000000 1.000000 2.000000 136.261842 1.661422 943.781631 -184.250018 16.911396 0.000000 0.024606
310.000000 63.912000 -12.000000 1.000000 2.000000 135.693794 3.669084 905.982334 -163.945587 15.648713 0.000000 0.027241
311.000000 69.486000 -11.000000 1.000000 2.000000 134.961735 5.974084 862.369100 -139.726976 14.393487 0.000000 0.030104
312.000000 76.069000 -10.000000 1.000000 2.000000 134.001671 8.638352 811.488806 -110.352440 13.148010 0.000000 0.032878
313.000000 83.938000 -9.000000 1.000000 2.000000 132.717110 11.738284 751.360066 -73.997580 11.915619 0.000000 0.035071
314.000000 93.464000 -8.000000 1.000000 2.000000 130.958268 15.366842 679.209175 -27.871091 10.701376 0.000000 0.035864
315.000000 105.139000 -7.000000 1.000000 2.000000 128.484967 19.633950 591.030084 32.517302 9.513333 0.000000 0.033794
316.000000 119.576000 -6.000000 1.000000 2.000000 124.897924 24.662442 480.814463 114.866357 8.365138 0.000000 0.026106
317.000000 137.375000 -5.000000 1.000000 2.000000 119.506799 30.574721 339.122122 233.531600 7.281905 0.000000 0.008434
318.000000 158.416000 -4.000000 1.000000 2.000000 111.070492 37.463387 150.222549 418.575090 6.315469 0.000000 0.038989
319.000000 178.924000 -3.000000 1.000000 2.000000 97.301067 45.341243 -114.191654 744.812471 5.592792 0.000000 0.143575
321.000000 45.898000 -17.000000 2.000000 2.000000 142.330579 2.469492 928.582154 -454.395040 21.788649 0.000000 0.006392
322.000000 51.923000 -15.000000 2.000000 2.000000 142.157092 6.290335 856.359768 -452.798071 19.260180 0.000000 0.019795
323.000000 59.686000 -13.000000 2.000000 2.000000 141.699680 11.191778 762.048500 -448.228234 16.755261 0.000000 0.037898
338.000000 46.403000 -10.000000 -5.000000 3.000000 77.694729 -19.314637 1352.221602 1189.775805 21.575294 0.000000 0.121760
339.000000 47.077000 -9.000000 -5.000000 3.000000 71.993041 -19.080549 1347.291157 1311.192114 21.268264 0.000000 0.104857
340.000000 46.951000 -8.000000 -5.000000 3.000000 65.282123 -18.825799 1341.941343 1464.449391 21.327972 0.000000 0.083991
342.000000 45.789000 -13.000000 -4.000000 3.000000 97.214657 -17.096094 1306.031038 798.454009 21.856117 0.000000 0.146087
343.000000 47.927000 -12.000000 -4.000000 3.000000 93.940386 -16.778060 1299.502737 863.567095 20.882903 0.000000 0.148511
344.000000 50.084000 -11.000000 -4.000000 3.000000 90.143391 -16.432956 1292.443446 938.191688 19.984847 0.000000 0.148398
345.000000 52.160000 -10.000000 -4.000000 3.000000 85.698899 -16.057202 1284.785636 1025.234074 19.190969 0.000000 0.144260
346.000000 53.976000 -9.000000 -4.000000 3.000000 80.444105 -15.646562 1276.449819 1129.162043 18.547429 0.000000 0.133763
347.000000 55.218000 -8.000000 -4.000000 3.000000 74.165743 -15.195989 1267.341780 1257.315765 18.132389 0.000000 0.113381
348.000000 55.356000 -7.000000 -4.000000 3.000000 66.585307 -14.699426 1257.349001 1422.852755 18.089551 0.000000 0.079871
349.000000 53.514000 -6.000000 -4.000000 3.000000 57.345105 -14.149541 1246.335987 1652.354530 18.715072 0.000000 0.064161
350.000000 48.313000 -5.000000 -4.000000 3.000000 46.005441 -13.537376 1234.138089 2009.863577 20.732725 0.000000 0.180079
351.000000 46.490000 -14.000000 -3.000000 3.000000 106.559609 -14.187480 1247.094091 610.900340 21.523223 0.000000 0.139987
352.000000 49.044000 -13.000000 -3.000000 3.000000 104.103456 -13.728101 1237.931567 662.632369 20.403044 0.000000 0.146680
353.000000 54.738000 -11.000000 -3.000000 3.000000 97.941178 -12.681129 1217.180934 787.109471 18.282959 0.000000 0.157368
354.000000 57.810000 -10.000000 -3.000000 3.000000 94.018184 -12.081239 1205.368904 863.682468 17.312713 0.000000 0.159660
355.000000 63.767000 -8.000000 -3.000000 3.000000 83.639434 -10.688327 1178.140812 1063.093980 15.698777 0.000000 0.148672
356.000000 65.942000 -7.000000 -3.000000 3.000000 76.646173 -9.873917 1162.338562 1200.334443 15.182892 0.000000 0.126785
357.000000 63.917000 -5.000000 -3.000000 3.000000 56.882824 -7.936369 1125.044579 1649.876869 15.669188 0.000000 0.035979
358.000000 55.311000 -4.000000 -3.000000 3.000000 42.805118 -6.773026 1102.826436 2111.250878 18.110158 0.000000 0.217975
359.000000 46.243000 -15.000000 -2.000000 3.000000 114.813237 -10.976506 1183.752445 434.107022 21.634774 0.000000 0.122943
360.000000 48.960000 -14.000000 -2.000000 3.000000 113.035607 -10.349936 1171.564997 475.780929 20.434961 0.000000 0.131051
361.000000 51.967000 -13.000000 -2.000000 3.000000 110.985788 -9.665410 1158.305664 522.210902 19.253137 0.000000 0.139408
362.000000 55.297000 -12.000000 -2.000000 3.000000 108.598919 -8.914722 1143.826532 574.380824 18.094465 0.000000 0.147819
363.000000 58.977000 -11.000000 -2.000000 3.000000 105.788767 -8.088093 1127.951162 633.609679 16.966297 0.000000 0.155935
364.000000 63.018000 -10.000000 -2.000000 3.000000 102.438664 -7.173788 1110.467361 701.726796 15.879460 0.000000 0.163143
365.000000 67.389000 -9.000000 -2.000000 3.000000 98.387804 -6.157626 1091.117647 781.379862 14.850600 0.000000 0.168353
366.000000 71.970000 -8.000000 -2.000000 3.000000 93.410246 -5.022343 1069.586478 876.615997 13.906680 0.000000 0.169587
367.000000 76.444000 -7.000000 -2.000000 3.000000 87.182638 -3.746759 1045.482919 994.079943 13.094458 0.000000 0.163116
368.000000 80.075000 -6.000000 -2.000000 3.000000 79.235542 -2.304690 1018.316686 1145.787891 12.502714 0.000000 0.141523
369.000000 81.257000 -5.000000 -2.000000 3.000000 68.885435 -0.663506 987.464446 1356.649629 12.323167 0.000000 0.088851
370.000000 76.686000 -4.000000 -2.000000 3.000000 55.162695 1.217743 952.121408 1690.252978 13.060529 0.000000 0.036256
372.000000 48.026000 -15.000000 -1.000000 3.000000 120.776343 -6.615160 1099.820101 295.705840 20.829476 0.000000 0.106105
373.000000 51.043000 -14.000000 -1.000000 3.000000 119.349878 -5.714850 1082.710194 332.756119 19.598716 0.000000 0.114179
374.000000 54.429000 -13.000000 -1.000000 3.000000 117.692941 -4.724790 1063.956346 374.175847 18.380177 0.000000 0.122813
375.000000 58.242000 -12.000000 -1.000000 3.000000 115.747833 -3.631547 1043.309671 420.863003 17.177256 0.000000 0.131956
376.000000 62.551000 -11.000000 -1.000000 3.000000 113.436824 -2.419039 1020.468376 474.008224 15.994738 0.000000 0.141484
377.000000 67.424000 -10.000000 -1.000000 3.000000 110.653111 -1.067911 995.062906 535.238066 14.839589 0.000000 0.151127
378.000000 72.918000 -9.000000 -1.000000 3.000000 107.246716 0.445253 966.635802 606.859281 13.722347 0.000000 0.160348
379.000000 79.044000 -8.000000 -1.000000 3.000000 103.001997 2.148918 934.613905 692.303483 12.659762 0.000000 0.168090
380.000000 85.683000 -7.000000 -1.000000 3.000000 97.601109 4.077806 898.269314 797.005940 11.680152 0.000000 0.172262
381.000000 92.375000 -6.000000 -1.000000 3.000000 90.564241 6.274366 856.663381 930.336583 10.835486 0.000000 0.168582
382.000000 97.835000 -5.000000 -1.000000 3.000000 81.154089 8.790452 808.564492 1110.493264 10.232580 0.000000 0.147969
383.000000 98.835000 -4.000000 -1.000000 3.000000 68.240002 11.689080 752.324088 1379.713894 10.131396 0.000000 0.093352
384.000000 88.069000 -3.000000 -1.000000 3.000000 50.188048 15.045878 685.683925 1869.961410 11.372821 0.000000 0.135655
385.000000 47.410000 -16.000000 1.000000 3.000000 132.385903 3.428548 910.518166 -43.067565 21.096547 0.000000 0.046314
386.000000 50.394000 -15.000000 1.000000 3.000000 131.642384 4.998890 880.857458 -19.657458 19.847283 0.000000 0.049563
387.000000 53.757000 -14.000000 1.000000 3.000000 130.755827 6.735151 847.895015 6.968919 18.605968 0.000000 0.052888
388.000000 57.568000 -13.000000 1.000000 3.000000 129.687524 8.661337 811.047034 37.535749 17.374514 0.000000 0.056197
389.000000 61.913000 -12.000000 1.000000 3.000000 128.385085 10.805261 769.583458 73.006258 16.155501 0.000000 0.059351
390.000000 66.896000 -11.000000 1.000000 3.000000 126.776397 13.198907 722.579118 114.691938 14.952493 0.000000 0.062150
391.000000 72.639000 -10.000000 1.000000 3.000000 124.760358 15.878610 668.843879 164.428614 13.770560 0.000000 0.064296
392.000000 79.283000 -9.000000 1.000000 3.000000 122.192368 18.884829 606.820470 224.873199 12.617169 0.000000 0.065356
393.000000 86.960000 -8.000000 1.000000 3.000000 118.861164 22.261185 534.431091 300.031560 11.503780 0.000000 0.064757
394.000000 95.746000 -7.000000 1.000000 3.000000 114.451206 26.052275 448.840081 396.262185 10.448944 0.000000 0.062026
395.000000 105.488000 -6.000000 1.000000 3.000000 108.481296 30.299630 346.073734 524.353164 9.484775 0.000000 0.058422
396.000000 115.389000 -5.000000 1.000000 3.000000 100.206801 35.035168 220.385697 704.327023 8.672127 0.000000 0.064707
397.000000 122.925000 -4.000000 1.000000 3.000000 88.480928 40.271861 63.144444 978.408654 8.142008 0.000000 0.112566
398.000000 121.530000 -3.000000 1.000000 3.000000 71.641721 45.992345 -139.237404 1455.088403 8.237605 0.000000 0.252462
400.000000 47.906000 -16.000000 2.000000 3.000000 136.787884 10.514702 775.234965 -224.217633 20.876858 0.000000 0.024450
401.000000 50.919000 -15.000000 2.000000 3.000000 136.164816 12.606743 734.286725 -207.663593 19.641545 0.000000 0.027399
402.000000 54.308000 -14.000000 2.000000 3.000000 135.392422 14.919228 688.233432 -188.205196 18.416005 0.000000 0.030506
403.000000 58.139000 -13.000000 2.000000 3.000000 134.426946 17.480086 636.056946 -165.053259 17.202528 0.000000 0.033838
404.000000 62.494000 -12.000000 2.000000 3.000000 133.209031 20.319550 576.449100 -137.117619 16.004178 0.000000 0.037579
405.000000 67.465000 -11.000000 2.000000 3.000000 131.657138 23.469254 507.700519 -102.853819 14.825154 0.000000 0.042174
406.000000 73.160000 -10.000000 2.000000 3.000000 129.657776 26.960540 427.534038 -60.008260 13.671364 0.000000 0.048585
407.000000 79.691000 -9.000000 2.000000 3.000000 127.050817 30.821686 332.847595 -5.175701 12.551403 0.000000 0.058703
408.000000 87.145000 -8.000000 2.000000 3.000000 123.607249 35.073772 219.303527 67.010176 11.478266 0.000000 0.075928
409.000000 95.520000 -7.000000 2.000000 3.000000 118.995417 39.725137 80.645325 165.454282 10.472581 0.000000 0.105964
410.000000 104.547000 -6.000000 2.000000 3.000000 112.730801 44.764837 -92.495339 305.927181 9.569179 0.000000 0.158535
411.000000 113.290000 -5.000000 2.000000 3.000000 104.106724 50.156325 -314.808013 518.832445 8.831859 0.000000 0.251952
424.000000 47.318000 -11.000000 -4.000000 4.000000 85.169773 -10.878532 1181.843406 1033.615134 21.155216 0.000000 0.151874
425.000000 49.715000 -9.000000 -4.000000 4.000000 74.646736 -9.655796 1158.119833 1240.763198 20.139357 0.000000 0.118276
426.000000 48.751000 -7.000000 -4.000000 4.000000 59.896166 -8.204811 1130.188633 1571.455374 20.542823 0.000000 0.032929
427.000000 47.079000 -13.000000 -3.000000 4.000000 99.360469 -8.281799 1131.665193 761.713812 21.256820 0.000000 0.164808
428.000000 49.377000 -12.000000 -3.000000 4.000000 96.124189 -7.586137 1118.343280 824.498044 20.268829 0.000000 0.167266
429.000000 51.720000 -11.000000 -3.000000 4.000000 92.357227 -6.831449 1103.939536 896.377983 19.352221 0.000000 0.167092
430.000000 54.007000 -10.000000 -3.000000 4.000000 87.930514 -6.010189 1088.316605 980.106913 18.534383 0.000000 0.162692
431.000000 56.056000 -9.000000 -3.000000 4.000000 82.675150 -5.113528 1071.312850 1079.903806 17.858757 0.000000 0.151456
432.000000 57.545000 -8.000000 -3.000000 4.000000 76.369361 -4.131088 1052.736743 1202.672179 17.398650 0.000000 0.128927
433.000000 57.921000 -7.000000 -3.000000 4.000000 68.723213 -3.050613 1032.359616 1360.722124 17.288197 0.000000 0.087106
434.000000 56.258000 -6.000000 -3.000000 4.000000 59.364903 -1.857556 1009.906202 1578.743995 17.801983 0.000000 0.010786
435.000000 51.094000 -5.000000 -3.000000 4.000000 47.840625 -0.534570 985.042128 1915.576776 19.604060 0.000000 0.131627
436.000000 49.904000 -13.000000 -2.000000 4.000000 105.733315 -3.990922 1050.090457 637.054911 20.050993 0.000000 0.161364
437.000000 55.739000 -11.000000 -2.000000 4.000000 99.515651 -2.012956 1012.828695 760.476455 17.954154 0.000000 0.171155
438.000000 62.009000 -9.000000 -2.000000 4.000000 90.762502 0.353047 968.367964 926.675372 16.141537 0.000000 0.170186
439.000000 66.997000 -7.000000 -2.000000 4.000000 77.816602 3.222654 914.398920 1173.744686 14.943628 0.000000 0.137221
440.000000 64.499000 -5.000000 -2.000000 4.000000 57.663968 6.755563 847.506209 1627.116405 15.527584 0.000000 0.038436
441.000000 46.612000 -15.000000 -1.000000 4.000000 115.868360 -1.148087 996.569569 419.009080 21.463033 0.000000 0.133107
442.000000 49.317000 -14.000000 -1.000000 4.000000 114.020417 -0.081481 976.530616 461.342805 20.286720 0.000000 0.140375
443.000000 52.294000 -13.000000 -1.000000 4.000000 111.878489 1.078811 954.732275 508.725166 19.132404 0.000000 0.147700
444.000000 55.567000 -12.000000 -1.000000 4.000000 109.372066 2.344609 930.932200 562.249592 18.006371 0.000000 0.154851
445.000000 59.147000 -11.000000 -1.000000 4.000000 106.407892 3.729568 904.841392 623.395646 16.917552 0.000000 0.161434
446.000000 63.019000 -10.000000 -1.000000 4.000000 102.860820 5.249474 876.112412 694.235197 15.879082 0.000000 0.166786
447.000000 67.115000 -9.000000 -1.000000 4.000000 98.560447 6.922573 844.323814 777.795932 14.911100 0.000000 0.169775
448.000000 71.256000 -8.000000 -1.000000 4.000000 93.271625 8.769923 808.959335 878.748227 14.046140 0.000000 0.168436
449.000000 75.035000 -7.000000 -1.000000 4.000000 86.666656 10.815729 769.379644 1004.820926 13.340396 0.000000 0.159301
450.000000 77.608000 -6.000000 -1.000000 4.000000 78.288311 13.087634 724.783342 1170.068932 12.900015 0.000000 0.136452
451.000000 77.309000 -5.000000 -1.000000 4.000000 67.510056 15.616844 674.152134 1403.674733 12.952455 0.000000 0.095014
452.000000 71.086000 -4.000000 -1.000000 4.000000 53.525380 18.437973 616.172128 1779.733321 14.089119 0.000000 0.120180
454.000000 47.992000 -15.000000 0.000000 4.000000 121.068873 4.143984 897.019747 290.835231 20.844275 0.000000 0.109066
455.000000 54.146000 -13.000000 0.000000 4.000000 117.598380 7.056256 841.774850 374.071782 18.476315 0.000000 0.121864
456.000000 61.740000 -11.000000 0.000000 4.000000 112.745471 10.536571 774.809986 482.033467 16.204958 0.000000 0.134760
457.000000 70.945000 -9.000000 0.000000 4.000000 105.633574 14.734181 691.953099 629.572350 14.104136 0.000000 0.145156
458.000000 81.044000 -7.000000 0.000000 4.000000 94.599925 19.834154 586.785317 848.943949 12.349061 0.000000 0.145579
459.000000 87.207000 -5.000000 0.000000 4.000000 76.362683 26.049996 448.893123 1231.652143 11.479992 0.000000 0.122799
461.000000 46.226000 -16.000000 1.000000 4.000000 126.991266 8.673917 810.805243 120.830714 21.638438 0.000000 0.071538
462.000000 48.960000 -15.000000 1.000000 4.000000 125.780002 10.312410 779.163358 152.587211 20.430327 0.000000 0.074981
463.000000 52.000000 -14.000000 1.000000 4.000000 124.357035 12.095738 744.346248 188.524971 19.236585 0.000000 0.078350
464.000000 55.386000 -13.000000 1.000000 4.000000 122.670349 14.040037 705.850718 229.564526 18.060751 0.000000 0.081540
465.000000 59.166000 -12.000000 1.000000 4.000000 120.651397 16.162993 663.061322 276.929196 16.907631 0.000000 0.084406
466.000000 63.380000 -11.000000 1.000000 4.000000 118.208667 18.483710 615.217207 332.285180 15.783918 0.000000 0.086750
467.000000 68.060000 -10.000000 1.000000 4.000000 115.218335 21.022400 561.366477 397.969637 14.699222 0.000000 0.088317
468.000000 73.201000 -9.000000 1.000000 4.000000 111.510624 23.799797 500.302214 477.380123 13.667855 0.000000 0.088835
469.000000 78.710000 -8.000000 1.000000 4.000000 106.849922 26.836195 430.470948 575.679334 12.712098 0.000000 0.088242
470.000000 84.312000 -7.000000 1.000000 4.000000 100.906475 30.149996 349.838646 701.165919 11.868659 0.000000 0.087595
471.000000 89.336000 -6.000000 1.000000 4.000000 93.218773 33.755662 255.689311 868.198841 11.202588 0.000000 0.092352
472.000000 92.330000 -5.000000 1.000000 4.000000 83.153047 37.661061 144.313034 1104.249874 10.841194 0.000000 0.119933
473.000000 90.424000 -4.000000 1.000000 4.000000 69.891859 41.864319 10.505547 1470.108036 11.071936 0.000000 0.205624
476.000000 49.499000 -15.000000 2.000000 4.000000 129.831025 17.413107 637.439401 0.160731 20.206806 0.000000 0.035318
477.000000 55.986000 -13.000000 2.000000 4.000000 126.864790 22.045114 539.162768 70.268834 17.866122 0.000000 0.030904
478.000000 64.015000 -11.000000 2.000000 4.000000 122.488183 27.501138 414.689487 168.326091 15.626171 0.000000 0.018686
479.000000 73.787000 -9.000000 2.000000 4.000000 115.779798 33.893615 251.934360 314.751492 13.557892 0.000000 0.013210
480.000000 84.655000 -7.000000 2.000000 4.000000 105.056246 41.282708 30.027738 555.718491 11.819279 0.000000 0.079634
481.000000 92.261000 -5.000000 2.000000 4.000000 87.234032 49.617816 -290.438500 1021.259517 10.847979 0.000000 0.247950
483.000000 46.881000 -16.000000 3.000000 4.000000 134.200662 22.934099 519.600470 -195.511749 21.333764 0.000000 0.054560
484.000000 49.609000 -15.000000 3.000000 4.000000 133.055708 25.406827 463.780745 -172.291830 20.160644 0.000000 0.061807
485.000000 52.623000 -14.000000 3.000000 4.000000 131.668409 28.070724 401.018915 -144.578662 19.006238 0.000000 0.070726
486.000000 55.955000 -13.000000 3.000000 4.000000 129.977969 30.935932 329.934060 -111.079075 17.874910 0.000000 0.082054
487.000000 59.634000 -12.000000 3.000000 4.000000 127.905797 34.010146 248.752997 -69.988289 16.772500 0.000000 0.096899
488.000000 63.682000 -11.000000 3.000000 4.000000 125.349666 37.297411 155.160348 -18.722863 15.706995 0.000000 0.116925
489.000000 68.095000 -10.000000 3.000000 4.000000 122.175856 40.796753 46.074147 46.526093 14.689626 0.000000 0.144661
490.000000 72.823000 -9.000000 3.000000 4.000000 118.208771 44.500775 -82.700045 131.573580 13.736692 0.000000 0.184033
491.000000 77.716000 -8.000000 3.000000 4.000000 113.217699 48.394402 -237.020880 245.677070 12.872787 0.000000 0.241339
499.000000 46.482000 -12.000000 -3.000000 5.000000 90.630907 -2.622603 1024.299709 929.135580 21.533446 0.000000 0.169001
500.000000 48.169000 -11.000000 -3.000000 5.000000 86.430432 -1.725500 1007.423119 1008.171258 20.781286 0.000000 0.162679
501.000000 49.620000 -10.000000 -3.000000 5.000000 81.531360 -0.757355 989.227641 1101.265047 20.175376 0.000000 0.150091
502.000000 50.610000 -9.000000 -3.000000 5.000000 75.772357 0.289997 969.552386 1213.900401 19.782906 0.000000 0.127782
503.000000 50.779000 -8.000000 -3.000000 5.000000 68.951149 1.425896 948.209184 1355.332182 19.719662 0.000000 0.090118
504.000000 49.569000 -7.000000 -3.000000 5.000000 60.819160 2.661049 924.976547 1542.697118 20.203671 0.000000 0.030727
505.000000 46.157000 -6.000000 -3.000000 5.000000 51.083785 4.007745 899.591961 1812.093207 21.700006 0.000000 0.089663
506.000000 47.391000 -13.000000 -2.000000 5.000000 100.121587 0.914879 957.812641 748.839891 21.116716 0.000000 0.171472
507.000000 49.642000 -12.000000 -2.000000 5.000000 96.791686 1.982830 937.737893 812.741270 20.160622 0.000000 0.173086
508.000000 51.906000 -11.000000 -2.000000 5.000000 92.910665 3.135798 916.035531 886.194364 19.282702 0.000000 0.171961
509.000000 54.069000 -10.000000 -2.000000 5.000000 88.347244 4.383299 892.499244 972.146529 18.512758 0.000000 0.166541
510.000000 55.932000 -9.000000 -2.000000 5.000000 82.931982 5.736116 866.886320 1075.121059 17.897938 0.000000 0.154359
511.000000 57.154000 -8.000000 -2.000000 5.000000 76.446632 7.206454 838.909236 1202.521794 17.517524 0.000000 0.131497
512.000000 57.167000 -7.000000 -2.000000 5.000000 68.613537 8.808111 808.224826 1367.532001 17.515914 0.000000 0.092694
513.000000 55.067000 -6.000000 -2.000000 5.000000 59.090503 10.556629 774.420128 1596.485716 18.186756 0.000000 0.054344
514.000000 49.505000 -5.000000 -2.000000 5.000000 47.484670 12.469431 736.993696 1951.610841 20.232961 0.000000 0.159887
515.000000 47.179000 -14.000000 -1.000000 5.000000 108.349746 4.698006 886.550209 582.809280 21.207975 0.000000 0.156278
516.000000 49.679000 -13.000000 -1.000000 5.000000 105.727666 5.949006 862.845319 636.265347 20.142014 0.000000 0.161192
517.000000 52.330000 -12.000000 -1.000000 5.000000 102.677176 7.298946 837.143655 696.919243 19.122447 0.000000 0.165102
518.000000 55.094000 -11.000000 -1.000000 5.000000 99.096651 8.758353 809.181828 766.636918 18.164387 0.000000 0.167329
519.000000 57.884000 -10.000000 -1.000000 5.000000 94.853802 10.338963 778.647994 848.094696 17.290307 0.000000 0.166814
520.000000 60.533000 -9.000000 -1.000000 5.000000 89.775403 12.053796 745.170175 945.314176 16.535153 0.000000 0.161889
521.000000 62.736000 -8.000000 -1.000000 5.000000 83.634318 13.917208 708.301027 1064.704445 15.956378 0.000000 0.149993
522.000000 63.951000 -7.000000 -1.000000 5.000000 76.134955 15.944884 667.497743 1217.288994 15.655546 0.000000 0.127788
523.000000 63.253000 -6.000000 -1.000000 5.000000 66.902000 18.153739 622.095142 1424.079832 15.830721 0.000000 0.097314
524.000000 59.167000 -5.000000 -1.000000 5.000000 55.486407 20.561670 571.269131 1731.448335 16.926789 0.000000 0.118327
526.000000 47.156000 -15.000000 1.000000 5.000000 119.671754 14.586616 694.914789 307.372546 21.214031 0.000000 0.094774
527.000000 49.807000 -14.000000 1.000000 5.000000 117.734710 16.343980 659.372520 351.269614 20.085571 0.000000 0.097651
528.000000 52.692000 -13.000000 1.000000 5.000000 115.466589 18.233829 620.428135 401.304692 18.986437 0.000000 0.100162
529.000000 55.816000 -12.000000 1.000000 5.000000 112.789143 20.267123 577.568603 458.963603 17.924708 0.000000 0.102136
530.000000 59.162000 -11.000000 1.000000 5.000000 109.600922 22.455094 530.172283 526.285316 16.911731 0.000000 0.103365
531.000000 62.678000 -10.000000 1.000000 5.000000 105.769405 24.808933 477.478572 606.158207 15.963959 0.000000 0.103664
532.000000 66.243000 -9.000000 1.000000 5.000000 101.120570 27.339345 418.546785 702.835684 15.106185 0.000000 0.103065
533.000000 69.606000 -8.000000 1.000000 5.000000 95.425741 30.055933 352.199496 822.891055 14.377597 0.000000 0.102520
534.000000 72.298000 -7.000000 1.000000 5.000000 88.386825 32.966410 276.943073 977.128333 13.843999 0.000000 0.106066
535.000000 73.470000 -6.000000 1.000000 5.000000 79.624825 36.075624 190.853879 1184.807336 13.625026 0.000000 0.125754
536.000000 71.702000 -5.000000 1.000000 5.000000 68.685608 39.384433 91.411536 1484.327486 13.963340 0.000000 0.186266
539.000000 47.708000 -15.000000 2.000000 5.000000 123.337256 21.144547 558.730898 181.896675 20.967209 0.000000 0.048801
540.000000 50.396000 -14.000000 2.000000 5.000000 121.456301 23.233981 512.943892 224.464710 19.849212 0.000000 0.046504
541.000000 53.320000 -13.000000 2.000000 5.000000 119.236858 25.469828 462.329508 273.718679 18.761436 0.000000 0.043079
542.000000 56.482000 -12.000000 2.000000 5.000000 116.599016 27.860473 406.081830 331.394654 17.711957 0.000000 0.038565
543.000000 59.864000 -11.000000 2.000000 5.000000 113.440024 30.413341 343.204973 399.894601 16.712005 0.000000 0.033886
544.000000 63.413000 -10.000000 2.000000 5.000000 109.627085 33.134318 272.453610 482.642622 15.777678 0.000000 0.032815
545.000000 67.005000 -9.000000 2.000000 5.000000 104.988204 36.027056 192.249654 584.698921 14.932900 0.000000 0.042969
546.000000 70.396000 -8.000000 2.000000 5.000000 99.301314 39.092183 100.563160 713.879875 14.214830 0.000000 0.069374
547.000000 73.133000 -7.000000 2.000000 5.000000 92.283445 42.326473 -5.261873 882.950757 13.684489 0.000000 0.115109
548.000000 74.420000 -6.000000 2.000000 5.000000 83.585399 45.722045 -128.769019 1114.322694 13.449568 0.000000 0.188378
549.000000 72.967000 -5.000000 2.000000 5.000000 72.805495 49.265714 -274.793982 1451.389433 13.719610 0.000000 0.307618
552.000000 47.853000 -15.000000 3.000000 5.000000 126.259235 28.318590 395.024703 44.240561 20.902365 0.000000 0.034669
553.000000 50.499000 -14.000000 3.000000 5.000000 124.343649 30.725994 335.282612 85.505940 19.807717 0.000000 0.038327
554.000000 53.360000 -13.000000 3.000000 5.000000 122.071084 33.280513 268.530694 134.293964 18.746189 0.000000 0.045341
555.000000 56.432000 -12.000000 3.000000 5.000000 119.359664 35.984950 193.458312 192.749622 17.726369 0.000000 0.057289
556.000000 59.689000 -11.000000 3.000000 5.000000 116.105782 38.839773 108.406374 263.886231 16.760096 0.000000 0.075925
557.000000 63.063000 -10.000000 3.000000 5.000000 112.178117 41.842530 11.243294 352.061383 15.864157 0.000000 0.103511
558.000000 66.421000 -9.000000 3.000000 5.000000 107.410561 44.987270 -100.816116 463.797543 15.063173 0.000000 0.143423
559.000000 69.512000 -8.000000 3.000000 5.000000 101.594805 48.264066 -231.481951 609.273570 14.394780 0.000000 0.201072
560.000000 71.893000 -7.000000 3.000000 5.000000 94.474923 51.658717 -385.807910 805.216982 13.919526 0.000000 0.285491
563.000000 47.613000 -15.000000 4.000000 5.000000 128.345927 35.948097 194.515116 -110.706060 21.007053 0.000000 0.123373
564.000000 50.145000 -14.000000 4.000000 5.000000 126.307200 38.619585 115.203054 -71.181918 19.946801 0.000000 0.142999
565.000000 52.857000 -13.000000 4.000000 5.000000 123.886387 41.421513 25.400497 -23.001292 18.924126 0.000000 0.167955
566.000000 55.732000 -12.000000 4.000000 5.000000 121.001018 44.349305 -77.121294 36.599783 17.948495 0.000000 0.200238
574.000000 47.698000 -11.000000 -2.000000 6.000000 86.215484 7.488811 833.516984 1012.807734 20.986493 0.000000 0.161271
575.000000 49.611000 -9.000000 -2.000000 6.000000 75.225103 10.187529 781.585929 1229.411866 20.181359 0.000000 0.126036
576.000000 47.806000 -7.000000 -2.000000 6.000000 59.976482 13.304967 720.476300 1580.143263 20.948702 0.000000 0.066626
577.000000 46.699000 -13.000000 -1.000000 6.000000 99.433071 10.038674 784.471120 759.402109 21.429518 0.000000 0.165229
578.000000 48.700000 -12.000000 -1.000000 6.000000 95.888070 11.415190 757.684038 827.762319 20.550657 0.000000 0.165057
579.000000 50.635000 -11.000000 -1.000000 6.000000 91.765739 12.888221 728.728570 906.962813 19.766851 0.000000 0.162071
580.000000 52.369000 -10.000000 -1.000000 6.000000 86.937425 14.466118 697.330318 1000.470437 19.114107 0.000000 0.154952
581.000000 53.680000 -9.000000 -1.000000 6.000000 81.242162 16.157825 663.166544 1113.627241 18.649245 0.000000 0.141965
582.000000 54.214000 -8.000000 -1.000000 6.000000 74.480975 17.972827 625.855042 1255.199730 18.467478 0.000000 0.121747
583.000000 53.429000 -7.000000 -1.000000 6.000000 66.414423 19.921043 584.939770 1440.805647 18.741430 0.000000 0.099893
584.000000 50.529000 -6.000000 -1.000000 6.000000 56.769652 22.012664 539.872126 1701.566224 19.819884 0.000000 0.119532
585.000000 46.205000 -14.000000 0.000000 6.000000 107.032222 13.977348 707.101619 601.221447 21.655676 0.000000 0.143817
586.000000 48.410000 -13.000000 0.000000 6.000000 104.129433 15.516008 676.193319 659.818255 20.670225 0.000000 0.146246
587.000000 52.937000 -11.000000 0.000000 6.000000 96.821925 18.912646 606.236687 804.894101 18.904953 0.000000 0.146804
588.000000 55.068000 -10.000000 0.000000 6.000000 92.184483 20.786656 566.440962 897.086455 18.174924 0.000000 0.143611
589.000000 57.987000 -8.000000 0.000000 6.000000 80.119850 24.927207 474.779502 1147.716041 17.263872 0.000000 0.127497
590.000000 57.901000 -7.000000 0.000000 6.000000 72.243703 27.209742 421.628522 1328.540715 17.291608 0.000000 0.120501
591.000000 50.590000 -5.000000 0.000000 6.000000 51.415909 32.234183 296.324214 1956.167884 19.796132 0.000000 0.235671
592.000000 47.265000 -14.000000 1.000000 6.000000 111.056015 19.758665 588.387114 500.720074 21.168005 0.000000 0.111021
593.000000 49.607000 -13.000000 1.000000 6.000000 108.264100 21.562345 549.682963 559.069500 20.169533 0.000000 0.112342
594.000000 52.038000 -12.000000 1.000000 6.000000 105.008593 23.481039 507.437389 626.381897 19.228482 0.000000 0.112898
595.000000 54.495000 -11.000000 1.000000 6.000000 101.186676 25.521374 461.141027 705.133304 18.362799 0.000000 0.112563
596.000000 56.865000 -10.000000 1.000000 6.000000 96.669018 27.689606 410.181913 798.878411 17.598776 0.000000 0.111465
597.000000 58.955000 -9.000000 1.000000 6.000000 91.293599 29.991333 353.818278 912.938333 16.976543 0.000000 0.110580
598.000000 60.442000 -8.000000 1.000000 6.000000 84.859932 32.431134 291.142204 1055.705229 16.560555 0.000000 0.113385
599.000000 60.814000 -7.000000 1.000000 6.000000 77.126521 35.012154 221.030344 1241.330776 16.461307 0.000000 0.129188
600.000000 59.295000 -6.000000 1.000000 6.000000 67.817843 37.735617 142.076000 1495.897105 16.885389 0.000000 0.175962
601.000000 54.813000 -5.000000 1.000000 6.000000 56.652682 40.600321 52.493770 1873.828213 18.268955 0.000000 0.280773
603.000000 45.608000 -15.000000 2.000000 6.000000 116.816285 24.102158 493.501658 344.978759 21.934935 0.000000 0.063661
604.000000 50.262000 -13.000000 2.000000 6.000000 111.700160 28.116603 399.911502 455.379033 19.905357 0.000000 0.060054
605.000000 55.258000 -11.000000 2.000000 6.000000 104.692546 32.604994 286.548919 605.994014 18.107589 0.000000 0.058838
606.000000 59.865000 -9.000000 2.000000 6.000000 94.866791 37.591105 146.407984 825.345784 16.716814 0.000000 0.080890
607.000000 62.003000 -7.000000 2.000000 6.000000 80.823004 43.074219 -31.270363 1179.036165 16.144173 0.000000 0.166052
609.000000 48.029000 -14.000000 3.000000 6.000000 117.118068 32.759595 282.449425 285.554380 20.828619 0.000000 0.007829
610.000000 50.379000 -13.000000 3.000000 6.000000 114.333085 35.055566 219.813998 346.428015 19.858057 0.000000 0.020390
611.000000 55.245000 -11.000000 3.000000 6.000000 107.230265 39.982304 72.448192 505.378581 18.110858 0.000000 0.064046
612.000000 57.585000 -10.000000 3.000000 6.000000 102.689934 42.609782 -15.042507 611.705451 17.376017 0.000000 0.097747
613.000000 61.119000 -8.000000 3.000000 6.000000 90.887393 48.169858 -227.495887 916.003328 16.374474 0.000000 0.207018
614.000000 61.568000 -7.000000 3.000000 6.000000 83.247418 51.086422 -358.219510 1143.877520 16.256875 0.000000 0.297065
617.000000 45.613000 -15.000000 4.000000 6.000000 121.473343 37.349697 153.607172 112.183823 21.930523 0.000000 0.088864
618.000000 49.994000 -13.000000 4.000000 6.000000 116.107742 42.198065 -0.857818 229.023692 20.010110 0.000000 0.128576
619.000000 54.529000 -11.000000 4.000000 6.000000 108.768709 47.420029 -196.282760 400.452239 18.347788 0.000000 0.198415
627.000000 46.001000 -11.000000 -1.000000 7.000000 84.606675 16.307199 660.122733 1046.872509 21.760803 0.000000 0.148488
628.000000 46.786000 -10.000000 -1.000000 7.000000 79.320431 17.847566 628.453829 1154.232190 21.397534 0.000000 0.135428
629.000000 46.967000 -9.000000 -1.000000 7.000000 73.179161 19.483282 594.217593 1286.142860 21.317691 0.000000 0.117723
630.000000 46.204000 -8.000000 -1.000000 7.000000 66.022128 21.220557 557.088645 1454.518747 21.672307 0.000000 0.102472
631.000000 46.264000 -13.000000 1.000000 7.000000 101.199256 24.251466 490.131643 707.276798 21.629844 0.000000 0.118834
632.000000 48.013000 -12.000000 1.000000 7.000000 97.456695 26.051045 448.868704 784.200303 20.843151 0.000000 0.117850
633.000000 49.626000 -11.000000 1.000000 7.000000 93.120973 27.947456 403.989650 874.567315 20.167335 0.000000 0.116268
634.000000 50.956000 -10.000000 1.000000 7.000000 88.074563 29.944227 354.997346 982.756764 19.642426 0.000000 0.115137
635.000000 51.784000 -9.000000 1.000000 7.000000 82.177622 32.044295 301.299152 1115.440307 19.330359 0.000000 0.117615
636.000000 51.785000 -8.000000 1.000000 7.000000 75.268184 34.249799 242.182836 1283.369033 19.332334 0.000000 0.131254
637.000000 50.502000 -7.000000 1.000000 7.000000 67.167648 36.561846 176.784800 1505.167911 19.825790 0.000000 0.169573
638.000000 47.340000 -6.000000 1.000000 7.000000 57.696442 38.980269 104.047616 1816.393956 21.152862 0.000000 0.251342
639.000000 46.941000 -13.000000 2.000000 7.000000 104.366895 30.215185 348.199849 621.975105 21.316454 0.000000 0.075527
640.000000 48.752000 -12.000000 2.000000 7.000000 100.661904 32.214964 296.828687 701.503668 20.525600 0.000000 0.076457
641.000000 50.438000 -11.000000 2.000000 7.000000 96.365043 34.309476 240.540967 795.648747 19.840855 0.000000 0.080994
642.000000 51.859000 -10.000000 2.000000 7.000000 91.362013 36.499612 178.595396 909.166045 19.299022 0.000000 0.092628
643.000000 52.802000 -9.000000 2.000000 7.000000 85.518328 38.785234 110.093771 1049.223027 18.956149 0.000000 0.116005
644.000000 52.959000 -8.000000 2.000000 7.000000 78.680408 41.164975 33.937138 1227.188356 18.901999 0.000000 0.156807
645.000000 51.900000 -7.000000 2.000000 7.000000 70.681976 43.636059 -51.233602 1462.311854 19.289894 0.000000 0.223131
647.000000 47.133000 -13.000000 3.000000 7.000000 106.848786 36.443676 180.220293 535.808640 21.227977 0.000000 0.036356
648.000000 48.921000 -12.000000 3.000000 7.000000 103.125343 38.610299 115.488767 619.831905 20.453686 0.000000 0.055723
649.000000 50.577000 -11.000000 3.000000 7.000000 98.811051 40.861993 43.933598 720.407026 19.785210 0.000000 0.082976
650.000000 51.966000 -10.000000 3.000000 7.000000 93.797350 43.196509 -35.584213 843.007705 19.257861 0.000000 0.119991
651.000000 52.886000 -9.000000 3.000000 7.000000 87.958854 45.610333 -124.472097 995.834913 18.924634 0.000000 0.170245
652.000000 53.048000 -8.000000 3.000000 7.000000 81.155644 48.098584 -224.489944 1191.763221 18.868850 0.000000 0.239458
655.000000 46.871000 -13.000000 4.000000 7.000000 108.605690 42.801221 -21.702031 447.168147 21.345813 0.000000 0.107557
656.000000 48.558000 -12.000000 4.000000 7.000000 104.814557 45.085833 -104.523832 537.823017 20.605302 0.000000 0.139908
657.000000 50.097000 -11.000000 4.000000 7.000000 100.435648 47.439009 -197.061809 647.923904 19.973663 0.000000 0.182118
658.000000 51.355000 -10.000000 4.000000 7.000000 95.368654 49.855603 -301.132269 784.115926 19.485909 0.000000 0.237640
659.000000 52.141000 -9.000000 4.000000 7.000000 89.500567 52.329290 -419.034318 956.352134 19.193861 0.000000 0.311665
663.000000 46.204000 -13.000000 5.000000 7.000000 109.642202 49.134281 -269.011321 353.881791 21.653357 0.000000 0.243149
669.000000 45.612000 -11.000000 2.000000 8.000000 88.530307 35.670745 202.437123 974.991500 21.943198 0.000000 0.101516
670.000000 46.122000 -9.000000 2.000000 8.000000 76.978601 39.726047 80.616419 1264.628412 21.704751 0.000000 0.152500
671.000000 45.883000 -11.000000 3.000000 8.000000 90.902889 41.559881 20.768072 918.331403 21.812181 0.000000 0.112841
672.000000 46.452000 -10.000000 3.000000 8.000000 85.545216 43.659629 -52.079204 1056.904583 21.546695 0.000000 0.153115
673.000000 46.448000 -9.000000 3.000000 8.000000 79.410202 45.821794 -132.620344 1229.745684 21.550666 0.000000 0.208333
674.000000 45.619000 -8.000000 3.000000 8.000000 72.393542 48.042779 -222.142201 1451.868470 21.944759 0.000000 0.284800
675.000000 45.619000 -11.000000 4.000000 8.000000 92.597544 47.454058 -197.679922 868.788580 21.937419 0.000000 0.189095
676.000000 46.087000 -9.000000 4.000000 8.000000 81.120647 51.827998 -394.102171 1213.069954 21.718538 0.000000 0.325344
#UB matrix in q= (UB) B0 G* 
#[[ 0.935954446 -0.326114154  0.131845248]
# [ 0.147908109  0.705251724  0.694472582]
# [-0.319550412 -0.630823469  0.708651903]]
#B0 matrix in q= UB (B0) G*
#[[ 0.19670273 -0.          0.03056101]
# [ 0.          0.19187965 -0.        ]
# [ 0.          0.          0.18806537]]
#UBB0 matrix in q= (UB B0) G* i.e. recip. basis vectors are columns in LT frame: astar = UBB0[:,0], bstar = UBB0[:,1], cstar = UBB0[:,2]. (abcstar as columns on xyzlab1, xlab1 = ui, ui = unit vector along incident beam)
#[[ 0.1841048  -0.06257467  0.05339924]
# [ 0.02909393  0.13532346  0.13512646]
# [-0.06285644 -0.12104219  0.1235071 ]]
#Euler angles phi theta psi (deg)
#[333.108  44.95   10.764]
#deviatoric strain in direct crystal frame (10-3 unit)
#[[-2.83 -0.35  0.57]
# [-0.35 -3.59  0.13]
# [ 0.57  0.13  6.41]]
#deviatoric strain in sample2 frame (10-3 unit)
#[[ 0.17  4.07  1.87]
# [ 4.07  1.42  3.02]
# [ 1.88  3.02 -1.59]]
#new lattice parameters
#[ 5.1505     5.2076537  5.3127579 89.9855499 99.2031237 90.0398546]
#CCDLabel
#sCMOS
#DetectorParameters
#[79.0, 975.0, 941.0, 0.0, 0.0]
#pixelsize
#0.0734
#Frame dimensions
#[2018, 2016]
#
