#Strain and Orientation Refinement from experimental file: /home/micha/LaueProjects/DepthEffects/testZrO2_86.cor
#File created at Wed Jun 28 14:23:41 2023 with indexingSpotsSet.py
#Number of indexed spots: 514
#Element
#ZrO2
#grainIndex
#G_0
#Mean Deviation(pixel): 0.117
##spot_index intensity h k l 2theta Chi Xexp Yexp Energy GrainIndex PixDev
8.000000 142.411000 -2.000000 -1.000000 1.000000 46.974949 21.787531 544.784682 2022.818776 7.025516 0.000000 0.210306
16.000000 66.778000 -4.000000 -3.000000 2.000000 48.889821 32.689434 284.311600 2057.012982 14.981401 0.000000 0.267188
17.000000 94.756000 -3.000000 -3.000000 2.000000 61.269776 40.021093 71.206455 1711.417964 10.555821 0.000000 0.236509
18.000000 130.127000 -2.000000 -3.000000 2.000000 76.051920 51.152486 -361.369200 1367.169230 7.684344 0.000000 0.337738
20.000000 110.163000 -3.000000 -2.000000 2.000000 61.981119 27.241427 420.875779 1585.179622 9.080017 0.000000 0.122668
21.000000 168.387000 -2.000000 -2.000000 2.000000 82.514763 36.781246 170.378322 1117.563720 5.938082 0.000000 0.116076
22.000000 70.045000 -4.000000 -1.000000 2.000000 42.757387 9.068978 803.203236 2119.762837 14.285111 0.000000 0.232065
23.000000 117.770000 -3.000000 -1.000000 2.000000 59.220229 10.945111 766.859418 1593.962947 8.494434 0.000000 0.046130
25.000000 107.452000 -3.000000 0.000000 2.000000 51.228703 -7.108167 1109.215343 1812.170999 9.311225 0.000000 0.097182
26.000000 197.893000 -2.000000 0.000000 2.000000 75.995824 -12.252594 1208.737419 1215.690676 5.053734 0.000000 0.126194
28.000000 142.580000 -2.000000 1.000000 2.000000 56.702035 -34.537058 1715.741962 1799.185326 7.015832 0.000000 0.209120
33.000000 53.601000 -5.000000 -5.000000 3.000000 56.571471 40.633364 51.416546 1877.173087 18.661640 0.000000 0.281589
34.000000 65.976000 -4.000000 -5.000000 3.000000 64.912647 46.740801 -168.766515 1676.274291 15.159027 0.000000 0.312729
36.000000 45.773000 -6.000000 -4.000000 3.000000 48.460842 29.285669 371.365752 2034.265299 21.856823 0.000000 0.242151
37.000000 58.933000 -5.000000 -4.000000 3.000000 56.937355 33.535815 261.648427 1781.544395 16.974029 0.000000 0.198380
38.000000 75.453000 -4.000000 -4.000000 3.000000 66.944813 39.239337 95.964656 1532.449501 13.255180 0.000000 0.192783
39.000000 94.739000 -3.000000 -4.000000 3.000000 78.300953 47.098483 -183.169087 1268.395306 10.554442 0.000000 0.239554
41.000000 63.434000 -5.000000 -3.000000 3.000000 56.414994 25.112279 470.545607 1730.287416 15.770270 0.000000 0.135849
42.000000 84.954000 -4.000000 -3.000000 3.000000 68.178903 29.800492 358.588172 1437.619096 11.773181 0.000000 0.121437
43.000000 142.290000 -2.000000 -3.000000 3.000000 98.772097 47.805434 -212.213451 693.724792 7.024863 0.000000 0.199170
44.000000 47.504000 -6.000000 -2.000000 3.000000 44.455830 13.465472 717.290496 2068.941902 21.062832 0.000000 0.213135
45.000000 65.809000 -5.000000 -2.000000 3.000000 54.524076 15.420701 678.120756 1736.675907 15.202222 0.000000 0.092551
46.000000 92.285000 -4.000000 -2.000000 3.000000 67.723570 18.296190 619.129104 1405.379377 10.838514 0.000000 0.089645
47.000000 129.039000 -3.000000 -2.000000 3.000000 85.045198 22.908268 520.172449 1042.297471 7.748812 0.000000 0.127637
48.000000 173.749000 -2.000000 -2.000000 3.000000 106.939840 31.329857 319.834381 557.219323 5.752382 0.000000 0.050472
49.000000 64.580000 -5.000000 -1.000000 3.000000 50.854571 4.812404 884.386385 1820.197964 15.492718 0.000000 0.096800
50.000000 94.086000 -4.000000 -1.000000 3.000000 64.548931 5.170296 877.612125 1455.330899 10.631911 0.000000 0.056564
51.000000 138.267000 -3.000000 -1.000000 3.000000 83.494097 5.768451 866.272747 1064.365276 7.232134 0.000000 0.153284
52.000000 197.301000 -2.000000 -1.000000 3.000000 109.557065 6.970579 843.408651 555.810302 5.065677 0.000000 0.148104
54.000000 73.371000 -4.000000 1.000000 3.000000 49.216522 -21.016262 1388.501200 1935.656700 13.635982 0.000000 0.177583
55.000000 109.494000 -3.000000 1.000000 3.000000 63.643955 -28.014425 1547.623452 1545.022009 9.135179 0.000000 0.124312
56.000000 158.378000 -2.000000 1.000000 3.000000 81.954150 -39.617235 1865.933528 1138.504170 6.313283 0.000000 0.129777
63.000000 55.909000 -5.000000 -6.000000 4.000000 68.438162 44.986742 -100.796276 1542.334425 17.887848 0.000000 0.258337
65.000000 51.409000 -6.000000 -5.000000 4.000000 61.913416 34.092279 246.505499 1634.562266 19.456555 0.000000 0.171615
66.000000 62.174000 -5.000000 -5.000000 4.000000 70.237569 38.761390 110.830689 1436.912532 16.085380 0.000000 0.171954
67.000000 74.227000 -4.000000 -5.000000 4.000000 79.415332 44.816630 -94.427066 1224.527644 13.471011 0.000000 0.197818
69.000000 68.458000 -5.000000 -4.000000 4.000000 71.523641 31.280349 321.108310 1361.797719 14.609142 0.000000 0.122011
70.000000 101.175000 -3.000000 -4.000000 4.000000 94.633157 44.529380 -83.756860 818.648199 9.880370 0.000000 0.143296
72.000000 57.815000 -6.000000 -3.000000 4.000000 61.182033 19.478217 594.324657 1569.083648 17.302178 0.000000 0.083765
73.000000 73.925000 -5.000000 -3.000000 4.000000 71.838309 22.460678 530.049451 1323.052035 13.529259 0.000000 0.105470
74.000000 93.914000 -4.000000 -3.000000 4.000000 84.691055 26.725820 433.072514 1052.976905 10.646880 0.000000 0.117580
75.000000 116.758000 -3.000000 -3.000000 4.000000 99.747859 33.228710 269.922244 719.957521 8.561284 0.000000 0.068074
76.000000 138.956000 -2.000000 -3.000000 4.000000 116.139709 43.940525 -62.208337 207.455544 7.191431 0.000000 0.170489
77.000000 77.310000 -5.000000 -2.000000 4.000000 70.623729 12.435264 737.666813 1328.615580 12.937509 0.000000 0.097898
78.000000 101.366000 -4.000000 -2.000000 4.000000 84.941774 14.648130 693.680660 1039.466236 9.864496 0.000000 0.145739
79.000000 130.502000 -3.000000 -2.000000 4.000000 102.701531 18.262085 619.839663 685.550150 7.659476 0.000000 0.134576
80.000000 160.435000 -2.000000 -2.000000 4.000000 123.791698 25.130213 470.134663 145.402291 6.228092 0.000000 0.020993
81.000000 57.620000 -6.000000 -1.000000 4.000000 55.897218 1.942985 938.487270 1670.201479 17.363040 0.000000 0.030046
82.000000 77.203000 -5.000000 -1.000000 4.000000 67.405092 1.651247 943.972937 1389.091923 12.956376 0.000000 0.077156
83.000000 103.772000 -4.000000 -1.000000 4.000000 82.196648 1.212097 952.227509 1088.531132 9.636418 0.000000 0.151736
84.000000 137.478000 -3.000000 -1.000000 4.000000 101.147166 0.476165 966.055092 728.911866 7.271172 0.000000 0.170037
85.000000 173.799000 -2.000000 -1.000000 4.000000 124.737722 -1.010051 993.975646 194.573700 5.749184 0.000000 0.088846
86.000000 72.736000 -5.000000 0.000000 4.000000 62.071359 -9.182288 1148.980206 1518.963738 13.753060 0.000000 0.051609
87.000000 132.863000 -3.000000 0.000000 4.000000 93.704096 -17.222258 1308.626972 868.051137 7.524647 0.000000 0.151591
88.000000 170.226000 -2.000000 0.000000 4.000000 115.083467 -26.410231 1509.516677 378.498652 5.870636 0.000000 0.054150
89.000000 47.535000 -6.000000 1.000000 4.000000 45.492679 -15.774866 1279.050695 2040.346095 21.048744 0.000000 0.204489
90.000000 64.286000 -5.000000 1.000000 4.000000 55.038642 -19.337355 1352.700848 1738.541176 15.561939 0.000000 0.111671
91.000000 87.144000 -4.000000 1.000000 4.000000 67.010967 -24.400249 1463.234370 1442.400890 11.477723 0.000000 0.106534
92.000000 116.341000 -3.000000 1.000000 4.000000 81.638161 -32.002650 1647.612518 1127.552467 8.594783 0.000000 0.113902
93.000000 148.118000 -2.000000 1.000000 4.000000 98.056103 -44.071208 2016.953467 728.970410 6.748571 0.000000 0.123737
94.000000 53.438000 -5.000000 2.000000 4.000000 47.099529 -28.325671 1555.146936 2077.215821 18.722071 0.000000 0.252007
95.000000 93.238000 -3.000000 2.000000 4.000000 67.831154 -43.125231 1983.067753 1541.860749 10.726347 0.000000 0.230730
102.000000 48.298000 -6.000000 -7.000000 5.000000 70.799524 43.755402 -55.522094 1459.920103 20.705959 0.000000 0.225961
103.000000 54.878000 -5.000000 -7.000000 5.000000 77.400951 48.797534 -254.334284 1306.194384 18.220851 0.000000 0.276674
105.000000 52.719000 -6.000000 -6.000000 5.000000 72.384163 38.439006 120.746012 1377.309240 18.969791 0.000000 0.159920
106.000000 60.942000 -5.000000 -6.000000 5.000000 80.072295 43.357675 -41.295872 1200.090108 16.407537 0.000000 0.175653
107.000000 69.418000 -4.000000 -6.000000 5.000000 88.116434 49.538552 -286.897044 995.543589 14.401890 0.000000 0.251310
109.000000 48.099000 -7.000000 -5.000000 5.000000 65.621685 28.717851 385.310182 1497.145494 20.794846 0.000000 0.121137
110.000000 57.147000 -6.000000 -5.000000 5.000000 73.609269 32.243603 296.076866 1315.303807 17.499824 0.000000 0.121974
111.000000 78.223000 -4.000000 -5.000000 5.000000 92.155386 42.748895 -19.877702 885.837515 12.780088 0.000000 0.125432
112.000000 88.775000 -3.000000 -5.000000 5.000000 102.054355 50.734890 -341.609587 577.850454 11.258823 0.000000 0.272723
113.000000 50.541000 -7.000000 -4.000000 5.000000 65.374734 22.268561 534.269315 1474.099992 19.791031 0.000000 0.094638
114.000000 61.202000 -6.000000 -4.000000 5.000000 74.210556 25.115233 470.477925 1277.125042 16.340856 0.000000 0.110876
115.000000 73.658000 -5.000000 -4.000000 5.000000 84.373687 28.906213 380.701359 1062.120829 13.574883 0.000000 0.112508
116.000000 87.415000 -4.000000 -4.000000 5.000000 95.808270 34.147161 245.001268 808.710083 11.435847 0.000000 0.077804
117.000000 101.231000 -3.000000 -4.000000 5.000000 108.113418 41.700764 16.031038 469.459180 9.872701 0.000000 0.099138
119.000000 52.141000 -7.000000 -3.000000 5.000000 64.341271 15.201138 682.554355 1476.777097 19.184542 0.000000 0.071840
120.000000 64.324000 -6.000000 -3.000000 5.000000 73.865070 17.096697 643.956565 1266.762795 15.548335 0.000000 0.111255
121.000000 79.063000 -5.000000 -3.000000 5.000000 85.146065 19.697392 589.686135 1038.079878 12.647050 0.000000 0.135677
122.000000 95.975000 -4.000000 -3.000000 5.000000 98.336325 23.466344 507.765501 769.068990 10.415739 0.000000 0.120738
123.000000 113.605000 -3.000000 -3.000000 5.000000 113.285777 29.347406 369.840320 409.592460 8.796885 0.000000 0.034971
125.000000 52.503000 -7.000000 -2.000000 5.000000 62.347367 7.663895 830.169866 1510.015350 19.053285 0.000000 0.044249
126.000000 65.837000 -6.000000 -2.000000 5.000000 72.251004 8.376377 816.520084 1289.218355 15.191721 0.000000 0.106769
127.000000 82.473000 -5.000000 -2.000000 5.000000 84.251195 9.372809 797.345383 1050.820616 12.124537 0.000000 0.151879
128.000000 102.243000 -4.000000 -2.000000 5.000000 98.715518 10.863970 768.440219 772.994407 9.777370 0.000000 0.160822
129.000000 123.607000 -3.000000 -2.000000 5.000000 115.828851 13.335051 719.879497 405.594620 8.084857 0.000000 0.111089
130.000000 142.939000 -2.000000 -2.000000 5.000000 135.280771 18.192606 621.286340 -203.084926 6.989313 0.000000 0.043821
131.000000 51.311000 -7.000000 -1.000000 5.000000 59.301930 -0.112876 977.120373 1580.008980 19.496962 0.000000 0.008427
132.000000 65.123000 -6.000000 -1.000000 5.000000 69.154935 -0.701364 988.175705 1350.845541 15.359217 0.000000 0.089682
133.000000 82.738000 -5.000000 -1.000000 5.000000 81.228516 -1.527020 1003.691673 1107.129681 12.086542 0.000000 0.149005
134.000000 104.215000 -4.000000 -1.000000 5.000000 95.980894 -2.768702 1027.050248 828.107981 9.592856 0.000000 0.172637
135.000000 128.075000 -3.000000 -1.000000 5.000000 113.709910 -4.843849 1066.208512 466.623581 7.803134 0.000000 0.138541
136.000000 150.197000 -2.000000 -1.000000 5.000000 134.201526 -8.995869 1145.388718 -118.741466 6.651682 0.000000 0.026247
137.000000 56.337000 -6.000000 1.000000 5.000000 58.806774 -18.196359 1328.791761 1626.956443 17.756870 0.000000 0.086290
138.000000 71.959000 -5.000000 1.000000 5.000000 68.964937 -22.120886 1412.494878 1387.794462 13.899518 0.000000 0.104067
139.000000 91.089000 -4.000000 1.000000 5.000000 80.998636 -27.620923 1538.173590 1133.424287 10.977776 0.000000 0.119656
140.000000 112.462000 -3.000000 1.000000 5.000000 94.649429 -35.685029 1747.969527 833.234301 8.889024 0.000000 0.080091
141.000000 132.456000 -2.000000 1.000000 5.000000 108.657095 -47.963334 2168.808651 398.281725 7.545119 0.000000 0.212732
142.000000 49.195000 -6.000000 2.000000 5.000000 52.275852 -25.906282 1497.766266 1866.592469 20.335843 0.000000 0.175549
143.000000 62.298000 -5.000000 2.000000 5.000000 60.884816 -30.736172 1614.976153 1638.394509 16.056311 0.000000 0.151103
144.000000 78.013000 -4.000000 2.000000 5.000000 70.755083 -37.158867 1790.734625 1412.478987 12.819559 0.000000 0.155048
145.000000 95.201000 -3.000000 2.000000 5.000000 81.466159 -45.844920 2083.515220 1172.844044 10.502681 0.000000 0.198222
147.000000 51.723000 -5.000000 3.000000 5.000000 52.538703 -38.009914 1816.193195 1987.720064 19.340312 0.000000 0.284967
148.000000 63.766000 -4.000000 3.000000 5.000000 60.358124 -44.733452 2041.326431 1803.149389 15.685542 0.000000 0.309697
153.000000 52.363000 -5.000000 -8.000000 6.000000 84.243548 52.133200 -409.214860 1117.758942 19.093636 0.000000 0.327806
154.000000 45.702000 -7.000000 -7.000000 6.000000 73.893220 38.206879 127.830657 1336.522040 21.881849 0.000000 0.152120
155.000000 51.663000 -6.000000 -7.000000 6.000000 80.502974 42.345689 -5.922457 1184.612333 19.354454 0.000000 0.162255
156.000000 57.806000 -5.000000 -7.000000 6.000000 87.400498 47.382608 -194.748367 1013.167929 17.295137 0.000000 0.208988
158.000000 48.980000 -7.000000 -6.000000 6.000000 75.032072 32.920214 278.175237 1283.788782 20.417232 0.000000 0.121656
159.000000 63.668000 -5.000000 -6.000000 6.000000 90.513102 41.632206 18.338796 928.103954 15.702400 0.000000 0.118644
160.000000 52.063000 -7.000000 -5.000000 6.000000 75.738796 26.947776 427.835816 1247.890129 19.208627 0.000000 0.112823
161.000000 60.536000 -6.000000 -5.000000 6.000000 84.124094 30.312840 345.740800 1069.308845 16.517181 0.000000 0.109970
162.000000 69.702000 -5.000000 -5.000000 6.000000 93.329179 34.688434 230.059894 864.857678 14.342558 0.000000 0.084109
163.000000 79.015000 -4.000000 -5.000000 6.000000 103.136104 40.526934 54.882465 610.548254 12.649674 0.000000 0.079400
164.000000 87.610000 -3.000000 -5.000000 6.000000 113.055366 48.501211 -241.581213 249.655515 11.406550 0.000000 0.252548
165.000000 54.670000 -7.000000 -4.000000 6.000000 75.812804 20.302323 576.817050 1231.111643 18.293142 0.000000 0.115576
166.000000 75.462000 -5.000000 -4.000000 6.000000 95.459411 26.412592 440.428021 826.144860 13.247733 0.000000 0.111713
167.000000 97.645000 -3.000000 -4.000000 6.000000 119.068229 38.587279 116.196740 175.607064 10.233589 0.000000 0.099716
168.000000 47.050000 -8.000000 -3.000000 6.000000 66.530206 11.877719 748.626326 1418.536012 21.259926 0.000000 0.075869
169.000000 56.455000 -7.000000 -3.000000 6.000000 75.041509 13.070450 725.123555 1236.204559 17.715420 0.000000 0.117997
170.000000 80.257000 -5.000000 -3.000000 6.000000 96.383090 16.828853 649.456105 815.208728 12.456238 0.000000 0.147593
171.000000 93.837000 -4.000000 -3.000000 6.000000 109.404563 20.027866 582.668008 537.478087 10.650966 0.000000 0.109234
173.000000 57.055000 -7.000000 -2.000000 6.000000 73.243961 5.426398 872.759904 1266.510314 17.529657 0.000000 0.112845
174.000000 83.213000 -5.000000 -2.000000 6.000000 95.541515 6.248406 857.156908 835.953459 12.014149 0.000000 0.169032
175.000000 113.896000 -3.000000 -2.000000 6.000000 125.530806 8.179638 820.294047 164.514008 8.772790 0.000000 0.075979
177.000000 45.968000 -8.000000 -1.000000 6.000000 61.741703 -1.654569 1006.089523 1519.755946 21.762273 0.000000 0.032747
178.000000 56.185000 -7.000000 -1.000000 6.000000 70.327089 -2.379834 1019.730629 1326.127304 17.802295 0.000000 0.097609
179.000000 68.679000 -6.000000 -1.000000 6.000000 80.504716 -3.347602 1037.955947 1121.326528 14.560843 0.000000 0.146448
180.000000 83.473000 -5.000000 -1.000000 6.000000 92.538595 -4.702937 1063.543034 893.120373 11.977367 0.000000 0.170631
181.000000 99.972000 -4.000000 -1.000000 6.000000 106.613267 -6.733903 1102.081208 617.640641 9.997930 0.000000 0.157616
182.000000 116.537000 -3.000000 -1.000000 6.000000 122.685655 -10.100922 1166.735080 239.539432 8.574338 0.000000 0.089482
183.000000 130.358000 -2.000000 -1.000000 6.000000 140.225804 -16.687851 1297.655019 -408.842969 7.663387 0.000000 0.058273
184.000000 53.733000 -7.000000 0.000000 6.000000 66.331097 -10.065066 1166.040222 1420.137569 18.615696 0.000000 0.077177
185.000000 80.542000 -5.000000 0.000000 6.000000 87.355755 -15.259683 1268.626924 992.523695 12.414392 0.000000 0.152349
186.000000 96.917000 -4.000000 0.000000 6.000000 100.482229 -19.621684 1358.710189 729.589402 10.314085 0.000000 0.137912
188.000000 49.834000 -7.000000 1.000000 6.000000 61.436726 -17.371054 1311.693134 1554.920145 20.073208 0.000000 0.078945
189.000000 61.141000 -6.000000 1.000000 6.000000 70.231908 -20.556694 1378.624251 1354.118041 16.358495 0.000000 0.105176
190.000000 74.569000 -5.000000 1.000000 6.000000 80.408080 -24.804522 1472.420865 1141.370769 13.410082 0.000000 0.123972
191.000000 89.600000 -4.000000 1.000000 6.000000 91.884920 -30.670982 1613.319714 899.818367 11.157882 0.000000 0.103626
192.000000 104.768000 -3.000000 1.000000 6.000000 104.160571 -39.068435 1848.696515 591.233699 9.540105 0.000000 0.057497
194.000000 66.359000 -5.000000 2.000000 6.000000 72.382289 -33.036803 1674.936990 1348.704281 15.070844 0.000000 0.128463
195.000000 91.996000 -3.000000 2.000000 6.000000 91.806129 -48.331192 2184.331064 889.950139 10.866507 0.000000 0.209042
196.000000 57.049000 -5.000000 3.000000 6.000000 63.988004 -39.939628 1876.187278 1626.024364 17.531939 0.000000 0.215156
197.000000 67.374000 -4.000000 3.000000 6.000000 71.745534 -46.685956 2116.575004 1458.497588 14.842846 0.000000 0.261919
200.000000 45.528000 -6.000000 -9.000000 7.000000 84.251505 50.089287 -311.744545 1109.874312 21.960297 0.000000 0.275841
202.000000 49.472000 -6.000000 -8.000000 7.000000 86.834526 45.844780 -133.509800 1026.448219 20.208884 0.000000 0.184195
203.000000 54.058000 -5.000000 -8.000000 7.000000 92.945677 50.903481 -349.544208 853.178123 18.492266 0.000000 0.275076
205.000000 53.641000 -6.000000 -7.000000 7.000000 89.346670 40.866963 43.770381 957.229520 18.637810 0.000000 0.115759
206.000000 59.185000 -5.000000 -7.000000 7.000000 96.408057 45.883956 -135.027407 767.351670 16.889621 0.000000 0.162865
208.000000 51.362000 -7.000000 -6.000000 7.000000 83.928921 31.294428 320.746180 1074.963681 19.467413 0.000000 0.108729
209.000000 57.897000 -6.000000 -6.000000 7.000000 91.627336 35.045233 220.103645 903.651072 17.267394 0.000000 0.088576
210.000000 64.566000 -5.000000 -6.000000 7.000000 99.763807 39.804940 78.108183 699.915140 15.481416 0.000000 0.077163
211.000000 70.952000 -4.000000 -6.000000 7.000000 108.074208 45.942969 -137.317517 435.874709 14.085836 0.000000 0.174572
213.000000 47.376000 -8.000000 -5.000000 7.000000 77.088234 22.628639 526.350612 1208.315387 21.108605 0.000000 0.116618
214.000000 54.387000 -7.000000 -5.000000 7.000000 84.871407 25.117352 470.429385 1047.686346 18.384745 0.000000 0.121766
215.000000 62.013000 -6.000000 -5.000000 7.000000 93.446960 28.299079 395.497559 867.371308 16.121134 0.000000 0.106269
216.000000 69.947000 -5.000000 -5.000000 7.000000 102.731717 32.479133 289.875859 652.731560 14.289960 0.000000 0.060788
217.000000 77.677000 -4.000000 -5.000000 7.000000 112.495121 38.140301 129.854332 374.302157 12.865605 0.000000 0.060725
219.000000 49.058000 -8.000000 -4.000000 7.000000 76.784199 16.490612 656.378936 1204.598497 20.385400 0.000000 0.121792
220.000000 56.929000 -7.000000 -4.000000 7.000000 85.133567 18.281624 619.432601 1037.506886 17.564319 0.000000 0.138867
221.000000 65.658000 -6.000000 -4.000000 7.000000 94.508622 20.622758 569.959608 850.320030 15.226341 0.000000 0.136319
222.000000 74.921000 -5.000000 -4.000000 7.000000 104.901743 23.800397 500.288747 627.963588 13.341110 0.000000 0.104393
223.000000 84.112000 -4.000000 -4.000000 7.000000 116.169158 28.324619 394.878547 340.183385 11.880761 0.000000 0.028470
224.000000 92.344000 -3.000000 -4.000000 7.000000 127.920370 35.164990 216.742397 -84.675911 10.819671 0.000000 0.119171
225.000000 50.070000 -8.000000 -3.000000 7.000000 75.751997 9.965297 785.892365 1218.490566 19.974035 0.000000 0.122928
226.000000 58.681000 -7.000000 -3.000000 7.000000 84.501543 10.898868 767.760452 1046.509224 17.040202 0.000000 0.150593
227.000000 68.406000 -6.000000 -3.000000 7.000000 94.479345 12.138944 743.497201 854.755827 14.614952 0.000000 0.159800
228.000000 78.920000 -5.000000 -3.000000 7.000000 105.760028 13.864093 709.359808 628.135515 12.665005 0.000000 0.142629
229.000000 89.544000 -4.000000 -3.000000 7.000000 118.314843 16.421967 657.780921 336.453446 11.159923 0.000000 0.088815
230.000000 99.196000 -3.000000 -3.000000 7.000000 131.927052 20.583214 570.807402 -91.535697 10.071811 0.000000 0.036248
232.000000 50.214000 -8.000000 -2.000000 7.000000 73.890700 3.196384 914.893951 1252.329985 19.917885 0.000000 0.116873
233.000000 59.337000 -7.000000 -2.000000 7.000000 82.801040 3.168598 915.417519 1077.155896 16.852626 0.000000 0.152859
234.000000 69.795000 -6.000000 -2.000000 7.000000 93.062056 3.131439 916.117665 883.338725 14.324552 0.000000 0.170830
235.000000 81.284000 -5.000000 -2.000000 7.000000 104.800413 3.079201 917.101835 656.211316 12.296994 0.000000 0.163562
236.000000 93.076000 -4.000000 -2.000000 7.000000 118.057519 3.000370 918.586832 366.550020 10.736544 0.000000 0.121475
237.000000 103.933000 -3.000000 -2.000000 7.000000 132.725759 2.867708 921.085421 -54.318496 9.612705 0.000000 0.039506
239.000000 49.347000 -8.000000 -1.000000 7.000000 71.163274 -3.635632 1043.386724 1308.910893 20.268761 0.000000 0.102952
240.000000 58.655000 -7.000000 -1.000000 7.000000 79.949924 -4.642933 1062.408342 1132.377788 17.049451 0.000000 0.144273
241.000000 69.435000 -6.000000 -1.000000 7.000000 90.094081 -5.984476 1087.828251 939.223005 14.399678 0.000000 0.167548
242.000000 81.409000 -5.000000 -1.000000 7.000000 101.715370 -7.857131 1123.527461 715.693870 12.278807 0.000000 0.164965
243.000000 93.837000 -4.000000 -1.000000 7.000000 114.819299 -10.646193 1177.321260 434.524108 10.649981 0.000000 0.125220
244.000000 105.397000 -3.000000 -1.000000 7.000000 129.181364 -15.210619 1267.636886 31.932022 9.479687 0.000000 0.039582
246.000000 53.093000 -7.000000 1.000000 7.000000 71.116863 -19.418287 1354.409211 1331.348378 18.837886 0.000000 0.106994
247.000000 63.011000 -6.000000 1.000000 7.000000 79.914480 -22.850468 1428.548415 1148.739692 15.870057 0.000000 0.126504
248.000000 74.057000 -5.000000 1.000000 7.000000 89.745342 -27.382428 1532.479245 946.387361 13.500262 0.000000 0.119049
249.000000 85.560000 -4.000000 1.000000 7.000000 100.387868 -33.547724 1688.673600 704.264579 11.682792 0.000000 0.067906
250.000000 96.311000 -3.000000 1.000000 7.000000 111.256308 -42.167013 1949.795530 376.119605 10.376484 0.000000 0.108021
251.000000 48.593000 -7.000000 2.000000 7.000000 65.582342 -25.977820 1499.428134 1484.546710 20.583659 0.000000 0.111951
252.000000 57.452000 -6.000000 2.000000 7.000000 73.367915 -30.046824 1597.572119 1312.427348 17.407095 0.000000 0.119320
253.000000 67.237000 -5.000000 2.000000 7.000000 81.894591 -35.227993 1735.029881 1128.648357 14.871281 0.000000 0.114261
254.000000 77.349000 -4.000000 2.000000 7.000000 90.883599 -41.918748 1941.339523 918.691467 12.924754 0.000000 0.114989
255.000000 86.755000 -3.000000 2.000000 7.000000 99.755432 -50.604615 2285.517314 649.436292 11.521420 0.000000 0.258480
256.000000 51.029000 -6.000000 3.000000 7.000000 66.416835 -36.303369 1765.714197 1524.011121 19.600044 0.000000 0.166880
257.000000 59.310000 -5.000000 3.000000 7.000000 73.629406 -41.770252 1936.313075 1364.922199 16.860877 0.000000 0.182567
258.000000 67.769000 -4.000000 3.000000 7.000000 81.050029 -48.511698 2192.029995 1196.869365 14.754024 0.000000 0.247456
260.000000 51.086000 -5.000000 4.000000 7.000000 65.448149 -47.176609 2136.340687 1664.323286 19.577269 0.000000 0.313477
264.000000 46.834000 -6.000000 -9.000000 8.000000 91.823909 48.974579 -262.026051 888.785186 21.345394 0.000000 0.230525
266.000000 46.326000 -7.000000 -8.000000 8.000000 88.476134 40.309994 61.913281 978.547930 21.581486 0.000000 0.114451
267.000000 54.700000 -5.000000 -8.000000 8.000000 100.829253 49.602152 -289.737728 623.323034 18.273092 0.000000 0.241729
268.000000 49.485000 -7.000000 -7.000000 8.000000 90.387389 35.298115 212.994323 932.083622 20.203453 0.000000 0.091925
269.000000 54.483000 -6.000000 -7.000000 8.000000 97.332966 39.316148 93.556683 761.973495 18.347423 0.000000 0.079760
270.000000 59.365000 -5.000000 -7.000000 8.000000 104.452977 44.296165 -75.170943 553.419851 16.836229 0.000000 0.135354
272.000000 52.564000 -7.000000 -6.000000 8.000000 91.967662 29.607824 363.385341 898.469912 19.019640 0.000000 0.103104
273.000000 64.136000 -5.000000 -6.000000 8.000000 107.891882 37.870654 138.012747 500.835579 15.583035 0.000000 0.049390
275.000000 49.045000 -8.000000 -5.000000 8.000000 85.128884 20.917067 563.635787 1039.195706 20.387664 0.000000 0.132737
276.000000 55.386000 -7.000000 -5.000000 8.000000 93.032778 23.227366 513.091053 878.946780 18.050496 0.000000 0.127608
277.000000 62.064000 -6.000000 -5.000000 8.000000 101.636783 26.202150 445.347403 693.963304 16.105655 0.000000 0.100263
278.000000 68.772000 -5.000000 -5.000000 8.000000 110.843283 30.150472 349.826671 467.110679 14.532160 0.000000 0.040866
279.000000 75.072000 -4.000000 -5.000000 8.000000 120.427299 35.579236 205.038799 163.748621 13.310496 0.000000 0.068892
281.000000 57.725000 -7.000000 -4.000000 8.000000 93.373181 16.209399 662.116132 874.935699 17.319446 0.000000 0.150243
282.000000 72.922000 -5.000000 -4.000000 8.000000 112.890223 21.072593 560.283989 454.004380 13.704865 0.000000 0.091105
284.000000 51.687000 -8.000000 -3.000000 8.000000 83.996005 8.027483 823.210215 1055.319147 19.346327 0.000000 0.152672
285.000000 59.322000 -7.000000 -3.000000 8.000000 92.782939 8.691606 810.465208 888.073883 16.853452 0.000000 0.165167
286.000000 67.595000 -6.000000 -3.000000 8.000000 102.625471 9.576813 793.406445 696.509953 14.788017 0.000000 0.158827
287.000000 76.141000 -5.000000 -3.000000 8.000000 113.544720 10.814802 769.397693 463.534340 13.125502 0.000000 0.127284
288.000000 84.368000 -4.000000 -3.000000 8.000000 125.478059 12.666634 733.105125 154.773594 11.843226 0.000000 0.065149
289.000000 91.483000 -3.000000 -3.000000 8.000000 138.235248 15.729925 671.860684 -311.153859 10.920181 0.000000 0.048865
290.000000 59.928000 -7.000000 -2.000000 8.000000 91.103989 0.897304 958.142872 920.256597 16.683707 0.000000 0.170126
291.000000 77.945000 -5.000000 -2.000000 8.000000 112.370749 -0.116083 977.180608 498.025283 12.822090 0.000000 0.145154
292.000000 94.707000 -3.000000 -2.000000 8.000000 138.091433 -2.514012 1022.255744 -259.344089 10.548475 0.000000 0.007897
293.000000 51.160000 -8.000000 -1.000000 8.000000 79.513492 -5.610756 1080.735574 1141.176250 19.547225 0.000000 0.142459
294.000000 59.352000 -7.000000 -1.000000 8.000000 88.272889 -6.895160 1105.153671 973.689825 16.846499 0.000000 0.164400
295.000000 68.395000 -6.000000 -1.000000 8.000000 98.147492 -8.600971 1137.792872 785.157697 14.616135 0.000000 0.167360
296.000000 77.919000 -5.000000 -1.000000 8.000000 109.155616 -10.971014 1183.645399 560.169049 12.827037 0.000000 0.144029
297.000000 87.252000 -4.000000 -1.000000 8.000000 121.195454 -14.471188 1252.771278 267.935705 11.452461 0.000000 0.085122
298.000000 95.441000 -3.000000 -1.000000 8.000000 133.950861 -20.102266 1368.916034 -163.892182 10.467781 0.000000 0.039549
299.000000 57.519000 -7.000000 0.000000 8.000000 84.349038 -14.407826 1251.502112 1050.956400 17.384293 0.000000 0.148833
300.000000 75.849000 -5.000000 0.000000 8.000000 104.018716 -21.030333 1388.804567 653.099337 13.178029 0.000000 0.125026
301.000000 93.272000 -3.000000 0.000000 8.000000 126.390358 -34.398075 1711.900952 -20.340210 10.712201 0.000000 0.091532
302.000000 46.890000 -8.000000 1.000000 8.000000 71.768660 -18.553268 1336.236031 1314.955127 21.329686 0.000000 0.108790
303.000000 54.505000 -7.000000 1.000000 8.000000 79.508520 -21.418343 1397.192661 1155.099770 18.347107 0.000000 0.127965
304.000000 62.927000 -6.000000 1.000000 8.000000 88.077553 -25.073427 1478.564508 980.885036 15.888656 0.000000 0.127674
305.000000 71.818000 -5.000000 1.000000 8.000000 97.370251 -29.850920 1592.670459 780.485485 13.919158 0.000000 0.096270
306.000000 80.559000 -4.000000 1.000000 8.000000 107.095847 -36.252233 1764.236111 530.512502 12.406517 0.000000 0.035234
307.000000 88.265000 -3.000000 1.000000 8.000000 116.668700 -44.999318 2051.268638 176.509096 11.321385 0.000000 0.186797
308.000000 50.524000 -7.000000 2.000000 8.000000 74.005587 -27.790175 1542.229745 1289.731161 19.794268 0.000000 0.116517
309.000000 66.199000 -5.000000 2.000000 8.000000 89.760728 -37.311409 1795.255264 946.651223 15.102338 0.000000 0.095226
311.000000 45.885000 -7.000000 3.000000 8.000000 68.119845 -33.471639 1686.617750 1459.168107 21.796683 0.000000 0.141167
312.000000 52.583000 -6.000000 3.000000 8.000000 74.775817 -37.996189 1815.777968 1312.689496 19.017899 0.000000 0.145588
313.000000 59.555000 -5.000000 3.000000 8.000000 81.728506 -43.505766 1996.571021 1156.726491 16.789118 0.000000 0.165271
314.000000 66.335000 -4.000000 3.000000 8.000000 88.679412 -50.219269 2267.692256 979.776961 15.070965 0.000000 0.258320
316.000000 52.484000 -5.000000 4.000000 8.000000 73.708210 -48.618930 2196.629617 1416.843601 19.053034 0.000000 0.287188
321.000000 47.073000 -7.000000 -8.000000 9.000000 95.499526 38.963329 104.574081 807.726833 21.236292 0.000000 0.083225
322.000000 50.907000 -6.000000 -8.000000 9.000000 101.713800 43.149106 -33.910003 635.123612 19.634415 0.000000 0.114986
323.000000 54.530000 -5.000000 -8.000000 9.000000 107.929384 48.224237 -229.794955 418.282606 18.327736 0.000000 0.224162
325.000000 45.580000 -8.000000 -7.000000 9.000000 90.837088 30.568066 339.290763 922.736068 21.934513 0.000000 0.101344
326.000000 50.016000 -7.000000 -7.000000 9.000000 97.525730 33.756047 255.678825 769.979200 19.986340 0.000000 0.073533
327.000000 54.448000 -6.000000 -7.000000 9.000000 104.498677 37.690285 143.436714 589.284408 18.357061 0.000000 0.051470
328.000000 58.675000 -5.000000 -7.000000 9.000000 111.598445 42.613704 -15.178514 362.007069 17.032254 0.000000 0.124637
330.000000 47.814000 -8.000000 -6.000000 9.000000 91.859364 25.118945 470.392872 902.410326 20.909308 0.000000 0.121080
331.000000 52.839000 -7.000000 -6.000000 9.000000 99.180312 27.860013 406.092884 744.253375 18.918333 0.000000 0.097342
332.000000 62.810000 -5.000000 -6.000000 9.000000 114.998366 35.824476 198.052945 322.057827 15.910389 0.000000 0.041367
333.000000 67.224000 -4.000000 -6.000000 9.000000 123.109668 41.787183 13.115001 -0.339337 14.863652 0.000000 0.177638
334.000000 49.767000 -8.000000 -5.000000 9.000000 92.372001 19.163037 600.973043 893.801427 20.089238 0.000000 0.141783
335.000000 55.382000 -7.000000 -5.000000 9.000000 100.276663 21.279175 555.820983 731.579384 18.049388 0.000000 0.127045
336.000000 61.125000 -6.000000 -5.000000 9.000000 108.790715 24.022757 495.290594 540.066869 16.351087 0.000000 0.090587
337.000000 66.718000 -5.000000 -5.000000 9.000000 117.812892 27.700838 409.912786 299.726464 14.977950 0.000000 0.025244
338.000000 71.805000 -4.000000 -5.000000 9.000000 127.136100 32.835301 280.436772 -29.042599 13.914625 0.000000 0.086844
340.000000 45.528000 -9.000000 -4.000000 9.000000 84.621954 11.740696 751.312789 1044.488825 21.963361 0.000000 0.149711
341.000000 51.285000 -8.000000 -4.000000 9.000000 92.231984 12.771525 731.034385 897.987059 19.494571 0.000000 0.157936
342.000000 57.453000 -7.000000 -4.000000 9.000000 100.610385 14.089271 704.867804 733.121599 17.398839 0.000000 0.151338
343.000000 63.832000 -6.000000 -4.000000 9.000000 109.760170 15.830876 669.812872 539.112028 15.657400 0.000000 0.125251
344.000000 70.111000 -5.000000 -4.000000 9.000000 119.629973 18.234499 620.414200 296.468889 14.252727 0.000000 0.074605
345.000000 75.872000 -4.000000 -4.000000 9.000000 130.083441 21.749931 545.603625 -34.218222 13.168433 0.000000 0.031874
347.000000 52.214000 -8.000000 -3.000000 9.000000 91.312986 6.068278 860.579985 916.192390 19.148336 0.000000 0.167173
348.000000 58.842000 -7.000000 -3.000000 9.000000 99.990175 6.454474 853.237985 750.201198 16.988604 0.000000 0.166856
349.000000 72.649000 -5.000000 -3.000000 9.000000 120.000885 7.695247 829.570212 313.931852 13.754812 0.000000 0.106239
350.000000 79.015000 -4.000000 -3.000000 9.000000 131.245370 8.786448 808.641515 -13.937539 12.644410 0.000000 0.041891
351.000000 46.051000 -9.000000 -2.000000 9.000000 81.676317 -0.310287 980.828758 1098.471043 21.715046 0.000000 0.150385
352.000000 52.412000 -8.000000 -2.000000 9.000000 89.530737 -0.777860 989.612905 949.816067 19.076812 0.000000 0.168437
353.000000 59.351000 -7.000000 -2.000000 9.000000 98.280029 -1.380424 1000.936125 784.323296 16.843640 0.000000 0.172357
354.000000 66.661000 -6.000000 -2.000000 9.000000 107.962433 -2.186085 1016.085289 591.816688 14.993771 0.000000 0.157814
355.000000 73.984000 -5.000000 -2.000000 9.000000 118.567845 -3.317771 1037.393678 353.984769 13.506979 0.000000 0.119646
356.000000 80.806000 -4.000000 -2.000000 9.000000 130.012923 -5.021788 1069.575977 33.986511 12.364432 0.000000 0.055062
357.000000 86.501000 -3.000000 -2.000000 9.000000 142.111777 -7.871742 1123.807157 -455.304503 11.548582 0.000000 0.028366
358.000000 51.781000 -8.000000 -1.000000 9.000000 86.865344 -7.575304 1118.136182 1000.461908 19.310115 0.000000 0.161484
359.000000 58.834000 -7.000000 -1.000000 9.000000 95.438804 -9.129705 1147.966778 837.209909 16.992481 0.000000 0.167519
360.000000 66.306000 -6.000000 -1.000000 9.000000 104.902588 -11.186581 1187.850067 649.020754 15.074770 0.000000 0.154099
361.000000 73.834000 -5.000000 -1.000000 9.000000 115.208842 -14.027411 1243.897294 418.758149 13.535148 0.000000 0.114626
362.000000 80.882000 -4.000000 -1.000000 9.000000 126.194870 -18.179080 1328.432142 112.043124 12.353342 0.000000 0.044509
363.000000 86.791000 -3.000000 -1.000000 9.000000 137.500971 -24.723485 1470.574646 -352.142623 11.510503 0.000000 0.090024
364.000000 47.996000 -8.000000 1.000000 9.000000 79.173138 -20.324931 1373.665836 1160.503897 20.835434 0.000000 0.128812
365.000000 54.614000 -7.000000 1.000000 9.000000 86.753743 -23.368136 1440.043645 1007.500571 18.307758 0.000000 0.132568
366.000000 61.639000 -6.000000 1.000000 9.000000 94.957161 -27.222427 1528.672783 836.019347 16.218662 0.000000 0.113955
367.000000 68.732000 -5.000000 1.000000 9.000000 103.628797 -32.208243 1652.994946 632.584241 14.542422 0.000000 0.063249
368.000000 75.393000 -4.000000 1.000000 9.000000 112.453842 -38.788530 1840.008115 370.350780 13.255289 0.000000 0.061816
370.000000 51.132000 -7.000000 2.000000 9.000000 81.321299 -29.546787 1585.098766 1129.845457 19.555965 0.000000 0.116719
371.000000 57.595000 -6.000000 2.000000 9.000000 88.665479 -33.881848 1697.744903 971.201979 17.358822 0.000000 0.099862
372.000000 64.100000 -5.000000 2.000000 9.000000 96.291583 -39.289699 1855.613577 787.678306 15.594837 0.000000 0.079106
373.000000 70.197000 -4.000000 2.000000 9.000000 103.877726 -46.083127 2092.776221 557.628390 14.238151 0.000000 0.159742
375.000000 47.029000 -7.000000 3.000000 9.000000 75.498179 -35.031238 1729.504217 1280.975314 21.263804 0.000000 0.128657
376.000000 58.561000 -5.000000 3.000000 9.000000 88.546145 -45.150450 2056.961552 979.732993 17.071774 0.000000 0.161191
377.000000 63.950000 -4.000000 3.000000 9.000000 94.980608 -51.817025 2343.562641 789.268661 15.631294 0.000000 0.290633
378.000000 47.577000 -6.000000 4.000000 9.000000 75.126623 -44.515544 2033.245566 1341.869786 21.018227 0.000000 0.208799
379.000000 52.551000 -5.000000 4.000000 9.000000 80.765929 -49.986210 2257.050786 1213.140166 19.026425 0.000000 0.280514
383.000000 47.458000 -6.000000 -9.000000 10.000000 105.117472 46.578811 -162.306478 517.989867 21.059792 0.000000 0.180080
385.000000 47.214000 -7.000000 -8.000000 10.000000 101.898090 37.561155 147.303668 654.924048 21.170517 0.000000 0.057256
386.000000 53.769000 -5.000000 -8.000000 10.000000 114.299709 46.764514 -169.715423 231.569317 18.585257 0.000000 0.218404
387.000000 45.932000 -8.000000 -7.000000 10.000000 97.272274 29.071385 376.646141 783.854949 21.763940 0.000000 0.095463
388.000000 49.894000 -7.000000 -7.000000 10.000000 103.966226 32.153828 298.431994 624.830060 20.032799 0.000000 0.057771
389.000000 53.772000 -6.000000 -7.000000 10.000000 110.901057 35.986608 193.410738 433.038122 18.585854 0.000000 0.032486
390.000000 57.392000 -5.000000 -7.000000 10.000000 117.924443 40.831020 44.950343 187.067349 17.411392 0.000000 0.126625
392.000000 52.423000 -7.000000 -6.000000 10.000000 105.621502 26.051034 448.868974 606.025452 19.066178 0.000000 0.089529
393.000000 60.922000 -5.000000 -6.000000 10.000000 121.195998 33.662095 258.229239 157.979705 16.401861 0.000000 0.052096
394.000000 49.760000 -8.000000 -5.000000 10.000000 98.863010 17.368357 638.362488 765.150855 20.089438 0.000000 0.143703
395.000000 54.662000 -7.000000 -5.000000 10.000000 106.678911 19.274758 598.619339 599.378929 18.285199 0.000000 0.121021
396.000000 59.545000 -6.000000 -5.000000 10.000000 115.020884 21.762616 545.327395 400.085994 16.783177 0.000000 0.078312
397.000000 68.270000 -4.000000 -5.000000 10.000000 132.809130 29.902167 356.049161 -209.078999 14.633969 0.000000 0.102953
399.000000 46.010000 -9.000000 -4.000000 10.000000 91.156685 10.036155 784.519915 918.931166 21.730462 0.000000 0.162063
400.000000 56.450000 -7.000000 -4.000000 10.000000 106.943952 11.925556 747.687781 605.861404 17.706106 0.000000 0.145038
401.000000 66.918000 -5.000000 -4.000000 10.000000 125.313834 15.294025 680.679837 150.557390 14.931600 0.000000 0.057336
403.000000 46.538000 -9.000000 -3.000000 10.000000 90.047854 4.013018 899.492426 940.098859 21.484541 0.000000 0.167460
404.000000 51.942000 -8.000000 -3.000000 10.000000 97.778420 4.091975 898.001783 793.603246 19.246372 0.000000 0.170673
405.000000 57.619000 -7.000000 -3.000000 10.000000 106.244384 4.193802 896.078946 626.561341 17.347094 0.000000 0.159785
406.000000 63.367000 -6.000000 -3.000000 10.000000 115.449882 4.330116 893.504079 427.322886 15.770869 0.000000 0.131321
407.000000 68.896000 -5.000000 -3.000000 10.000000 125.361796 4.522008 889.877818 174.812027 14.502833 0.000000 0.082562
408.000000 73.844000 -4.000000 -3.000000 10.000000 135.899821 4.812161 884.390988 -173.571374 13.529017 0.000000 0.021032
410.000000 46.518000 -9.000000 -2.000000 10.000000 88.244377 -2.078457 1014.060695 974.011217 21.494504 0.000000 0.166403
411.000000 58.017000 -7.000000 -2.000000 10.000000 104.469140 -3.657408 1043.797439 662.702952 17.228613 0.000000 0.164622
412.000000 69.862000 -5.000000 -2.000000 10.000000 123.657835 -6.505952 1097.741496 219.699640 14.302811 0.000000 0.090719
414.000000 45.898000 -9.000000 -1.000000 10.000000 85.745696 -8.102478 1128.226851 1021.871060 21.785743 0.000000 0.158872
415.000000 51.543000 -8.000000 -1.000000 10.000000 93.315012 -9.524791 1155.588655 877.786875 19.396921 0.000000 0.166639
416.000000 57.535000 -7.000000 -1.000000 10.000000 101.600079 -11.340077 1190.847825 715.667879 17.373725 0.000000 0.159478
417.000000 63.666000 -6.000000 -1.000000 10.000000 110.578414 -13.731543 1238.000093 525.021015 15.697995 0.000000 0.132749
418.000000 69.622000 -5.000000 -1.000000 10.000000 120.161015 -17.011071 1304.283594 286.945765 14.352754 0.000000 0.081013
419.000000 74.996000 -4.000000 -1.000000 10.000000 130.152413 -21.745723 1404.304739 -36.574919 13.322111 0.000000 0.028632
421.000000 50.224000 -8.000000 0.000000 10.000000 89.841846 -15.999882 1283.620022 944.090643 19.907402 0.000000 0.153389
422.000000 56.134000 -7.000000 0.000000 10.000000 97.721678 -18.601032 1337.234625 787.021180 17.808542 0.000000 0.145162
423.000000 62.193000 -6.000000 0.000000 10.000000 106.182537 -21.955821 1408.886040 604.238831 16.071010 0.000000 0.115011
424.000000 73.425000 -4.000000 0.000000 10.000000 124.149110 -32.518504 1661.163856 75.206910 13.608266 0.000000 0.054778
426.000000 48.191000 -8.000000 1.000000 10.000000 85.682666 -22.059296 1411.147343 1028.672434 20.748374 0.000000 0.135390
427.000000 53.857000 -7.000000 1.000000 10.000000 93.004068 -25.265196 1482.962321 878.542630 18.562738 0.000000 0.124767
428.000000 59.664000 -6.000000 1.000000 10.000000 100.770612 -29.295357 1578.873495 706.233422 16.753616 0.000000 0.090463
429.000000 65.316000 -5.000000 1.000000 10.000000 108.803339 -34.454295 1713.453150 496.565924 15.301400 0.000000 0.029143
430.000000 70.432000 -4.000000 1.000000 10.000000 116.788943 -41.162791 1915.990484 219.182783 14.187818 0.000000 0.117845
432.000000 50.829000 -7.000000 2.000000 10.000000 87.668127 -31.247041 1628.035356 992.264669 19.670185 0.000000 0.108051
433.000000 61.479000 -5.000000 2.000000 10.000000 101.748458 -41.166254 1916.105261 643.658743 16.257959 0.000000 0.081373
434.000000 47.232000 -7.000000 3.000000 10.000000 81.947174 -36.535836 1772.458129 1130.518696 21.169722 0.000000 0.116645
435.000000 52.122000 -6.000000 3.000000 10.000000 88.125501 -41.168543 1916.181129 987.793182 19.181172 0.000000 0.118057
436.000000 56.858000 -5.000000 3.000000 10.000000 94.312158 -46.708746 2117.485106 822.645323 17.581384 0.000000 0.172794
438.000000 51.769000 -5.000000 4.000000 10.000000 86.812910 -51.282716 2317.604628 1036.816191 19.311932 0.000000 0.290020
440.000000 47.050000 -6.000000 -9.000000 11.000000 110.893360 45.291576 -112.304863 356.985253 21.240619 0.000000 0.171370
442.000000 46.888000 -7.000000 -8.000000 11.000000 107.706571 36.101755 190.102207 515.706299 21.315841 0.000000 0.035883
443.000000 49.876000 -6.000000 -8.000000 11.000000 113.880419 40.181184 66.066529 317.304959 20.036398 0.000000 0.095067
444.000000 52.599000 -5.000000 -8.000000 11.000000 120.002678 45.217547 -109.498664 58.758377 18.997273 0.000000 0.220148
446.000000 45.787000 -8.000000 -7.000000 11.000000 103.112478 27.527749 414.053979 658.284309 21.830224 0.000000 0.088619
447.000000 49.289000 -7.000000 -7.000000 11.000000 109.757991 30.490523 341.253996 492.360435 20.276801 0.000000 0.043529
448.000000 52.651000 -6.000000 -7.000000 11.000000 116.606990 34.202627 243.479021 289.129942 18.979603 0.000000 0.030162
449.000000 55.731000 -5.000000 -7.000000 11.000000 123.515897 38.942660 105.216095 24.523100 17.928928 0.000000 0.135421
451.000000 47.642000 -8.000000 -6.000000 11.000000 104.167263 21.768901 545.190509 648.447178 20.980461 0.000000 0.116528
452.000000 51.518000 -7.000000 -6.000000 11.000000 111.357156 24.181414 491.713775 479.651075 19.399183 0.000000 0.079822
453.000000 55.266000 -6.000000 -6.000000 11.000000 118.874204 27.280777 419.940325 273.207914 18.081232 0.000000 0.023479
454.000000 58.717000 -5.000000 -6.000000 11.000000 126.595876 31.380025 318.542094 4.867685 17.016392 0.000000 0.068261
456.000000 49.218000 -8.000000 -5.000000 11.000000 104.660817 15.535237 675.804233 648.748923 20.308499 0.000000 0.139993
457.000000 53.457000 -7.000000 -5.000000 11.000000 112.324038 17.216757 641.486286 478.320111 18.695506 0.000000 0.111081
458.000000 57.583000 -6.000000 -5.000000 11.000000 120.439796 19.424571 595.458069 270.364082 17.353407 0.000000 0.064882
459.000000 61.404000 -5.000000 -5.000000 11.000000 128.919589 22.440521 530.492762 0.731678 16.271428 0.000000 0.029211
461.000000 45.924000 -9.000000 -4.000000 11.000000 97.030494 8.311335 817.768176 806.857315 21.768785 0.000000 0.166158
462.000000 50.410000 -8.000000 -4.000000 11.000000 104.465189 8.929020 805.898271 659.942892 19.828695 0.000000 0.156891
463.000000 54.974000 -7.000000 -4.000000 11.000000 112.477509 9.723244 790.576227 489.188967 18.179617 0.000000 0.133697
464.000000 59.446000 -6.000000 -4.000000 11.000000 121.044713 10.781820 770.039801 281.511269 16.809516 0.000000 0.094172
465.000000 63.610000 -5.000000 -4.000000 11.000000 130.111076 12.261806 741.081357 13.153773 15.707014 0.000000 0.041149
466.000000 67.221000 -4.000000 -4.000000 11.000000 139.578072 14.473434 697.183717 -364.079843 14.861340 0.000000 0.050216
468.000000 46.396000 -9.000000 -3.000000 11.000000 95.911357 2.247826 932.753182 829.474368 21.547502 0.000000 0.172194
469.000000 51.111000 -8.000000 -3.000000 11.000000 103.478073 2.103103 935.475718 682.866317 19.556990 0.000000 0.166393
470.000000 55.937000 -7.000000 -3.000000 11.000000 111.666986 1.916345 938.988253 513.169425 17.866872 0.000000 0.146859
471.000000 60.693000 -6.000000 -3.000000 11.000000 120.463816 1.666137 943.692990 307.661676 16.464390 0.000000 0.110988
472.000000 65.143000 -5.000000 -3.000000 11.000000 129.823389 1.313541 950.320967 43.284912 15.337501 0.000000 0.058261
473.000000 69.016000 -4.000000 -3.000000 11.000000 139.664292 0.779598 960.354446 -326.637757 14.474825 0.000000 0.004899
475.000000 46.374000 -9.000000 -2.000000 11.000000 94.101292 -3.844850 1047.333653 863.651779 21.558423 0.000000 0.171890
476.000000 51.233000 -8.000000 -2.000000 11.000000 101.643419 -4.755630 1064.539646 718.452234 19.511143 0.000000 0.168157
477.000000 56.230000 -7.000000 -2.000000 11.000000 109.807113 -5.926481 1086.726977 551.276286 17.774350 0.000000 0.150276
478.000000 61.177000 -6.000000 -2.000000 11.000000 118.567459 -7.485777 1116.425022 349.940582 16.334495 0.000000 0.115091
479.000000 65.825000 -5.000000 -2.000000 11.000000 127.856515 -9.661212 1158.224513 92.403525 15.178807 0.000000 0.061105
480.000000 69.884000 -4.000000 -2.000000 11.000000 137.544814 -12.895471 1221.414765 -265.853330 14.295234 0.000000 0.029079
482.000000 45.816000 -9.000000 -1.000000 11.000000 91.606450 -9.831189 1161.511720 910.365253 21.822262 0.000000 0.165290
483.000000 50.716000 -8.000000 -1.000000 11.000000 98.965575 -11.454935 1193.093101 767.743502 19.710989 0.000000 0.162227
484.000000 55.772000 -7.000000 -1.000000 11.000000 106.901622 -13.520211 1233.796972 604.642206 17.921100 0.000000 0.144032
485.000000 60.794000 -6.000000 -1.000000 11.000000 115.363745 -16.227036 1288.243209 409.602392 16.438170 0.000000 0.106514
486.000000 65.527000 -5.000000 -1.000000 11.000000 124.238457 -19.909020 1364.804750 161.933337 15.248627 0.000000 0.046971
487.000000 69.671000 -4.000000 -1.000000 11.000000 133.314254 -25.153100 1480.389957 -180.058107 14.339688 0.000000 0.063031
489.000000 47.746000 -8.000000 1.000000 11.000000 91.399810 -23.754453 1448.680659 912.265095 20.939448 0.000000 0.131539
490.000000 52.556000 -7.000000 1.000000 11.000000 98.403454 -27.107646 1525.948852 762.379260 19.020262 0.000000 0.108302
491.000000 57.341000 -6.000000 1.000000 11.000000 105.704876 -31.291049 1629.166902 586.854480 17.430622 0.000000 0.060931
492.000000 61.860000 -5.000000 1.000000 11.000000 113.116651 -36.590352 1774.045516 368.776902 16.155093 0.000000 0.036460
493.000000 65.829000 -4.000000 1.000000 11.000000 120.340242 -43.382661 1992.184094 74.234478 15.179190 0.000000 0.179098
494.000000 49.927000 -7.000000 2.000000 11.000000 93.180391 -32.890755 1671.039675 869.779130 20.023529 0.000000 0.092281
495.000000 54.419000 -6.000000 2.000000 11.000000 99.765196 -37.413353 1798.286646 707.786648 18.368146 0.000000 0.061608
496.000000 58.658000 -5.000000 2.000000 11.000000 106.342108 -42.944999 1976.730758 509.871835 17.038584 0.000000 0.107529
498.000000 46.788000 -7.000000 3.000000 11.000000 87.586819 -37.986325 1815.479646 998.549576 21.368683 0.000000 0.103512
499.000000 50.906000 -6.000000 3.000000 11.000000 93.447399 -42.652386 1966.521023 852.843394 19.637574 0.000000 0.114654
500.000000 54.785000 -5.000000 3.000000 11.000000 99.218559 -48.185155 2178.142123 679.004027 18.245066 0.000000 0.199445
502.000000 46.999000 -6.000000 4.000000 11.000000 86.985522 -47.115940 2133.876969 1024.288001 21.271865 0.000000 0.198254
503.000000 50.473000 -5.000000 4.000000 11.000000 92.016758 -52.512574 2378.291583 878.724288 19.806062 0.000000 0.313292
508.000000 46.214000 -7.000000 -8.000000 12.000000 112.966935 34.583565 232.969866 386.976692 21.624537 0.000000 0.021853
510.000000 48.341000 -7.000000 -7.000000 12.000000 114.955896 28.765536 384.144997 369.612699 20.672672 0.000000 0.031111
511.000000 51.241000 -6.000000 -7.000000 12.000000 121.685582 32.336239 293.641831 154.705571 19.500617 0.000000 0.041781
512.000000 53.850000 -5.000000 -7.000000 12.000000 128.455413 36.943421 165.619210 -128.475737 18.553609 0.000000 0.146049
514.000000 50.284000 -7.000000 -6.000000 12.000000 116.456566 22.252231 534.627454 362.299529 19.873545 0.000000 0.068977
515.000000 56.364000 -5.000000 -6.000000 12.000000 131.300487 28.975902 378.991973 -139.862357 17.725563 0.000000 0.082940
516.000000 48.300000 -8.000000 -5.000000 12.000000 109.829734 13.666296 713.298387 541.570624 20.692742 0.000000 0.132150
517.000000 51.945000 -7.000000 -5.000000 12.000000 117.296592 15.108511 684.421988 365.677533 19.238047 0.000000 0.098604
518.000000 55.422000 -6.000000 -5.000000 12.000000 125.152463 17.012703 645.682880 148.410702 18.028732 0.000000 0.051624
519.000000 58.576000 -5.000000 -5.000000 12.000000 133.319826 19.635959 590.987546 -136.618841 17.055809 0.000000 0.039520
521.000000 53.217000 -7.000000 -4.000000 12.000000 117.310624 7.487957 833.533305 380.450122 18.778126 0.000000 0.119076
522.000000 60.346000 -5.000000 -4.000000 12.000000 134.165118 9.151188 801.619221 -117.853243 16.555615 0.000000 0.027407
523.000000 49.911000 -8.000000 -3.000000 12.000000 108.498581 0.106367 973.001899 580.906001 20.025413 0.000000 0.156649
524.000000 53.998000 -7.000000 -3.000000 12.000000 116.370953 -0.370829 981.966070 407.391633 18.506923 0.000000 0.130115
525.000000 61.529000 -5.000000 -3.000000 12.000000 133.546205 -1.910409 1010.900116 -82.584909 16.237350 0.000000 0.034850
527.000000 45.792000 -9.000000 -2.000000 12.000000 99.315847 -5.606123 1080.647708 763.595834 21.830562 0.000000 0.169791
528.000000 54.199000 -7.000000 -2.000000 12.000000 114.417293 -8.180626 1129.724902 447.356395 18.438925 0.000000 0.131604
529.000000 61.999000 -5.000000 -2.000000 12.000000 131.335808 -12.765326 1218.843184 -29.733466 16.114610 0.000000 0.034831
531.000000 49.506000 -8.000000 -1.000000 12.000000 103.917194 -13.361717 1230.649629 666.881045 20.190643 0.000000 0.151137
532.000000 53.761000 -7.000000 -1.000000 12.000000 111.473076 -15.664556 1276.814382 501.289218 18.590141 0.000000 0.123692
533.000000 57.881000 -6.000000 -1.000000 12.000000 119.415723 -18.665325 1338.579675 300.460417 17.264420 0.000000 0.077660
534.000000 61.666000 -5.000000 -1.000000 12.000000 127.617916 -22.710762 1425.461213 41.893896 16.202385 0.000000 0.025019
535.000000 64.899000 -4.000000 -1.000000 12.000000 135.862229 -28.389229 1556.688692 -319.813447 15.393530 0.000000 0.107044
536.000000 52.664000 -7.000000 0.000000 12.000000 107.640912 -22.610026 1423.239048 570.237592 18.978304 0.000000 0.107289
537.000000 60.495000 -5.000000 0.000000 12.000000 122.644059 -31.353203 1630.766827 133.617126 16.517235 0.000000 0.033217
538.000000 46.869000 -8.000000 1.000000 12.000000 96.424173 -25.408852 1486.265891 806.836682 21.328927 0.000000 0.120081
539.000000 50.937000 -7.000000 1.000000 12.000000 103.080558 -28.894167 1569.003396 655.365906 19.623117 0.000000 0.085902
540.000000 54.882000 -6.000000 1.000000 12.000000 109.915288 -33.209169 1679.553258 474.944305 18.210129 0.000000 0.029311
541.000000 58.515000 -5.000000 1.000000 12.000000 116.742105 -38.618790 1834.772492 246.900404 17.077505 0.000000 0.079120
543.000000 48.651000 -7.000000 2.000000 12.000000 97.979867 -34.478132 1714.111884 757.972098 20.546525 0.000000 0.072349
544.000000 55.820000 -5.000000 2.000000 12.000000 110.239370 -44.630217 2037.490514 383.372062 17.903570 0.000000 0.148023
545.000000 45.914000 -7.000000 3.000000 12.000000 92.528506 -39.383812 1858.568927 879.507245 21.773053 0.000000 0.091940
546.000000 52.554000 -5.000000 3.000000 12.000000 103.421560 -49.584153 2238.933046 544.847914 19.018125 0.000000 0.237409
550.000000 47.561000 -6.000000 -8.000000 13.000000 123.730902 36.916115 166.421939 42.158385 21.008671 0.000000 0.108869
552.000000 47.162000 -7.000000 -7.000000 13.000000 119.615827 26.978675 427.105163 254.475737 21.187810 0.000000 0.022445
553.000000 49.655000 -6.000000 -7.000000 13.000000 126.203589 30.385839 343.899434 27.718628 20.121877 0.000000 0.056329
556.000000 45.932000 -8.000000 -6.000000 13.000000 114.102669 18.244875 620.198109 434.001874 21.757635 0.000000 0.099736
557.000000 48.843000 -7.000000 -6.000000 13.000000 120.987407 20.265176 577.610176 251.967718 20.458266 0.000000 0.057863
558.000000 51.561000 -6.000000 -6.000000 13.000000 128.118581 22.896924 520.423599 24.282107 19.377841 0.000000 0.027473
559.000000 53.976000 -5.000000 -6.000000 13.000000 135.400851 26.448820 439.579344 -278.055928 18.509081 0.000000 0.093843
561.000000 47.130000 -8.000000 -5.000000 13.000000 114.434130 11.764563 750.845061 441.505453 21.204713 0.000000 0.121403
562.000000 50.256000 -7.000000 -5.000000 13.000000 121.676252 12.954064 727.426611 259.540139 19.883187 0.000000 0.084680
563.000000 53.185000 -6.000000 -5.000000 13.000000 129.252942 14.532392 696.002094 32.470981 18.785871 0.000000 0.039688
564.000000 55.795000 -5.000000 -5.000000 13.000000 137.098131 16.723281 651.619481 -268.301448 17.905151 0.000000 0.047203
566.000000 48.002000 -8.000000 -4.000000 13.000000 114.064976 4.992867 880.971468 458.508871 20.819659 0.000000 0.135932
567.000000 51.315000 -7.000000 -4.000000 13.000000 121.534344 5.225889 876.559182 277.801592 19.472991 0.000000 0.102462
568.000000 54.430000 -6.000000 -4.000000 13.000000 129.394057 5.538088 870.642498 52.963751 18.356104 0.000000 0.057530
569.000000 57.214000 -5.000000 -4.000000 13.000000 137.595364 5.978044 862.293890 -243.945004 17.461022 0.000000 0.017219
571.000000 48.481000 -8.000000 -3.000000 13.000000 112.922000 -1.893410 1010.580435 485.619789 20.614196 0.000000 0.143103
572.000000 51.940000 -7.000000 -3.000000 13.000000 120.457060 -2.660470 1025.012562 307.417329 19.239055 0.000000 0.111013
573.000000 55.203000 -6.000000 -3.000000 13.000000 128.389195 -3.686825 1044.352310 86.501644 18.099597 0.000000 0.066195
574.000000 58.125000 -5.000000 -3.000000 13.000000 136.660424 -5.129522 1071.615724 -204.142435 17.187460 0.000000 0.015815
576.000000 48.513000 -8.000000 -2.000000 13.000000 110.978771 -8.698901 1139.675043 523.504266 20.601168 0.000000 0.142860
577.000000 52.064000 -7.000000 -2.000000 13.000000 118.407649 -10.413102 1172.791378 349.115920 19.193826 0.000000 0.110225
578.000000 55.422000 -6.000000 -2.000000 13.000000 126.189411 -12.679002 1217.138947 133.895895 18.028436 0.000000 0.063425
579.000000 58.437000 -5.000000 -2.000000 13.000000 134.231905 -15.801843 1279.597968 -147.970185 17.096217 0.000000 0.027533
581.000000 48.064000 -8.000000 -1.000000 13.000000 108.262002 -15.241420 1268.258347 572.893879 20.794670 0.000000 0.135377
582.000000 51.643000 -7.000000 -1.000000 13.000000 115.426547 -17.768140 1319.900219 403.696879 19.350953 0.000000 0.100219
583.000000 55.036000 -6.000000 -1.000000 13.000000 122.862903 -21.039849 1389.009750 196.036065 18.155860 0.000000 0.048427
584.000000 58.087000 -5.000000 -1.000000 13.000000 130.437017 -25.408311 1486.253439 -74.415994 17.200155 0.000000 0.044952
586.000000 45.717000 -8.000000 1.000000 13.000000 100.847308 -27.021289 1523.903146 709.492888 21.864896 0.000000 0.103142
587.000000 49.153000 -7.000000 1.000000 13.000000 107.146483 -30.623952 1612.126117 555.112545 20.333783 0.000000 0.059569
588.000000 52.415000 -6.000000 1.000000 13.000000 113.528639 -35.050102 1730.032823 368.562685 19.066025 0.000000 0.021162
589.000000 55.355000 -5.000000 1.000000 13.000000 119.814213 -40.542831 1895.634526 129.396215 18.051357 0.000000 0.126637
591.000000 47.161000 -7.000000 2.000000 13.000000 102.172890 -36.009705 1757.252143 653.986703 21.194236 0.000000 0.052756
592.000000 50.267000 -6.000000 2.000000 13.000000 107.957656 -40.652242 1899.199390 481.213126 19.882369 0.000000 0.075899
593.000000 53.068000 -5.000000 2.000000 13.000000 113.571448 -46.226400 2098.384973 262.226257 18.831167 0.000000 0.195217
595.000000 47.676000 -6.000000 3.000000 13.000000 102.066440 -45.427561 2067.478715 613.164776 20.964900 0.000000 0.145282
600.000000 47.980000 -6.000000 -7.000000 14.000000 130.222924 28.350454 394.252101 -93.336355 20.823507 0.000000 0.069565
602.000000 47.286000 -7.000000 -6.000000 14.000000 125.012938 18.222593 620.662109 147.198273 21.130794 0.000000 0.047324
604.000000 45.803000 -8.000000 -5.000000 14.000000 118.535242 9.833459 788.444364 347.036091 21.817488 0.000000 0.108717
605.000000 48.482000 -7.000000 -5.000000 14.000000 125.535469 10.758161 770.500322 158.528179 20.609531 0.000000 0.070135
606.000000 50.953000 -6.000000 -5.000000 14.000000 132.823494 11.990354 746.415977 -78.727329 19.607944 0.000000 0.030040
607.000000 53.120000 -5.000000 -5.000000 14.000000 140.343937 13.711994 712.389032 -395.518834 18.806196 0.000000 0.050617
609.000000 49.358000 -7.000000 -4.000000 14.000000 125.229506 2.943712 919.654023 179.923265 20.243699 0.000000 0.084802
610.000000 54.259000 -5.000000 -4.000000 14.000000 140.500548 2.760412 923.105829 -366.191627 18.411402 0.000000 0.012110
611.000000 46.924000 -8.000000 -3.000000 14.000000 116.823128 -3.891366 1048.211436 395.521614 21.296872 0.000000 0.126981
612.000000 49.853000 -7.000000 -3.000000 14.000000 124.013014 -4.945282 1068.127893 211.960739 20.043245 0.000000 0.090639
613.000000 52.568000 -6.000000 -3.000000 14.000000 131.516551 -6.352549 1094.823246 -17.665454 19.005710 0.000000 0.044339
614.000000 54.959000 -5.000000 -3.000000 14.000000 139.271369 -8.323658 1132.468253 -322.351513 18.177143 0.000000 0.020022
616.000000 49.915000 -7.000000 -2.000000 14.000000 121.870698 -12.617556 1215.926568 255.268761 20.018984 0.000000 0.087373
617.000000 55.153000 -5.000000 -2.000000 14.000000 136.652749 -18.756522 1340.489322 -263.201153 18.113681 0.000000 0.048359
618.000000 46.496000 -8.000000 -1.000000 14.000000 112.082025 -17.090663 1305.919363 484.182865 21.494490 0.000000 0.116383
619.000000 49.512000 -7.000000 -1.000000 14.000000 118.857120 -19.826615 1363.054645 310.532115 20.182693 0.000000 0.074970
620.000000 52.318000 -6.000000 -1.000000 14.000000 125.809654 -23.345256 1439.533696 95.236840 19.097856 0.000000 0.025374
621.000000 54.797000 -5.000000 -1.000000 14.000000 132.803195 -27.996101 1547.181883 -187.872063 18.232171 0.000000 0.080183
623.000000 45.650000 -8.000000 0.000000 14.000000 108.689752 -23.096864 1434.008784 545.181386 21.893702 0.000000 0.101228
624.000000 51.417000 -6.000000 0.000000 14.000000 121.565515 -30.560634 1610.520953 173.081636 19.433643 0.000000 0.019587
625.000000 53.876000 -5.000000 0.000000 14.000000 127.974246 -35.845873 1752.558624 -95.416725 18.544764 0.000000 0.121231
627.000000 47.305000 -7.000000 1.000000 14.000000 110.695318 -32.296660 1655.317176 459.986637 21.126633 0.000000 0.031237
628.000000 50.014000 -6.000000 1.000000 14.000000 116.647617 -36.814840 1780.605856 266.376795 19.980372 0.000000 0.054461
629.000000 52.411000 -5.000000 1.000000 14.000000 122.437609 -42.366318 1956.632069 15.200383 19.064713 0.000000 0.175623
631.000000 45.562000 -7.000000 2.000000 14.000000 105.850325 -37.486292 1800.460615 555.893155 21.936308 0.000000 0.043394
633.000000 45.914000 -6.000000 3.000000 14.000000 105.573840 -46.724058 2118.097024 503.404739 21.767795 0.000000 0.176047
636.000000 46.273000 -6.000000 -7.000000 15.000000 133.799549 26.229884 444.700100 -209.591606 21.590558 0.000000 0.080172
638.000000 45.676000 -7.000000 -6.000000 15.000000 128.590689 16.127525 663.783420 46.905537 21.874330 0.000000 0.038160
640.000000 46.686000 -7.000000 -5.000000 15.000000 128.938691 8.526214 813.643286 61.620544 21.401247 0.000000 0.055571
641.000000 48.775000 -6.000000 -5.000000 15.000000 135.935092 9.394603 796.924797 -186.129126 20.482417 0.000000 0.023339
643.000000 47.409000 -7.000000 -4.000000 15.000000 128.466638 0.648473 962.817993 85.844855 21.075175 0.000000 0.066804
644.000000 49.600000 -6.000000 -4.000000 15.000000 135.603168 0.179767 971.623080 -158.202527 20.141931 0.000000 0.022399
647.000000 47.796000 -7.000000 -3.000000 15.000000 127.114078 -7.218058 1111.312228 120.083593 20.904886 0.000000 0.069894
648.000000 52.034000 -5.000000 -3.000000 15.000000 141.464446 -11.473601 1193.458168 -437.920986 19.198542 0.000000 0.040073
650.000000 47.809000 -7.000000 -2.000000 15.000000 124.884793 -14.788128 1259.130638 164.883468 20.899867 0.000000 0.064203
651.000000 50.127000 -6.000000 -2.000000 15.000000 131.745563 -17.687430 1318.229160 -67.136087 19.931016 0.000000 0.027250
652.000000 52.140000 -5.000000 -2.000000 15.000000 138.684237 -21.617608 1401.517707 -376.079542 19.159740 0.000000 0.077037
654.000000 47.424000 -7.000000 -1.000000 15.000000 121.844615 -21.836284 1406.277825 220.837076 21.070386 0.000000 0.049385
655.000000 49.758000 -6.000000 -1.000000 15.000000 128.340542 -25.577394 1490.151775 -2.725625 20.079850 0.000000 0.032986
656.000000 51.787000 -5.000000 -1.000000 15.000000 134.800759 -30.470794 1608.247004 -299.108974 19.291358 0.000000 0.117789
658.000000 45.459000 -7.000000 1.000000 15.000000 113.805917 -33.912357 1698.576736 368.835032 21.983564 0.000000 0.012492
659.000000 47.719000 -6.000000 1.000000 15.000000 119.355218 -38.504874 1831.272615 167.440727 20.940439 0.000000 0.093155
661.000000 46.101000 -6.000000 2.000000 15.000000 114.137890 -43.615183 2000.485193 274.824034 21.676775 0.000000 0.146029
666.000000 46.683000 -6.000000 -5.000000 16.000000 138.648559 6.754376 847.528822 -290.450913 21.399787 0.000000 0.019494
668.000000 45.505000 -7.000000 -4.000000 16.000000 131.306659 -1.652534 1006.051258 -5.162791 21.956088 0.000000 0.049065
670.000000 45.804000 -7.000000 -3.000000 16.000000 129.824347 -9.471819 1154.565734 31.085140 21.813068 0.000000 0.049807
671.000000 47.710000 -6.000000 -3.000000 16.000000 136.511995 -11.606002 1196.048993 -217.336289 20.939476 0.000000 0.022897
674.000000 45.779000 -7.000000 -2.000000 16.000000 127.515894 -16.919519 1302.403752 77.268855 21.825691 0.000000 0.042529
676.000000 47.364000 -6.000000 -1.000000 16.000000 130.524184 -27.733255 1540.864252 -98.434550 21.094031 0.000000 0.061087
679.000000 45.549000 -6.000000 1.000000 16.000000 121.718619 -40.122090 1882.033363 71.064549 21.936945 0.000000 0.133105
684.000000 45.507000 -6.000000 -3.000000 17.000000 138.504397 -14.172981 1246.804337 -313.916012 21.952790 0.000000 0.037827
686.000000 45.479000 -6.000000 -2.000000 17.000000 135.853797 -22.449185 1419.697774 -258.779938 21.967086 0.000000 0.063378
#UB matrix in q= (UB) B0 G* 
#[[-0.143961606  0.280183548 -0.947806411]
# [-0.058478787 -0.959409754 -0.274728506]
# [-0.98785388   0.01591316   0.154676183]]
#B0 matrix in q= UB (B0) G*
#[[ 0.19670273 -0.          0.03056101]
# [ 0.          0.19187965 -0.        ]
# [ 0.          0.          0.18806537]]
#UBB0 matrix in q= (UB B0) G* i.e. recip. basis vectors are columns in LT frame: astar = UBB0[:,0], bstar = UBB0[:,1], cstar = UBB0[:,2]. (abcstar as columns on xyzlab1, xlab1 = ui, ui = unit vector along incident beam)
#[[-0.02831764  0.05376152 -0.18264918]
# [-0.01150294 -0.18409121 -0.05345409]
# [-0.19431356  0.00305341 -0.00110057]]
#Euler angles phi theta psi (deg)
#[269.074  81.109 106.137]
#deviatoric strain in direct crystal frame (10-3 unit)
#[[-0.04  0.01 -0.08]
# [ 0.01  0.37 -0.46]
# [-0.08 -0.46 -0.33]]
#deviatoric strain in sample2 frame (10-3 unit)
#[[-0.09 -0.39  0.  ]
# [-0.39  0.07  0.42]
# [ 0.    0.42  0.02]]
#new lattice parameters
#[ 5.1505     5.2137088  5.3234107 90.0274776 99.2244111 89.9983997]
#CCDLabel
#sCMOS
#DetectorParameters
#[79.0, 975.0, 941.0, 0.0, 0.0]
#pixelsize
#0.0734
#Frame dimensions
#[2018, 2016]
#
