#Strain and Orientation Refinement from experimental file: /home/micha/LaueProjects/DepthEffects/testZrO2_126.cor
#File created at Wed Jun 28 14:25:58 2023 with indexingSpotsSet.py
#Number of indexed spots: 531
#Element
#ZrO2
#grainIndex
#G_0
#Mean Deviation(pixel): 0.114
##spot_index intensity h k l 2theta Chi Xexp Yexp Energy GrainIndex PixDev
0.000000 45.951000 5.000000 -8.000000 -6.000000 72.110427 -34.878550 1725.234419 1364.490591 21.773777 0.000000 0.139305
1.000000 45.816000 3.000000 -4.000000 -3.000000 75.272522 -29.163016 1575.609126 1264.981178 10.918596 0.000000 0.118846
2.000000 46.154000 5.000000 -7.000000 -6.000000 66.954481 -31.446288 1633.166914 1477.693705 21.680340 0.000000 0.134977
3.000000 45.983000 6.000000 -7.000000 -6.000000 70.213331 -25.609877 1490.901974 1370.391159 21.760195 0.000000 0.112306
5.000000 46.611000 4.000000 -11.000000 -5.000000 87.624003 -49.809395 2249.046000 1010.202193 21.458214 0.000000 0.251199
6.000000 46.974000 5.000000 -11.000000 -5.000000 91.283484 -44.127534 2019.005129 907.405134 21.291342 0.000000 0.141277
7.000000 46.732000 6.000000 -11.000000 -5.000000 94.198999 -38.420337 1828.682539 840.142382 21.401042 0.000000 0.084993
8.000000 45.990000 7.000000 -11.000000 -5.000000 96.394434 -32.799431 1668.609191 797.502617 21.746101 0.000000 0.082375
11.000000 48.909000 4.000000 -10.000000 -5.000000 85.022763 -47.149877 2135.254414 1078.825392 20.451223 0.000000 0.206454
12.000000 49.200000 2.000000 -4.000000 -2.000000 88.723652 -41.170503 1916.246093 972.856383 8.131804 0.000000 0.119012
13.000000 48.779000 6.000000 -10.000000 -5.000000 91.600197 -35.227178 1735.006942 904.192087 20.504056 0.000000 0.090757
14.000000 47.793000 7.000000 -10.000000 -5.000000 93.698161 -29.443686 1582.542303 861.115990 20.926964 0.000000 0.102713
15.000000 46.389000 8.000000 -10.000000 -5.000000 95.100924 -23.924716 1452.503550 835.895085 21.560130 0.000000 0.122995
17.000000 49.963000 3.000000 -9.000000 -5.000000 77.197095 -50.445849 2278.138080 1325.080841 20.022127 0.000000 0.304748
18.000000 51.156000 4.000000 -9.000000 -5.000000 81.858756 -44.203661 2021.784259 1155.781946 19.554298 0.000000 0.175080
19.000000 51.349000 5.000000 -9.000000 -5.000000 85.599127 -37.929082 1813.749968 1046.014889 19.479898 0.000000 0.112431
20.000000 50.710000 6.000000 -9.000000 -5.000000 88.431805 -31.769984 1641.550374 975.658664 19.725062 0.000000 0.104762
21.000000 49.435000 7.000000 -9.000000 -5.000000 90.431016 -25.858643 1496.660695 932.002364 20.233324 0.000000 0.120453
22.000000 47.719000 8.000000 -9.000000 -5.000000 91.709152 -20.296634 1373.061455 906.758168 20.960783 0.000000 0.137380
23.000000 45.729000 9.000000 -9.000000 -5.000000 92.394206 -15.148353 1266.381131 894.378969 21.872790 0.000000 0.150016
25.000000 51.900000 3.000000 -8.000000 -5.000000 73.164260 -47.546017 2151.464677 1423.498002 19.276255 0.000000 0.266053
26.000000 53.186000 4.000000 -8.000000 -5.000000 77.983425 -40.940086 1908.634175 1244.283442 18.809403 0.000000 0.157376
27.000000 53.261000 5.000000 -8.000000 -5.000000 81.770215 -34.384111 1711.515748 1129.626165 18.782104 0.000000 0.115695
28.000000 52.366000 6.000000 -8.000000 -5.000000 84.566272 -28.042988 1548.312068 1056.997750 19.102798 0.000000 0.117511
29.000000 50.768000 7.000000 -8.000000 -5.000000 86.480998 -22.050901 1410.963771 1012.410940 19.703708 0.000000 0.131772
30.000000 48.716000 8.000000 -8.000000 -5.000000 87.659021 -16.498276 1293.777656 986.888813 20.533582 0.000000 0.144579
31.000000 46.412000 9.000000 -8.000000 -5.000000 88.252051 -11.430624 1192.617706 974.509853 21.552948 0.000000 0.153165
33.000000 53.303000 3.000000 -7.000000 -5.000000 68.204479 -44.296668 2025.189393 1542.326448 18.770731 0.000000 0.241807
34.000000 54.723000 4.000000 -7.000000 -5.000000 73.209788 -37.329843 1795.802810 1349.411770 18.282940 0.000000 0.149362
35.000000 54.680000 5.000000 -7.000000 -5.000000 77.067597 -30.521994 1609.542428 1227.899429 18.296825 0.000000 0.119184
36.000000 53.514000 6.000000 -7.000000 -5.000000 79.856085 -24.048593 1455.291260 1151.872094 18.695047 0.000000 0.122494
37.000000 51.584000 7.000000 -7.000000 -5.000000 81.725355 -18.035707 1325.450935 1105.616603 19.394212 0.000000 0.133398
38.000000 49.201000 8.000000 -7.000000 -5.000000 82.853193 -12.552911 1214.651680 1079.257478 20.333429 0.000000 0.142304
39.000000 46.602000 9.000000 -7.000000 -5.000000 83.412489 -7.620019 1118.991085 1066.401147 21.467192 0.000000 0.147552
41.000000 53.673000 3.000000 -6.000000 -5.000000 62.063513 -40.655642 1899.310353 1693.329304 18.643308 0.000000 0.231113
42.000000 55.324000 4.000000 -6.000000 -5.000000 67.309617 -33.348155 1683.288820 1479.712818 18.086568 0.000000 0.144318
43.000000 55.213000 5.000000 -6.000000 -5.000000 71.294477 -26.338118 1507.829011 1347.633153 18.122100 0.000000 0.114352
44.000000 53.817000 6.000000 -6.000000 -5.000000 74.139722 -19.799878 1362.487190 1265.997285 18.591967 0.000000 0.114214
45.000000 51.602000 7.000000 -6.000000 -5.000000 76.038547 -13.838068 1240.121594 1216.579865 19.389803 0.000000 0.121459
46.000000 48.947000 8.000000 -6.000000 -5.000000 77.199496 -8.491137 1135.683058 1188.248181 20.441351 0.000000 0.127525
47.000000 46.122000 9.000000 -6.000000 -5.000000 77.811824 -3.747712 1045.500887 1173.968778 21.693199 0.000000 0.130787
49.000000 52.228000 3.000000 -5.000000 -5.000000 54.434238 -36.582807 1773.825696 1899.383732 19.161875 0.000000 0.237117
50.000000 54.319000 4.000000 -5.000000 -5.000000 60.020328 -28.979277 1571.090866 1650.754568 18.423682 0.000000 0.140697
51.000000 54.307000 2.000000 -2.000000 -2.000000 64.238754 -21.840718 1406.374506 1500.568012 7.370889 0.000000 0.096893
52.000000 52.828000 6.000000 -5.000000 -5.000000 67.256463 -15.322696 1269.899100 1408.814390 18.942481 0.000000 0.087090
53.000000 50.474000 7.000000 -5.000000 -5.000000 69.307023 -9.493023 1154.975159 1353.191636 19.825631 0.000000 0.090701
54.000000 47.691000 8.000000 -5.000000 -5.000000 70.623857 -4.349986 1056.871320 1320.612921 20.982133 0.000000 0.096061
56.000000 50.786000 4.000000 -4.000000 -5.000000 51.073391 -24.222220 1459.207619 1894.204735 19.707975 0.000000 0.162346
57.000000 51.243000 5.000000 -4.000000 -5.000000 55.703246 -17.054595 1305.177924 1708.875586 19.531872 0.000000 0.088012
58.000000 50.013000 6.000000 -4.000000 -5.000000 59.074477 -10.656732 1177.526239 1597.116419 20.011454 0.000000 0.045898
59.000000 47.816000 7.000000 -4.000000 -5.000000 61.452533 -5.044770 1070.011042 1528.812171 20.930511 0.000000 0.034267
61.000000 45.899000 5.000000 -13.000000 -4.000000 102.656335 -50.286064 2270.761321 562.739147 21.785532 0.000000 0.255373
62.000000 45.683000 6.000000 -13.000000 -4.000000 105.557352 -44.557457 2034.795154 520.475781 21.887776 0.000000 0.136560
65.000000 48.565000 5.000000 -12.000000 -4.000000 101.421184 -47.627770 2154.840534 618.372284 20.589962 0.000000 0.190637
66.000000 48.177000 3.000000 -6.000000 -2.000000 104.256666 -41.591783 1930.302791 575.336585 10.377668 0.000000 0.088700
67.000000 47.331000 7.000000 -12.000000 -4.000000 106.331567 -35.583303 1745.076719 553.214744 21.125896 0.000000 0.037300
68.000000 46.130000 2.000000 -3.000000 -1.000000 107.702216 -29.730596 1589.669393 545.389328 5.418875 0.000000 0.058562
70.000000 51.395000 4.000000 -11.000000 -4.000000 96.250443 -50.975608 2302.956401 753.782348 19.457751 0.000000 0.267506
71.000000 51.429000 5.000000 -11.000000 -4.000000 99.865458 -44.677702 2039.253221 677.771308 19.444154 0.000000 0.134615
72.000000 50.811000 6.000000 -11.000000 -4.000000 102.606130 -38.335267 1826.082225 634.137695 19.680131 0.000000 0.058015
73.000000 49.675000 7.000000 -11.000000 -4.000000 104.514816 -32.101162 1650.188535 612.063726 20.129981 0.000000 0.056902
74.000000 48.156000 8.000000 -11.000000 -4.000000 105.676783 -26.113272 1502.580307 604.600042 20.764503 0.000000 0.088680
75.000000 46.381000 9.000000 -11.000000 -4.000000 106.203053 -20.478162 1376.942429 607.147837 21.559580 0.000000 0.115096
77.000000 54.619000 2.000000 -5.000000 -2.000000 94.304261 -48.078368 2173.638858 819.751928 9.155148 0.000000 0.201119
78.000000 54.464000 5.000000 -10.000000 -4.000000 97.896168 -41.403501 1923.997945 741.985666 18.361636 0.000000 0.093545
79.000000 53.543000 3.000000 -5.000000 -2.000000 100.510881 -34.767264 1722.132396 697.911970 9.338436 0.000000 0.061281
80.000000 52.042000 7.000000 -10.000000 -4.000000 102.224930 -28.341276 1555.525318 676.048434 19.215190 0.000000 0.086989
81.000000 50.141000 4.000000 -5.000000 -2.000000 103.159662 -22.266301 1415.681113 669.080467 9.971887 0.000000 0.115308
82.000000 47.994000 9.000000 -10.000000 -4.000000 103.456853 -16.637803 1296.630638 672.208406 20.835951 0.000000 0.135795
83.000000 45.726000 5.000000 -5.000000 -2.000000 103.258092 -11.504217 1194.057039 682.206753 10.934902 0.000000 0.149219
85.000000 57.308000 3.000000 -9.000000 -4.000000 87.176961 -51.816642 2343.543836 1026.854259 17.452927 0.000000 0.301699
86.000000 58.023000 4.000000 -9.000000 -4.000000 91.848939 -44.824907 2044.736086 892.013807 17.236782 0.000000 0.149287
87.000000 57.605000 5.000000 -9.000000 -4.000000 95.391800 -37.773862 1809.073277 812.482911 17.361324 0.000000 0.079078
88.000000 56.292000 6.000000 -9.000000 -4.000000 97.851489 -30.872689 1618.452250 768.079337 17.765787 0.000000 0.086494
89.000000 54.343000 7.000000 -9.000000 -4.000000 99.350073 -24.305340 1461.086270 746.548878 18.403049 0.000000 0.114617
90.000000 51.989000 8.000000 -9.000000 -4.000000 100.051577 -18.204979 1328.971192 740.168489 19.235999 0.000000 0.136867
91.000000 49.423000 9.000000 -9.000000 -4.000000 100.129841 -12.645648 1216.480780 743.923838 20.235018 0.000000 0.151433
92.000000 46.785000 10.000000 -9.000000 -4.000000 99.745804 -7.648970 1119.544704 754.480338 21.376177 0.000000 0.159899
94.000000 60.888000 3.000000 -8.000000 -4.000000 83.968197 -48.635183 2197.328483 1113.091923 16.427798 0.000000 0.237754
95.000000 60.725000 5.000000 -8.000000 -4.000000 92.194936 -33.761810 1694.477797 891.380058 16.470507 0.000000 0.091474
96.000000 58.918000 3.000000 -4.000000 -2.000000 94.480230 -26.645638 1515.040741 846.646927 8.487733 0.000000 0.112949
97.000000 56.431000 7.000000 -8.000000 -4.000000 95.759026 -20.006182 1366.870595 825.480655 17.723440 0.000000 0.136163
98.000000 53.564000 4.000000 -4.000000 -2.000000 96.242381 -13.954865 1242.449927 819.691135 9.336074 0.000000 0.151919
99.000000 50.542000 9.000000 -8.000000 -4.000000 96.134272 -8.533276 1136.492365 824.031276 19.788582 0.000000 0.160892
100.000000 47.522000 5.000000 -4.000000 -2.000000 95.609874 -3.730283 1045.172090 835.056702 10.523298 0.000000 0.164836
103.000000 64.366000 3.000000 -7.000000 -4.000000 79.876414 -45.009281 2051.643001 1212.819624 15.541537 0.000000 0.193828
104.000000 64.822000 4.000000 -7.000000 -4.000000 84.714037 -37.071947 1788.166899 1065.804436 15.431435 0.000000 0.112685
105.000000 63.589000 5.000000 -7.000000 -4.000000 88.105297 -29.349445 1580.210092 981.847675 15.730057 0.000000 0.111564
106.000000 61.186000 6.000000 -7.000000 -4.000000 90.219610 -22.093558 1411.896823 936.547695 16.347691 0.000000 0.132413
107.000000 58.089000 7.000000 -7.000000 -4.000000 91.303823 -15.470073 1272.877501 915.582752 17.219088 0.000000 0.149059
108.000000 54.671000 8.000000 -7.000000 -4.000000 91.615896 -9.552129 1156.116701 910.210644 18.295658 0.000000 0.158684
109.000000 51.189000 9.000000 -7.000000 -4.000000 91.383838 -4.339061 1056.664907 914.924975 19.540474 0.000000 0.162714
110.000000 47.803000 10.000000 -7.000000 -4.000000 90.789459 0.216194 970.938806 926.169058 20.924966 0.000000 0.162830
113.000000 67.296000 3.000000 -6.000000 -4.000000 74.597731 -40.874722 1906.484515 1333.130835 14.866372 0.000000 0.170694
114.000000 67.566000 2.000000 -3.000000 -2.000000 79.539852 -32.493239 1660.496537 1176.584788 7.403168 0.000000 0.117999
115.000000 65.797000 5.000000 -6.000000 -4.000000 82.876436 -24.534073 1466.268759 1088.858565 15.204080 0.000000 0.124321
116.000000 62.735000 3.000000 -3.000000 -2.000000 84.866317 -17.241319 1309.019462 1042.243925 7.973012 0.000000 0.139876
117.000000 59.007000 7.000000 -6.000000 -4.000000 85.827754 -10.737943 1179.106201 1020.913271 16.953293 0.000000 0.150255
118.000000 55.058000 4.000000 -3.000000 -2.000000 86.059031 -5.042650 1069.970903 1015.435695 9.084701 0.000000 0.154791
119.000000 51.163000 9.000000 -6.000000 -4.000000 85.802052 -0.106358 976.997921 1019.999494 19.552833 0.000000 0.155022
120.000000 47.474000 5.000000 -3.000000 -2.000000 85.236447 4.153266 896.844458 1030.925670 10.536198 0.000000 0.152452
122.000000 65.241000 2.000000 -5.000000 -4.000000 60.673627 -45.246929 2060.611564 1799.798935 15.337586 0.000000 0.304948
123.000000 68.840000 3.000000 -5.000000 -4.000000 67.726993 -36.169546 1761.850170 1487.070057 14.535118 0.000000 0.160992
124.000000 68.988000 4.000000 -5.000000 -4.000000 72.849657 -27.414059 1533.233054 1315.164596 14.503298 0.000000 0.116705
125.000000 66.705000 5.000000 -5.000000 -4.000000 76.222945 -19.335059 1352.652401 1220.680642 14.999155 0.000000 0.119746
126.000000 63.035000 6.000000 -5.000000 -4.000000 78.205702 -12.134102 1206.407624 1170.873568 15.872145 0.000000 0.129648
127.000000 58.770000 7.000000 -5.000000 -4.000000 79.181713 -5.864798 1085.555910 1147.752342 17.024016 0.000000 0.135559
128.000000 54.411000 8.000000 -5.000000 -4.000000 79.476479 -0.479732 984.011923 1140.943420 18.387919 0.000000 0.137089
129.000000 50.234000 9.000000 -5.000000 -4.000000 79.333918 4.119031 897.490921 1144.233058 19.916790 0.000000 0.135582
130.000000 46.370000 10.000000 -5.000000 -4.000000 78.924058 8.044266 822.888659 1153.785003 21.576532 0.000000 0.132328
133.000000 67.520000 3.000000 -4.000000 -4.000000 58.755812 -30.844636 1617.737133 1701.530970 14.821587 0.000000 0.159177
134.000000 65.377000 5.000000 -4.000000 -4.000000 67.850284 -13.799819 1239.359629 1392.148444 15.306498 0.000000 0.087397
135.000000 61.393000 3.000000 -2.000000 -2.000000 70.043690 -6.837786 1104.060283 1334.609558 8.149720 0.000000 0.093484
136.000000 56.883000 7.000000 -4.000000 -4.000000 71.251679 -0.916928 992.225849 1306.364286 17.591352 0.000000 0.099128
137.000000 52.389000 4.000000 -2.000000 -2.000000 71.811533 4.079403 898.239154 1295.525716 9.550122 0.000000 0.102032
138.000000 48.173000 9.000000 -4.000000 -4.000000 71.960482 8.291775 818.143429 1295.233091 20.771593 0.000000 0.102975
140.000000 61.050000 3.000000 -3.000000 -4.000000 47.130988 -24.880000 1474.142591 2042.278801 16.395256 0.000000 0.205288
141.000000 62.560000 4.000000 -3.000000 -4.000000 53.320743 -15.817662 1279.918965 1774.188549 15.999238 0.000000 0.097181
142.000000 60.634000 5.000000 -3.000000 -4.000000 57.523508 -8.006565 1126.389063 1632.797995 16.506793 0.000000 0.035100
143.000000 57.029000 6.000000 -3.000000 -4.000000 60.261875 -1.435770 1001.976417 1556.050052 17.549768 0.000000 0.018433
144.000000 52.852000 7.000000 -3.000000 -4.000000 61.997665 4.032999 899.115239 1514.752870 18.936094 0.000000 0.038302
145.000000 48.686000 8.000000 -3.000000 -4.000000 63.071396 8.577818 812.651991 1493.895634 20.555759 0.000000 0.055117
147.000000 51.210000 2.000000 -1.000000 -2.000000 39.889829 -9.435497 1153.864512 2246.358417 9.774029 0.000000 0.254814
148.000000 51.382000 5.000000 -2.000000 -4.000000 45.184482 -2.061372 1013.739331 2011.078028 19.482122 0.000000 0.164842
149.000000 49.320000 3.000000 -1.000000 -2.000000 48.892727 3.977917 900.155011 1882.419964 10.147823 0.000000 0.116568
150.000000 46.341000 7.000000 -2.000000 -4.000000 51.497899 8.912133 806.223309 1807.650580 21.599880 0.000000 0.097757
152.000000 45.760000 6.000000 -14.000000 -3.000000 113.777779 -48.114546 2175.162419 230.735088 21.847825 0.000000 0.241756
154.000000 48.461000 6.000000 -13.000000 -3.000000 113.222510 -45.161460 2057.377454 286.066647 20.630455 0.000000 0.174058
155.000000 47.606000 7.000000 -13.000000 -3.000000 115.267007 -38.750470 1838.831999 289.612153 21.000716 0.000000 0.076926
156.000000 46.427000 8.000000 -13.000000 -3.000000 116.567994 -32.440060 1659.093182 303.267566 21.533376 0.000000 0.009077
158.000000 52.083000 5.000000 -12.000000 -3.000000 109.721188 -48.621589 2196.743935 357.337029 19.196524 0.000000 0.234720
159.000000 51.397000 2.000000 -4.000000 -1.000000 112.428030 -41.877388 1939.937175 344.374315 6.484061 0.000000 0.111154
160.000000 50.245000 7.000000 -12.000000 -3.000000 114.259215 -35.159668 1733.108004 347.711274 19.897924 0.000000 0.027965
161.000000 48.745000 8.000000 -12.000000 -3.000000 115.292599 -28.647012 1562.960829 361.467465 20.510370 0.000000 0.031100
162.000000 47.004000 3.000000 -4.000000 -1.000000 115.639545 -22.487107 1420.531970 381.901840 7.089941 0.000000 0.070515
164.000000 55.582000 5.000000 -11.000000 -3.000000 108.789602 -45.365176 2065.102027 419.807346 17.988665 0.000000 0.159967
165.000000 54.570000 6.000000 -11.000000 -3.000000 111.316467 -38.228919 1822.840072 406.356957 18.321889 0.000000 0.054762
166.000000 53.035000 7.000000 -11.000000 -3.000000 112.882089 -31.232548 1627.662926 409.759117 18.851820 0.000000 0.023199
167.000000 51.134000 8.000000 -11.000000 -3.000000 113.605608 -24.568905 1467.059626 423.829506 19.552593 0.000000 0.067325
168.000000 49.004000 9.000000 -11.000000 -3.000000 113.635846 -18.378693 1332.590974 444.659817 20.402684 0.000000 0.098792
169.000000 46.756000 10.000000 -11.000000 -3.000000 113.127248 -12.740741 1218.357700 469.712438 21.384042 0.000000 0.119781
171.000000 60.061000 4.000000 -10.000000 -3.000000 104.056582 -49.249399 2224.074506 528.173914 16.648283 0.000000 0.232056
172.000000 59.409000 5.000000 -10.000000 -3.000000 107.499163 -41.698435 1933.890489 486.524525 16.830449 0.000000 0.093490
173.000000 57.958000 6.000000 -10.000000 -3.000000 109.785508 -34.186736 1706.084642 472.942348 17.251369 0.000000 0.024409
174.000000 55.933000 7.000000 -10.000000 -3.000000 111.031846 -26.961796 1522.495664 476.697317 17.875650 0.000000 0.063115
175.000000 53.541000 8.000000 -10.000000 -3.000000 111.409226 -20.218263 1371.388741 491.295470 18.674567 0.000000 0.099277
176.000000 50.950000 9.000000 -10.000000 -3.000000 111.107727 -14.074838 1244.844012 512.666795 19.624559 0.000000 0.123078
177.000000 48.289000 10.000000 -10.000000 -3.000000 110.307974 -8.576506 1137.322810 538.192008 20.706122 0.000000 0.137943
178.000000 45.652000 11.000000 -10.000000 -3.000000 109.164679 -3.712430 1044.835307 566.151890 21.902972 0.000000 0.146549
179.000000 64.657000 4.000000 -9.000000 -3.000000 102.452844 -45.620970 2074.880516 601.167431 15.465351 0.000000 0.151724
180.000000 63.543000 5.000000 -9.000000 -3.000000 105.721647 -37.574897 1803.107214 558.729027 15.735966 0.000000 0.046444
181.000000 58.862000 7.000000 -9.000000 -3.000000 108.580985 -22.353963 1417.605119 549.785556 16.987134 0.000000 0.099104
182.000000 55.875000 8.000000 -9.000000 -3.000000 108.590082 -15.621756 1275.947344 565.109081 17.895472 0.000000 0.126240
183.000000 52.751000 3.000000 -3.000000 -1.000000 107.960744 -9.612881 1157.290445 587.137130 6.318606 0.000000 0.142697
184.000000 49.633000 10.000000 -9.000000 -3.000000 106.894158 -4.327850 1056.453109 613.181922 20.147121 0.000000 0.151747
185.000000 46.615000 11.000000 -9.000000 -3.000000 105.550095 0.282056 969.701563 641.499893 21.452043 0.000000 0.155739
187.000000 69.928000 3.000000 -8.000000 -3.000000 95.650173 -50.046733 2259.804344 775.180298 14.301216 0.000000 0.244100
188.000000 69.675000 4.000000 -8.000000 -3.000000 100.260437 -41.470552 1926.239003 680.985096 14.352277 0.000000 0.089886
189.000000 67.909000 5.000000 -8.000000 -3.000000 103.283418 -32.954911 1672.750108 638.179539 14.725192 0.000000 0.057378
190.000000 65.102000 6.000000 -8.000000 -3.000000 104.897023 -24.855910 1473.592840 625.450017 15.359935 0.000000 0.098034
191.000000 61.686000 7.000000 -8.000000 -3.000000 105.377181 -17.433926 1312.990203 630.748275 16.210531 0.000000 0.128898
192.000000 58.000000 8.000000 -8.000000 -3.000000 105.021403 -10.821597 1180.734612 646.947591 17.241175 0.000000 0.147232
193.000000 54.279000 9.000000 -8.000000 -3.000000 104.095897 -5.040470 1069.929632 669.686307 18.423564 0.000000 0.156760
194.000000 50.673000 10.000000 -8.000000 -3.000000 102.812426 -0.039824 975.748094 696.226391 19.735034 0.000000 0.160413
195.000000 47.268000 11.000000 -8.000000 -3.000000 101.326548 4.266273 894.710146 724.817504 21.157219 0.000000 0.160213
197.000000 75.831000 3.000000 -7.000000 -3.000000 92.732904 -45.951725 2087.657714 867.105453 13.188749 0.000000 0.164540
198.000000 74.993000 4.000000 -7.000000 -3.000000 97.245463 -36.730851 1778.146904 770.266105 13.335466 0.000000 0.071135
199.000000 72.323000 5.000000 -7.000000 -3.000000 99.953134 -27.814639 1542.817092 727.455322 13.827429 0.000000 0.096260
200.000000 68.528000 6.000000 -7.000000 -3.000000 101.159881 -19.581211 1357.853507 715.637776 14.593252 0.000000 0.130328
201.000000 64.189000 7.000000 -7.000000 -3.000000 101.245711 -12.248141 1208.649829 722.010871 15.579963 0.000000 0.150833
202.000000 59.715000 8.000000 -7.000000 -3.000000 100.568516 -5.875008 1085.749724 739.128752 16.747420 0.000000 0.160904
203.000000 55.362000 9.000000 -7.000000 -3.000000 99.415776 -0.413141 982.760939 762.511508 18.064656 0.000000 0.164113
204.000000 51.269000 10.000000 -7.000000 -3.000000 97.996145 4.239955 895.207260 789.395629 19.507393 0.000000 0.162986
205.000000 47.499000 11.000000 -7.000000 -3.000000 96.450983 8.202241 819.860653 818.046672 21.056334 0.000000 0.159222
207.000000 80.435000 2.000000 -6.000000 -3.000000 82.098270 -51.092488 2308.508341 1178.843642 12.435861 0.000000 0.299136
208.000000 80.292000 4.000000 -6.000000 -3.000000 93.080789 -31.346772 1630.601178 873.171253 12.456554 0.000000 0.096618
209.000000 76.420000 5.000000 -6.000000 -3.000000 95.431720 -22.157937 1413.306100 830.498206 13.087457 0.000000 0.129180
210.000000 66.039000 7.000000 -6.000000 -3.000000 95.998105 -6.865213 1104.582919 827.096218 15.144989 0.000000 0.162684
211.000000 60.746000 8.000000 -6.000000 -3.000000 95.099145 -0.851253 990.991861 844.948883 16.465044 0.000000 0.165430
212.000000 55.783000 3.000000 -2.000000 -1.000000 93.833821 4.209433 895.783732 868.679368 5.976846 0.000000 0.163290
213.000000 51.253000 10.000000 -6.000000 -3.000000 92.392769 8.464413 814.830108 895.530692 19.515707 0.000000 0.158366
214.000000 47.181000 11.000000 -6.000000 -3.000000 90.894736 12.054686 745.152682 923.812114 21.200527 0.000000 0.152041
216.000000 86.415000 2.000000 -5.000000 -3.000000 76.297684 -46.396012 2105.062824 1321.498471 11.576610 0.000000 0.230612
217.000000 87.773000 3.000000 -5.000000 -3.000000 83.134621 -35.600484 1745.564783 1100.373699 11.396791 0.000000 0.114099
218.000000 84.877000 4.000000 -5.000000 -3.000000 87.322752 -25.292900 1483.598807 996.664687 11.785229 0.000000 0.123582
219.000000 79.531000 5.000000 -5.000000 -3.000000 89.352818 -16.029149 1284.215078 953.649544 12.577319 0.000000 0.146902
220.000000 73.193000 6.000000 -5.000000 -3.000000 89.872230 -8.058321 1127.380640 943.424082 13.666433 0.000000 0.158709
221.000000 66.774000 7.000000 -5.000000 -3.000000 89.450546 -1.372565 1000.788399 951.324697 14.980457 0.000000 0.161323
222.000000 60.740000 8.000000 -5.000000 -3.000000 88.499914 4.173613 896.460213 969.260318 16.468877 0.000000 0.158427
223.000000 55.282000 9.000000 -5.000000 -3.000000 87.287066 8.767944 808.997381 992.603305 18.095250 0.000000 0.152622
224.000000 50.440000 10.000000 -5.000000 -3.000000 85.972961 12.590041 734.616140 1018.639112 19.832627 0.000000 0.145595
225.000000 46.184000 11.000000 -5.000000 -3.000000 84.649787 15.792783 670.585830 1045.750323 21.660647 0.000000 0.138429
227.000000 90.433000 2.000000 -4.000000 -3.000000 68.128362 -40.757588 1902.642866 1511.377577 11.064095 0.000000 0.199025
228.000000 87.395000 4.000000 -4.000000 -3.000000 79.408047 -18.596354 1337.136796 1153.353807 11.447650 0.000000 0.127931
229.000000 80.547000 5.000000 -4.000000 -3.000000 81.309902 -9.522374 1155.541988 1107.804187 12.420786 0.000000 0.140784
230.000000 73.016000 6.000000 -4.000000 -3.000000 81.789189 -2.003146 1012.644196 1096.398642 13.701791 0.000000 0.144751
231.000000 65.798000 7.000000 -4.000000 -3.000000 81.455539 4.130985 897.265200 1103.128412 15.204990 0.000000 0.142568
232.000000 59.291000 8.000000 -4.000000 -3.000000 80.699783 9.123439 802.153969 1119.512485 16.873802 0.000000 0.137310
233.000000 53.589000 9.000000 -4.000000 -3.000000 79.751999 13.207881 722.401258 1140.874098 18.669351 0.000000 0.131069
234.000000 48.652000 10.000000 -4.000000 -3.000000 78.740817 16.579361 654.564859 1164.562076 20.564046 0.000000 0.125152
237.000000 88.656000 2.000000 -3.000000 -3.000000 56.453080 -34.009917 1701.240733 1801.920188 11.288276 0.000000 0.197976
238.000000 85.542000 4.000000 -3.000000 -3.000000 68.716053 -11.358721 1191.212170 1368.658653 11.698175 0.000000 0.088966
239.000000 77.872000 5.000000 -3.000000 -3.000000 70.935494 -2.781159 1027.284803 1313.392393 12.849945 0.000000 0.097554
240.000000 62.467000 7.000000 -3.000000 -3.000000 71.947937 9.545453 794.012261 1296.715895 16.018460 0.000000 0.103042
241.000000 56.008000 8.000000 -3.000000 -3.000000 71.698870 13.928678 708.072324 1307.757963 17.865676 0.000000 0.102937
242.000000 50.471000 3.000000 -1.000000 -1.000000 71.261642 17.483099 635.994738 1323.791627 6.608538 0.000000 0.103282
243.000000 45.752000 10.000000 -3.000000 -3.000000 70.743649 20.402524 574.675770 1342.158675 21.870562 0.000000 0.104842
246.000000 79.361000 3.000000 -2.000000 -3.000000 49.123378 -13.724322 1237.856343 1899.925716 12.612735 0.000000 0.129361
247.000000 76.187000 4.000000 -2.000000 -3.000000 54.773396 -3.764731 1045.821977 1702.634337 13.137659 0.000000 0.039907
248.000000 69.714000 5.000000 -2.000000 -3.000000 58.055942 4.015715 899.441510 1613.734654 14.356864 0.000000 0.023616
249.000000 62.724000 6.000000 -2.000000 -3.000000 59.932681 10.054522 784.164079 1573.804610 15.956110 0.000000 0.050907
250.000000 56.269000 7.000000 -2.000000 -3.000000 60.999004 14.780206 691.028524 1558.041030 17.785935 0.000000 0.072198
251.000000 50.631000 8.000000 -2.000000 -3.000000 61.596797 18.531711 614.214477 1554.857720 19.766168 0.000000 0.088989
252.000000 45.802000 9.000000 -2.000000 -3.000000 61.919717 21.558006 549.777200 1558.401391 21.849944 0.000000 0.103172
254.000000 56.853000 4.000000 -1.000000 -3.000000 37.648740 3.935094 900.963286 2339.436818 17.608172 0.000000 0.299874
255.000000 55.004000 5.000000 -1.000000 -3.000000 42.901820 10.680569 772.010108 2119.574774 18.199247 0.000000 0.221823
256.000000 51.234000 6.000000 -1.000000 -3.000000 46.420557 15.801078 670.417545 2005.426714 19.537596 0.000000 0.188599
257.000000 47.097000 7.000000 -1.000000 -3.000000 48.859298 19.762162 588.312938 1940.101434 21.252795 0.000000 0.178584
259.000000 47.064000 7.000000 -14.000000 -2.000000 123.178913 -42.362038 1956.484814 -11.415441 21.239452 0.000000 0.183827
260.000000 45.969000 4.000000 -7.000000 -1.000000 124.501834 -35.561622 1744.461090 31.625771 10.872616 0.000000 0.094096
263.000000 49.802000 7.000000 -13.000000 -2.000000 122.889060 -38.695371 1837.131570 49.249155 20.072033 0.000000 0.123327
264.000000 48.405000 8.000000 -13.000000 -2.000000 123.906135 -31.601904 1637.189955 91.641146 20.651234 0.000000 0.048308
265.000000 46.784000 9.000000 -13.000000 -2.000000 124.180993 -24.839553 1473.219689 135.559890 21.367053 0.000000 0.022737
267.000000 54.200000 3.000000 -6.000000 -1.000000 120.774067 -42.239850 1952.288970 75.259306 9.221848 0.000000 0.164349
268.000000 52.759000 7.000000 -12.000000 -2.000000 122.329944 -34.623349 1718.133210 113.209859 18.947238 0.000000 0.067728
269.000000 50.983000 4.000000 -6.000000 -1.000000 122.978364 -27.286942 1530.206293 155.179246 9.803672 0.000000 0.017733
270.000000 48.988000 9.000000 -12.000000 -2.000000 122.866951 -20.436361 1376.047937 198.886102 20.406109 0.000000 0.047496
271.000000 46.871000 5.000000 -6.000000 -1.000000 122.159418 -14.198117 1247.306677 242.962823 10.664128 0.000000 0.076024
273.000000 59.234000 5.000000 -11.000000 -2.000000 117.959034 -46.248386 2099.248285 114.880698 16.877006 0.000000 0.223775
274.000000 57.838000 6.000000 -11.000000 -2.000000 120.241507 -38.092169 1818.684982 143.735614 17.284043 0.000000 0.096662
275.000000 55.929000 7.000000 -11.000000 -2.000000 121.409121 -30.123192 1599.488153 181.176559 17.873966 0.000000 0.019741
276.000000 53.678000 8.000000 -11.000000 -2.000000 121.625199 -22.622269 1423.508950 222.961308 18.623581 0.000000 0.041971
277.000000 51.231000 9.000000 -11.000000 -2.000000 121.088573 -15.777933 1279.112907 266.621826 19.513457 0.000000 0.075901
278.000000 48.702000 10.000000 -11.000000 -2.000000 119.997875 -9.675348 1158.497773 310.688799 20.527193 0.000000 0.098419
279.000000 46.176000 11.000000 -11.000000 -2.000000 118.527796 -4.316343 1056.235712 354.279527 21.650849 0.000000 0.112778
281.000000 63.764000 5.000000 -10.000000 -2.000000 117.419992 -42.083760 1946.952512 188.641870 15.678174 0.000000 0.140027
282.000000 61.797000 3.000000 -5.000000 -1.000000 119.316159 -33.431167 1685.525628 216.791005 8.088525 0.000000 0.034958
283.000000 59.281000 7.000000 -10.000000 -2.000000 120.008507 -25.188196 1481.194828 254.071342 16.863772 0.000000 0.033912
284.000000 56.440000 4.000000 -5.000000 -1.000000 119.734961 -17.632696 1317.096778 295.914437 8.856409 0.000000 0.075206
285.000000 53.453000 9.000000 -10.000000 -2.000000 118.749010 -10.907809 1182.413737 339.684941 18.703089 0.000000 0.101450
286.000000 50.450000 5.000000 -5.000000 -1.000000 117.279023 -5.038227 1069.887182 383.829301 9.908494 0.000000 0.117504
287.000000 47.519000 11.000000 -10.000000 -2.000000 115.509054 0.028467 974.465260 427.425114 21.039727 0.000000 0.126692
289.000000 70.622000 4.000000 -9.000000 -2.000000 113.525978 -46.677231 2116.226756 258.065584 14.156480 0.000000 0.207345
290.000000 68.792000 5.000000 -9.000000 -2.000000 116.454128 -37.310669 1795.233297 267.663862 14.532696 0.000000 0.063669
291.000000 66.049000 6.000000 -9.000000 -2.000000 117.847750 -28.229132 1552.808691 295.629150 15.136173 0.000000 0.021988
292.000000 62.750000 7.000000 -9.000000 -2.000000 117.981034 -19.835897 1363.251673 333.114252 15.931952 0.000000 0.073590
293.000000 59.186000 8.000000 -9.000000 -2.000000 117.178247 -12.365973 1210.968635 375.250742 16.891895 0.000000 0.104712
294.000000 55.565000 9.000000 -9.000000 -2.000000 115.743291 -5.885534 1085.949565 419.262397 17.993099 0.000000 0.122858
295.000000 52.029000 10.000000 -9.000000 -2.000000 113.922638 -0.344648 981.474241 463.534530 19.216732 0.000000 0.132620
296.000000 48.662000 11.000000 -9.000000 -2.000000 111.897730 4.364029 892.863352 507.124072 20.547166 0.000000 0.136898
297.000000 45.509000 12.000000 -9.000000 -2.000000 109.793302 8.363960 816.758401 549.488231 21.971325 0.000000 0.137589
299.000000 74.297000 5.000000 -8.000000 -2.000000 114.869243 -31.867497 1644.087374 353.558667 13.456412 0.000000 0.007837
300.000000 66.215000 7.000000 -8.000000 -2.000000 115.149751 -14.115557 1245.657137 419.954282 15.099176 0.000000 0.108124
301.000000 61.781000 4.000000 -4.000000 -1.000000 113.811279 -6.893571 1105.123387 462.586017 8.091627 0.000000 0.128895
302.000000 57.439000 9.000000 -8.000000 -2.000000 111.962998 -0.783536 989.719538 506.916636 17.407307 0.000000 0.139257
303.000000 53.324000 5.000000 -4.000000 -1.000000 109.851350 4.343126 893.258288 551.301184 9.375635 0.000000 0.143105
304.000000 49.505000 11.000000 -8.000000 -2.000000 107.641041 8.641439 811.429468 594.800552 20.198734 0.000000 0.142882
305.000000 46.005000 6.000000 -4.000000 -1.000000 105.435330 12.258909 741.138358 636.890757 10.868079 0.000000 0.140175
307.000000 86.695000 3.000000 -7.000000 -2.000000 106.582768 -47.255685 2139.560377 468.785994 11.533248 0.000000 0.192326
308.000000 84.359000 4.000000 -7.000000 -2.000000 110.610928 -36.258589 1764.419741 439.004918 11.852183 0.000000 0.032133
309.000000 80.165000 5.000000 -7.000000 -2.000000 112.397612 -25.722733 1493.511498 448.646119 12.472121 0.000000 0.065337
310.000000 74.983000 6.000000 -7.000000 -2.000000 112.443082 -16.249122 1288.693279 477.939076 13.334235 0.000000 0.111472
311.000000 69.464000 7.000000 -7.000000 -2.000000 111.311575 -8.112017 1128.409674 516.876148 14.394090 0.000000 0.135595
312.000000 64.025000 8.000000 -7.000000 -2.000000 109.483062 -1.307203 999.559903 560.123121 15.617496 0.000000 0.146566
313.000000 58.898000 9.000000 -7.000000 -2.000000 107.303402 4.318539 893.722803 604.746872 16.977716 0.000000 0.149708
314.000000 54.189000 10.000000 -7.000000 -2.000000 104.996514 8.963284 805.238666 649.113590 18.453537 0.000000 0.148231
315.000000 49.932000 11.000000 -7.000000 -2.000000 102.696545 12.815634 730.163088 692.319909 20.027919 0.000000 0.144130
316.000000 46.113000 12.000000 -7.000000 -2.000000 100.478271 16.035149 665.662907 733.884457 21.687013 0.000000 0.138686
317.000000 86.096000 5.000000 -6.000000 -2.000000 108.679331 -18.900217 1343.502451 556.390624 11.613876 0.000000 0.114244
318.000000 72.160000 7.000000 -6.000000 -2.000000 106.248479 -1.942720 1011.507752 627.139428 13.857561 0.000000 0.154260
319.000000 65.628000 4.000000 -3.000000 -1.000000 104.047505 4.289199 894.277059 670.945303 7.618727 0.000000 0.156306
320.000000 59.710000 9.000000 -6.000000 -2.000000 101.673482 9.341032 797.958512 715.641295 16.748357 0.000000 0.153123
321.000000 54.447000 5.000000 -3.000000 -1.000000 99.305691 13.459217 717.414721 759.659930 9.184079 0.000000 0.147259
322.000000 49.809000 11.000000 -6.000000 -2.000000 97.037491 16.847990 649.063698 802.173916 20.079457 0.000000 0.140279
323.000000 45.736000 6.000000 -3.000000 -1.000000 94.911926 19.666927 590.331632 842.773299 10.934186 0.000000 0.133169
324.000000 82.333000 6.000000 -5.000000 -2.000000 101.863542 -2.729987 1026.321310 714.647506 12.146428 0.000000 0.161359
325.000000 73.808000 7.000000 -5.000000 -2.000000 99.749344 4.253583 894.949844 755.560722 13.549977 0.000000 0.161804
326.000000 66.212000 8.000000 -5.000000 -2.000000 97.381577 9.790590 789.273738 799.504921 15.104975 0.000000 0.156391
327.000000 59.600000 9.000000 -5.000000 -2.000000 95.009089 14.211499 702.425823 843.686234 16.781528 0.000000 0.148418
328.000000 53.899000 10.000000 -5.000000 -2.000000 92.751668 17.783296 629.785801 886.674724 18.557123 0.000000 0.139795
329.000000 48.997000 11.000000 -5.000000 -2.000000 90.658867 20.707989 568.130782 927.767858 20.414483 0.000000 0.131665
330.000000 73.740000 7.000000 -4.000000 -2.000000 91.645579 10.334510 778.734435 909.569604 13.564488 0.000000 0.155313
331.000000 65.323000 4.000000 -2.000000 -1.000000 89.410081 15.102217 684.548829 952.478391 7.656403 0.000000 0.145232
332.000000 58.265000 9.000000 -4.000000 -2.000000 87.288959 18.870367 607.123897 994.859411 17.168361 0.000000 0.135396
333.000000 52.349000 5.000000 -2.000000 -1.000000 85.342505 21.899139 542.351256 1035.502849 9.554575 0.000000 0.127086
334.000000 47.369000 11.000000 -4.000000 -2.000000 83.583585 24.373833 487.363829 1073.881416 21.118804 0.000000 0.120957
335.000000 81.901000 6.000000 -3.000000 -2.000000 83.642526 11.005848 765.675580 1063.163783 12.214807 0.000000 0.143177
336.000000 71.191000 7.000000 -3.000000 -2.000000 81.861536 16.172878 662.860017 1101.258749 14.052705 0.000000 0.132783
337.000000 62.502000 8.000000 -3.000000 -2.000000 80.135645 20.148388 580.101225 1140.353192 16.006629 0.000000 0.124167
338.000000 55.435000 9.000000 -3.000000 -2.000000 78.551873 23.274065 512.051898 1178.267534 18.047684 0.000000 0.118622
339.000000 49.637000 10.000000 -3.000000 -2.000000 77.131122 25.782244 455.110440 1214.072466 20.155832 0.000000 0.116460
340.000000 88.678000 5.000000 -2.000000 -2.000000 71.856515 11.855047 749.071020 1301.378236 11.283867 0.000000 0.103009
341.000000 65.489000 7.000000 -2.000000 -2.000000 70.473604 21.670830 547.325091 1351.723575 15.279095 0.000000 0.106155
342.000000 57.411000 4.000000 -1.000000 -1.000000 69.668255 24.876827 475.929827 1380.600026 8.714559 0.000000 0.112074
343.000000 50.943000 9.000000 -2.000000 -2.000000 68.910895 27.395512 417.208996 1408.501957 19.641929 0.000000 0.120263
344.000000 45.688000 5.000000 -1.000000 -1.000000 68.221852 29.419255 368.062712 1434.670290 10.950552 0.000000 0.129751
345.000000 86.265000 4.000000 -1.000000 -2.000000 53.351505 12.963002 727.249833 1762.681448 11.602884 0.000000 0.096779
346.000000 74.268000 5.000000 -1.000000 -2.000000 55.680016 19.121436 601.848674 1718.654348 13.476320 0.000000 0.113354
347.000000 64.340000 6.000000 -1.000000 -2.000000 56.982723 23.512303 506.739106 1703.742298 15.555159 0.000000 0.133078
348.000000 56.383000 7.000000 -1.000000 -2.000000 57.757761 26.765910 432.128169 1701.356519 17.750010 0.000000 0.150896
349.000000 49.997000 8.000000 -1.000000 -2.000000 58.242648 29.258619 372.033539 1704.646203 20.016782 0.000000 0.166603
355.000000 47.395000 8.000000 -14.000000 -1.000000 131.522574 -35.072087 1730.649205 -223.401668 21.089068 0.000000 0.143015
356.000000 45.937000 9.000000 -14.000000 -1.000000 131.828724 -27.621442 1538.186014 -146.197241 21.758408 0.000000 0.072625
359.000000 49.998000 8.000000 -13.000000 -1.000000 131.272863 -30.527715 1609.687258 -155.659893 19.991056 0.000000 0.092816
360.000000 48.203000 9.000000 -13.000000 -1.000000 131.141689 -22.898827 1429.618536 -79.731718 20.735673 0.000000 0.039781
361.000000 46.281000 10.000000 -13.000000 -1.000000 130.343047 -15.938805 1282.378737 -9.704346 21.597264 0.000000 0.032552
363.000000 54.781000 7.000000 -12.000000 -1.000000 130.463949 -33.922638 1698.857172 -165.387798 18.245924 0.000000 0.121066
364.000000 52.771000 8.000000 -12.000000 -1.000000 130.677895 -25.531425 1489.090846 -84.143162 18.941050 0.000000 0.050541
365.000000 50.564000 9.000000 -12.000000 -1.000000 130.048076 -17.837923 1321.346277 -9.344220 19.767937 0.000000 0.030256
366.000000 48.259000 10.000000 -12.000000 -1.000000 128.788430 -10.996695 1184.145981 59.814803 20.712505 0.000000 0.050284
367.000000 45.932000 11.000000 -12.000000 -1.000000 127.095264 -5.035920 1069.843502 123.991115 21.762610 0.000000 0.068987
369.000000 60.466000 6.000000 -11.000000 -1.000000 129.278054 -37.909808 1813.168169 -174.680555 16.530644 0.000000 0.161726
370.000000 58.234000 7.000000 -11.000000 -1.000000 129.994308 -28.658227 1563.234413 -87.991464 17.164156 0.000000 0.067423
371.000000 55.690000 8.000000 -11.000000 -1.000000 129.628755 -20.099556 1368.858315 -8.101491 17.948316 0.000000 0.028764
372.000000 52.984000 9.000000 -11.000000 -1.000000 128.449760 -12.487788 1213.368035 65.709163 18.865399 0.000000 0.048638
373.000000 50.230000 10.000000 -11.000000 -1.000000 126.713895 -5.896393 1086.155722 134.079690 19.900356 0.000000 0.070165
374.000000 47.511000 11.000000 -11.000000 -1.000000 124.633665 -0.274169 980.150277 197.572073 21.040324 0.000000 0.084539
376.000000 64.857000 6.000000 -10.000000 -1.000000 128.972687 -32.407774 1658.241972 -90.343019 15.411541 0.000000 0.093299
377.000000 61.923000 7.000000 -10.000000 -1.000000 129.020491 -22.828894 1428.071264 -5.331888 16.141824 0.000000 0.030173
378.000000 58.714000 8.000000 -10.000000 -1.000000 127.995725 -14.282206 1248.988021 73.421272 17.024671 0.000000 0.046219
379.000000 55.408000 9.000000 -10.000000 -1.000000 126.238455 -6.922911 1105.682614 146.368328 18.040948 0.000000 0.071439
380.000000 52.134000 10.000000 -10.000000 -1.000000 124.035448 -0.713679 988.407063 214.004715 19.174593 0.000000 0.087697
381.000000 48.975000 11.000000 -10.000000 -1.000000 121.600575 4.480637 890.659784 276.814568 20.412021 0.000000 0.097120
382.000000 45.982000 12.000000 -10.000000 -1.000000 119.080716 8.823021 807.938008 335.248714 21.741667 0.000000 0.101886
384.000000 72.996000 5.000000 -9.000000 -1.000000 127.416194 -36.942789 1784.362201 -89.197826 13.693435 0.000000 0.133597
385.000000 69.638000 6.000000 -9.000000 -1.000000 128.115295 -26.170510 1503.914532 0.164083 14.353706 0.000000 0.038207
386.000000 65.794000 7.000000 -9.000000 -1.000000 127.368396 -16.478097 1293.365394 83.846396 15.192743 0.000000 0.042589
387.000000 61.760000 8.000000 -9.000000 -1.000000 125.630962 -8.167766 1129.478330 161.663580 16.185420 0.000000 0.072786
388.000000 57.747000 9.000000 -9.000000 -1.000000 123.300112 -1.239571 998.288823 233.838293 17.311109 0.000000 0.091461
389.000000 53.884000 10.000000 -9.000000 -1.000000 120.670328 4.467974 890.899114 300.751175 18.552716 0.000000 0.101618
390.000000 50.249000 11.000000 -9.000000 -1.000000 117.938312 9.164050 801.371336 362.830204 19.895956 0.000000 0.106235
391.000000 46.875000 12.000000 -9.000000 -1.000000 115.226027 13.046825 725.591236 420.500832 21.328799 0.000000 0.107319
393.000000 79.380000 5.000000 -8.000000 -1.000000 126.724547 -30.323931 1604.538794 10.767445 12.592431 0.000000 0.057314
394.000000 74.745000 6.000000 -8.000000 -1.000000 126.469231 -19.217900 1350.182385 98.530436 13.373444 0.000000 0.037011
395.000000 69.732000 7.000000 -8.000000 -1.000000 124.830757 -9.707248 1159.114485 181.220390 14.335369 0.000000 0.074144
396.000000 64.701000 8.000000 -8.000000 -1.000000 122.374819 -1.879966 1010.327616 258.258743 15.450751 0.000000 0.096010
397.000000 59.873000 9.000000 -8.000000 -1.000000 119.521248 4.452821 891.185481 329.689805 16.697423 0.000000 0.106991
398.000000 55.367000 10.000000 -8.000000 -1.000000 116.541905 9.565190 793.630984 395.816664 18.057290 0.000000 0.111281
399.000000 51.232000 11.000000 -8.000000 -1.000000 113.597164 13.717258 712.284250 457.038363 19.515439 0.000000 0.111542
400.000000 47.478000 12.000000 -8.000000 -1.000000 110.774059 17.122986 643.415927 513.774905 21.059463 0.000000 0.109476
401.000000 86.373000 5.000000 -7.000000 -1.000000 125.120546 -22.713520 1425.522091 120.346850 11.573196 0.000000 0.028361
402.000000 80.014000 6.000000 -7.000000 -1.000000 123.735415 -11.656720 1197.042092 207.103281 12.493407 0.000000 0.075352
403.000000 73.534000 7.000000 -7.000000 -1.000000 121.175842 -2.676601 1025.316238 289.081877 13.594923 0.000000 0.101602
404.000000 67.333000 8.000000 -7.000000 -1.000000 118.066162 4.434366 891.534264 365.405988 14.847846 0.000000 0.113489
405.000000 61.608000 9.000000 -7.000000 -1.000000 114.797084 10.043820 784.371410 436.009539 16.228507 0.000000 0.117157
406.000000 56.432000 10.000000 -7.000000 -1.000000 111.585462 14.502474 696.601791 501.166332 17.717929 0.000000 0.116227
407.000000 51.807000 11.000000 -7.000000 -1.000000 108.539463 18.091100 623.397846 561.280673 19.300715 0.000000 0.112884
408.000000 47.698000 12.000000 -7.000000 -1.000000 105.704983 21.020310 561.411546 616.791323 20.964243 0.000000 0.108500
409.000000 85.111000 6.000000 -6.000000 -1.000000 119.562422 -3.694137 1044.490242 329.242006 11.746022 0.000000 0.108601
410.000000 76.866000 7.000000 -6.000000 -1.000000 116.164789 4.411394 891.968365 410.647723 13.006814 0.000000 0.121435
411.000000 69.365000 8.000000 -6.000000 -1.000000 112.556650 10.624703 773.096670 486.138902 14.414203 0.000000 0.123986
412.000000 62.716000 9.000000 -6.000000 -1.000000 109.041554 15.434320 677.845440 555.630926 15.943224 0.000000 0.121319
413.000000 56.899000 10.000000 -6.000000 -1.000000 105.755043 19.218230 599.810656 619.430846 17.574274 0.000000 0.116286
414.000000 51.836000 11.000000 -6.000000 -1.000000 102.744330 22.248401 534.711446 677.990667 19.291750 0.000000 0.110583
415.000000 47.434000 12.000000 -6.000000 -1.000000 100.013301 24.716799 479.577562 731.796605 21.083074 0.000000 0.105252
416.000000 89.435000 6.000000 -5.000000 -1.000000 113.576377 4.382018 892.523451 469.929915 11.179393 0.000000 0.131215
417.000000 79.216000 7.000000 -5.000000 -1.000000 109.578354 11.344354 759.068598 550.579187 12.622349 0.000000 0.131788
418.000000 70.405000 8.000000 -5.000000 -1.000000 105.729189 16.557432 655.013237 624.762686 14.203041 0.000000 0.126563
419.000000 62.911000 9.000000 -5.000000 -1.000000 102.199446 20.545928 571.606407 692.501098 15.895707 0.000000 0.119333
420.000000 56.563000 10.000000 -5.000000 -1.000000 99.031488 23.667996 503.256703 754.214219 17.680633 0.000000 0.112185
421.000000 51.177000 11.000000 -5.000000 -1.000000 96.213027 26.164554 446.224376 810.452385 19.542477 0.000000 0.106302
422.000000 46.586000 12.000000 -5.000000 -1.000000 93.711421 28.199282 397.913443 861.781190 21.469118 0.000000 0.102309
423.000000 79.883000 7.000000 -4.000000 -1.000000 101.253907 17.936230 626.614681 715.895346 12.518788 0.000000 0.131208
424.000000 69.974000 8.000000 -4.000000 -1.000000 97.521070 22.131061 537.282380 787.598569 14.292497 0.000000 0.121302
425.000000 61.877000 9.000000 -4.000000 -1.000000 94.260791 25.325444 465.653153 852.287794 16.163692 0.000000 0.112975
426.000000 55.219000 10.000000 -4.000000 -1.000000 91.431387 27.824793 406.939062 910.589926 18.113461 0.000000 0.107428
427.000000 49.695000 11.000000 -4.000000 -1.000000 88.974507 29.826630 357.935965 963.207554 20.127485 0.000000 0.105037
428.000000 78.032000 7.000000 -3.000000 -1.000000 91.133479 24.053226 494.604374 917.680012 12.818137 0.000000 0.120871
429.000000 67.576000 8.000000 -3.000000 -1.000000 87.951274 27.282366 419.902521 984.320526 14.802153 0.000000 0.113077
430.000000 59.320000 9.000000 -3.000000 -1.000000 85.276289 29.744487 359.984527 1043.431665 16.862942 0.000000 0.110410
431.000000 52.695000 10.000000 -3.000000 -1.000000 83.015718 31.677268 310.856865 1095.934903 18.983916 0.000000 0.112228
432.000000 47.293000 11.000000 -3.000000 -1.000000 81.090168 33.231567 269.845543 1142.721440 21.152949 0.000000 0.117316
433.000000 86.297000 6.000000 -2.000000 -1.000000 82.004296 26.426599 440.099962 1109.822025 11.592447 0.000000 0.117246
434.000000 72.891000 7.000000 -2.000000 -1.000000 79.318779 29.621901 363.035453 1174.522568 13.725010 0.000000 0.116584
435.000000 62.824000 8.000000 -2.000000 -1.000000 77.147373 31.984093 302.872093 1230.518154 15.924712 0.000000 0.122656
436.000000 55.051000 9.000000 -2.000000 -1.000000 75.370178 33.795750 254.599383 1279.078526 18.173745 0.000000 0.132465
437.000000 48.900000 10.000000 -2.000000 -1.000000 73.895715 35.226603 215.009252 1321.404288 20.460090 0.000000 0.143847
438.000000 75.470000 6.000000 -1.000000 -1.000000 67.050719 32.457754 290.440067 1481.107409 13.258619 0.000000 0.149849
439.000000 64.098000 7.000000 -1.000000 -1.000000 66.115178 34.621946 231.905707 1520.166375 15.610807 0.000000 0.169079
440.000000 55.615000 8.000000 -1.000000 -1.000000 65.361060 36.237494 186.189538 1553.034727 17.991963 0.000000 0.186419
441.000000 49.067000 9.000000 -1.000000 -1.000000 64.744419 37.487727 149.496581 1580.888989 20.393158 0.000000 0.201740
448.000000 49.238000 9.000000 -13.000000 0.000000 138.011506 -20.372660 1374.685747 -334.621119 20.298089 0.000000 0.065917
449.000000 47.199000 10.000000 -13.000000 0.000000 136.697402 -12.613792 1215.852305 -229.277530 21.175417 0.000000 0.027728
451.000000 54.055000 4.000000 -6.000000 0.000000 138.299578 -23.184011 1435.944825 -373.108840 9.244641 0.000000 0.085289
452.000000 51.692000 3.000000 -4.000000 0.000000 137.081547 -14.455146 1252.449875 -254.322698 6.444971 0.000000 0.034307
453.000000 49.251000 5.000000 -6.000000 0.000000 135.207074 -6.953282 1106.261594 -151.134680 10.146751 0.000000 0.024004
454.000000 46.807000 11.000000 -12.000000 0.000000 132.922508 -0.641580 987.052507 -60.005309 21.353724 0.000000 0.038106
457.000000 57.106000 8.000000 -11.000000 0.000000 137.490437 -16.716630 1298.244297 -284.986967 17.501521 0.000000 0.044782
458.000000 54.215000 9.000000 -11.000000 0.000000 135.584863 -8.225686 1130.588940 -168.913412 18.435398 0.000000 0.022591
459.000000 51.303000 10.000000 -11.000000 0.000000 133.141773 -1.169550 996.972909 -67.861398 19.482292 0.000000 0.036818
460.000000 48.451000 3.000000 -3.000000 0.000000 130.415752 4.622130 887.985002 21.501045 5.626428 0.000000 0.049857
461.000000 45.708000 12.000000 -11.000000 0.000000 127.581809 9.370465 797.390612 101.483745 21.868902 0.000000 0.057858
463.000000 63.749000 7.000000 -10.000000 0.000000 137.908974 -19.550346 1357.200459 -323.430818 15.677655 0.000000 0.060756
464.000000 60.278000 4.000000 -5.000000 0.000000 136.018632 -9.805728 1161.019118 -190.795435 8.290530 0.000000 0.022509
465.000000 56.752000 9.000000 -10.000000 0.000000 133.402348 -1.814748 1009.101220 -77.395253 17.611701 0.000000 0.035235
466.000000 49.985000 11.000000 -10.000000 0.000000 127.297242 9.796208 789.165049 109.034600 19.997638 0.000000 0.058431
467.000000 46.866000 6.000000 -5.000000 0.000000 124.193480 13.982265 707.003522 187.401498 10.664773 0.000000 0.062682
469.000000 67.843000 7.000000 -9.000000 0.000000 136.516378 -11.816748 1200.177950 -218.397442 14.731863 0.000000 0.025582
470.000000 63.492000 8.000000 -9.000000 0.000000 133.716764 -2.620856 1024.266833 -89.209404 15.742245 0.000000 0.033256
471.000000 55.143000 10.000000 -9.000000 0.000000 126.949668 10.305542 779.296633 118.161215 18.127272 0.000000 0.059083
472.000000 51.335000 11.000000 -9.000000 0.000000 123.515137 14.801944 690.591722 203.741226 19.472990 0.000000 0.063207
473.000000 47.820000 4.000000 -3.000000 0.000000 120.217646 18.406783 616.823020 280.337544 6.968414 0.000000 0.064284
475.000000 72.039000 7.000000 -8.000000 0.000000 134.102900 -3.656166 1043.774014 -104.234716 13.874371 0.000000 0.030751
476.000000 61.483000 9.000000 -8.000000 0.000000 126.515764 10.925653 767.238584 129.414929 16.258124 0.000000 0.059829
477.000000 56.732000 5.000000 -4.000000 0.000000 122.675219 15.776973 670.906570 223.664603 8.810373 0.000000 0.063698
478.000000 52.402000 11.000000 -8.000000 0.000000 119.027950 19.575654 592.264098 307.072736 19.077913 0.000000 0.064205
479.000000 48.490000 3.000000 -2.000000 0.000000 115.630242 22.606059 526.848398 381.652604 5.154525 0.000000 0.063120
480.000000 90.375000 5.000000 -7.000000 0.000000 137.700102 -18.049922 1325.746295 -303.060247 11.058804 0.000000 0.051939
481.000000 83.230000 6.000000 -7.000000 0.000000 134.586839 -5.033545 1069.798536 -123.989933 12.008797 0.000000 0.027596
482.000000 69.462000 8.000000 -7.000000 0.000000 125.959201 11.696885 752.171199 143.638643 14.390689 0.000000 0.060678
483.000000 63.373000 9.000000 -7.000000 0.000000 121.609897 16.955373 646.860277 248.501665 15.774477 0.000000 0.064094
484.000000 57.914000 10.000000 -7.000000 0.000000 117.539692 20.955248 562.813586 340.019874 17.262377 0.000000 0.063855
485.000000 53.067000 11.000000 -7.000000 0.000000 113.807566 24.072006 494.181261 420.896313 18.840214 0.000000 0.062252
486.000000 48.782000 12.000000 -7.000000 0.000000 110.418489 26.555422 437.078953 493.079819 20.496274 0.000000 0.060717
487.000000 79.805000 7.000000 -6.000000 0.000000 125.220227 12.681726 732.807293 162.189324 12.525771 0.000000 0.061637
488.000000 58.510000 5.000000 -3.000000 0.000000 111.510956 25.786301 455.016462 469.886489 8.544086 0.000000 0.061157
489.000000 53.197000 11.000000 -6.000000 0.000000 107.842840 28.264205 396.342297 547.654550 18.796272 0.000000 0.060140
490.000000 48.597000 4.000000 -2.000000 0.000000 104.583556 30.242442 347.513984 616.861554 6.858733 0.000000 0.060946
491.000000 82.538000 7.000000 -5.000000 0.000000 118.327533 20.235791 578.237299 322.641036 12.112277 0.000000 0.064070
492.000000 73.034000 8.000000 -5.000000 0.000000 113.102697 24.613022 481.938073 435.975953 13.689647 0.000000 0.061904
493.000000 65.038000 9.000000 -5.000000 0.000000 108.542237 27.813874 407.201278 532.838845 15.373804 0.000000 0.060214
494.000000 52.647000 11.000000 -5.000000 0.000000 101.143914 32.141834 298.746298 690.605635 18.994609 0.000000 0.064557
495.000000 47.836000 12.000000 -5.000000 0.000000 98.143592 33.664914 258.152792 755.951268 20.905856 0.000000 0.070554
496.000000 83.636000 7.000000 -4.000000 0.000000 109.622856 27.098352 424.271455 509.946480 11.955046 0.000000 0.060457
497.000000 64.213000 9.000000 -4.000000 0.000000 100.355560 32.553271 287.917257 707.667280 15.573488 0.000000 0.065863
498.000000 57.128000 5.000000 -2.000000 0.000000 96.785968 34.318047 240.304945 785.933073 8.752945 0.000000 0.074196
499.000000 51.285000 11.000000 -4.000000 0.000000 93.746948 35.707433 201.392360 854.194824 19.501430 0.000000 0.084429
500.000000 46.412000 3.000000 -1.000000 0.000000 91.136713 36.828467 168.994683 914.319695 5.387440 0.000000 0.095434
501.000000 82.258000 7.000000 -3.000000 0.000000 99.099418 33.192043 270.906226 735.007075 12.157394 0.000000 0.068340
502.000000 70.818000 8.000000 -3.000000 0.000000 94.707783 35.278463 213.548395 832.426252 14.122443 0.000000 0.080888
503.000000 54.772000 10.000000 -3.000000 0.000000 88.187969 38.023747 133.388147 984.224247 18.261787 0.000000 0.110195
504.000000 49.010000 11.000000 -3.000000 0.000000 85.718284 38.972806 104.279583 1044.649283 20.409475 0.000000 0.124377
505.000000 77.618000 7.000000 -2.000000 0.000000 86.900523 38.524079 118.138106 1015.494052 12.886798 0.000000 0.117384
506.000000 66.401000 4.000000 -1.000000 0.000000 83.623268 39.744226 80.038965 1097.434130 7.532246 0.000000 0.137677
507.000000 57.851000 9.000000 -2.000000 0.000000 81.019957 40.663537 50.431916 1165.222778 17.291724 0.000000 0.155817
508.000000 51.151000 5.000000 -1.000000 0.000000 78.905740 41.380721 26.762396 1222.273008 9.778598 0.000000 0.171879
509.000000 45.779000 11.000000 -2.000000 0.000000 77.156547 41.955670 7.407072 1270.970461 21.852800 0.000000 0.186089
510.000000 82.774000 6.000000 -1.000000 0.000000 75.686439 42.426792 -8.715050 1313.036886 12.086286 0.000000 0.198694
511.000000 69.314000 7.000000 -1.000000 0.000000 73.355120 43.152687 -34.036388 1382.070077 14.433854 0.000000 0.219967
512.000000 59.522000 8.000000 -1.000000 0.000000 71.591082 43.685736 -53.016632 1436.370133 16.808810 0.000000 0.237155
513.000000 52.101000 9.000000 -1.000000 0.000000 70.210679 44.093711 -67.772674 1480.211564 19.203383 0.000000 0.251291
514.000000 46.294000 10.000000 -1.000000 0.000000 69.101500 44.415982 -79.573496 1516.356975 21.612491 0.000000 0.263102
525.000000 45.615000 11.000000 -13.000000 1.000000 140.409142 -1.097011 995.609743 -360.677637 21.909757 0.000000 0.002361
528.000000 49.834000 10.000000 -12.000000 1.000000 141.284613 -1.746917 1007.825789 -402.320053 20.054558 0.000000 0.001310
529.000000 47.325000 11.000000 -12.000000 1.000000 138.369080 4.797425 884.669763 -274.199849 21.118487 0.000000 0.017989
532.000000 54.902000 9.000000 -11.000000 1.000000 142.325813 -2.562592 1023.170099 -454.254722 18.203202 0.000000 0.005218
533.000000 51.907000 10.000000 -11.000000 1.000000 139.118933 4.817285 884.294050 -306.745645 19.254301 0.000000 0.018097
534.000000 48.986000 11.000000 -11.000000 1.000000 135.729285 10.576177 774.040145 -182.128073 20.403250 0.000000 0.028177
535.000000 46.188000 12.000000 -11.000000 1.000000 132.334781 15.110269 684.386556 -74.663013 21.640322 0.000000 0.031246
538.000000 57.463000 9.000000 -10.000000 1.000000 140.024533 4.842220 883.822295 -347.391889 17.392387 0.000000 0.019084
539.000000 53.919000 10.000000 -10.000000 1.000000 136.228623 11.237953 761.147005 -204.434486 18.536376 0.000000 0.029998
540.000000 50.539000 11.000000 -10.000000 1.000000 132.439520 16.130660 663.719589 -83.487389 19.777072 0.000000 0.032124
541.000000 47.363000 12.000000 -10.000000 1.000000 128.785633 19.943009 584.472878 20.905549 21.104331 0.000000 0.029655
544.000000 64.338000 8.000000 -9.000000 1.000000 141.139866 4.874462 883.212274 -399.615468 15.533508 0.000000 0.021115
545.000000 59.950000 9.000000 -9.000000 1.000000 136.830054 12.064302 744.963805 -232.255372 16.671346 0.000000 0.033472
546.000000 55.788000 10.000000 -9.000000 1.000000 132.547988 17.367369 638.382858 -94.090944 17.916338 0.000000 0.034344
547.000000 51.909000 11.000000 -9.000000 1.000000 128.460320 21.376834 553.706802 22.933202 19.256132 0.000000 0.029690
548.000000 48.337000 12.000000 -9.000000 1.000000 124.637344 24.486443 484.811962 123.996707 20.680205 0.000000 0.022430
551.000000 67.490000 8.000000 -8.000000 1.000000 137.567642 13.124815 724.047038 -267.936832 14.808827 0.000000 0.039393
552.000000 62.240000 9.000000 -8.000000 1.000000 132.654351 18.895714 606.592055 -107.070173 16.058988 0.000000 0.038757
553.000000 57.401000 10.000000 -8.000000 1.000000 128.027459 23.096476 515.999827 25.928800 17.413926 0.000000 0.031402
554.000000 53.000000 11.000000 -8.000000 1.000000 123.764051 26.259844 444.000497 138.656865 18.860784 0.000000 0.021234
555.000000 49.031000 12.000000 -8.000000 1.000000 119.875524 28.714057 385.402849 236.022754 20.388726 0.000000 0.010041
556.000000 45.467000 13.000000 -8.000000 1.000000 116.344368 30.666910 336.783667 321.367297 21.988557 0.000000 0.002084
559.000000 77.177000 7.000000 -7.000000 1.000000 138.491793 14.534288 695.964092 -315.385613 12.949843 0.000000 0.048963
560.000000 70.356000 8.000000 -7.000000 1.000000 132.745505 20.829442 565.521156 -123.320305 14.206338 0.000000 0.046645
561.000000 64.158000 9.000000 -7.000000 1.000000 127.434557 25.192584 468.704491 30.474584 15.579932 0.000000 0.036226
562.000000 58.615000 10.000000 -7.000000 1.000000 122.634975 28.361007 393.996140 157.742217 17.054565 0.000000 0.023711
563.000000 53.699000 11.000000 -7.000000 1.000000 118.336235 30.752862 334.599396 265.626496 18.616987 0.000000 0.013427
564.000000 49.356000 12.000000 -7.000000 1.000000 114.496304 32.616489 286.244587 358.768879 20.256167 0.000000 0.014319
565.000000 45.524000 13.000000 -7.000000 1.000000 111.064485 34.106551 246.114508 440.344224 21.962846 0.000000 0.024478
567.000000 90.069000 6.000000 -6.000000 1.000000 139.679394 16.495897 656.270948 -381.637407 11.096074 0.000000 0.064330
568.000000 80.863000 7.000000 -6.000000 1.000000 132.792105 23.347681 510.412271 -144.247407 12.360485 0.000000 0.060059
569.000000 72.657000 8.000000 -6.000000 1.000000 126.593385 27.795985 407.630782 37.629481 13.757617 0.000000 0.046211
570.000000 65.480000 9.000000 -6.000000 1.000000 121.134671 30.882460 331.298575 183.444505 15.266837 0.000000 0.032719
571.000000 59.256000 10.000000 -6.000000 1.000000 116.358052 33.137438 272.370035 304.124325 16.871580 0.000000 0.026391
572.000000 53.874000 11.000000 -6.000000 1.000000 112.177805 34.852150 225.502226 406.360036 18.558390 0.000000 0.031003
573.000000 49.215000 12.000000 -6.000000 1.000000 108.508373 36.197762 187.336227 494.524963 20.316226 0.000000 0.041705
576.000000 94.964000 6.000000 -5.000000 1.000000 132.726098 26.746537 432.584605 -172.188151 10.525001 0.000000 0.082816
577.000000 83.629000 7.000000 -5.000000 1.000000 125.347104 31.100260 325.731127 49.467285 11.952725 0.000000 0.064446
578.000000 74.018000 8.000000 -5.000000 1.000000 119.074221 33.950879 250.372103 219.587641 13.506146 0.000000 0.050594
579.000000 65.931000 9.000000 -5.000000 1.000000 113.749065 35.953097 194.371789 355.995564 15.163987 0.000000 0.047531
580.000000 59.129000 10.000000 -5.000000 1.000000 109.207734 37.433283 151.119764 468.784497 16.909516 0.000000 0.054362
581.000000 53.388000 11.000000 -5.000000 1.000000 105.308514 38.570655 116.707723 564.180270 18.729394 0.000000 0.065931
582.000000 48.512000 12.000000 -5.000000 1.000000 101.935584 39.471292 88.676826 646.277536 20.612858 0.000000 0.078784
584.000000 114.800000 5.000000 -4.000000 1.000000 132.378712 31.542722 314.341626 -211.312423 8.706480 0.000000 0.123480
585.000000 98.238000 6.000000 -4.000000 1.000000 123.397255 35.398367 210.163624 70.465376 10.175496 0.000000 0.096839
586.000000 84.815000 7.000000 -4.000000 1.000000 116.128323 37.740992 141.914546 273.396964 11.787262 0.000000 0.081443
587.000000 73.987000 8.000000 -4.000000 1.000000 110.200634 39.310263 93.741336 429.174961 13.513505 0.000000 0.080206
588.000000 65.213000 9.000000 -4.000000 1.000000 105.309898 40.433330 57.921631 553.906343 15.332953 0.000000 0.088390
589.000000 58.039000 10.000000 -4.000000 1.000000 101.224491 41.276219 30.243585 656.795949 17.229299 0.000000 0.100552
590.000000 52.113000 11.000000 -4.000000 1.000000 97.771061 41.931887 8.214630 743.564398 19.189830 0.000000 0.113682
591.000000 47.164000 12.000000 -4.000000 1.000000 94.819663 42.456349 -9.734556 817.996551 21.204489 0.000000 0.126531
593.000000 118.357000 5.000000 -3.000000 1.000000 120.126427 41.139039 34.796458 111.685553 8.446158 0.000000 0.157497
594.000000 98.618000 6.000000 -3.000000 1.000000 111.702455 42.493075 -11.002702 360.057821 10.138113 0.000000 0.135396
595.000000 83.637000 7.000000 -3.000000 1.000000 105.194585 43.350572 -41.043527 539.010629 11.955246 0.000000 0.132954
596.000000 72.098000 8.000000 -3.000000 1.000000 100.049966 43.942096 -62.265273 676.087948 13.869884 0.000000 0.140562
597.000000 63.048000 9.000000 -3.000000 1.000000 95.897681 44.374694 -78.054385 785.455768 15.861950 0.000000 0.151936
598.000000 55.821000 10.000000 -3.000000 1.000000 92.484777 44.704794 -90.260229 875.286114 17.916525 0.000000 0.164138
599.000000 49.953000 11.000000 -3.000000 1.000000 89.634910 44.964951 -99.978306 950.693132 20.022293 0.000000 0.175988
602.000000 116.016000 5.000000 -2.000000 1.000000 104.633529 48.528871 -242.765297 516.644400 8.618622 0.000000 0.238811
603.000000 94.694000 6.000000 -2.000000 1.000000 97.820785 48.250923 -230.924961 718.986922 10.560532 0.000000 0.225345
604.000000 79.373000 7.000000 -2.000000 1.000000 92.724600 48.066728 -223.149094 864.353876 12.600095 0.000000 0.226273
605.000000 67.980000 8.000000 -2.000000 1.000000 88.783291 47.935698 -217.651448 975.119972 14.712886 0.000000 0.232512
606.000000 59.248000 9.000000 -2.000000 1.000000 85.651147 47.837720 -213.558723 1062.939710 16.881997 0.000000 0.240402
607.000000 52.383000 10.000000 -2.000000 1.000000 83.105731 47.761689 -210.393396 1134.593610 19.095355 0.000000 0.248500
608.000000 46.866000 11.000000 -2.000000 1.000000 80.998251 47.700973 -207.872327 1194.346158 21.344106 0.000000 0.256250
614.000000 53.795000 9.000000 -1.000000 1.000000 74.770479 50.883352 -348.593836 1405.443899 18.596460 0.000000 0.360622
615.000000 47.746000 10.000000 -1.000000 1.000000 73.244945 50.489406 -330.157624 1450.306420 20.952988 0.000000 0.359647
627.000000 46.326000 12.000000 -11.000000 2.000000 136.495148 21.811200 544.268933 -280.422934 21.574126 0.000000 0.075304
629.000000 50.648000 11.000000 -10.000000 2.000000 136.854825 23.603001 504.711455 -312.175439 19.733122 0.000000 0.089626
632.000000 55.838000 10.000000 -9.000000 2.000000 137.235653 25.792853 454.864646 -351.512963 17.898984 0.000000 0.108906
633.000000 51.987000 11.000000 -9.000000 2.000000 132.605591 28.924358 380.256511 -189.976294 19.226020 0.000000 0.100014
634.000000 48.438000 12.000000 -9.000000 2.000000 128.361251 31.276138 321.216617 -55.724716 20.635706 0.000000 0.088905
637.000000 53.050000 11.000000 -8.000000 2.000000 127.649616 33.737067 256.194520 -57.495612 18.842056 0.000000 0.109420
638.000000 45.583000 13.000000 -8.000000 2.000000 119.573091 36.697800 172.819252 179.272760 21.930993 0.000000 0.087300
641.000000 64.010000 9.000000 -7.000000 2.000000 131.978185 34.735235 228.758846 -237.346657 15.614710 0.000000 0.156637
642.000000 58.568000 10.000000 -7.000000 2.000000 126.673096 36.646412 174.319789 -57.909301 17.066964 0.000000 0.137790
643.000000 53.727000 11.000000 -7.000000 2.000000 121.987315 38.052295 132.523622 87.341602 18.605780 0.000000 0.122115
644.000000 49.440000 12.000000 -7.000000 2.000000 117.839206 39.128685 99.424294 208.262161 20.220650 0.000000 0.110947
645.000000 45.646000 13.000000 -7.000000 2.000000 114.154359 39.978710 72.563174 311.108011 21.902702 0.000000 0.104477
647.000000 65.258000 9.000000 -6.000000 2.000000 125.300609 40.119026 68.065064 -55.558868 15.317555 0.000000 0.178463
648.000000 53.898000 11.000000 -6.000000 2.000000 115.630981 41.901604 9.241971 247.201097 18.548736 0.000000 0.143371
652.000000 65.667000 9.000000 -5.000000 2.000000 117.611576 44.750779 -91.971612 148.308991 15.223821 0.000000 0.208971
653.000000 59.052000 10.000000 -5.000000 2.000000 112.763764 45.078061 -104.231025 301.424363 16.930433 0.000000 0.189216
654.000000 53.433000 11.000000 -5.000000 2.000000 108.608015 45.327053 -113.652267 425.565783 18.712138 0.000000 0.178000
655.000000 48.637000 12.000000 -5.000000 2.000000 105.015128 45.522839 -121.118683 528.943873 20.558487 0.000000 0.172974
657.000000 64.966000 9.000000 -4.000000 2.000000 108.959427 48.728625 -251.355203 380.462077 15.390131 0.000000 0.256827
658.000000 52.215000 11.000000 -4.000000 2.000000 100.965028 48.374210 -236.160916 627.074927 19.150883 0.000000 0.229346
662.000000 55.899000 10.000000 -3.000000 2.000000 95.814102 51.556077 -380.808979 764.733133 17.890168 0.000000 0.310726
663.000000 50.156000 11.000000 -3.000000 2.000000 92.771598 51.087814 -358.285788 858.047584 19.939750 0.000000 0.299915
#UB matrix in q= (UB) B0 G* 
#[[-0.491935605  0.794869206 -0.352977526]
# [ 0.638324739  0.605974383  0.474952682]
# [ 0.592064936  0.008388242 -0.806436703]]
#B0 matrix in q= UB (B0) G*
#[[ 0.19670273 -0.          0.03056101]
# [ 0.          0.19187965 -0.        ]
# [ 0.          0.          0.18806537]]
#UBB0 matrix in q= (UB B0) G* i.e. recip. basis vectors are columns in LT frame: astar = UBB0[:,0], bstar = UBB0[:,1], cstar = UBB0[:,2]. (abcstar as columns on xyzlab1, xlab1 = ui, ui = unit vector along incident beam)
#[[-0.09676508  0.15251923 -0.0814169 ]
# [ 0.12556022  0.11627415  0.10883   ]
# [ 0.11646079  0.00160953 -0.13356872]]
#Euler angles phi theta psi (deg)
#[ 90.769 143.693  36.666]
#deviatoric strain in direct crystal frame (10-3 unit)
#[[-4.   -0.33  0.66]
# [-0.33 -3.44 -0.56]
# [ 0.66 -0.56  7.44]]
#deviatoric strain in sample2 frame (10-3 unit)
#[[ 3.86 -4.43  2.7 ]
# [-4.43 -1.39 -2.  ]
# [ 2.71 -2.   -2.47]]
#new lattice parameters
#[ 5.1505     5.2145345  5.3165143 90.0271688 99.1915619 90.0381198]
#CCDLabel
#sCMOS
#DetectorParameters
#[79.0, 975.0, 941.0, 0.0, 0.0]
#pixelsize
#0.0734
#Frame dimensions
#[2018, 2016]
#
