#Strain and Orientation Refinement from experimental file: /home/micha/LaueProjects/DepthEffects/testZrO2_14.cor
#File created at Wed Jun 28 14:18:31 2023 with indexingSpotsSet.py
#Number of indexed spots: 547
#Element
#ZrO2
#grainIndex
#G_0
#Mean Deviation(pixel): 0.120
##spot_index intensity h k l 2theta Chi Xexp Yexp Energy GrainIndex PixDev
21.000000 47.734000 -1.000000 -10.000000 1.000000 69.860729 -48.743905 2202.015084 1539.557848 20.965549 0.000000 0.299695
23.000000 60.005000 -2.000000 -9.000000 1.000000 82.611702 -52.102733 2357.696925 1168.209199 16.674359 0.000000 0.320703
24.000000 53.928000 -1.000000 -9.000000 1.000000 71.371686 -48.362935 2185.681033 1487.056416 18.557041 0.000000 0.283734
25.000000 46.205000 0.000000 -9.000000 1.000000 59.683651 -45.055331 2053.375044 1831.892726 21.662713 0.000000 0.295565
27.000000 69.131000 -2.000000 -8.000000 1.000000 85.799552 -52.127519 2358.931666 1069.760021 14.472394 0.000000 0.312181
28.000000 61.874000 -1.000000 -8.000000 1.000000 73.248125 -47.878749 2165.270714 1424.025736 16.173375 0.000000 0.264687
29.000000 52.220000 0.000000 -8.000000 1.000000 60.091715 -44.187150 2021.180901 1804.383515 19.167596 0.000000 0.279020
31.000000 81.129000 -2.000000 -7.000000 1.000000 89.829363 -52.160754 2360.589411 946.225234 12.331218 0.000000 0.305157
32.000000 72.395000 -1.000000 -7.000000 1.000000 75.638782 -47.242937 2139.040697 1346.910372 13.822561 0.000000 0.241600
33.000000 59.996000 0.000000 -7.000000 1.000000 60.597589 -43.070100 1981.125373 1771.259766 16.683362 0.000000 0.259388
34.000000 97.413000 -2.000000 -6.000000 1.000000 95.070037 -52.207643 2362.932460 785.175684 10.269056 0.000000 0.302984
35.000000 86.887000 -1.000000 -6.000000 1.000000 78.783857 -46.371318 2104.088010 1250.322808 11.516470 0.000000 0.213106
36.000000 70.414000 0.000000 -6.000000 1.000000 61.238730 -41.580637 1929.928536 1730.750023 14.214959 0.000000 0.235892
39.000000 107.896000 -1.000000 -5.000000 1.000000 83.095393 -45.103609 2055.193893 1125.653930 9.273475 0.000000 0.177236
40.000000 85.035000 0.000000 -5.000000 1.000000 62.071330 -39.498814 1862.191118 1680.412008 11.770867 0.000000 0.207674
43.000000 140.444000 -1.000000 -4.000000 1.000000 89.334248 -43.093214 1981.939308 958.126665 7.123607 0.000000 0.131195
44.000000 106.858000 0.000000 -4.000000 1.000000 63.176574 -36.394493 1768.352923 1617.100688 9.366945 0.000000 0.174283
46.000000 195.390000 -1.000000 -3.000000 1.000000 99.028224 -39.431792 1860.078696 719.591488 5.119554 0.000000 0.071771
47.000000 142.247000 0.000000 -3.000000 1.000000 64.638415 -31.312858 1629.728058 1538.158908 7.036667 0.000000 0.137691
51.000000 46.482000 -3.000000 -12.000000 2.000000 87.148246 -49.145019 2219.482593 1022.960396 21.523988 0.000000 0.235278
54.000000 51.575000 -3.000000 -11.000000 2.000000 89.815214 -48.843148 2206.310798 946.274384 19.397823 0.000000 0.222707
55.000000 48.173000 -2.000000 -11.000000 2.000000 80.757610 -45.802070 2081.857681 1192.225176 20.771139 0.000000 0.196247
57.000000 57.752000 -3.000000 -10.000000 2.000000 92.962953 -48.468045 2190.163067 856.980064 17.321976 0.000000 0.209628
58.000000 48.798000 -1.000000 -10.000000 2.000000 72.720837 -42.130920 1948.562069 1392.446463 20.508238 0.000000 0.185142
60.000000 65.354000 -3.000000 -9.000000 2.000000 96.727456 -47.989428 2169.902418 751.302482 15.306309 0.000000 0.196711
61.000000 61.124000 -2.000000 -9.000000 2.000000 85.904060 -44.226610 2022.623482 1048.555822 16.368666 0.000000 0.155696
62.000000 55.038000 -1.000000 -9.000000 2.000000 74.419961 -40.960200 1909.296546 1338.399985 18.182667 0.000000 0.166881
63.000000 47.382000 0.000000 -9.000000 2.000000 62.583874 -38.115561 1819.394636 1650.590070 21.124816 0.000000 0.191603
64.000000 74.849000 -3.000000 -8.000000 2.000000 101.297450 -47.357696 2143.728153 623.596873 13.363440 0.000000 0.185467
65.000000 62.954000 -1.000000 -8.000000 2.000000 76.486848 -39.476881 1861.499371 1276.099117 15.895785 0.000000 0.147850
67.000000 86.896000 -3.000000 -7.000000 2.000000 106.939482 -46.485651 2108.608789 464.897962 11.509779 0.000000 0.178993
68.000000 82.018000 -2.000000 -7.000000 2.000000 93.602956 -41.573177 1929.678115 850.410978 12.197284 0.000000 0.103303
69.000000 73.259000 -1.000000 -7.000000 2.000000 79.046065 -37.539561 1802.050985 1203.711451 13.659314 0.000000 0.129606
70.000000 61.113000 0.000000 -7.000000 2.000000 63.860633 -34.199284 1706.429163 1579.612419 16.378464 0.000000 0.156039
71.000000 46.907000 1.000000 -7.000000 2.000000 48.714124 -31.405511 1632.114940 2048.295693 21.343360 0.000000 0.210396
72.000000 102.389000 -3.000000 -6.000000 2.000000 114.034943 -45.204736 2059.013787 259.761749 9.767070 0.000000 0.182678
73.000000 87.085000 -1.000000 -6.000000 2.000000 82.276768 -34.909544 1726.099863 1118.993953 11.490241 0.000000 0.115805
74.000000 52.073000 1.000000 -6.000000 2.000000 47.118259 -28.405264 1557.077955 2077.323157 19.226448 0.000000 0.198477
75.000000 122.465000 -3.000000 -5.000000 2.000000 123.128649 -43.142301 1983.669876 -21.635783 8.164746 0.000000 0.202841
76.000000 119.052000 -2.000000 -5.000000 2.000000 106.076340 -36.202378 1762.796946 556.613824 8.401346 0.000000 0.037337
77.000000 106.283000 -1.000000 -5.000000 2.000000 86.432635 -31.154791 1625.666820 1019.407794 9.414152 0.000000 0.112945
78.000000 84.519000 0.000000 -5.000000 2.000000 65.479337 -27.372523 1532.243292 1493.865437 11.842839 0.000000 0.120831
79.000000 57.887000 1.000000 -5.000000 2.000000 44.810314 -24.456238 1464.503100 2131.235016 17.296157 0.000000 0.190997
81.000000 148.684000 -2.000000 -4.000000 2.000000 115.388619 -30.824248 1617.217673 346.177027 6.725973 0.000000 0.012324
82.000000 133.908000 -1.000000 -4.000000 2.000000 91.834649 -25.425114 1486.640345 902.827448 7.471463 0.000000 0.126476
83.000000 102.874000 0.000000 -4.000000 2.000000 66.243757 -21.741067 1404.203369 1450.998364 9.730041 0.000000 0.107488
84.000000 63.724000 1.000000 -4.000000 2.000000 41.297674 -19.087068 1347.428268 2237.498286 15.712610 0.000000 0.198957
85.000000 189.474000 -2.000000 -3.000000 2.000000 127.530988 -20.410597 1375.496855 58.819632 5.277047 0.000000 0.030128
86.000000 174.587000 -1.000000 -3.000000 2.000000 98.662232 -15.894772 1281.484322 770.511420 5.729977 0.000000 0.151503
87.000000 128.020000 0.000000 -3.000000 2.000000 66.433616 -13.257026 1228.572960 1423.322948 7.819022 0.000000 0.096766
89.000000 158.922000 0.000000 -2.000000 2.000000 64.381994 0.119108 972.762570 1457.090876 6.298989 0.000000 0.076609
90.000000 175.537000 0.000000 -1.000000 2.000000 55.319763 20.824587 565.625569 1737.762303 5.703251 0.000000 0.110303
94.000000 46.179000 -5.000000 -13.000000 3.000000 101.665896 -49.241046 2223.706304 600.627464 21.660126 0.000000 0.229241
95.000000 50.539000 -5.000000 -12.000000 3.000000 105.028927 -48.945298 2210.750157 501.012521 19.790109 0.000000 0.229632
96.000000 49.069000 -4.000000 -12.000000 3.000000 97.430435 -45.856432 2083.960936 739.455195 20.385910 0.000000 0.154658
98.000000 55.616000 -5.000000 -11.000000 3.000000 108.887124 -48.576615 2194.812223 384.443636 17.982630 0.000000 0.233982
99.000000 54.210000 -4.000000 -11.000000 3.000000 100.784674 -45.153387 2057.072477 650.284614 18.451609 0.000000 0.141926
100.000000 51.816000 -3.000000 -11.000000 3.000000 92.069809 -42.134258 1948.676068 888.546709 19.307306 0.000000 0.113000
101.000000 48.404000 -2.000000 -11.000000 3.000000 82.866680 -39.465763 1861.148912 1115.474628 20.671640 0.000000 0.125647
103.000000 61.553000 -5.000000 -10.000000 3.000000 113.346896 -48.104266 2174.729283 245.303465 16.246924 0.000000 0.243946
104.000000 60.318000 -4.000000 -10.000000 3.000000 104.686949 -44.267457 2024.118784 547.056811 16.582020 0.000000 0.130354
105.000000 57.826000 -3.000000 -10.000000 3.000000 95.263388 -40.944771 1908.788435 809.733327 17.299737 0.000000 0.093195
106.000000 54.001000 -2.000000 -10.000000 3.000000 85.227049 -38.057745 1817.641494 1055.133151 18.528636 0.000000 0.112220
107.000000 48.908000 -1.000000 -10.000000 3.000000 74.769193 -35.538090 1743.793313 1301.124928 20.462136 0.000000 0.134081
109.000000 67.630000 -4.000000 -9.000000 3.000000 109.268026 -43.117262 1982.786771 425.573662 14.788166 0.000000 0.121776
110.000000 60.855000 -2.000000 -9.000000 3.000000 88.006609 -36.300077 1765.618978 987.481500 16.441029 0.000000 0.101023
111.000000 54.852000 -1.000000 -9.000000 3.000000 76.447025 -33.621113 1690.660012 1252.568072 18.244436 0.000000 0.125991
113.000000 76.433000 -4.000000 -8.000000 3.000000 114.694931 -41.565363 1929.415876 279.512215 13.083725 0.000000 0.118960
114.000000 74.105000 -3.000000 -8.000000 3.000000 103.510355 -37.445897 1799.256105 615.276272 13.497466 0.000000 0.048973
115.000000 69.374000 -2.000000 -8.000000 3.000000 91.310924 -34.049027 1702.310391 911.273879 14.421407 0.000000 0.094448
116.000000 62.225000 -1.000000 -8.000000 3.000000 78.410710 -31.218575 1627.303975 1199.094936 16.082165 0.000000 0.122113
117.000000 53.062000 0.000000 -8.000000 3.000000 65.196875 -28.834681 1567.546435 1508.786019 18.863893 0.000000 0.126155
119.000000 87.058000 -4.000000 -7.000000 3.000000 121.176029 -39.360928 1857.849594 98.733916 11.485881 0.000000 0.124594
120.000000 85.240000 -3.000000 -7.000000 3.000000 108.893285 -34.732349 1721.160882 492.780381 11.733375 0.000000 0.026005
121.000000 80.119000 -2.000000 -7.000000 3.000000 95.270727 -31.073996 1623.596172 825.074685 12.486480 0.000000 0.095111
122.000000 71.523000 -1.000000 -7.000000 3.000000 80.714918 -28.132024 1550.460930 1140.534527 13.991157 0.000000 0.124313
123.000000 59.996000 0.000000 -7.000000 3.000000 65.755752 -25.726584 1493.600640 1479.037861 16.683784 0.000000 0.115916
124.000000 46.740000 1.000000 -7.000000 3.000000 50.969464 -23.729743 1448.126686 1894.096802 21.419640 0.000000 0.137827
125.000000 99.818000 -4.000000 -6.000000 3.000000 128.952245 -35.996427 1756.871024 -134.431275 10.016518 0.000000 0.138099
126.000000 93.849000 -2.000000 -6.000000 3.000000 100.031863 -26.986254 1523.074102 727.338633 10.658923 0.000000 0.103796
127.000000 83.430000 -1.000000 -6.000000 3.000000 83.403637 -24.049482 1455.311293 1077.293370 11.993910 0.000000 0.133526
128.000000 51.282000 1.000000 -6.000000 3.000000 49.381852 -19.884421 1364.282115 1922.610249 19.523501 0.000000 0.125016
130.000000 116.347000 -3.000000 -5.000000 3.000000 123.170528 -24.788203 1472.048872 166.085531 8.594368 0.000000 0.024915
131.000000 111.505000 -2.000000 -5.000000 3.000000 105.701001 -21.096138 1390.224046 616.712567 8.970302 0.000000 0.117485
132.000000 98.841000 -1.000000 -5.000000 3.000000 86.460602 -18.466747 1334.428576 1011.185909 10.123510 0.000000 0.148592
133.000000 79.204000 0.000000 -5.000000 3.000000 66.497070 -16.506542 1293.946559 1429.170329 12.638047 0.000000 0.100467
134.000000 56.002000 1.000000 -5.000000 3.000000 47.045580 -14.992163 1263.234406 1978.371949 17.878667 0.000000 0.120076
136.000000 137.131000 -3.000000 -4.000000 3.000000 132.099898 -14.585435 1255.061516 -63.887324 7.290809 0.000000 0.029579
137.000000 133.960000 -2.000000 -4.000000 3.000000 112.143906 -12.136906 1206.462744 492.987171 7.465895 0.000000 0.128084
138.000000 118.682000 -1.000000 -4.000000 3.000000 89.662418 -10.564929 1175.741199 947.450875 8.430680 0.000000 0.165169
139.000000 91.997000 0.000000 -4.000000 3.000000 66.146344 -9.471782 1154.565030 1423.484641 10.880879 0.000000 0.092119
140.000000 60.068000 1.000000 -4.000000 3.000000 43.502211 -8.668140 1139.083716 2088.193275 16.669192 0.000000 0.140373
141.000000 160.306000 -3.000000 -3.000000 3.000000 140.691217 4.227428 895.443863 -377.149726 6.236121 0.000000 0.017656
142.000000 160.955000 -2.000000 -3.000000 3.000000 118.340828 2.097142 935.587832 360.096481 6.213058 0.000000 0.116864
143.000000 142.986000 -1.000000 -3.000000 3.000000 92.180674 0.892796 958.227582 900.011542 6.997352 0.000000 0.173127
144.000000 61.367000 1.000000 -3.000000 3.000000 38.008443 -0.419701 982.884173 2318.212455 16.316924 0.000000 0.211327
146.000000 188.085000 -2.000000 -2.000000 3.000000 120.883391 23.973044 496.409533 236.502576 5.316539 0.000000 0.032260
147.000000 167.730000 -1.000000 -2.000000 3.000000 91.743175 17.204705 641.734417 906.710232 5.965018 0.000000 0.149735
148.000000 116.443000 0.000000 -2.000000 3.000000 59.593035 13.041489 725.696842 1589.357120 8.597323 0.000000 0.068707
150.000000 178.647000 -1.000000 -1.000000 3.000000 84.147572 37.844485 138.801337 1080.703734 5.600887 0.000000 0.119699
151.000000 111.857000 0.000000 -1.000000 3.000000 49.423244 29.319173 370.538151 1998.154334 8.950358 0.000000 0.208924
154.000000 47.073000 -6.000000 -13.000000 4.000000 110.275922 -45.912329 2086.127858 369.509515 21.245863 0.000000 0.179145
155.000000 46.146000 -5.000000 -13.000000 4.000000 103.428973 -43.109139 1982.500431 588.991881 21.675244 0.000000 0.109437
157.000000 50.374000 -5.000000 -12.000000 4.000000 106.792483 -42.137694 1948.793462 502.991682 19.854833 0.000000 0.098903
158.000000 46.569000 -3.000000 -12.000000 4.000000 90.822920 -37.036957 1787.134878 921.633162 21.483567 0.000000 0.092348
160.000000 55.888000 -6.000000 -11.000000 4.000000 118.290241 -44.309764 2025.669750 131.456123 17.892261 0.000000 0.190419
161.000000 55.255000 -5.000000 -11.000000 4.000000 110.616485 -40.928829 1908.263662 405.072741 18.099775 0.000000 0.090628
162.000000 53.760000 -4.000000 -11.000000 4.000000 102.313183 -37.998140 1815.836974 642.877720 18.605884 0.000000 0.054767
163.000000 51.322000 -3.000000 -11.000000 4.000000 93.474195 -35.446016 1741.184253 860.792010 19.493012 0.000000 0.084641
164.000000 47.928000 -2.000000 -11.000000 4.000000 84.219958 -33.211963 1679.628232 1071.218400 20.876997 0.000000 0.112541
166.000000 60.905000 -5.000000 -10.000000 4.000000 114.985228 -39.384996 1858.606184 292.084712 16.419445 0.000000 0.086410
167.000000 56.953000 -3.000000 -10.000000 4.000000 96.510442 -33.487734 1687.052342 793.726181 17.564820 0.000000 0.080540
168.000000 48.172000 -1.000000 -10.000000 4.000000 76.021780 -29.134659 1574.910769 1247.723024 20.774781 0.000000 0.123793
170.000000 67.450000 -5.000000 -9.000000 4.000000 119.995383 -37.348132 1796.346307 159.476475 14.825100 0.000000 0.087909
171.000000 66.321000 -4.000000 -9.000000 4.000000 110.404436 -33.892830 1698.044260 458.680079 15.080033 0.000000 0.020760
172.000000 63.673000 -3.000000 -9.000000 4.000000 100.000386 -31.024941 1622.340670 719.529969 15.710325 0.000000 0.081196
173.000000 59.395000 -2.000000 -9.000000 4.000000 88.957602 -28.617706 1562.246243 963.308848 16.845508 0.000000 0.117620
174.000000 53.566000 -1.000000 -9.000000 4.000000 77.500524 -26.575160 1513.384534 1207.784631 18.682459 0.000000 0.125742
175.000000 46.479000 0.000000 -9.000000 4.000000 65.888645 -24.824454 1472.875333 1471.747661 21.535711 0.000000 0.113631
176.000000 75.007000 -5.000000 -8.000000 4.000000 125.749125 -34.545992 1715.989308 0.338253 13.330380 0.000000 0.095065
177.000000 71.735000 -3.000000 -8.000000 4.000000 104.014812 -27.847719 1543.611685 637.168033 13.943784 0.000000 0.086609
178.000000 60.055000 -1.000000 -8.000000 4.000000 79.131179 -23.421653 1441.237120 1166.210601 16.663540 0.000000 0.131370
180.000000 83.650000 -5.000000 -7.000000 4.000000 132.330020 -30.473007 1608.302966 -196.510091 11.951968 0.000000 0.104245
181.000000 83.777000 -4.000000 -7.000000 4.000000 121.101497 -26.579391 1513.483888 214.969009 11.935931 0.000000 0.021256
182.000000 81.425000 -3.000000 -7.000000 4.000000 108.606875 -23.623970 1445.757723 545.498217 12.283384 0.000000 0.095057
183.000000 76.141000 -2.000000 -7.000000 4.000000 95.083558 -21.315453 1394.964055 838.224039 13.139355 0.000000 0.138496
184.000000 67.901000 -1.000000 -7.000000 4.000000 80.888036 -19.467953 1355.458435 1124.092698 14.737859 0.000000 0.140255
185.000000 57.256000 0.000000 -7.000000 4.000000 66.470786 -17.958826 1323.854296 1433.641051 17.482517 0.000000 0.102184
187.000000 93.009000 -3.000000 -6.000000 4.000000 113.758730 -17.813812 1320.846519 443.364628 10.752699 0.000000 0.102971
188.000000 77.375000 -1.000000 -6.000000 4.000000 82.684995 -14.421817 1251.782297 1083.658371 12.933106 0.000000 0.151039
189.000000 48.805000 1.000000 -6.000000 4.000000 50.565193 -12.313571 1209.937172 1847.016458 20.514630 0.000000 0.077751
191.000000 107.102000 -4.000000 -5.000000 4.000000 134.398527 -10.934601 1182.935761 -132.419667 9.334758 0.000000 0.025580
192.000000 106.578000 -3.000000 -5.000000 4.000000 119.246908 -9.538601 1155.855396 329.873224 9.382841 0.000000 0.104083
193.000000 100.644000 -2.000000 -5.000000 4.000000 102.369422 -8.579121 1137.373054 702.292516 9.939201 0.000000 0.161484
194.000000 88.641000 -1.000000 -5.000000 4.000000 84.305385 -7.879460 1123.954918 1049.349254 11.289140 0.000000 0.161034
195.000000 71.600000 0.000000 -5.000000 4.000000 65.884117 -7.346813 1113.770378 1426.796054 13.980632 0.000000 0.089166
196.000000 52.103000 1.000000 -5.000000 4.000000 48.031542 -6.927823 1105.776247 1916.147027 19.217001 0.000000 0.083111
197.000000 121.708000 -3.000000 -4.000000 4.000000 124.333923 2.510646 927.807608 205.161337 8.215737 0.000000 0.086276
198.000000 115.964000 -2.000000 -4.000000 4.000000 105.638740 1.421456 948.292646 639.615890 8.625638 0.000000 0.160728
199.000000 101.431000 -1.000000 -4.000000 4.000000 85.267811 0.669402 962.424785 1030.102359 9.865498 0.000000 0.165355
200.000000 54.279000 1.000000 -4.000000 4.000000 44.317487 -0.300945 980.653262 2043.261701 18.447011 0.000000 0.124033
202.000000 136.794000 -3.000000 -3.000000 4.000000 127.239553 19.587428 592.014937 72.624496 7.309275 0.000000 0.031054
203.000000 131.783000 -2.000000 -3.000000 4.000000 107.195653 14.866032 689.303381 596.385943 7.589860 0.000000 0.133314
204.000000 114.293000 -1.000000 -3.000000 4.000000 84.620378 11.713846 751.838906 1044.509274 8.755254 0.000000 0.155642
205.000000 85.983000 0.000000 -3.000000 4.000000 61.198987 9.472505 795.421011 1540.902414 11.642762 0.000000 0.064593
206.000000 53.739000 1.000000 -3.000000 4.000000 38.894178 7.801756 827.532427 2287.608142 18.632966 0.000000 0.210920
207.000000 148.224000 -3.000000 -2.000000 4.000000 125.013404 40.722634 48.500892 -53.890973 6.745696 0.000000 0.188008
208.000000 144.153000 -2.000000 -2.000000 4.000000 104.850592 31.600704 312.841101 605.929786 6.938645 0.000000 0.054067
209.000000 123.352000 -1.000000 -2.000000 4.000000 80.814127 25.316901 465.849547 1133.541695 8.112494 0.000000 0.126146
211.000000 146.213000 -2.000000 -1.000000 4.000000 96.373338 49.483922 -284.462878 755.951881 6.841533 0.000000 0.250985
212.000000 121.866000 -1.000000 -1.000000 4.000000 72.192550 40.519449 55.125824 1395.776727 8.212113 0.000000 0.184541
217.000000 47.146000 -7.000000 -13.000000 5.000000 118.027031 -42.141234 1948.914405 168.332971 21.210377 0.000000 0.148362
218.000000 46.672000 -6.000000 -13.000000 5.000000 111.488563 -39.396861 1858.979326 392.691543 21.428248 0.000000 0.071175
219.000000 45.685000 -5.000000 -13.000000 5.000000 104.508357 -36.972297 1785.230301 592.387027 21.893743 0.000000 0.044316
221.000000 50.902000 -7.000000 -12.000000 5.000000 122.017420 -40.912347 1907.721391 50.451643 19.643937 0.000000 0.155100
222.000000 50.598000 -6.000000 -12.000000 5.000000 115.135445 -37.936660 1813.978785 300.717157 19.764469 0.000000 0.066747
223.000000 49.688000 -5.000000 -12.000000 5.000000 107.734645 -35.351252 1738.505155 518.981921 20.129057 0.000000 0.030455
224.000000 48.104000 -4.000000 -12.000000 5.000000 99.875572 -33.092780 1676.434178 717.350693 20.794867 0.000000 0.070513
225.000000 45.812000 -3.000000 -12.000000 5.000000 91.636096 -31.108769 1624.486915 905.094076 21.838436 0.000000 0.103648
227.000000 55.081000 -7.000000 -11.000000 5.000000 126.463737 -39.336395 1857.078945 -87.346757 18.152348 0.000000 0.164594
228.000000 55.026000 -6.000000 -11.000000 5.000000 119.210674 -36.101224 1759.882500 196.197254 18.172766 0.000000 0.066666
229.000000 54.257000 -5.000000 -11.000000 5.000000 111.345960 -33.350022 1683.339080 437.455702 18.432933 0.000000 0.017913
230.000000 52.668000 -4.000000 -11.000000 5.000000 102.936619 -30.991992 1621.498132 652.599355 18.991708 0.000000 0.070866
231.000000 50.200000 -3.000000 -11.000000 5.000000 94.072216 -28.954987 1570.494760 853.428438 19.928932 0.000000 0.107872
232.000000 46.855000 -2.000000 -11.000000 5.000000 84.865483 -27.181866 1527.709573 1049.716895 21.355696 0.000000 0.125473
235.000000 60.009000 -6.000000 -10.000000 5.000000 123.765492 -33.730338 1693.622718 75.769390 16.662450 0.000000 0.071041
236.000000 57.941000 -4.000000 -10.000000 5.000000 106.361836 -28.393541 1556.793354 581.796859 17.262582 0.000000 0.074451
237.000000 55.305000 -3.000000 -10.000000 5.000000 96.786958 -26.337336 1507.810706 798.071852 18.088678 0.000000 0.114746
238.000000 51.547000 -2.000000 -10.000000 5.000000 86.797945 -24.579532 1467.300990 1007.212799 19.411084 0.000000 0.132564
239.000000 46.761000 -1.000000 -10.000000 5.000000 76.556980 -23.062262 1433.240761 1220.610129 21.402272 0.000000 0.128393
241.000000 65.586000 -6.000000 -9.000000 5.000000 128.840984 -30.562862 1610.577379 -65.456263 15.244514 0.000000 0.078077
242.000000 65.416000 -5.000000 -9.000000 5.000000 119.899053 -27.551679 1536.517775 242.965727 15.286481 0.000000 0.018959
243.000000 64.033000 -4.000000 -9.000000 5.000000 110.180214 -25.112522 1479.459958 504.127878 15.619297 0.000000 0.080210
244.000000 61.259000 -3.000000 -9.000000 5.000000 99.797350 -23.103320 1434.152130 738.937286 16.329819 0.000000 0.123552
245.000000 57.034000 -2.000000 -9.000000 5.000000 88.908708 -21.423461 1397.303585 963.023980 17.543315 0.000000 0.141799
246.000000 51.461000 -1.000000 -9.000000 5.000000 77.714287 -20.000395 1366.747494 1190.432178 19.447332 0.000000 0.133861
248.000000 71.760000 -6.000000 -8.000000 5.000000 134.443505 -26.150287 1503.442972 -234.957003 13.932019 0.000000 0.083617
249.000000 72.136000 -5.000000 -8.000000 5.000000 124.881528 -23.178422 1435.820604 124.801916 13.861346 0.000000 0.027450
250.000000 71.047000 -4.000000 -8.000000 5.000000 114.392556 -20.872313 1385.400990 418.662366 14.076311 0.000000 0.086218
251.000000 68.198000 -3.000000 -8.000000 5.000000 103.095440 -19.036286 1346.360458 676.144406 14.667513 0.000000 0.133028
252.000000 63.451000 -2.000000 -8.000000 5.000000 91.174395 -17.542753 1315.237446 917.859839 15.768393 0.000000 0.152329
253.000000 56.913000 -1.000000 -8.000000 5.000000 78.876911 -16.305624 1289.845158 1161.479164 17.583961 0.000000 0.140752
254.000000 48.957000 0.000000 -8.000000 5.000000 66.492778 -15.264999 1268.734223 1426.268425 20.446198 0.000000 0.099051
256.000000 79.627000 -5.000000 -7.000000 5.000000 130.257965 -17.125806 1306.642066 -12.693561 12.556270 0.000000 0.030769
257.000000 79.042000 -4.000000 -7.000000 5.000000 118.931031 -15.255002 1268.532452 324.365354 12.651526 0.000000 0.089546
258.000000 76.232000 -3.000000 -7.000000 5.000000 106.616506 -13.828773 1239.936404 610.217140 13.120934 0.000000 0.141164
259.000000 70.921000 -2.000000 -7.000000 5.000000 93.523120 -12.706760 1217.686827 873.071416 14.107098 0.000000 0.162741
260.000000 63.196000 -1.000000 -7.000000 5.000000 79.957561 -11.801653 1199.881994 1135.717871 15.835636 0.000000 0.148014
261.000000 53.570000 0.000000 -7.000000 5.000000 66.294593 -11.056444 1185.310982 1422.518914 18.685880 0.000000 0.094145
263.000000 87.760000 -5.000000 -6.000000 5.000000 135.757382 -8.450785 1134.908230 -176.262546 11.391817 0.000000 0.021455
264.000000 87.965000 -4.000000 -6.000000 5.000000 123.576365 -7.642053 1119.412416 220.149132 11.367368 0.000000 0.085549
265.000000 85.378000 -3.000000 -6.000000 5.000000 110.177382 -7.057253 1108.244157 542.463775 11.714693 0.000000 0.144643
266.000000 79.483000 -2.000000 -6.000000 5.000000 95.788975 -6.614773 1099.812724 831.152000 12.586911 0.000000 0.170727
267.000000 70.304000 -1.000000 -6.000000 5.000000 80.792217 -6.268333 1093.221921 1116.521035 14.234609 0.000000 0.153920
268.000000 58.546000 0.000000 -6.000000 5.000000 65.678509 -5.989745 1087.928333 1430.121909 17.098070 0.000000 0.087124
270.000000 97.526000 -4.000000 -5.000000 5.000000 127.803848 2.789745 922.553535 105.034071 10.252324 0.000000 0.066407
271.000000 95.422000 -3.000000 -5.000000 5.000000 113.367612 1.805516 941.072363 475.737052 10.480909 0.000000 0.137645
272.000000 88.966000 -2.000000 -5.000000 5.000000 97.635607 1.089821 954.525378 796.684744 11.244951 0.000000 0.172413
273.000000 78.022000 -1.000000 -5.000000 5.000000 81.088593 0.546109 964.741107 1109.770402 12.826429 0.000000 0.155771
274.000000 47.464000 1.000000 -5.000000 5.000000 48.207067 -0.225083 979.228173 1903.086706 21.095164 0.000000 0.075145
276.000000 107.011000 -4.000000 -4.000000 5.000000 130.568548 16.769993 650.662560 -21.401640 9.343130 0.000000 0.031011
277.000000 105.690000 -3.000000 -4.000000 5.000000 115.398096 13.235642 721.850982 416.036968 9.462314 0.000000 0.109171
278.000000 98.730000 -2.000000 -4.000000 5.000000 98.451882 10.732307 771.003476 778.223412 10.132607 0.000000 0.161174
279.000000 85.698000 -1.000000 -4.000000 5.000000 80.361016 8.872795 806.980342 1126.008862 11.677585 0.000000 0.149679
280.000000 67.935000 0.000000 -4.000000 5.000000 62.016044 7.439815 834.453168 1517.744644 14.735771 0.000000 0.065384
281.000000 48.215000 1.000000 -4.000000 5.000000 44.357719 6.303026 856.118475 2048.393225 20.767063 0.000000 0.133337
282.000000 115.079000 -4.000000 -3.000000 5.000000 130.262866 33.937316 250.742301 -157.736339 8.687993 0.000000 0.134339
283.000000 114.724000 -3.000000 -3.000000 5.000000 115.021656 27.202977 421.789180 376.143042 8.717030 0.000000 0.037032
284.000000 107.302000 -2.000000 -3.000000 5.000000 97.282576 22.377990 531.867130 792.254509 9.323129 0.000000 0.126847
285.000000 91.906000 -1.000000 -3.000000 5.000000 77.892758 18.797908 608.643387 1184.888566 10.889096 0.000000 0.132669
286.000000 70.340000 0.000000 -3.000000 5.000000 58.064590 16.055723 665.244441 1639.087609 14.232458 0.000000 0.079272
287.000000 46.643000 1.000000 -3.000000 5.000000 39.072146 13.897236 708.699201 2306.671907 21.467191 0.000000 0.227052
288.000000 120.114000 -3.000000 -2.000000 5.000000 110.836572 42.577916 -13.937963 384.705103 8.326178 0.000000 0.132226
289.000000 112.098000 -2.000000 -2.000000 5.000000 92.978755 35.498764 207.321784 872.207349 8.924624 0.000000 0.086024
290.000000 94.219000 -1.000000 -2.000000 5.000000 72.839777 30.073232 351.765649 1325.048571 10.622284 0.000000 0.125969
291.000000 68.842000 0.000000 -2.000000 5.000000 51.986412 25.852596 453.479582 1875.866922 14.542660 0.000000 0.161668
293.000000 109.904000 -2.000000 -1.000000 5.000000 84.760228 48.889814 -258.336595 1091.117745 9.103606 0.000000 0.257916
294.000000 89.752000 -1.000000 -1.000000 5.000000 64.617417 41.998781 5.941736 1628.149284 11.151644 0.000000 0.241381
298.000000 46.577000 -8.000000 -13.000000 6.000000 124.886923 -37.873216 1812.064496 -9.716444 21.467090 0.000000 0.130665
299.000000 46.457000 -7.000000 -13.000000 6.000000 118.652855 -35.253677 1735.753163 220.818638 21.525054 0.000000 0.052830
300.000000 45.899000 -6.000000 -13.000000 6.000000 111.988600 -32.970311 1673.161030 422.970748 21.789069 0.000000 0.016213
301.000000 49.986000 -7.000000 -12.000000 6.000000 122.417872 -33.207763 1679.515525 124.080894 20.004188 0.000000 0.055747
302.000000 48.559000 -5.000000 -12.000000 6.000000 107.907511 -28.770275 1565.970850 544.232196 20.597149 0.000000 0.065582
305.000000 53.872000 -7.000000 -11.000000 6.000000 126.539851 -30.616108 1611.927152 14.232629 18.559918 0.000000 0.061265
306.000000 53.643000 -6.000000 -11.000000 6.000000 119.114001 -28.161829 1551.181074 261.111199 18.641344 0.000000 0.017454
307.000000 52.735000 -5.000000 -11.000000 6.000000 111.163774 -26.092206 1502.089581 477.031409 18.965289 0.000000 0.069794
308.000000 51.062000 -4.000000 -11.000000 6.000000 102.751418 -24.327708 1461.592230 673.695990 19.589624 0.000000 0.110377
309.000000 48.584000 -3.000000 -11.000000 6.000000 93.959863 -22.808207 1427.613878 860.175974 20.592223 0.000000 0.134244
311.000000 58.124000 -7.000000 -10.000000 6.000000 131.025850 -27.243178 1529.165852 -112.302292 17.201246 0.000000 0.067109
312.000000 57.425000 -5.000000 -10.000000 6.000000 114.707144 -22.774246 1426.863282 403.925547 17.415246 0.000000 0.074527
313.000000 53.083000 -3.000000 -10.000000 6.000000 96.245089 -19.678615 1359.915981 815.914503 18.846424 0.000000 0.142872
315.000000 62.724000 -7.000000 -9.000000 6.000000 135.846378 -22.711449 1425.476366 -260.754540 15.938648 0.000000 0.069641
316.000000 62.663000 -5.000000 -9.000000 6.000000 118.512759 -18.588626 1336.975191 324.128385 15.958646 0.000000 0.078133
317.000000 61.050000 -4.000000 -9.000000 6.000000 108.855882 -17.112893 1306.376481 556.400306 16.383025 0.000000 0.123961
318.000000 54.082000 -2.000000 -9.000000 6.000000 88.073561 -14.873088 1260.838497 978.456481 18.501476 0.000000 0.157135
319.000000 48.824000 -1.000000 -9.000000 6.000000 77.265516 -14.004387 1243.437835 1191.685226 20.497937 0.000000 0.138781
321.000000 68.445000 -5.000000 -8.000000 6.000000 122.498589 -13.211782 1227.676061 236.721270 14.609427 0.000000 0.078300
322.000000 63.965000 -3.000000 -8.000000 6.000000 101.143592 -11.273453 1189.546276 724.817779 15.638780 0.000000 0.158860
323.000000 53.241000 -1.000000 -8.000000 6.000000 77.915078 -9.973238 1164.261403 1174.976944 18.797570 0.000000 0.143549
325.000000 74.298000 -6.000000 -7.000000 6.000000 136.646705 -6.657719 1100.630387 -206.749198 13.455745 0.000000 0.017829
326.000000 74.705000 -5.000000 -7.000000 6.000000 126.474863 -6.199696 1091.917192 140.633721 13.384443 0.000000 0.071582
327.000000 73.507000 -4.000000 -7.000000 6.000000 115.406862 -5.855313 1085.375856 427.098755 13.605224 0.000000 0.127179
328.000000 70.379000 -3.000000 -7.000000 6.000000 103.552417 -5.586963 1080.284328 680.324664 14.213091 0.000000 0.162978
329.000000 65.185000 -2.000000 -7.000000 6.000000 91.102401 -5.371978 1076.208695 920.197612 15.349259 0.000000 0.171237
330.000000 58.074000 -1.000000 -7.000000 6.000000 78.321148 -5.195884 1072.872492 1164.393512 17.233143 0.000000 0.146905
331.000000 49.494000 0.000000 -7.000000 6.000000 65.518476 -5.049005 1070.091225 1432.985486 20.225186 0.000000 0.085636
333.000000 81.259000 -5.000000 -6.000000 6.000000 130.062934 2.990798 918.767133 34.630873 12.304271 0.000000 0.053023
334.000000 63.179000 -1.000000 -6.000000 6.000000 78.296109 0.467950 966.209428 1163.973500 15.840743 0.000000 0.147225
336.000000 87.745000 -5.000000 -5.000000 6.000000 132.598146 14.815902 690.311197 -82.673695 11.394297 0.000000 0.030652
337.000000 87.540000 -4.000000 -5.000000 6.000000 120.423806 12.035873 745.522175 294.733919 11.423176 0.000000 0.089552
338.000000 84.422000 -3.000000 -5.000000 6.000000 106.985427 9.977546 785.655153 607.194567 11.847937 0.000000 0.146975
339.000000 77.939000 -2.000000 -5.000000 6.000000 92.557965 8.395936 816.144700 892.396078 12.837067 0.000000 0.167489
340.000000 68.219000 -1.000000 -5.000000 6.000000 77.559758 7.144379 840.093800 1180.289123 14.670469 0.000000 0.142444
341.000000 56.083000 0.000000 -5.000000 6.000000 62.505287 6.130220 859.403122 1504.378655 17.849798 0.000000 0.066712
342.000000 93.557000 -5.000000 -4.000000 6.000000 133.115519 29.137660 375.015360 -212.726673 10.686210 0.000000 0.107314
343.000000 91.053000 -3.000000 -4.000000 6.000000 106.974905 20.139198 580.297075 591.063730 10.985001 0.000000 0.113329
344.000000 72.555000 -1.000000 -4.000000 6.000000 75.726161 14.897515 688.670211 1224.344665 13.793966 0.000000 0.131113
346.000000 98.973000 -4.000000 -3.000000 6.000000 118.824812 37.280106 155.673918 196.602714 10.103438 0.000000 0.090345
347.000000 88.162000 -2.000000 -3.000000 6.000000 89.128399 27.171033 422.547548 959.405250 11.348759 0.000000 0.118338
348.000000 75.154000 -1.000000 -3.000000 6.000000 72.333545 23.658420 503.471136 1315.249259 13.317401 0.000000 0.119530
350.000000 98.096000 -3.000000 -2.000000 6.000000 99.953002 43.598752 -49.896474 680.197769 10.196942 0.000000 0.130663
351.000000 74.665000 -1.000000 -2.000000 6.000000 66.960925 33.159551 271.777472 1487.766980 13.405110 0.000000 0.148716
353.000000 85.880000 -2.000000 -1.000000 6.000000 76.557870 48.533259 -242.953240 1329.480356 11.651855 0.000000 0.284204
354.000000 69.871000 -1.000000 -1.000000 6.000000 59.439853 42.936502 -26.432913 1809.051799 14.325744 0.000000 0.289398
359.000000 45.541000 -9.000000 -13.000000 7.000000 130.851493 -33.060729 1675.576686 -169.523298 21.953940 0.000000 0.118833
360.000000 45.681000 -8.000000 -13.000000 7.000000 124.909423 -30.651333 1612.820887 67.921980 21.888606 0.000000 0.049660
361.000000 45.457000 -7.000000 -13.000000 7.000000 118.561419 -28.580313 1561.335037 273.828576 21.998607 0.000000 0.016420
363.000000 48.437000 -9.000000 -12.000000 7.000000 134.846840 -30.400105 1606.460753 -300.205320 20.640234 0.000000 0.123365
364.000000 48.778000 -8.000000 -12.000000 7.000000 128.641065 -27.922191 1545.402309 -32.826849 20.497529 0.000000 0.055051
365.000000 48.713000 -7.000000 -12.000000 7.000000 121.978430 -25.839437 1496.215241 194.371262 20.527022 0.000000 0.022868
366.000000 48.168000 -6.000000 -12.000000 7.000000 114.887118 -24.068695 1455.744132 394.150253 20.762016 0.000000 0.065966
367.000000 47.079000 -5.000000 -12.000000 7.000000 107.406728 -22.547473 1421.860833 575.643973 21.244997 0.000000 0.105045
370.000000 52.110000 -8.000000 -11.000000 7.000000 132.626801 -24.451504 1464.395787 -147.234521 19.185932 0.000000 0.059294
371.000000 52.257000 -7.000000 -11.000000 7.000000 125.628972 -22.433899 1419.361648 106.468500 19.133972 0.000000 0.028375
372.000000 51.855000 -6.000000 -11.000000 7.000000 118.145164 -20.758668 1382.957635 325.248000 19.284682 0.000000 0.069386
373.000000 50.816000 -5.000000 -11.000000 7.000000 110.215043 -19.347738 1352.919910 520.958194 19.681731 0.000000 0.110285
374.000000 49.078000 -4.000000 -11.000000 7.000000 101.895807 -18.144505 1327.712762 702.407243 20.382297 0.000000 0.138945
375.000000 46.615000 -3.000000 -11.000000 7.000000 93.263492 -17.107115 1306.257656 876.788370 21.462743 0.000000 0.152948
377.000000 55.657000 -8.000000 -10.000000 7.000000 136.822276 -19.929175 1365.233070 -279.096190 17.962389 0.000000 0.059445
378.000000 56.081000 -7.000000 -10.000000 7.000000 129.472898 -18.124122 1327.288809 8.352754 17.828478 0.000000 0.030846
379.000000 55.882000 -6.000000 -10.000000 7.000000 121.574311 -16.668598 1297.260879 250.509874 17.894107 0.000000 0.071026
380.000000 54.938000 -5.000000 -10.000000 7.000000 113.163344 -15.471478 1272.905915 463.200690 18.204162 0.000000 0.114229
381.000000 53.155000 -4.000000 -10.000000 7.000000 104.299736 -14.470378 1252.755039 657.673317 18.818078 0.000000 0.145201
382.000000 50.487000 -3.000000 -10.000000 7.000000 95.068517 -13.621281 1235.806189 842.776714 19.816263 0.000000 0.160382
383.000000 46.956000 -2.000000 -10.000000 7.000000 85.578722 -12.892313 1221.352327 1026.370509 21.310239 0.000000 0.157759
385.000000 59.375000 -8.000000 -9.000000 7.000000 141.119932 -13.884136 1241.039671 -433.989129 16.836746 0.000000 0.050547
386.000000 60.152000 -7.000000 -9.000000 7.000000 133.416333 -12.569518 1214.979130 -102.389512 16.620997 0.000000 0.027689
387.000000 60.230000 -6.000000 -9.000000 7.000000 125.093489 -11.546519 1194.884725 169.129716 16.601407 0.000000 0.069059
388.000000 59.442000 -5.000000 -9.000000 7.000000 116.181098 -10.728277 1178.918111 402.424793 16.824131 0.000000 0.115432
389.000000 57.647000 -4.000000 -9.000000 7.000000 106.739118 -10.059163 1165.925861 612.241404 17.351037 0.000000 0.149595
390.000000 54.767000 -3.000000 -9.000000 7.000000 96.861643 -9.501956 1155.147667 809.683429 18.267015 0.000000 0.166695
391.000000 50.815000 -2.000000 -9.000000 7.000000 86.675941 -9.030831 1146.062007 1004.296823 19.691780 0.000000 0.163890
392.000000 45.910000 -1.000000 -9.000000 7.000000 76.335562 -8.627322 1138.299231 1205.659282 21.799775 0.000000 0.138934
394.000000 64.400000 -7.000000 -8.000000 7.000000 137.270730 -5.304869 1074.937048 -229.186128 15.523721 0.000000 0.014765
395.000000 64.843000 -6.000000 -8.000000 7.000000 128.545010 -5.067146 1070.434662 80.131147 15.419680 0.000000 0.060911
396.000000 64.285000 -5.000000 -8.000000 7.000000 119.135403 -4.882807 1066.945644 338.885785 15.555765 0.000000 0.111757
397.000000 62.526000 -4.000000 -8.000000 7.000000 109.099860 -4.735689 1064.162478 567.025943 15.996511 0.000000 0.150471
398.000000 59.435000 -3.000000 -8.000000 7.000000 98.541895 -4.615553 1061.890642 778.816126 16.831853 0.000000 0.170628
399.000000 55.006000 -2.000000 -8.000000 7.000000 87.610570 -4.515601 1060.001078 986.051043 18.190987 0.000000 0.168400
400.000000 49.384000 -1.000000 -8.000000 7.000000 76.491917 -4.431140 1058.404788 1200.331158 20.266422 0.000000 0.140656
402.000000 69.603000 -6.000000 -7.000000 7.000000 131.649629 3.142524 915.908800 -17.688841 14.364472 0.000000 0.043637
403.000000 69.365000 -5.000000 -7.000000 7.000000 121.796938 2.326109 931.280303 273.198626 14.416058 0.000000 0.099895
404.000000 67.700000 -4.000000 -7.000000 7.000000 111.190743 1.689728 943.249455 523.551475 14.773240 0.000000 0.145302
405.000000 64.408000 -3.000000 -7.000000 7.000000 99.946508 1.179861 952.833318 752.216164 15.531764 0.000000 0.170329
406.000000 59.446000 -2.000000 -7.000000 7.000000 88.240603 0.762253 960.680316 974.063381 16.832031 0.000000 0.169908
407.000000 52.986000 -1.000000 -7.000000 7.000000 76.300551 0.413976 967.223372 1203.368151 18.888581 0.000000 0.140029
409.000000 74.308000 -6.000000 -6.000000 7.000000 133.958834 13.384105 718.906044 -125.847312 13.454374 0.000000 0.030079
410.000000 74.479000 -5.000000 -6.000000 7.000000 123.802877 11.116764 763.512401 206.625930 13.425636 0.000000 0.074675
411.000000 72.978000 -4.000000 -6.000000 7.000000 112.714305 9.379302 797.220073 484.355752 13.704376 0.000000 0.130099
412.000000 69.501000 -3.000000 -6.000000 7.000000 100.828597 8.007735 823.588536 733.101930 14.393223 0.000000 0.163034
413.000000 63.952000 -2.000000 -6.000000 7.000000 88.358551 6.898670 844.779424 972.067785 15.646192 0.000000 0.166504
414.000000 56.528000 -1.000000 -6.000000 7.000000 75.585528 5.983969 862.181366 1219.150806 17.705456 0.000000 0.135861
415.000000 47.727000 0.000000 -6.000000 7.000000 62.829310 5.217020 876.727170 1495.742360 20.974952 0.000000 0.067911
417.000000 78.647000 -6.000000 -5.000000 7.000000 134.850335 25.608875 459.121181 -246.321912 12.711809 0.000000 0.091015
418.000000 79.296000 -5.000000 -5.000000 7.000000 124.642911 21.514663 550.718193 141.626674 12.609784 0.000000 0.031185
419.000000 78.018000 -4.000000 -5.000000 7.000000 113.250650 18.381932 617.341478 453.709266 12.818852 0.000000 0.098401
420.000000 74.374000 -3.000000 -5.000000 7.000000 100.842697 15.921182 667.979274 726.631331 13.450105 0.000000 0.144727
421.000000 68.185000 -2.000000 -5.000000 7.000000 87.681033 13.943909 707.768597 985.908682 14.674675 0.000000 0.155786
422.000000 59.679000 -1.000000 -5.000000 7.000000 74.116304 12.323961 739.858353 1254.483169 16.770632 0.000000 0.127415
423.000000 49.505000 0.000000 -5.000000 7.000000 60.549862 10.974519 766.286279 1560.022871 20.221988 0.000000 0.065337
425.000000 83.326000 -5.000000 -4.000000 7.000000 123.720772 33.152677 271.961688 82.962513 11.999838 0.000000 0.073743
426.000000 82.290000 -4.000000 -4.000000 7.000000 112.287499 28.513085 390.301584 438.960546 12.153312 0.000000 0.040602
427.000000 78.480000 -3.000000 -4.000000 7.000000 99.560182 24.828947 477.022197 741.265356 12.746468 0.000000 0.110925
428.000000 71.611000 -2.000000 -4.000000 7.000000 85.859218 21.855526 543.302609 1024.953942 13.972890 0.000000 0.136221
429.000000 61.938000 -1.000000 -4.000000 7.000000 71.618486 19.417490 595.607623 1320.219343 16.159348 0.000000 0.117323
430.000000 50.297000 0.000000 -4.000000 7.000000 57.337690 17.389045 637.935808 1664.012761 19.904142 0.000000 0.086194
432.000000 85.082000 -4.000000 -3.000000 7.000000 109.332393 39.277953 94.754735 453.202543 11.754862 0.000000 0.075133
433.000000 81.063000 -3.000000 -3.000000 7.000000 96.543213 34.433191 237.129767 791.324088 12.340689 0.000000 0.075012
434.000000 73.484000 -2.000000 -3.000000 7.000000 82.531438 30.452715 342.210066 1104.675486 13.617149 0.000000 0.116948
435.000000 62.633000 -1.000000 -3.000000 7.000000 67.815561 27.153969 422.952498 1434.251097 15.980652 0.000000 0.122076
436.000000 49.555000 0.000000 -3.000000 7.000000 53.000985 24.392774 486.934918 1831.507369 20.202766 0.000000 0.144753
437.000000 85.595000 -4.000000 -2.000000 7.000000 104.093727 49.959001 -305.815151 520.968592 11.685093 0.000000 0.272885
438.000000 81.257000 -3.000000 -2.000000 7.000000 91.484502 44.244360 -73.272983 902.064240 12.311799 0.000000 0.153430
439.000000 72.960000 -2.000000 -2.000000 7.000000 77.429766 39.406329 90.722791 1251.605148 13.715548 0.000000 0.152905
440.000000 61.038000 -1.000000 -2.000000 7.000000 62.511015 35.312552 212.587114 1627.290257 16.398800 0.000000 0.180921
441.000000 46.748000 0.000000 -2.000000 7.000000 47.425817 31.836965 306.707573 2104.916998 21.416257 0.000000 0.250196
443.000000 69.370000 -2.000000 -1.000000 7.000000 70.513711 48.295535 -232.816681 1513.452304 14.426440 0.000000 0.312256
446.000000 47.181000 -9.000000 -12.000000 8.000000 133.835733 -22.081717 1411.637773 -174.221413 21.189951 0.000000 0.053290
447.000000 47.163000 -7.000000 -12.000000 8.000000 120.830293 -19.007397 1345.753264 261.584227 21.202252 0.000000 0.064746
450.000000 49.992000 -9.000000 -11.000000 8.000000 137.527396 -17.641873 1317.286584 -292.719747 19.997795 0.000000 0.051608
451.000000 50.383000 -8.000000 -11.000000 8.000000 130.947540 -16.209185 1287.879503 -31.539053 19.844083 0.000000 0.030500
452.000000 50.339000 -7.000000 -11.000000 8.000000 123.927513 -15.035217 1264.101335 191.346609 19.863704 0.000000 0.064855
453.000000 49.777000 -6.000000 -11.000000 8.000000 116.489501 -14.056458 1244.477072 388.069221 20.090696 0.000000 0.104938
454.000000 48.627000 -5.000000 -11.000000 8.000000 108.670302 -13.228411 1228.005659 567.402983 20.568637 0.000000 0.136874
455.000000 46.846000 -4.000000 -11.000000 8.000000 100.523169 -12.519031 1213.983785 736.201151 21.354230 0.000000 0.157233
456.000000 52.907000 -9.000000 -10.000000 8.000000 141.249134 -11.900565 1201.821870 -429.448473 18.894890 0.000000 0.041790
457.000000 53.714000 -7.000000 -10.000000 8.000000 127.058834 -10.165396 1167.984910 115.257799 18.614827 0.000000 0.061441
458.000000 52.181000 -5.000000 -10.000000 8.000000 110.998198 -9.018133 1145.817463 522.717688 19.167125 0.000000 0.138879
459.000000 47.690000 -3.000000 -10.000000 8.000000 93.439113 -8.203872 1130.170615 875.650238 20.979028 0.000000 0.169471
462.000000 56.821000 -8.000000 -9.000000 8.000000 137.731291 -4.248929 1054.962247 -246.393922 17.594281 0.000000 0.012207
463.000000 57.244000 -7.000000 -9.000000 8.000000 130.094792 -4.154928 1053.186926 32.455392 17.466081 0.000000 0.052588
464.000000 57.005000 -6.000000 -9.000000 8.000000 121.920469 -4.080197 1051.775839 268.828554 17.541557 0.000000 0.098692
465.000000 55.974000 -5.000000 -9.000000 8.000000 113.241284 -4.019362 1050.627323 477.641748 17.867347 0.000000 0.137372
466.000000 54.054000 -4.000000 -9.000000 8.000000 104.117256 -3.968876 1049.674328 669.658194 18.505501 0.000000 0.163170
467.000000 51.200000 -3.000000 -9.000000 8.000000 94.636852 -3.926306 1048.870844 853.501270 19.540426 0.000000 0.172930
468.000000 47.448000 -2.000000 -9.000000 8.000000 84.914636 -3.889925 1048.184244 1037.000745 21.089952 0.000000 0.164331
470.000000 60.853000 -7.000000 -8.000000 8.000000 132.824803 3.261091 913.674574 -58.143172 16.429618 0.000000 0.036829
471.000000 59.944000 -5.000000 -8.000000 8.000000 115.250387 1.911205 939.084927 433.095236 16.683623 0.000000 0.130306
472.000000 54.896000 -3.000000 -8.000000 8.000000 95.599607 1.013869 955.952599 835.459346 18.224447 0.000000 0.173374
473.000000 45.579000 -1.000000 -8.000000 8.000000 74.804213 0.374467 967.965592 1233.343954 21.958849 0.000000 0.134021
476.000000 64.419000 -7.000000 -7.000000 8.000000 134.932155 12.291144 740.504152 -157.937685 15.519640 0.000000 0.029427
477.000000 64.714000 -6.000000 -7.000000 8.000000 126.225087 10.390492 777.647650 139.402679 15.450972 0.000000 0.063431
478.000000 63.970000 -5.000000 -7.000000 8.000000 116.806063 8.893561 806.580735 390.563915 15.633094 0.000000 0.114582
479.000000 61.992000 -4.000000 -7.000000 8.000000 106.748500 7.685598 829.754789 614.166933 16.134856 0.000000 0.151883
480.000000 58.667000 -3.000000 -7.000000 8.000000 96.169317 6.691117 848.733647 823.862303 17.052850 0.000000 0.169157
481.000000 54.011000 -2.000000 -7.000000 8.000000 85.228947 5.858590 864.561938 1031.303050 18.526943 0.000000 0.162920
482.000000 48.194000 -1.000000 -7.000000 8.000000 74.121943 5.151713 877.964046 1248.386613 20.767579 0.000000 0.130213
483.000000 67.766000 -7.000000 -6.000000 8.000000 135.993016 22.923980 519.824562 -268.811424 14.752850 0.000000 0.080024
484.000000 67.861000 -5.000000 -6.000000 8.000000 117.610443 16.968389 646.593025 352.455387 14.736450 0.000000 0.085342
485.000000 62.321000 -3.000000 -6.000000 8.000000 96.134643 13.145501 723.637293 822.206165 16.052866 0.000000 0.158070
486.000000 50.571000 -1.000000 -6.000000 8.000000 72.889414 10.505363 775.416443 1277.977508 19.791533 0.000000 0.123426
488.000000 71.642000 -6.000000 -5.000000 8.000000 126.963180 29.877879 356.656155 6.883780 13.956402 0.000000 0.066039
489.000000 71.334000 -5.000000 -5.000000 8.000000 117.303699 26.020406 449.581608 322.725478 14.018901 0.000000 0.034696
490.000000 69.387000 -4.000000 -5.000000 8.000000 106.672024 22.905084 520.242957 591.077928 14.415000 0.000000 0.100538
491.000000 65.564000 -3.000000 -5.000000 8.000000 95.235556 20.350605 575.785630 835.810359 15.259033 0.000000 0.137625
492.000000 59.833000 -2.000000 -5.000000 8.000000 83.226521 18.225917 620.592886 1075.587227 16.724323 0.000000 0.142535
493.000000 52.440000 -1.000000 -5.000000 8.000000 70.931933 16.435584 657.502891 1328.877950 19.086853 0.000000 0.115039
495.000000 74.013000 -5.000000 -4.000000 8.000000 115.522651 35.720745 201.013037 308.032837 13.511482 0.000000 0.050817
496.000000 67.985000 -3.000000 -4.000000 8.000000 93.189957 28.181287 398.348589 872.948016 14.715823 0.000000 0.108339
497.000000 53.437000 -1.000000 -4.000000 8.000000 68.065695 22.893925 520.489980 1411.477339 18.731070 0.000000 0.112750
499.000000 75.461000 -5.000000 -3.000000 8.000000 111.999129 45.556250 -122.398004 319.996443 13.252838 0.000000 0.195407
500.000000 73.477000 -4.000000 -3.000000 8.000000 101.459596 40.603618 52.386345 653.624377 13.613206 0.000000 0.087679
501.000000 69.087000 -3.000000 -3.000000 8.000000 89.749649 36.400987 181.458804 946.842884 14.481493 0.000000 0.097201
502.000000 62.198000 -2.000000 -3.000000 8.000000 77.175615 32.826222 280.678311 1232.567780 16.089314 0.000000 0.124975
503.000000 53.145000 -1.000000 -3.000000 8.000000 64.132514 29.770817 359.328256 1542.215153 18.834356 0.000000 0.137431
505.000000 68.372000 -3.000000 -2.000000 8.000000 84.777923 44.689400 -89.687914 1079.366185 14.633868 0.000000 0.180836
506.000000 51.179000 -1.000000 -2.000000 8.000000 59.050357 36.895884 167.016293 1748.044674 19.558726 0.000000 0.214413
509.000000 57.575000 -2.000000 -1.000000 8.000000 65.898861 48.125727 -225.633706 1662.313288 17.383116 0.000000 0.338459
512.000000 45.748000 -8.000000 -12.000000 9.000000 125.786452 -13.630900 1235.997490 142.652693 21.856534 0.000000 0.059497
514.000000 47.701000 -10.000000 -11.000000 9.000000 141.321595 -10.300099 1170.597736 -425.494472 20.957098 0.000000 0.035057
515.000000 48.241000 -9.000000 -11.000000 9.000000 135.156461 -9.584049 1156.733348 -156.507122 20.724321 0.000000 0.023471
516.000000 48.436000 -8.000000 -11.000000 9.000000 128.595295 -9.002672 1145.519724 71.235677 20.642612 0.000000 0.055099
517.000000 48.216000 -7.000000 -11.000000 9.000000 121.648121 -8.521334 1136.262988 270.207583 20.739225 0.000000 0.094159
518.000000 47.514000 -6.000000 -11.000000 9.000000 114.336962 -8.116312 1128.492004 449.272999 21.048389 0.000000 0.128263
519.000000 46.278000 -5.000000 -11.000000 9.000000 106.697617 -7.770823 1121.875641 615.152724 21.613695 0.000000 0.153519
522.000000 50.833000 -9.000000 -10.000000 9.000000 138.084452 -3.402353 1038.988014 -260.011827 19.666593 0.000000 0.010082
523.000000 51.220000 -8.000000 -10.000000 9.000000 131.297185 -3.404800 1039.034141 -6.125766 19.519835 0.000000 0.045964
524.000000 51.148000 -7.000000 -10.000000 9.000000 124.076418 -3.406785 1039.071572 211.650953 19.549816 0.000000 0.087731
525.000000 50.529000 -6.000000 -10.000000 9.000000 116.442029 -3.408429 1039.102556 404.789949 19.791787 0.000000 0.125075
526.000000 49.293000 -5.000000 -10.000000 9.000000 108.430793 -3.409812 1039.128626 581.685874 20.291040 0.000000 0.153319
527.000000 47.396000 -4.000000 -10.000000 9.000000 100.097742 -3.410991 1039.150865 748.986383 21.106760 0.000000 0.169742
529.000000 54.048000 -8.000000 -9.000000 9.000000 133.729989 3.356296 911.880168 -90.376528 18.497961 0.000000 0.031761
530.000000 54.157000 -7.000000 -9.000000 9.000000 126.273596 2.662539 924.948491 150.293023 18.462775 0.000000 0.075313
531.000000 52.436000 -5.000000 -9.000000 9.000000 109.970181 1.627584 944.417812 549.737290 19.074339 0.000000 0.149201
532.000000 50.445000 -4.000000 -9.000000 9.000000 101.222394 1.231449 951.863818 727.401462 19.830600 0.000000 0.168729
535.000000 56.842000 -8.000000 -8.000000 9.000000 135.661868 11.430046 757.393590 -182.738910 17.588192 0.000000 0.028769
536.000000 57.167000 -7.000000 -8.000000 9.000000 128.044157 9.802306 789.047091 86.292306 17.490233 0.000000 0.054838
537.000000 56.806000 -6.000000 -8.000000 9.000000 119.866949 8.491369 814.312500 316.078900 17.603765 0.000000 0.101217
538.000000 55.632000 -5.000000 -8.000000 9.000000 111.173078 7.413999 834.946371 520.599988 17.978099 0.000000 0.139290
539.000000 53.553000 -4.000000 -8.000000 9.000000 102.031165 6.513476 852.115323 710.124379 18.679166 0.000000 0.163336
540.000000 50.538000 -3.000000 -8.000000 9.000000 92.537258 5.749913 866.624516 893.065564 19.797166 0.000000 0.170469
541.000000 46.634000 -2.000000 -8.000000 9.000000 82.812228 5.094492 879.047580 1077.272555 21.458864 0.000000 0.158514
543.000000 59.495000 -8.000000 -7.000000 9.000000 136.791526 20.821118 565.700148 -284.851931 16.803453 0.000000 0.072053
544.000000 60.064000 -7.000000 -7.000000 9.000000 129.132075 18.039233 624.475815 20.048813 16.646313 0.000000 0.031063
545.000000 59.875000 -6.000000 -7.000000 9.000000 120.801607 15.808020 670.276704 274.138126 16.701104 0.000000 0.074578
546.000000 58.764000 -5.000000 -7.000000 9.000000 111.851939 13.983844 706.972037 496.198658 17.019601 0.000000 0.120874
547.000000 56.605000 -4.000000 -7.000000 9.000000 102.363061 12.467503 737.031679 699.391222 17.671939 0.000000 0.151650
548.000000 53.345000 -3.000000 -7.000000 9.000000 92.447321 11.188817 762.106300 894.108117 18.755546 0.000000 0.163160
549.000000 49.031000 -2.000000 -7.000000 9.000000 82.247625 10.096996 783.341007 1089.827660 20.409844 0.000000 0.153100
551.000000 62.695000 -7.000000 -6.000000 9.000000 129.239247 27.232305 421.092533 -47.611721 15.947565 0.000000 0.061614
552.000000 61.661000 -5.000000 -6.000000 9.000000 111.779322 21.299985 555.370725 479.434581 16.219597 0.000000 0.090073
553.000000 59.427000 -4.000000 -6.000000 9.000000 102.021833 19.077070 602.782015 698.478562 16.832677 0.000000 0.131245
554.000000 51.157000 -2.000000 -6.000000 9.000000 81.112588 15.609231 674.306314 1115.745696 19.561788 0.000000 0.143644
556.000000 64.867000 -7.000000 -5.000000 9.000000 128.076143 37.021122 163.331829 -115.093068 15.413503 0.000000 0.155911
557.000000 65.054000 -6.000000 -5.000000 9.000000 119.841171 32.762479 282.372813 206.773007 15.371303 0.000000 0.042144
558.000000 64.097000 -5.000000 -5.000000 9.000000 110.709590 29.222126 372.933886 474.759670 15.603229 0.000000 0.043019
559.000000 61.783000 -4.000000 -5.000000 9.000000 100.790820 26.253718 444.143571 712.269714 16.190661 0.000000 0.100304
560.000000 57.999000 -3.000000 -5.000000 9.000000 90.238547 23.741679 501.605742 936.104591 17.250731 0.000000 0.129660
561.000000 52.786000 -2.000000 -5.000000 9.000000 79.251339 21.596039 548.951018 1160.740134 18.958374 0.000000 0.131082
562.000000 46.368000 -1.000000 -5.000000 9.000000 68.061640 19.746975 588.635026 1401.590330 21.587008 0.000000 0.108314
564.000000 66.698000 -6.000000 -4.000000 9.000000 117.450536 41.807524 12.427494 190.917419 14.992648 0.000000 0.152369
565.000000 65.794000 -5.000000 -4.000000 9.000000 108.420861 37.498050 149.188564 489.169310 15.201253 0.000000 0.051283
566.000000 63.383000 -4.000000 -4.000000 9.000000 98.464333 33.824894 253.806389 748.198595 15.782398 0.000000 0.069605
567.000000 59.319000 -3.000000 -4.000000 9.000000 87.752677 30.681178 336.421353 990.112069 16.867285 0.000000 0.108986
568.000000 53.640000 -2.000000 -4.000000 9.000000 76.513112 27.975503 403.314320 1233.289433 18.656927 0.000000 0.122500
569.000000 46.609000 -1.000000 -4.000000 9.000000 65.014959 25.632155 458.583305 1497.286392 21.475689 0.000000 0.118143
570.000000 66.450000 -5.000000 -3.000000 9.000000 104.769531 45.797637 -131.686389 534.001764 15.051701 0.000000 0.175610
571.000000 63.905000 -4.000000 -3.000000 9.000000 94.893188 41.546559 21.214935 817.884065 15.653994 0.000000 0.110229
572.000000 53.421000 -2.000000 -3.000000 9.000000 72.782503 34.617069 232.040973 1346.276120 18.734195 0.000000 0.140256
573.000000 45.823000 -1.000000 -3.000000 9.000000 61.100350 31.795508 307.786101 1640.039899 21.844591 0.000000 0.159477
575.000000 63.061000 -4.000000 -2.000000 9.000000 90.031601 49.144460 -269.458073 940.092545 15.864537 0.000000 0.249609
576.000000 58.403000 -3.000000 -2.000000 9.000000 79.370560 45.014735 -101.847992 1226.738200 17.133338 0.000000 0.207346
577.000000 51.869000 -2.000000 -2.000000 9.000000 68.015770 41.352357 27.708382 1519.832145 19.295349 0.000000 0.214088
581.000000 45.985000 -10.000000 -11.000000 10.000000 138.363471 -2.708772 1025.921894 -271.058134 21.740147 0.000000 0.008331
582.000000 46.333000 -9.000000 -11.000000 10.000000 132.256524 -2.777284 1027.211852 -38.010484 21.578688 0.000000 0.040597
583.000000 46.349000 -8.000000 -11.000000 10.000000 125.792988 -2.833848 1028.276936 164.002119 21.573271 0.000000 0.078521
584.000000 45.975000 -7.000000 -11.000000 10.000000 118.985432 -2.881337 1029.171235 344.003294 21.751464 0.000000 0.113990
586.000000 48.607000 -9.000000 -10.000000 10.000000 134.448553 3.434426 910.407347 -116.672999 20.568489 0.000000 0.027915
587.000000 48.487000 -7.000000 -10.000000 10.000000 120.768802 2.255457 932.609623 299.697062 20.623865 0.000000 0.105144
590.000000 50.854000 -9.000000 -9.000000 10.000000 136.228745 10.734395 770.962834 -202.486716 19.658955 0.000000 0.028139
591.000000 51.172000 -8.000000 -9.000000 10.000000 129.459343 9.316338 798.434897 43.211223 19.538597 0.000000 0.048177
592.000000 51.016000 -7.000000 -9.000000 10.000000 122.239512 8.152908 820.806515 255.253545 19.600947 0.000000 0.089931
593.000000 50.299000 -6.000000 -9.000000 10.000000 114.595742 7.181920 839.377449 444.434800 19.883025 0.000000 0.127110
594.000000 48.953000 -5.000000 -9.000000 10.000000 106.570580 6.359718 855.040409 618.761374 20.432576 0.000000 0.154306
595.000000 46.940000 -4.000000 -9.000000 10.000000 98.224229 5.654810 868.428828 784.678273 21.312257 0.000000 0.168973
596.000000 53.006000 -9.000000 -8.000000 10.000000 137.375418 19.133751 601.589518 -296.836897 18.860386 0.000000 0.065973
597.000000 53.487000 -7.000000 -8.000000 10.000000 123.232191 14.839140 689.844085 211.498964 18.694826 0.000000 0.065844
598.000000 51.489000 -5.000000 -8.000000 10.000000 107.115021 11.884739 748.488606 602.319759 19.425877 0.000000 0.142175
599.000000 46.467000 -3.000000 -8.000000 10.000000 89.498146 9.738357 790.283973 950.565337 21.533048 0.000000 0.164199
602.000000 55.667000 -8.000000 -7.000000 10.000000 130.910306 25.059134 471.762727 -88.566160 17.960451 0.000000 0.058522
603.000000 55.800000 -7.000000 -7.000000 10.000000 123.551336 22.265525 534.335902 169.720487 17.919563 0.000000 0.031364
604.000000 55.245000 -6.000000 -7.000000 10.000000 115.602552 19.942486 584.483997 392.368827 18.102187 0.000000 0.080650
605.000000 53.887000 -5.000000 -7.000000 10.000000 107.121229 17.986381 625.573611 592.416795 18.561405 0.000000 0.122176
606.000000 51.650000 -4.000000 -7.000000 10.000000 98.187120 16.320285 659.855843 779.649104 19.368553 0.000000 0.147569
607.000000 48.520000 -3.000000 -7.000000 10.000000 88.904041 14.886440 688.892965 962.305023 20.621808 0.000000 0.154765
609.000000 57.827000 -7.000000 -6.000000 10.000000 122.990868 30.276056 346.667642 131.939436 17.291573 0.000000 0.040344
610.000000 56.003000 -5.000000 -6.000000 10.000000 106.421628 24.600943 482.212570 592.119723 17.859961 0.000000 0.091927
611.000000 50.279000 -3.000000 -6.000000 10.000000 87.724448 20.462340 573.396187 986.648805 19.900588 0.000000 0.140558
613.000000 59.413000 -7.000000 -5.000000 10.000000 121.368062 38.603030 115.712383 101.383713 16.830134 0.000000 0.126523
614.000000 59.029000 -6.000000 -5.000000 10.000000 113.477700 34.832500 226.050212 371.465878 16.942070 0.000000 0.031536
615.000000 55.187000 -4.000000 -5.000000 10.000000 95.589196 28.816605 382.895948 820.786983 18.127702 0.000000 0.100349
616.000000 51.564000 -3.000000 -5.000000 10.000000 85.829586 26.403970 440.629920 1028.619788 19.404785 0.000000 0.123374
617.000000 46.867000 -2.000000 -5.000000 10.000000 75.738665 24.300169 489.030686 1241.164562 21.353796 0.000000 0.123634
619.000000 58.659000 -5.000000 -4.000000 10.000000 102.272173 38.798801 109.674256 640.592910 17.051840 0.000000 0.067788
620.000000 52.172000 -3.000000 -4.000000 10.000000 83.105657 32.610321 286.407899 1095.493110 19.179164 0.000000 0.114118
622.000000 60.262000 -6.000000 -3.000000 10.000000 107.040259 50.162531 -315.092083 426.049749 16.596501 0.000000 0.287645
623.000000 58.795000 -5.000000 -3.000000 10.000000 98.610909 45.974006 -138.523939 706.485717 17.013091 0.000000 0.173104
624.000000 56.028000 -4.000000 -3.000000 10.000000 89.371338 42.251260 -2.680087 956.954828 17.856462 0.000000 0.133870
625.000000 51.898000 -3.000000 -3.000000 10.000000 79.478504 38.947304 105.071872 1198.028125 19.281189 0.000000 0.141970
626.000000 46.493000 -2.000000 -3.000000 10.000000 69.134931 36.013835 192.629284 1448.179882 21.526740 0.000000 0.159567
628.000000 50.577000 -3.000000 -2.000000 10.000000 74.937017 45.262920 -111.217738 1352.534766 19.785859 0.000000 0.231901
633.000000 46.004000 -10.000000 -10.000000 11.000000 136.681550 10.160846 782.103309 -218.585602 21.731279 0.000000 0.027551
634.000000 46.303000 -9.000000 -10.000000 11.000000 130.591165 8.908128 806.300378 7.532521 21.593240 0.000000 0.042943
635.000000 46.259000 -8.000000 -10.000000 11.000000 124.130783 7.864160 826.337972 204.523975 21.615948 0.000000 0.080436
636.000000 45.814000 -7.000000 -10.000000 11.000000 117.317577 6.981327 843.203725 380.912287 21.828203 0.000000 0.115965
639.000000 47.784000 -10.000000 -9.000000 11.000000 137.817921 17.752036 630.433317 -306.114979 20.921727 0.000000 0.061164
640.000000 48.219000 -9.000000 -9.000000 11.000000 131.693915 15.711516 672.233896 -54.949528 20.734486 0.000000 0.030869
641.000000 48.286000 -8.000000 -9.000000 11.000000 125.141997 14.018402 706.282505 160.132710 20.707758 0.000000 0.058765
642.000000 47.914000 -7.000000 -9.000000 11.000000 118.182604 12.593264 734.552575 350.101135 20.871347 0.000000 0.098712
643.000000 47.037000 -6.000000 -9.000000 11.000000 110.846970 11.378560 758.400094 522.927000 21.262915 0.000000 0.132001
644.000000 45.612000 -5.000000 -9.000000 11.000000 103.179336 10.331772 778.787566 684.813067 21.930771 0.000000 0.154944
647.000000 50.020000 -9.000000 -8.000000 11.000000 132.181440 23.247079 512.652489 -120.468105 19.987866 0.000000 0.056061
648.000000 50.208000 -8.000000 -8.000000 11.000000 125.608804 20.822122 565.678569 116.338955 19.914966 0.000000 0.031097
649.000000 49.916000 -7.000000 -8.000000 11.000000 118.561097 18.780624 609.005645 322.186215 20.033628 0.000000 0.072526
650.000000 49.067000 -6.000000 -8.000000 11.000000 111.074780 17.042443 645.071809 507.187178 20.383293 0.000000 0.112637
651.000000 47.599000 -5.000000 -8.000000 11.000000 103.200386 15.547248 675.561162 678.961755 21.015023 0.000000 0.141249
652.000000 45.483000 -4.000000 -8.000000 11.000000 95.004218 14.249085 701.674368 843.765172 21.996131 0.000000 0.156186
654.000000 51.628000 -9.000000 -7.000000 11.000000 131.881396 31.342597 319.506328 -188.966324 19.365012 0.000000 0.118904
655.000000 51.941000 -8.000000 -7.000000 11.000000 125.371665 28.164396 398.756880 74.298121 19.250290 0.000000 0.040757
656.000000 51.736000 -7.000000 -7.000000 11.000000 118.307449 25.471559 462.289609 298.879940 19.329055 0.000000 0.033862
657.000000 50.916000 -6.000000 -7.000000 11.000000 110.731221 23.170358 514.358644 497.890250 19.642816 0.000000 0.083905
658.000000 49.407000 -5.000000 -7.000000 11.000000 102.700743 21.187182 557.809948 680.846798 20.245870 0.000000 0.120722
659.000000 47.168000 -4.000000 -7.000000 11.000000 94.291654 19.464268 594.619436 855.334882 21.210635 0.000000 0.141621
662.000000 53.389000 -8.000000 -6.000000 11.000000 124.282585 35.848530 197.365406 35.809012 18.728388 0.000000 0.109915
663.000000 53.266000 -7.000000 -6.000000 11.000000 117.279327 32.529055 288.557368 282.699939 18.773919 0.000000 0.023555
664.000000 52.474000 -6.000000 -6.000000 11.000000 109.683351 29.666435 361.927946 497.903264 19.059784 0.000000 0.044723
665.000000 50.921000 -5.000000 -6.000000 11.000000 101.559183 27.184147 422.236279 693.532930 19.644145 0.000000 0.092871
666.000000 48.553000 -4.000000 -6.000000 11.000000 92.992003 25.018811 472.685470 878.919352 20.605573 0.000000 0.122092
668.000000 54.443000 -8.000000 -5.000000 11.000000 122.231520 43.612872 -50.402377 3.720971 18.366244 0.000000 0.219443
669.000000 54.387000 -7.000000 -5.000000 11.000000 115.359392 39.758351 79.590095 277.418197 18.387282 0.000000 0.106277
670.000000 53.611000 -6.000000 -5.000000 11.000000 107.814203 36.386565 181.876909 511.384498 18.655849 0.000000 0.040572
671.000000 52.005000 -5.000000 -5.000000 11.000000 99.664644 33.431606 264.462535 721.370067 19.234822 0.000000 0.066404
672.000000 49.504000 -4.000000 -5.000000 11.000000 91.004011 30.833805 332.538863 919.032967 20.210350 0.000000 0.102219
673.000000 46.106000 -3.000000 -5.000000 11.000000 81.950538 28.541061 389.620794 1114.267200 21.703708 0.000000 0.120327
675.000000 54.974000 -7.000000 -4.000000 11.000000 112.477770 46.934471 -176.541011 288.826433 18.191594 0.000000 0.228591
676.000000 54.191000 -6.000000 -4.000000 11.000000 105.043255 43.153060 -34.049552 544.493276 18.456822 0.000000 0.126351
677.000000 52.517000 -5.000000 -4.000000 11.000000 96.934143 39.791070 78.549589 770.646556 19.048104 0.000000 0.088129
678.000000 49.873000 -4.000000 -4.000000 11.000000 88.248645 36.802021 169.769790 982.100068 20.061128 0.000000 0.102821
679.000000 46.257000 -3.000000 -4.000000 11.000000 79.114863 34.140939 245.171894 1191.069101 21.633085 0.000000 0.123404
681.000000 54.085000 -6.000000 -3.000000 11.000000 101.344310 49.780873 -297.760201 606.593431 18.493730 0.000000 0.262350
682.000000 52.319000 -5.000000 -3.000000 11.000000 93.330601 46.108506 -143.767611 850.655329 19.120864 0.000000 0.180487
683.000000 49.525000 -4.000000 -3.000000 11.000000 84.685673 42.797730 -21.580239 1077.443379 20.202884 0.000000 0.156365
684.000000 45.700000 -3.000000 -3.000000 11.000000 75.543813 39.816724 77.733056 1302.244554 21.897826 0.000000 0.163659
686.000000 51.308000 -5.000000 -2.000000 11.000000 88.875400 52.235807 -414.342232 975.499890 19.498593 0.000000 0.333727
687.000000 48.356000 -4.000000 -2.000000 11.000000 80.327156 48.691733 -249.763633 1218.907246 20.692271 0.000000 0.270324
690.000000 45.458000 -8.000000 -9.000000 12.000000 120.912799 17.775731 629.942528 264.213982 21.997690 0.000000 0.065641
692.000000 47.085000 -9.000000 -8.000000 12.000000 127.224375 26.353343 441.814850 28.492592 21.234973 0.000000 0.041570
693.000000 46.520000 -7.000000 -8.000000 12.000000 114.120908 21.921453 541.864294 421.518573 21.497737 0.000000 0.076623
696.000000 48.380000 -9.000000 -7.000000 12.000000 126.514703 33.465863 263.538197 -14.201999 20.667016 0.000000 0.098561
697.000000 48.391000 -8.000000 -7.000000 12.000000 120.220792 30.524750 340.387819 213.191726 20.664380 0.000000 0.023290
698.000000 47.930000 -7.000000 -7.000000 12.000000 113.443222 27.972527 403.385985 412.543393 20.865405 0.000000 0.038994
699.000000 46.930000 -6.000000 -7.000000 12.000000 106.224511 25.745217 455.968005 593.292918 21.312710 0.000000 0.085822
700.000000 49.061000 -7.000000 -6.000000 12.000000 112.088650 34.259099 241.927134 412.519371 20.384694 0.000000 0.022813
701.000000 46.399000 -5.000000 -6.000000 12.000000 97.171450 29.252945 372.173572 785.782498 21.560230 0.000000 0.094197
703.000000 50.225000 -8.000000 -5.000000 12.000000 116.625545 44.057323 -66.448296 190.185939 19.910407 0.000000 0.189560
704.000000 49.820000 -7.000000 -5.000000 12.000000 109.981074 40.638479 51.249689 425.292394 20.074465 0.000000 0.096959
705.000000 48.790000 -6.000000 -5.000000 12.000000 102.776018 37.594562 146.304540 632.985728 20.501160 0.000000 0.057582
706.000000 47.066000 -5.000000 -5.000000 12.000000 95.074551 34.881719 224.677115 824.492810 21.255279 0.000000 0.079390
707.000000 50.115000 -7.000000 -4.000000 12.000000 107.080046 46.954959 -177.366768 456.508152 19.956841 0.000000 0.206769
708.000000 47.242000 -5.000000 -4.000000 12.000000 92.279638 40.572527 53.399069 884.593639 21.176749 0.000000 0.108247
711.000000 46.836000 -5.000000 -3.000000 12.000000 88.771573 46.214462 -147.916544 974.353608 21.360945 0.000000 0.192589
713.000000 45.785000 -5.000000 -2.000000 12.000000 84.576738 51.702166 -387.930863 1105.874165 21.852368 0.000000 0.329112
715.000000 46.058000 -9.000000 -6.000000 13.000000 119.859578 41.489182 23.137465 116.140181 21.710847 0.000000 0.162578
716.000000 45.867000 -8.000000 -6.000000 13.000000 113.855141 38.391189 122.209133 333.769994 21.803176 0.000000 0.078421
719.000000 46.356000 -8.000000 -5.000000 13.000000 111.569564 44.401539 -79.041858 345.476848 21.573861 0.000000 0.169582
720.000000 45.708000 -7.000000 -5.000000 13.000000 105.162552 41.330973 28.421003 552.579953 21.882216 0.000000 0.097478
723.000000 45.790000 -7.000000 -4.000000 13.000000 102.280344 46.971097 -178.017644 597.660904 21.843794 0.000000 0.196113
#UB matrix in q= (UB) B0 G* 
#[[ 0.779477805  0.469221491 -0.413761378]
# [-0.03741688   0.695450052  0.718162136]
# [ 0.625311386 -0.544769338  0.560112815]]
#B0 matrix in q= UB (B0) G*
#[[ 0.19670273 -0.          0.03056101]
# [ 0.          0.19187965 -0.        ]
# [ 0.          0.          0.18806537]]
#UBB0 matrix in q= (UB B0) G* i.e. recip. basis vectors are columns in LT frame: astar = UBB0[:,0], bstar = UBB0[:,1], cstar = UBB0[:,2]. (abcstar as columns on xyzlab1, xlab1 = ui, ui = unit vector along incident beam)
#[[ 0.15332541  0.09003406 -0.05399256]
# [-0.00736     0.13344271  0.13391793]
# [ 0.12300046 -0.10453015  0.12444797]]
#Euler angles phi theta psi (deg)
#[48.976 55.98  29.996]
#deviatoric strain in direct crystal frame (10-3 unit)
#[[ 4.29  0.47 -0.66]
# [ 0.47  3.87 -0.02]
# [-0.66 -0.02 -8.16]]
#deviatoric strain in sample2 frame (10-3 unit)
#[[ 4.22 -0.54 -1.17]
# [-0.53 -2.33 -5.97]
# [-1.16 -5.96 -1.89]]
#new lattice parameters
#[ 5.1505     5.2093934  5.3148133 90.0096578 99.2746639 89.9461926]
#CCDLabel
#sCMOS
#DetectorParameters
#[79.0, 975.0, 941.0, 0.0, 0.0]
#pixelsize
#0.0734
#Frame dimensions
#[2018, 2016]
#
