#Strain and Orientation Refinement from experimental file: /home/micha/LaueProjects/DepthEffects/testZrO2_174.cor
#File created at Wed Jun 28 14:28:41 2023 with indexingSpotsSet.py
#Number of indexed spots: 534
#Element
#ZrO2
#grainIndex
#G_0
#Mean Deviation(pixel): 0.113
##spot_index intensity h k l 2theta Chi Xexp Yexp Energy GrainIndex PixDev
0.000000 45.732000 2.000000 -11.000000 -13.000000 132.593409 10.161497 782.090692 -64.242691 21.852549 0.000000 0.034776
1.000000 45.840000 3.000000 -11.000000 -13.000000 133.685897 18.826530 608.043335 -145.130460 21.800809 0.000000 0.036684
2.000000 45.611000 4.000000 -11.000000 -13.000000 133.802228 27.642634 411.306783 -224.207912 21.910120 0.000000 0.086640
3.000000 46.040000 1.000000 -10.000000 -13.000000 125.454492 3.754196 904.376781 172.927641 21.708489 0.000000 0.082967
4.000000 46.525000 2.000000 -10.000000 -13.000000 127.358163 11.510633 755.817434 102.491147 21.481790 0.000000 0.059406
5.000000 46.638000 3.000000 -10.000000 -13.000000 128.377870 19.677583 590.105870 35.751973 21.429200 0.000000 0.030847
6.000000 46.382000 4.000000 -10.000000 -13.000000 128.463526 27.943304 404.089583 -26.844325 21.547474 0.000000 0.049484
7.000000 45.774000 5.000000 -10.000000 -13.000000 127.641937 35.973279 193.793092 -84.729717 21.833449 0.000000 0.120590
8.000000 45.631000 0.000000 -9.000000 -13.000000 117.316810 -1.539402 1003.924441 384.882434 21.906366 0.000000 0.123723
9.000000 46.541000 1.000000 -9.000000 -13.000000 119.876920 5.320839 874.760367 320.004263 21.476900 0.000000 0.109796
10.000000 47.065000 2.000000 -9.000000 -13.000000 121.685350 12.711807 732.213535 259.954246 21.236864 0.000000 0.086111
11.000000 47.185000 3.000000 -9.000000 -13.000000 122.642444 20.429893 574.090419 205.280385 21.182474 0.000000 0.050904
12.000000 46.902000 4.000000 -9.000000 -13.000000 122.708074 28.208503 397.690404 156.664180 21.310048 0.000000 0.016195
13.000000 46.239000 5.000000 -9.000000 -13.000000 121.911554 35.768534 199.650277 114.961329 21.615999 0.000000 0.075376
14.000000 45.732000 0.000000 -8.000000 -13.000000 111.393315 0.129904 972.559762 519.348660 21.860215 0.000000 0.144909
15.000000 46.712000 1.000000 -8.000000 -13.000000 113.838995 6.736309 847.872964 462.116419 21.400672 0.000000 0.132551
16.000000 47.276000 2.000000 -8.000000 -13.000000 115.557807 13.787193 710.891852 411.030679 21.144309 0.000000 0.110561
17.000000 47.404000 3.000000 -8.000000 -13.000000 116.461593 21.099482 559.703772 366.782614 21.086783 0.000000 0.076870
18.000000 47.097000 4.000000 -8.000000 -13.000000 116.518118 28.444148 391.977631 330.222516 21.223878 0.000000 0.028971
19.000000 46.381000 5.000000 -8.000000 -13.000000 115.758155 35.586136 204.842844 302.405537 21.551492 0.000000 0.037036
20.000000 46.468000 1.000000 -7.000000 -13.000000 107.331870 8.019978 823.353988 601.797217 21.515326 0.000000 0.149260
21.000000 47.072000 2.000000 -7.000000 -13.000000 108.965377 14.754914 691.536653 558.516782 21.238693 0.000000 0.130056
22.000000 47.210000 3.000000 -7.000000 -13.000000 109.824501 21.699127 546.709474 523.398215 21.176130 0.000000 0.100047
23.000000 46.884000 4.000000 -7.000000 -13.000000 109.883238 28.654913 386.846443 497.414318 21.322758 0.000000 0.058518
24.000000 46.125000 5.000000 -7.000000 -13.000000 109.172866 35.422618 209.477841 481.760439 21.673843 0.000000 0.029438
25.000000 45.725000 1.000000 -6.000000 -13.000000 100.356770 9.188311 800.903699 741.745690 21.868102 0.000000 0.157979
26.000000 46.364000 2.000000 -6.000000 -13.000000 101.908148 15.629891 673.887880 705.314206 21.565897 0.000000 0.142376
27.000000 46.514000 3.000000 -6.000000 -13.000000 102.730724 22.239130 534.914727 678.298314 21.495552 0.000000 0.117106
28.000000 46.178000 4.000000 -6.000000 -13.000000 102.803349 28.844535 382.212332 661.761159 21.651357 0.000000 0.082955
32.000000 46.186000 0.000000 -3.000000 -3.000000 136.568438 -9.999714 1164.774174 -213.431556 5.409114 0.000000 0.019986
33.000000 46.925000 1.000000 -12.000000 -12.000000 139.819894 -1.391585 1001.145900 -333.895687 21.294888 0.000000 0.001387
37.000000 46.200000 -1.000000 -11.000000 -12.000000 128.190645 -14.523350 1253.816635 66.376294 21.632623 0.000000 0.045878
38.000000 47.365000 0.000000 -11.000000 -12.000000 132.019845 -7.382663 1114.455058 -36.881483 21.099458 0.000000 0.040486
39.000000 48.182000 1.000000 -11.000000 -12.000000 135.127071 0.920890 957.699703 -140.218580 20.740676 0.000000 0.027126
40.000000 48.620000 2.000000 -11.000000 -12.000000 137.289346 10.265301 780.077441 -243.900390 20.553093 0.000000 0.025580
41.000000 48.666000 3.000000 -11.000000 -12.000000 138.329952 20.287923 577.124541 -348.261531 20.533600 0.000000 0.069502
44.000000 45.469000 -1.000000 -5.000000 -6.000000 119.076244 -18.024963 1325.227720 311.638723 10.991722 0.000000 0.079100
45.000000 47.082000 -1.000000 -10.000000 -12.000000 123.293268 -12.019037 1204.147208 218.346122 21.229016 0.000000 0.079624
46.000000 48.366000 0.000000 -5.000000 -6.000000 126.991169 -5.023953 1069.616964 127.087240 10.332114 0.000000 0.072987
47.000000 49.267000 1.000000 -10.000000 -12.000000 129.959655 2.964409 919.264189 37.964207 20.285370 0.000000 0.057524
48.000000 49.747000 1.000000 -5.000000 -6.000000 131.996022 11.801395 750.123066 -48.888261 10.044417 0.000000 0.035083
49.000000 49.791000 3.000000 -10.000000 -12.000000 132.949020 21.158149 558.437152 -133.292239 20.071100 0.000000 0.041514
50.000000 49.402000 2.000000 -5.000000 -6.000000 132.763610 30.564658 339.377108 -215.011426 10.114371 0.000000 0.103624
53.000000 45.943000 -2.000000 -9.000000 -12.000000 113.806831 -15.669236 1276.909211 447.816140 21.758422 0.000000 0.110634
54.000000 47.705000 -1.000000 -9.000000 -12.000000 117.895731 -9.719525 1159.351869 362.936661 20.953392 0.000000 0.111153
55.000000 49.113000 0.000000 -3.000000 -4.000000 121.456689 -2.894047 1029.410612 281.723792 6.783912 0.000000 0.104387
56.000000 50.101000 1.000000 -9.000000 -12.000000 124.290203 4.778921 885.019789 204.511128 19.949211 0.000000 0.088332
57.000000 50.626000 2.000000 -9.000000 -12.000000 126.211937 13.146006 723.627298 131.718965 19.741685 0.000000 0.061178
58.000000 50.668000 1.000000 -3.000000 -4.000000 127.091594 21.913291 542.042433 63.881123 6.575048 0.000000 0.027732
59.000000 50.233000 4.000000 -9.000000 -12.000000 126.888484 30.688995 336.222809 1.682520 19.895680 0.000000 0.059355
60.000000 49.356000 5.000000 -9.000000 -12.000000 125.664481 39.079138 100.969874 -53.987124 20.249493 0.000000 0.146781
63.000000 46.075000 -1.000000 -4.000000 -6.000000 108.032906 -13.475299 1232.904701 580.688044 10.849347 0.000000 0.135460
64.000000 47.983000 -1.000000 -8.000000 -12.000000 111.977453 -7.607239 1118.746728 502.784673 20.834286 0.000000 0.137126
65.000000 49.513000 0.000000 -2.000000 -3.000000 115.393983 -0.966301 993.153566 430.003734 5.047287 0.000000 0.131438
66.000000 50.591000 1.000000 -8.000000 -12.000000 118.094257 6.397783 854.316430 362.850436 19.758369 0.000000 0.116393
67.000000 51.161000 1.000000 -4.000000 -6.000000 119.910550 14.331597 700.023822 301.952020 9.768589 0.000000 0.089689
68.000000 51.203000 3.000000 -8.000000 -12.000000 120.729902 22.574545 527.542855 248.093354 19.520951 0.000000 0.048692
69.000000 50.724000 2.000000 -4.000000 -6.000000 120.522590 30.797796 333.455967 202.265914 9.852596 0.000000 0.016001
70.000000 49.764000 5.000000 -8.000000 -12.000000 119.350375 38.677086 113.432180 165.736428 20.085542 0.000000 0.096317
71.000000 48.386000 3.000000 -4.000000 -6.000000 117.349353 45.963101 -138.099910 140.145020 10.328882 0.000000 0.209956
73.000000 45.773000 -2.000000 -7.000000 -12.000000 101.743093 -11.432844 1192.661131 712.736547 21.844405 0.000000 0.151771
74.000000 47.816000 -1.000000 -7.000000 -12.000000 105.524841 -5.665298 1081.770123 640.547036 20.909400 0.000000 0.155444
75.000000 49.463000 0.000000 -7.000000 -12.000000 108.787303 0.782965 960.291181 574.831485 20.212277 0.000000 0.151816
76.000000 50.625000 1.000000 -7.000000 -12.000000 111.353906 7.848807 826.631871 516.224057 19.747283 0.000000 0.138999
77.000000 51.242000 2.000000 -7.000000 -12.000000 113.072080 15.383947 678.863563 465.504236 19.508850 0.000000 0.114878
78.000000 51.286000 3.000000 -7.000000 -12.000000 113.843340 23.158248 514.627770 423.636831 19.491587 0.000000 0.077005
79.000000 50.768000 4.000000 -7.000000 -12.000000 113.646290 30.893801 331.009323 391.826177 19.690272 0.000000 0.024185
80.000000 49.734000 5.000000 -7.000000 -12.000000 112.541590 38.320720 124.361820 371.590743 20.099849 0.000000 0.058294
81.000000 48.256000 6.000000 -7.000000 -12.000000 110.656057 45.229123 -109.936980 364.867720 20.715413 0.000000 0.161873
83.000000 47.102000 -1.000000 -6.000000 -12.000000 98.535108 -3.877855 1047.956478 779.101787 21.229602 0.000000 0.164043
84.000000 48.848000 0.000000 -2.000000 -4.000000 101.631717 2.374592 930.368027 719.257138 6.823111 0.000000 0.163284
85.000000 50.087000 1.000000 -6.000000 -12.000000 104.062150 9.155207 801.541755 667.930669 19.962206 0.000000 0.153646
86.000000 50.747000 1.000000 -3.000000 -6.000000 105.687887 16.323718 659.785838 626.015492 9.850819 0.000000 0.133360
87.000000 50.798000 1.000000 -2.000000 -4.000000 106.422698 23.677185 503.050908 594.607570 6.560421 0.000000 0.100870
88.000000 50.252000 2.000000 -3.000000 -6.000000 106.251364 30.979141 328.830334 575.061655 9.947470 0.000000 0.057938
89.000000 49.160000 5.000000 -6.000000 -12.000000 105.232400 38.002697 134.025156 569.067098 20.336730 0.000000 0.051259
90.000000 47.606000 2.000000 -2.000000 -4.000000 103.483373 44.569528 -85.241862 578.752237 7.000299 0.000000 0.133859
91.000000 45.691000 7.000000 -6.000000 -12.000000 101.155541 50.569629 -333.886927 606.830790 21.881891 0.000000 0.259189
92.000000 45.739000 -1.000000 -5.000000 -12.000000 91.020541 -2.230274 1016.916602 921.812696 21.865219 0.000000 0.160534
93.000000 47.560000 0.000000 -5.000000 -12.000000 93.937787 3.826815 903.006652 866.746896 21.026790 0.000000 0.163395
94.000000 48.859000 1.000000 -5.000000 -12.000000 96.227817 10.336402 778.697701 821.610745 20.466752 0.000000 0.157800
95.000000 49.558000 2.000000 -5.000000 -12.000000 97.765437 17.167623 642.497631 787.383065 20.177187 0.000000 0.142369
96.000000 49.623000 3.000000 -5.000000 -12.000000 98.474951 24.141496 492.614519 765.256951 20.150474 0.000000 0.116503
97.000000 49.065000 4.000000 -5.000000 -12.000000 98.345518 31.055500 326.877357 756.695574 20.379274 0.000000 0.083919
98.000000 47.942000 5.000000 -5.000000 -12.000000 97.432357 37.717161 142.630208 763.506719 20.856522 0.000000 0.072914
99.000000 46.345000 6.000000 -5.000000 -12.000000 95.843318 43.973706 -63.411196 787.943841 21.575408 0.000000 0.130486
100.000000 45.507000 0.000000 -1.000000 -3.000000 85.736230 5.155540 877.891583 1021.568527 5.494738 0.000000 0.149265
101.000000 46.844000 1.000000 -4.000000 -12.000000 87.880513 11.408695 757.811030 981.635386 21.350878 0.000000 0.148728
102.000000 47.573000 1.000000 -2.000000 -6.000000 89.333281 17.929303 626.758433 954.164092 10.511204 0.000000 0.139379
103.000000 47.658000 3.000000 -4.000000 -12.000000 90.028068 24.559323 483.157988 940.420299 20.984245 0.000000 0.121705
104.000000 47.111000 1.000000 -1.000000 -3.000000 89.956855 31.124225 325.116962 941.946765 5.306868 0.000000 0.101294
105.000000 45.993000 5.000000 -4.000000 -12.000000 89.170329 37.459387 150.341798 960.635499 21.743534 0.000000 0.099824
111.000000 46.258000 -2.000000 -12.000000 -11.000000 131.541176 -27.375004 1532.302394 -132.859554 21.604341 0.000000 0.064076
112.000000 47.708000 -1.000000 -12.000000 -11.000000 136.527277 -21.090529 1390.103016 -275.766971 20.946038 0.000000 0.057718
113.000000 48.841000 0.000000 -12.000000 -11.000000 141.014099 -13.186960 1227.184136 -424.796582 20.459174 0.000000 0.043265
117.000000 45.588000 -3.000000 -11.000000 -11.000000 122.147375 -29.414995 1581.831813 164.498662 21.924609 0.000000 0.015332
118.000000 47.495000 -2.000000 -11.000000 -11.000000 127.339247 -24.233167 1459.454898 40.574688 21.042616 0.000000 0.022959
119.000000 49.117000 -1.000000 -11.000000 -11.000000 132.225920 -17.845109 1321.495249 -85.182915 20.346733 0.000000 0.026559
120.000000 51.246000 1.000000 -11.000000 -11.000000 140.071985 -0.542194 985.185347 -345.012829 19.499223 0.000000 0.001438
124.000000 46.443000 -3.000000 -10.000000 -11.000000 117.513976 -26.605878 1514.106133 313.987517 21.522367 0.000000 0.037437
125.000000 48.557000 -2.000000 -10.000000 -11.000000 122.620182 -21.302551 1394.684800 201.629328 20.583897 0.000000 0.045915
126.000000 50.363000 -1.000000 -10.000000 -11.000000 127.390336 -14.878665 1260.950649 89.861311 19.844718 0.000000 0.048953
127.000000 51.779000 0.000000 -10.000000 -11.000000 131.582929 -7.158023 1110.166537 -21.506997 19.300790 0.000000 0.043332
128.000000 52.740000 1.000000 -10.000000 -11.000000 134.914960 1.923704 938.849878 -132.709224 18.948180 0.000000 0.028339
129.000000 53.202000 2.000000 -10.000000 -11.000000 137.102216 12.189656 742.500330 -244.038246 18.783059 0.000000 0.029785
130.000000 53.149000 3.000000 -10.000000 -11.000000 137.934457 23.132551 515.198706 -355.869860 18.801702 0.000000 0.084311
133.000000 47.033000 -3.000000 -9.000000 -11.000000 112.357234 -23.952740 1453.133721 456.607490 21.254498 0.000000 0.077733
134.000000 49.361000 -2.000000 -9.000000 -11.000000 117.351474 -18.576383 1336.719225 353.657328 20.250431 0.000000 0.084552
135.000000 51.360000 -1.000000 -9.000000 -11.000000 121.986927 -12.170683 1207.126664 253.342244 19.460856 0.000000 0.085886
136.000000 52.934000 0.000000 -9.000000 -11.000000 126.023240 -4.620499 1061.984165 155.807459 18.881114 0.000000 0.078900
137.000000 54.003000 1.000000 -9.000000 -11.000000 129.191236 4.075422 898.314319 61.245335 18.506683 0.000000 0.061290
138.000000 54.512000 2.000000 -9.000000 -11.000000 131.235412 13.715072 712.327765 -30.088937 18.333165 0.000000 0.034959
139.000000 54.442000 3.000000 -9.000000 -11.000000 131.980004 23.852187 499.126162 -117.854750 18.356292 0.000000 0.048427
140.000000 53.810000 4.000000 -9.000000 -11.000000 131.390733 33.881504 252.264478 -201.592770 18.571912 0.000000 0.126420
142.000000 47.265000 -3.000000 -8.000000 -11.000000 106.651130 -21.453388 1397.952444 595.133412 21.152527 0.000000 0.109819
143.000000 49.807000 -2.000000 -8.000000 -11.000000 111.504228 -16.045096 1284.539398 499.755749 20.071371 0.000000 0.117384
144.000000 52.003000 -1.000000 -8.000000 -11.000000 115.984659 -9.699419 1158.963125 408.805266 19.222428 0.000000 0.119088
145.000000 53.739000 0.000000 -8.000000 -11.000000 119.856425 -2.349299 1019.156049 322.672371 18.600270 0.000000 0.112300
146.000000 54.919000 1.000000 -8.000000 -11.000000 122.865317 5.964356 862.553830 241.853150 18.199636 0.000000 0.094393
147.000000 55.479000 2.000000 -8.000000 -11.000000 124.781426 15.033331 685.936647 166.982649 18.015428 0.000000 0.062724
148.000000 55.394000 3.000000 -8.000000 -11.000000 125.456578 24.469092 485.205458 98.881807 18.042702 0.000000 0.023178
149.000000 54.685000 4.000000 -8.000000 -11.000000 124.871767 33.778816 255.059902 38.625055 18.276663 0.000000 0.074116
150.000000 53.411000 5.000000 -8.000000 -11.000000 123.144322 42.506787 -11.476579 -12.360005 18.712661 0.000000 0.182653
152.000000 47.035000 -3.000000 -7.000000 -11.000000 100.377202 -19.103533 1347.774647 732.418865 21.258674 0.000000 0.131940
153.000000 49.777000 -2.000000 -7.000000 -11.000000 105.056620 -13.697386 1237.320251 642.992191 20.085677 0.000000 0.141408
154.000000 52.163000 -1.000000 -7.000000 -11.000000 109.358815 -7.443211 1115.611712 559.632836 19.165820 0.000000 0.144843
155.000000 54.058000 0.000000 -7.000000 -11.000000 113.055031 -0.310709 980.836681 482.912931 18.492696 0.000000 0.139737
156.000000 55.350000 1.000000 -7.000000 -11.000000 115.906801 7.632430 830.771592 413.548749 18.060114 0.000000 0.123537
157.000000 55.961000 2.000000 -7.000000 -11.000000 117.707066 16.182796 662.658020 352.443410 17.862086 0.000000 0.093265
158.000000 55.864000 3.000000 -7.000000 -11.000000 118.329913 25.003680 473.031565 300.746025 17.892823 0.000000 0.045190
159.000000 55.082000 4.000000 -7.000000 -11.000000 117.767378 33.689696 257.480569 259.935117 18.146724 0.000000 0.025916
160.000000 53.687000 5.000000 -7.000000 -11.000000 116.131573 41.870429 10.298594 231.938815 18.618369 0.000000 0.126360
163.000000 46.232000 -3.000000 -6.000000 -11.000000 93.528598 -16.897374 1301.949321 871.637170 21.630818 0.000000 0.142223
164.000000 49.146000 -2.000000 -6.000000 -11.000000 97.998444 -11.521056 1194.386476 786.656705 20.346619 0.000000 0.154357
165.000000 51.698000 -1.000000 -6.000000 -11.000000 102.096018 -5.381310 1076.385552 709.319631 19.340655 0.000000 0.160525
166.000000 53.738000 0.000000 -6.000000 -11.000000 105.602590 1.524820 946.349674 640.334328 18.605249 0.000000 0.158273
167.000000 55.135000 1.000000 -6.000000 -11.000000 108.296182 9.113850 802.338732 580.579152 18.133005 0.000000 0.145233
168.000000 55.798000 2.000000 -6.000000 -11.000000 109.990427 17.193167 641.971926 531.149844 17.916793 0.000000 0.118842
169.000000 55.694000 3.000000 -6.000000 -11.000000 110.577578 25.471321 462.295103 493.424127 17.949739 0.000000 0.076522
170.000000 54.852000 4.000000 -6.000000 -11.000000 110.057368 33.611620 259.597106 469.151170 18.225212 0.000000 0.026359
171.000000 53.355000 5.000000 -6.000000 -11.000000 108.535934 41.309063 29.150696 460.577851 18.736816 0.000000 0.089065
172.000000 51.325000 6.000000 -6.000000 -11.000000 106.195121 48.350705 -235.160734 470.630723 19.478375 0.000000 0.214092
174.000000 47.786000 -2.000000 -5.000000 -11.000000 90.336522 -9.503631 1155.180017 934.590429 20.929015 0.000000 0.153608
175.000000 50.465000 -1.000000 -5.000000 -11.000000 94.200341 -3.494356 1040.722560 861.808212 19.816426 0.000000 0.163329
176.000000 52.621000 0.000000 -5.000000 -11.000000 97.500322 3.182929 915.147490 799.078074 19.003355 0.000000 0.164924
177.000000 54.106000 1.000000 -5.000000 -11.000000 100.031925 10.436599 776.752290 747.398914 18.480812 0.000000 0.156211
178.000000 54.817000 2.000000 -5.000000 -11.000000 101.627960 18.087720 623.468117 708.007138 18.240160 0.000000 0.135184
179.000000 54.717000 3.000000 -5.000000 -11.000000 102.195719 25.883796 452.755677 682.443001 18.273104 0.000000 0.100824
180.000000 53.836000 4.000000 -5.000000 -11.000000 101.739840 33.542657 261.463440 672.641011 18.571669 0.000000 0.061627
181.000000 52.270000 5.000000 -5.000000 -11.000000 100.359287 40.810261 45.631291 681.055199 19.128189 0.000000 0.084029
182.000000 50.155000 6.000000 -5.000000 -11.000000 98.220053 47.505284 -199.786573 710.835975 19.935288 0.000000 0.187623
184.000000 45.588000 -2.000000 -4.000000 -11.000000 82.100374 -7.632811 1119.235684 1091.676047 21.941348 0.000000 0.135782
185.000000 48.334000 -1.000000 -4.000000 -11.000000 85.699874 -1.764603 1008.158329 1021.967757 20.693538 0.000000 0.149802
186.000000 50.560000 0.000000 -4.000000 -11.000000 88.774447 4.685741 886.782155 964.102588 19.781218 0.000000 0.156257
187.000000 52.106000 1.000000 -4.000000 -11.000000 91.138201 11.623665 753.605208 919.168504 19.193222 0.000000 0.153064
188.000000 52.859000 2.000000 -4.000000 -11.000000 92.642215 18.884920 606.818563 888.505332 18.918873 0.000000 0.138843
189.000000 52.777000 3.000000 -4.000000 -11.000000 93.206454 26.250288 444.223666 873.770890 18.947958 0.000000 0.114200
190.000000 51.892000 4.000000 -4.000000 -11.000000 92.838012 33.481298 263.121463 877.029806 19.270702 0.000000 0.089331
191.000000 50.307000 5.000000 -4.000000 -11.000000 91.627110 40.364181 60.161385 900.874603 19.877746 0.000000 0.105121
192.000000 48.169000 6.000000 -4.000000 -11.000000 89.722991 46.743335 -168.867865 948.593569 20.760125 0.000000 0.188486
194.000000 47.454000 0.000000 -3.000000 -11.000000 79.482806 6.052295 860.883607 1141.933439 21.079600 0.000000 0.128088
195.000000 49.024000 1.000000 -3.000000 -11.000000 81.671974 12.694027 732.564513 1102.499512 20.403699 0.000000 0.132203
196.000000 49.808000 2.000000 -3.000000 -11.000000 83.088972 19.599575 591.757844 1079.479637 20.081406 0.000000 0.127109
197.000000 49.761000 3.000000 -3.000000 -11.000000 83.664629 26.578055 436.547491 1074.616393 20.099836 0.000000 0.115454
198.000000 48.916000 4.000000 -3.000000 -11.000000 83.406340 33.426353 264.604206 1090.067361 20.446722 0.000000 0.109337
199.000000 47.377000 5.000000 -3.000000 -11.000000 82.393777 39.962929 73.067899 1128.520886 21.110379 0.000000 0.135673
200.000000 45.625000 2.000000 -2.000000 -11.000000 73.061735 20.243683 578.068886 1290.369243 21.926653 0.000000 0.101640
201.000000 45.633000 3.000000 -2.000000 -11.000000 73.662010 26.872907 429.604531 1294.700975 21.922134 0.000000 0.110096
205.000000 46.902000 -3.000000 -12.000000 -10.000000 129.044034 -37.343398 1796.205602 -157.013488 21.307927 0.000000 0.146799
210.000000 45.906000 -4.000000 -11.000000 -10.000000 119.180266 -38.063792 1817.824714 177.612202 21.773561 0.000000 0.086922
211.000000 48.269000 -3.000000 -11.000000 -10.000000 125.073532 -33.975685 1700.305297 29.734219 20.705982 0.000000 0.076069
212.000000 50.387000 -2.000000 -11.000000 -10.000000 130.897456 -28.789929 1566.451447 -122.716248 19.833783 0.000000 0.070337
213.000000 52.174000 -1.000000 -11.000000 -10.000000 136.447682 -22.125836 1412.603240 -281.102371 19.153114 0.000000 0.063148
217.000000 46.832000 -2.000000 -5.000000 -5.000000 114.699480 -35.107365 1731.638994 335.887106 10.672270 0.000000 0.029179
218.000000 49.468000 -3.000000 -10.000000 -10.000000 120.558644 -30.772271 1615.894379 201.399307 20.205489 0.000000 0.014741
219.000000 51.848000 -1.000000 -5.000000 -5.000000 126.318718 -25.357689 1485.088417 65.487762 9.638187 0.000000 0.021436
220.000000 53.866000 -1.000000 -10.000000 -10.000000 131.757316 -18.545646 1336.076726 -72.507156 18.552771 0.000000 0.026587
221.000000 56.440000 1.000000 -10.000000 -10.000000 140.363846 0.491094 965.774627 -358.393810 17.705022 0.000000 0.004453
224.000000 47.488000 -4.000000 -9.000000 -10.000000 109.670284 -32.271821 1654.664342 485.969471 21.051584 0.000000 0.034508
225.000000 50.411000 -3.000000 -9.000000 -10.000000 115.457105 -27.739951 1541.024801 362.087930 19.829293 0.000000 0.039062
226.000000 53.071000 -2.000000 -9.000000 -10.000000 121.119586 -22.166092 1413.484697 239.382126 18.833838 0.000000 0.048537
227.000000 55.340000 -1.000000 -9.000000 -10.000000 126.422074 -15.294382 1269.327370 117.688188 18.060087 0.000000 0.052670
228.000000 57.098000 0.000000 -9.000000 -10.000000 131.053364 -6.891238 1105.078920 -3.190815 17.503061 0.000000 0.046806
229.000000 58.243000 1.000000 -9.000000 -10.000000 134.641634 3.125763 916.224607 -123.497770 17.157930 0.000000 0.029702
230.000000 58.713000 2.000000 -9.000000 -10.000000 136.817665 14.493209 696.787469 -243.540636 17.020007 0.000000 0.035541
233.000000 47.773000 -2.000000 -4.000000 -5.000000 104.058702 -29.562910 1585.499019 631.138683 10.464045 0.000000 0.073222
234.000000 50.986000 -3.000000 -8.000000 -10.000000 109.729925 -24.880997 1474.165355 515.503475 19.607647 0.000000 0.082234
235.000000 53.935000 -1.000000 -4.000000 -5.000000 115.257494 -19.208470 1349.983727 403.278380 9.266953 0.000000 0.090689
236.000000 56.469000 -1.000000 -8.000000 -10.000000 120.397509 -12.346941 1210.593962 294.655296 17.700841 0.000000 0.093188
237.000000 58.440000 0.000000 -4.000000 -5.000000 124.839435 -4.146093 1053.020089 189.891149 8.551309 0.000000 0.085903
238.000000 59.726000 1.000000 -8.000000 -10.000000 128.231043 5.389697 873.455500 89.329940 16.733592 0.000000 0.065600
239.000000 60.247000 1.000000 -4.000000 -5.000000 130.244926 15.971770 666.951395 -6.565248 8.294149 0.000000 0.034093
240.000000 59.981000 3.000000 -8.000000 -10.000000 130.680872 26.985080 426.953650 -97.164646 16.661440 0.000000 0.058630
241.000000 58.968000 2.000000 -4.000000 -5.000000 129.549945 37.651672 144.594433 -181.598945 8.473947 0.000000 0.157972
243.000000 47.571000 -4.000000 -7.000000 -10.000000 97.838396 -26.983627 1523.011977 774.730431 21.019359 0.000000 0.102414
244.000000 51.060000 -3.000000 -7.000000 -10.000000 103.345173 -22.193989 1414.095833 665.248266 19.581496 0.000000 0.114443
245.000000 54.292000 -2.000000 -7.000000 -10.000000 108.695899 -16.474102 1293.283786 561.188317 18.414022 0.000000 0.124398
246.000000 57.092000 -1.000000 -7.000000 -10.000000 113.643629 -9.676205 1158.514336 463.001962 17.509758 0.000000 0.127850
247.000000 59.281000 0.000000 -7.000000 -10.000000 117.883655 -1.714721 1007.220455 371.269453 16.861778 0.000000 0.121295
248.000000 60.713000 1.000000 -7.000000 -10.000000 121.085180 7.350223 836.164498 286.741165 16.463395 0.000000 0.101238
249.000000 61.288000 2.000000 -7.000000 -10.000000 122.957345 17.230471 641.203919 210.396174 16.308155 0.000000 0.063820
250.000000 60.982000 3.000000 -7.000000 -10.000000 123.336238 27.406322 416.951371 143.527287 16.389822 0.000000 0.017451
251.000000 59.841000 4.000000 -7.000000 -10.000000 122.246707 37.260038 156.269167 87.867562 16.702374 0.000000 0.096345
254.000000 46.757000 -2.000000 -3.000000 -5.000000 90.995308 -24.534591 1466.280526 920.445531 10.694209 0.000000 0.118692
255.000000 50.484000 -3.000000 -6.000000 -10.000000 96.283202 -19.674646 1359.831891 815.148114 19.807642 0.000000 0.133696
256.000000 53.972000 -1.000000 -3.000000 -5.000000 101.410026 -13.949745 1242.347811 717.184123 9.262993 0.000000 0.146359
257.000000 57.018000 -1.000000 -6.000000 -10.000000 106.131186 -7.255055 1112.018417 627.196523 17.534753 0.000000 0.152373
258.000000 59.417000 0.000000 -3.000000 -5.000000 110.152586 0.446351 966.615186 545.999748 8.412791 0.000000 0.148381
259.000000 60.991000 1.000000 -6.000000 -10.000000 113.166224 9.060712 803.362451 474.631178 16.390426 0.000000 0.131074
260.000000 61.624000 1.000000 -3.000000 -5.000000 114.913411 18.313972 618.758509 414.422880 8.110774 0.000000 0.096621
261.000000 61.283000 3.000000 -6.000000 -10.000000 115.258609 27.767199 408.321619 367.103540 16.311492 0.000000 0.040383
262.000000 60.026000 2.000000 -3.000000 -5.000000 114.235428 36.922940 166.221353 334.946469 8.326542 0.000000 0.046662
263.000000 57.985000 5.000000 -6.000000 -10.000000 112.033176 45.369589 -115.270010 320.989931 17.239411 0.000000 0.170115
265.000000 49.105000 -3.000000 -5.000000 -10.000000 88.543195 -17.316611 1310.570681 969.671344 20.367261 0.000000 0.137427
266.000000 52.790000 -2.000000 -5.000000 -10.000000 93.394397 -11.620835 1196.339392 875.826022 18.943587 0.000000 0.153527
267.000000 56.040000 -1.000000 -5.000000 -10.000000 97.850157 -5.057599 1070.253910 792.026023 17.843858 0.000000 0.163282
268.000000 60.320000 1.000000 -5.000000 -10.000000 104.455340 10.563590 774.284828 658.762887 16.575479 0.000000 0.150498
269.000000 61.009000 2.000000 -5.000000 -10.000000 106.091282 19.255836 599.018217 612.122090 16.387511 0.000000 0.121885
270.000000 60.648000 3.000000 -5.000000 -10.000000 106.426443 28.079796 400.800024 581.357013 16.484806 0.000000 0.075685
271.000000 59.302000 4.000000 -5.000000 -10.000000 105.499021 36.629746 174.806028 569.087091 16.858667 0.000000 0.043563
272.000000 54.328000 6.000000 -5.000000 -10.000000 100.634616 51.696789 -387.667934 614.945443 18.403029 0.000000 0.289101
274.000000 46.785000 -3.000000 -4.000000 -10.000000 80.150427 -15.112126 1265.650867 1134.561283 21.380527 0.000000 0.122346
275.000000 50.578000 -1.000000 -2.000000 -5.000000 84.671527 -9.472375 1154.576480 1042.771942 9.887819 0.000000 0.142062
276.000000 53.954000 -1.000000 -4.000000 -10.000000 88.819823 -3.059848 1032.533581 963.204272 18.537010 0.000000 0.156528
277.000000 56.656000 0.000000 -2.000000 -5.000000 92.336701 4.101969 897.813086 896.968205 8.825828 0.000000 0.161812
278.000000 58.456000 1.000000 -4.000000 -10.000000 94.964577 11.892754 748.331386 845.456079 17.107194 0.000000 0.155075
279.000000 59.198000 1.000000 -2.000000 -5.000000 96.500581 20.081708 581.521808 810.422080 8.445906 0.000000 0.134213
280.000000 58.840000 3.000000 -4.000000 -10.000000 96.849588 28.353179 394.186012 794.091195 16.994240 0.000000 0.100148
281.000000 57.455000 2.000000 -2.000000 -5.000000 96.050638 36.372417 182.286933 799.311182 8.701858 0.000000 0.075836
282.000000 55.214000 5.000000 -4.000000 -10.000000 94.261504 43.861400 -59.345442 829.768695 18.109959 0.000000 0.132515
283.000000 52.345000 3.000000 -2.000000 -5.000000 91.710832 50.645839 -337.441495 890.303403 9.551570 0.000000 0.264949
285.000000 47.212000 -2.000000 -3.000000 -10.000000 75.300319 -7.489562 1116.497351 1225.783713 21.189556 0.000000 0.106770
286.000000 50.606000 -1.000000 -3.000000 -10.000000 79.098860 -1.240014 998.297143 1148.332378 19.767246 0.000000 0.126735
287.000000 53.349000 0.000000 -3.000000 -10.000000 82.324845 5.655615 868.413558 1086.754979 18.749420 0.000000 0.138866
288.000000 55.199000 1.000000 -3.000000 -10.000000 84.749109 13.075464 725.024288 1042.547253 18.120065 0.000000 0.140143
289.000000 55.987000 2.000000 -3.000000 -10.000000 86.194562 20.811485 565.907261 1017.586940 17.864005 0.000000 0.129585
290.000000 55.665000 3.000000 -3.000000 -10.000000 86.580684 28.594281 388.324663 1014.240947 17.966845 0.000000 0.111140
291.000000 54.310000 4.000000 -3.000000 -10.000000 85.943865 36.144759 188.864085 1035.512410 18.414918 0.000000 0.106580
292.000000 52.102000 5.000000 -3.000000 -10.000000 84.422842 43.230403 -36.782881 1085.245978 19.195245 0.000000 0.157660
293.000000 49.278000 6.000000 -3.000000 -10.000000 82.217870 49.700284 -294.135391 1168.419898 20.295488 0.000000 0.272902
295.000000 45.935000 -1.000000 -2.000000 -10.000000 68.792666 0.421436 967.083236 1358.636837 21.781368 0.000000 0.066298
296.000000 48.616000 0.000000 -1.000000 -5.000000 71.703784 7.058509 841.731886 1299.589126 10.289524 0.000000 0.088587
297.000000 50.453000 1.000000 -2.000000 -10.000000 73.916661 14.133803 703.978417 1261.004498 19.828493 0.000000 0.102223
298.000000 51.276000 1.000000 -1.000000 -5.000000 75.279491 21.460816 551.886462 1244.838025 9.754734 0.000000 0.107876
299.000000 51.029000 3.000000 -2.000000 -10.000000 75.723780 28.808494 383.094415 1253.551104 19.602936 0.000000 0.113114
300.000000 49.788000 2.000000 -1.000000 -5.000000 75.280144 35.941928 194.691926 1290.252613 10.045478 0.000000 0.136459
301.000000 47.731000 5.000000 -2.000000 -10.000000 74.065562 42.664717 -16.949322 1358.892848 20.956619 0.000000 0.198563
306.000000 45.599000 -5.000000 -11.000000 -9.000000 115.009014 -46.142039 2095.078947 216.349953 21.921264 0.000000 0.201389
307.000000 48.397000 -4.000000 -11.000000 -9.000000 121.372912 -43.215592 1986.258917 40.491613 20.651821 0.000000 0.181859
308.000000 51.021000 -3.000000 -11.000000 -9.000000 127.890281 -39.454344 1860.789040 -143.762620 19.587959 0.000000 0.167655
313.000000 46.528000 -5.000000 -10.000000 -9.000000 110.651590 -43.176642 1984.882206 384.729673 21.485122 0.000000 0.126589
314.000000 49.663000 -4.000000 -10.000000 -9.000000 117.042414 -39.928459 1875.830416 224.555000 20.126655 0.000000 0.101521
315.000000 52.631000 -3.000000 -10.000000 -9.000000 123.575268 -35.800341 1751.257656 60.154633 18.989911 0.000000 0.086338
316.000000 55.306000 -2.000000 -10.000000 -9.000000 130.089311 -30.445062 1607.596485 -109.881118 18.070030 0.000000 0.078422
317.000000 57.556000 -1.000000 -10.000000 -9.000000 136.334491 -23.370461 1440.095464 -287.416022 17.362294 0.000000 0.070069
321.000000 47.180000 -5.000000 -9.000000 -9.000000 105.735092 -40.287916 1887.373731 543.461726 21.189994 0.000000 0.075500
322.000000 50.673000 -4.000000 -9.000000 -9.000000 112.106034 -36.756933 1778.909925 395.343516 19.727421 0.000000 0.040665
323.000000 54.014000 -1.000000 -3.000000 -3.000000 118.607745 -32.323226 1656.015813 246.358487 6.168488 0.000000 0.016908
324.000000 57.052000 -2.000000 -9.000000 -9.000000 125.057435 -26.669690 1515.606413 95.844648 17.518437 0.000000 0.019407
325.000000 59.626000 -1.000000 -9.000000 -9.000000 131.177645 -19.382326 1353.649901 -57.047131 16.760841 0.000000 0.026488
326.000000 62.796000 1.000000 -9.000000 -9.000000 140.704366 1.774294 941.659442 -374.809967 15.912771 0.000000 0.008549
328.000000 47.449000 -5.000000 -8.000000 -9.000000 100.218518 -37.486989 1800.481389 696.491991 21.072171 0.000000 0.063744
329.000000 51.305000 -4.000000 -8.000000 -9.000000 106.514510 -33.713363 1693.161775 557.374213 19.486248 0.000000 0.041554
330.000000 55.036000 -3.000000 -8.000000 -9.000000 112.931375 -29.034144 1572.438413 420.213939 18.163346 0.000000 0.041462
331.000000 58.464000 -2.000000 -8.000000 -9.000000 119.268219 -23.169980 1435.632944 284.874567 17.096737 0.000000 0.051679
332.000000 61.392000 -1.000000 -8.000000 -9.000000 125.227210 -15.787278 1279.302489 151.199637 16.279919 0.000000 0.057225
333.000000 63.629000 0.000000 -8.000000 -9.000000 130.398269 -6.569237 1098.945914 19.004334 15.706608 0.000000 0.051115
334.000000 65.016000 1.000000 -8.000000 -9.000000 134.279445 4.591539 888.563377 -111.937203 15.370730 0.000000 0.031199
335.000000 65.458000 2.000000 -8.000000 -9.000000 136.380701 17.290087 639.975923 -241.911437 15.266411 0.000000 0.043638
338.000000 47.209000 -5.000000 -7.000000 -9.000000 94.068292 -34.782657 1722.560955 847.795293 21.181562 0.000000 0.081877
339.000000 51.414000 -4.000000 -7.000000 -9.000000 100.225280 -30.806255 1616.759433 714.960522 19.447205 0.000000 0.077981
340.000000 55.534000 -3.000000 -7.000000 -9.000000 106.495349 -25.938147 1498.506255 586.580295 18.002874 0.000000 0.086967
341.000000 59.361000 -2.000000 -7.000000 -9.000000 112.664634 -19.940127 1365.465856 462.894060 16.840473 0.000000 0.097510
342.000000 62.661000 -1.000000 -7.000000 -9.000000 118.422760 -12.554327 1214.679601 344.228602 15.952204 0.000000 0.101726
343.000000 65.197000 0.000000 -7.000000 -9.000000 123.359201 -3.580300 1042.343168 231.028103 15.330552 0.000000 0.094278
344.000000 66.771000 1.000000 -7.000000 -9.000000 127.000781 6.966777 843.481132 123.898141 14.968277 0.000000 0.070544
345.000000 67.262000 2.000000 -7.000000 -9.000000 128.920305 18.663489 611.458757 23.671774 14.858397 0.000000 0.031971
346.000000 66.652000 3.000000 -7.000000 -9.000000 128.900170 30.649432 337.227351 -68.488238 14.994180 0.000000 0.074169
349.000000 46.325000 -5.000000 -6.000000 -9.000000 87.263427 -32.181410 1652.291080 1001.783764 21.588750 0.000000 0.100516
350.000000 50.833000 -4.000000 -6.000000 -9.000000 93.208359 -28.040578 1548.253943 872.644365 19.672427 0.000000 0.104458
351.000000 55.307000 -1.000000 -2.000000 -3.000000 99.260811 -23.035217 1432.640763 750.300334 6.026435 0.000000 0.118060
352.000000 59.514000 -2.000000 -6.000000 -9.000000 105.200177 -16.968324 1303.405651 635.263910 16.799459 0.000000 0.131215
353.000000 63.180000 -1.000000 -6.000000 -9.000000 110.711975 -9.649101 1157.990425 528.205281 15.823359 0.000000 0.137292
354.000000 67.785000 1.000000 -6.000000 -9.000000 118.804943 8.989926 804.725721 341.820865 14.746187 0.000000 0.108913
355.000000 68.331000 2.000000 -6.000000 -9.000000 120.571306 19.812161 587.252140 265.207749 14.627900 0.000000 0.064101
356.000000 65.796000 4.000000 -6.000000 -9.000000 118.767201 41.180933 33.408076 155.896423 15.191377 0.000000 0.130350
358.000000 49.385000 -4.000000 -5.000000 -9.000000 85.453965 -25.418201 1486.481153 1035.748072 20.252423 0.000000 0.114981
359.000000 54.137000 -3.000000 -5.000000 -9.000000 91.209746 -20.321382 1373.590017 916.763167 18.472846 0.000000 0.131990
360.000000 58.664000 -2.000000 -5.000000 -9.000000 96.848900 -14.239006 1248.124094 807.630583 17.045737 0.000000 0.148873
361.000000 62.652000 -1.000000 -5.000000 -9.000000 102.061812 -7.037028 1107.858434 709.267109 15.959195 0.000000 0.158715
362.000000 65.768000 0.000000 -5.000000 -9.000000 106.462941 1.330071 950.010287 622.858487 15.201851 0.000000 0.156744
363.000000 67.720000 1.000000 -5.000000 -9.000000 109.645564 10.729782 771.052611 549.947033 14.762833 0.000000 0.138575
364.000000 68.323000 2.000000 -5.000000 -9.000000 111.282634 20.786357 566.447400 492.557097 14.631746 0.000000 0.099369
365.000000 67.552000 3.000000 -5.000000 -9.000000 111.238931 30.923341 330.255505 453.378781 14.798641 0.000000 0.036192
366.000000 65.536000 4.000000 -5.000000 -9.000000 109.623984 40.537139 54.550633 436.044025 15.253992 0.000000 0.080281
367.000000 62.526000 5.000000 -5.000000 -9.000000 106.743555 49.190649 -271.487593 445.554066 15.988676 0.000000 0.235538
369.000000 46.910000 -4.000000 -4.000000 -9.000000 76.981326 -22.938410 1430.495021 1211.219399 21.324356 0.000000 0.107330
370.000000 51.814000 -3.000000 -4.000000 -9.000000 82.355857 -17.789774 1320.348412 1092.706386 19.304503 0.000000 0.125121
371.000000 56.546000 -2.000000 -4.000000 -9.000000 87.618386 -11.734617 1198.568082 986.719656 17.687535 0.000000 0.146076
372.000000 60.764000 -1.000000 -4.000000 -9.000000 92.473511 -4.685228 1063.208133 894.350627 16.458164 0.000000 0.161063
373.000000 64.094000 0.000000 -4.000000 -9.000000 96.560812 3.357203 911.863069 817.001635 15.601863 0.000000 0.164787
374.000000 66.199000 1.000000 -4.000000 -9.000000 99.511189 12.239324 741.523597 756.479998 15.104825 0.000000 0.153215
375.000000 66.864000 2.000000 -4.000000 -9.000000 101.039252 21.622567 548.374494 715.130148 14.953914 0.000000 0.122981
376.000000 66.055000 3.000000 -4.000000 -9.000000 101.036299 31.030956 327.505446 696.022917 15.136628 0.000000 0.076206
377.000000 63.925000 4.000000 -4.000000 -9.000000 99.607718 39.981067 72.487770 703.232876 15.641060 0.000000 0.078209
378.000000 60.761000 5.000000 -4.000000 -9.000000 97.027908 48.116901 -225.261647 742.255360 16.455861 0.000000 0.200853
380.000000 48.177000 -1.000000 -1.000000 -3.000000 72.755795 -15.431568 1272.098920 1287.573236 6.921945 0.000000 0.093908
381.000000 52.942000 -2.000000 -3.000000 -9.000000 77.563915 -9.436916 1153.891913 1181.605538 18.895253 0.000000 0.116846
382.000000 57.242000 -1.000000 -3.000000 -9.000000 81.999661 -2.563492 1023.187036 1092.421326 17.474448 0.000000 0.137981
383.000000 62.876000 1.000000 -3.000000 -9.000000 88.445995 13.559710 715.418014 971.036176 15.906424 0.000000 0.146611
384.000000 63.603000 2.000000 -3.000000 -9.000000 89.882451 22.347879 532.528503 943.387460 15.723951 0.000000 0.128363
385.000000 60.678000 4.000000 -3.000000 -9.000000 88.765027 39.496018 87.897081 971.067835 16.481067 0.000000 0.109606
386.000000 57.505000 5.000000 -3.000000 -9.000000 86.547035 47.169570 -186.054540 1036.526956 17.390835 0.000000 0.206194
389.000000 47.751000 -2.000000 -2.000000 -9.000000 66.800123 -7.327869 1113.408623 1406.096245 20.953582 0.000000 0.054426
390.000000 51.936000 -1.000000 -2.000000 -9.000000 70.759069 -0.644678 987.110710 1316.691434 19.263915 0.000000 0.080266
391.000000 55.322000 0.000000 -2.000000 -9.000000 74.109262 6.758736 847.445771 1249.546633 18.083528 0.000000 0.102336
392.000000 57.533000 1.000000 -2.000000 -9.000000 76.568689 14.723224 692.173140 1206.757297 17.387557 0.000000 0.113065
393.000000 58.318000 2.000000 -2.000000 -9.000000 77.928405 22.982788 518.521719 1191.025968 17.152732 0.000000 0.113207
394.000000 57.628000 3.000000 -2.000000 -9.000000 78.114616 31.205837 323.023143 1205.843914 17.357249 0.000000 0.114838
395.000000 55.629000 4.000000 -2.000000 -9.000000 77.208274 39.069261 101.277751 1255.746853 17.980658 0.000000 0.149308
396.000000 52.634000 5.000000 -2.000000 -9.000000 75.410895 46.328009 -152.380485 1346.681967 19.003759 0.000000 0.242858
398.000000 48.071000 0.000000 -1.000000 -9.000000 61.879595 8.194773 820.003850 1522.113918 20.816033 0.000000 0.036897
399.000000 50.192000 1.000000 -1.000000 -9.000000 64.081731 15.755446 671.343177 1484.462779 19.935087 0.000000 0.069554
400.000000 51.026000 2.000000 -1.000000 -9.000000 65.377102 23.543074 506.051497 1479.075794 19.608163 0.000000 0.101306
401.000000 50.519000 3.000000 -1.000000 -9.000000 65.703047 31.277849 321.172628 1509.526440 19.804281 0.000000 0.141445
402.000000 48.815000 4.000000 -1.000000 -9.000000 65.121218 38.690922 113.005645 1580.456703 20.494727 0.000000 0.205357
403.000000 46.203000 5.000000 -1.000000 -9.000000 63.790761 45.575751 -123.145415 1697.920033 21.652854 0.000000 0.307962
408.000000 45.472000 -3.000000 -5.000000 -4.000000 105.503663 -50.559501 2283.415427 471.036284 10.992671 0.000000 0.270687
409.000000 49.035000 -5.000000 -10.000000 -8.000000 112.163874 -48.361925 2185.638061 281.125009 20.385883 0.000000 0.237752
410.000000 52.547000 -2.000000 -5.000000 -4.000000 119.166050 -45.559031 2072.504544 83.093501 9.510634 0.000000 0.212964
415.000000 46.037000 -6.000000 -9.000000 -8.000000 100.662075 -47.730654 2159.104007 639.743499 21.717581 0.000000 0.196461
416.000000 50.012000 -5.000000 -9.000000 -8.000000 107.350774 -45.214796 2059.394522 463.642519 19.989200 0.000000 0.154398
417.000000 53.983000 -4.000000 -9.000000 -8.000000 114.395656 -42.030717 1945.145051 283.838505 18.516902 0.000000 0.121607
418.000000 57.793000 -3.000000 -9.000000 -8.000000 121.690782 -37.901751 1812.925064 98.872359 17.294365 0.000000 0.100403
419.000000 61.254000 -2.000000 -9.000000 -8.000000 129.051294 -32.403628 1658.132717 -93.192453 16.315474 0.000000 0.089176
420.000000 64.164000 -1.000000 -9.000000 -8.000000 136.169669 -24.893392 1474.448296 -294.993611 15.574310 0.000000 0.079141
424.000000 46.204000 -3.000000 -4.000000 -4.000000 95.218208 -44.949400 2049.394937 802.112025 10.820545 0.000000 0.150000
425.000000 50.600000 -5.000000 -8.000000 -8.000000 101.872805 -42.141547 1948.925083 635.834131 19.759012 0.000000 0.100443
426.000000 55.054000 -2.000000 -4.000000 -4.000000 108.895721 -38.619098 1834.781960 469.475348 9.079231 0.000000 0.057181
427.000000 59.386000 -3.000000 -8.000000 -8.000000 116.164119 -34.109654 1703.970505 302.368026 16.831880 0.000000 0.023675
428.000000 63.370000 -1.000000 -4.000000 -4.000000 123.463165 -28.218524 1552.552015 133.659051 7.885988 0.000000 0.016914
429.000000 66.751000 -1.000000 -8.000000 -8.000000 130.443011 -20.398620 1375.240740 -37.770629 14.971713 0.000000 0.026171
430.000000 70.753000 1.000000 -8.000000 -8.000000 141.104167 3.408629 910.893667 -395.428937 14.123192 0.000000 0.014157
432.000000 45.846000 -6.000000 -7.000000 -8.000000 89.133573 -42.227274 1951.858030 962.981492 21.812728 0.000000 0.132048
433.000000 50.644000 -5.000000 -7.000000 -8.000000 95.678746 -39.156589 1851.447133 802.978270 19.744314 0.000000 0.085599
434.000000 55.581000 -4.000000 -7.000000 -8.000000 102.601651 -35.341357 1738.225783 646.030203 17.988463 0.000000 0.052995
435.000000 60.456000 -3.000000 -7.000000 -8.000000 109.765526 -30.523297 1609.575396 492.023656 16.535976 0.000000 0.045246
436.000000 65.001000 -2.000000 -7.000000 -8.000000 116.930967 -24.350656 1462.111521 340.842558 15.378010 0.000000 0.055482
437.000000 68.901000 -1.000000 -7.000000 -8.000000 123.716445 -16.380947 1291.381753 192.365837 14.506063 0.000000 0.062884
438.000000 71.838000 0.000000 -7.000000 -8.000000 129.567168 -6.172926 1091.408421 46.463646 13.911955 0.000000 0.056562
439.000000 73.547000 1.000000 -7.000000 -8.000000 133.782760 6.415771 853.974269 -97.008440 13.587819 0.000000 0.032765
440.000000 73.881000 2.000000 -7.000000 -8.000000 135.697131 20.738983 567.465221 -238.218707 13.526079 0.000000 0.055470
442.000000 49.964000 -5.000000 -6.000000 -8.000000 88.729758 -36.271618 1764.796198 970.601354 20.015419 0.000000 0.097698
443.000000 55.344000 -2.000000 -3.000000 -4.000000 95.460355 -32.209887 1653.038089 819.402530 9.033860 0.000000 0.084384
444.000000 60.744000 -3.000000 -6.000000 -8.000000 102.427926 -27.152143 1527.004172 674.435357 16.459829 0.000000 0.091719
445.000000 65.854000 -1.000000 -3.000000 -4.000000 109.376331 -20.796586 1383.772469 536.095843 7.590399 0.000000 0.104859
446.000000 70.296000 -1.000000 -6.000000 -8.000000 115.905085 -12.801879 1219.565182 404.936110 14.220143 0.000000 0.111681
447.000000 75.636000 1.000000 -6.000000 -8.000000 125.374934 8.890946 806.631063 167.532158 13.214218 0.000000 0.076210
448.000000 74.771000 3.000000 -6.000000 -8.000000 126.396535 34.954042 222.656490 -27.033955 13.366607 0.000000 0.098676
449.000000 48.373000 -5.000000 -5.000000 -8.000000 81.007884 -33.495546 1687.263326 1145.233833 20.676960 0.000000 0.111494
450.000000 54.100000 -4.000000 -5.000000 -8.000000 87.440384 -29.232530 1577.322723 996.135929 18.486364 0.000000 0.105782
451.000000 59.945000 -3.000000 -5.000000 -8.000000 94.105550 -23.998627 1454.166189 856.435294 16.681937 0.000000 0.119441
452.000000 65.567000 -2.000000 -5.000000 -8.000000 100.740362 -17.543763 1315.258306 726.887706 15.249776 0.000000 0.136775
453.000000 70.523000 -1.000000 -5.000000 -8.000000 106.939737 -9.617039 1157.370807 608.508559 14.176634 0.000000 0.146879
454.000000 74.327000 0.000000 -5.000000 -8.000000 112.159255 -0.070725 976.328552 502.664708 13.449888 0.000000 0.142599
455.000000 76.555000 1.000000 -5.000000 -8.000000 115.792728 10.956632 766.634901 411.210168 13.057497 0.000000 0.117335
456.000000 76.962000 2.000000 -5.000000 -8.000000 117.353126 22.875220 520.903940 336.692025 12.987975 0.000000 0.063039
457.000000 75.552000 3.000000 -5.000000 -8.000000 116.688948 34.727555 228.972469 282.672748 13.230353 0.000000 0.031621
458.000000 72.571000 4.000000 -5.000000 -8.000000 114.062775 45.586063 -123.540864 254.253401 13.774156 0.000000 0.183856
460.000000 45.696000 -5.000000 -4.000000 -8.000000 72.526107 -30.834594 1617.481249 1335.590292 21.891749 0.000000 0.118855
461.000000 51.604000 -2.000000 -2.000000 -4.000000 78.544828 -26.413063 1509.583004 1184.518547 9.691969 0.000000 0.108643
462.000000 57.737000 -3.000000 -4.000000 -8.000000 84.789746 -21.059624 1389.436246 1046.169247 17.323242 0.000000 0.123995
463.000000 63.734000 -1.000000 -2.000000 -4.000000 91.002184 -14.573882 1254.829811 921.546222 7.845708 0.000000 0.146019
464.000000 69.101000 -1.000000 -4.000000 -8.000000 96.788074 -6.781414 1102.986230 811.984271 14.471193 0.000000 0.161636
465.000000 75.738000 1.000000 -4.000000 -8.000000 104.982502 12.702428 732.398682 645.733501 13.201003 0.000000 0.144945
466.000000 74.655000 3.000000 -4.000000 -8.000000 105.841602 34.538349 234.222290 570.249194 13.391789 0.000000 0.041825
468.000000 47.667000 -4.000000 -3.000000 -8.000000 68.825258 -23.751827 1448.621783 1396.503004 20.988636 0.000000 0.097397
469.000000 53.841000 -3.000000 -3.000000 -8.000000 74.527421 -18.327904 1331.531890 1254.848972 18.580292 0.000000 0.101257
470.000000 59.978000 -2.000000 -3.000000 -8.000000 80.202189 -11.865571 1201.135400 1130.924119 16.677705 0.000000 0.125687
471.000000 65.555000 -1.000000 -3.000000 -8.000000 85.482622 -4.252374 1055.027328 1026.269411 15.257431 0.000000 0.148253
472.000000 69.951000 0.000000 -3.000000 -8.000000 89.897642 4.505704 890.185980 942.928747 14.297450 0.000000 0.158314
473.000000 72.588000 1.000000 -3.000000 -8.000000 92.959072 14.194694 702.761730 883.612575 13.777063 0.000000 0.150026
474.000000 73.116000 2.000000 -3.000000 -8.000000 94.311216 24.355776 487.772604 851.934523 13.676795 0.000000 0.120497
475.000000 71.537000 3.000000 -3.000000 -8.000000 93.870940 34.377924 238.654898 852.761516 13.978304 0.000000 0.084651
476.000000 68.191000 4.000000 -3.000000 -8.000000 91.856588 43.696926 -53.418676 892.745785 14.664298 0.000000 0.136916
477.000000 63.619000 5.000000 -3.000000 -8.000000 88.682875 51.959870 -400.606847 981.158819 15.718468 0.000000 0.305441
479.000000 48.116000 -3.000000 -2.000000 -8.000000 63.437637 -15.793445 1279.427583 1500.194082 20.795269 0.000000 0.066804
480.000000 54.066000 -1.000000 -1.000000 -4.000000 68.464738 -9.396345 1153.108823 1371.505219 9.252851 0.000000 0.067508
481.000000 59.555000 -1.000000 -2.000000 -8.000000 73.149796 -1.991163 1012.418812 1267.178668 16.798633 0.000000 0.095588
482.000000 63.951000 0.000000 -1.000000 -4.000000 77.081656 6.374614 854.757102 1189.402808 7.821403 0.000000 0.117451
483.000000 66.646000 1.000000 -2.000000 -8.000000 79.842476 15.483271 676.855584 1141.093998 15.009162 0.000000 0.124006
484.000000 67.263000 1.000000 -1.000000 -4.000000 81.134923 24.937275 474.549506 1126.130899 7.435327 0.000000 0.116137
485.000000 65.794000 3.000000 -2.000000 -8.000000 80.893250 34.240178 242.447331 1149.694021 15.202064 0.000000 0.115377
486.000000 62.591000 2.000000 -1.000000 -4.000000 79.301158 42.940039 -26.556886 1218.768812 7.989932 0.000000 0.176278
487.000000 58.212000 5.000000 -2.000000 -8.000000 76.705035 50.743721 -342.023782 1342.910980 17.182068 0.000000 0.323842
489.000000 46.039000 -2.000000 -1.000000 -8.000000 56.010693 -7.143930 1109.897651 1672.355029 21.736497 0.000000 0.073524
490.000000 51.089000 -1.000000 -1.000000 -8.000000 60.028124 0.036591 974.312637 1561.694717 19.586907 0.000000 0.014381
491.000000 55.206000 0.000000 -1.000000 -8.000000 63.432578 8.023574 823.285104 1484.523518 18.124927 0.000000 0.039639
492.000000 57.813000 1.000000 -1.000000 -8.000000 65.883401 16.606123 654.017489 1443.794475 17.306771 0.000000 0.075205
493.000000 58.535000 2.000000 -1.000000 -8.000000 67.139634 25.441030 462.993056 1443.495420 17.092292 0.000000 0.107365
494.000000 57.350000 3.000000 -1.000000 -8.000000 67.145157 34.120621 245.728934 1488.974322 17.444614 0.000000 0.154665
495.000000 54.579000 4.000000 -1.000000 -8.000000 66.040866 42.277501 -3.580137 1587.412458 18.329802 0.000000 0.241373
498.000000 46.526000 1.000000 0.000000 -8.000000 51.458113 17.592573 633.732893 1840.477238 21.509651 0.000000 0.165156
499.000000 47.358000 1.000000 0.000000 -4.000000 52.695117 25.881592 452.806836 1852.485207 10.565297 0.000000 0.195749
500.000000 46.611000 3.000000 0.000000 -8.000000 52.976797 34.015874 248.596404 1920.305714 21.468038 0.000000 0.258383
512.000000 48.801000 -6.000000 -8.000000 -7.000000 95.980159 -49.865128 2251.562832 766.088129 20.488805 0.000000 0.245920
513.000000 53.817000 -5.000000 -8.000000 -7.000000 103.260512 -47.481303 2148.799855 565.695849 18.577020 0.000000 0.193001
514.000000 58.944000 -4.000000 -8.000000 -7.000000 111.057223 -44.412167 2029.433061 360.892920 16.959356 0.000000 0.149974
515.000000 63.959000 -3.000000 -8.000000 -7.000000 119.266511 -40.340871 1889.084670 149.664518 15.627583 0.000000 0.120308
516.000000 68.576000 -2.000000 -8.000000 -7.000000 127.680992 -34.751355 1721.689603 -70.746192 14.573770 0.000000 0.104011
517.000000 72.465000 -1.000000 -8.000000 -7.000000 135.922239 -26.796630 1518.595912 -304.235414 13.790282 0.000000 0.091461
520.000000 48.665000 -6.000000 -7.000000 -7.000000 89.855310 -46.930985 2126.400573 944.980185 20.548772 0.000000 0.196406
521.000000 54.224000 -5.000000 -7.000000 -7.000000 97.077444 -44.207887 2021.938742 754.579030 18.439903 0.000000 0.135295
522.000000 60.012000 -4.000000 -7.000000 -7.000000 104.842996 -40.732980 1901.837544 564.582823 16.659156 0.000000 0.081015
523.000000 65.781000 -3.000000 -7.000000 -7.000000 113.030260 -36.185172 1762.300655 374.126793 15.196423 0.000000 0.036355
524.000000 71.180000 -2.000000 -7.000000 -7.000000 121.391947 -30.071658 1598.194881 182.084264 14.042007 0.000000 0.014821
525.000000 75.789000 -1.000000 -7.000000 -7.000000 129.483434 -21.658414 1402.404878 -13.062119 13.186600 0.000000 0.025469
526.000000 80.993000 1.000000 -7.000000 -7.000000 141.574443 5.556885 870.286061 -422.107683 12.337421 0.000000 0.022174
528.000000 47.783000 -6.000000 -6.000000 -7.000000 82.973629 -44.052181 2016.261280 1125.574817 20.930562 0.000000 0.177389
529.000000 53.835000 -5.000000 -6.000000 -7.000000 90.030282 -41.020880 1911.297170 940.246033 18.575704 0.000000 0.117440
530.000000 60.264000 -4.000000 -6.000000 -7.000000 97.650432 -37.191262 1791.693125 759.517902 16.591797 0.000000 0.071272
531.000000 66.802000 -3.000000 -6.000000 -7.000000 105.698665 -32.252496 1654.156665 583.303443 14.966134 0.000000 0.051630
532.000000 73.038000 -2.000000 -6.000000 -7.000000 113.895619 -25.758001 1494.328003 411.542260 13.686582 0.000000 0.060130
533.000000 78.445000 -1.000000 -6.000000 -7.000000 121.747016 -17.109632 1306.309431 244.208928 12.741550 0.000000 0.070012
534.000000 82.461000 0.000000 -6.000000 -7.000000 128.478458 -5.673283 1081.921603 81.326500 12.119958 0.000000 0.063608
535.000000 84.611000 1.000000 -6.000000 -7.000000 133.071725 8.742743 809.482025 -77.011068 11.811211 0.000000 0.034219
536.000000 84.652000 2.000000 -6.000000 -7.000000 134.598014 25.061669 471.704698 -230.600095 11.805171 0.000000 0.073660
538.000000 45.967000 -6.000000 -5.000000 -7.000000 75.312295 -41.241229 1918.593326 1316.180730 21.760725 0.000000 0.179755
539.000000 52.391000 -5.000000 -5.000000 -7.000000 82.077248 -37.935755 1813.951469 1130.912137 19.090326 0.000000 0.124574
540.000000 59.363000 -4.000000 -5.000000 -7.000000 89.414887 -33.804874 1695.648811 954.228024 16.846453 0.000000 0.094757
541.000000 66.606000 -3.000000 -5.000000 -7.000000 97.182618 -28.559308 1560.823455 786.573998 15.012655 0.000000 0.096183
542.000000 73.659000 -2.000000 -5.000000 -7.000000 105.081368 -21.812256 1405.754077 628.603355 13.573315 0.000000 0.112204
543.000000 79.887000 -1.000000 -5.000000 -7.000000 112.588957 -13.102505 1225.511135 481.256365 12.513599 0.000000 0.123091
544.000000 84.570000 0.000000 -5.000000 -7.000000 118.924181 -2.044564 1013.423198 345.881982 11.819410 0.000000 0.116656
545.000000 87.085000 1.000000 -5.000000 -7.000000 123.140637 11.284753 760.233017 224.430717 11.477336 0.000000 0.082638
546.000000 87.102000 2.000000 -5.000000 -7.000000 124.467974 25.885753 452.710279 119.772102 11.474618 0.000000 0.020358
547.000000 84.708000 3.000000 -5.000000 -7.000000 122.772345 40.019298 71.263960 36.241501 11.799103 0.000000 0.139082
549.000000 49.638000 -5.000000 -4.000000 -7.000000 73.212464 -34.964673 1727.640820 1337.210792 20.152601 0.000000 0.137397
550.000000 56.947000 -4.000000 -4.000000 -7.000000 80.110832 -30.585850 1611.159945 1158.958872 17.564498 0.000000 0.109203
551.000000 64.709000 -3.000000 -4.000000 -7.000000 87.433398 -25.112237 1479.453420 994.281878 15.455726 0.000000 0.116593
552.000000 72.435000 -2.000000 -4.000000 -7.000000 94.877238 -18.222079 1329.327189 844.310937 13.805437 0.000000 0.138675
553.000000 79.393000 -1.000000 -4.000000 -7.000000 101.918069 -9.578524 1156.626622 710.622897 12.593975 0.000000 0.155084
554.000000 84.706000 0.000000 -4.000000 -7.000000 107.798627 1.019539 955.846056 595.413458 11.802792 0.000000 0.154054
555.000000 87.582000 1.000000 -4.000000 -7.000000 111.656499 13.352613 719.531028 501.762963 11.414371 0.000000 0.126029
556.000000 87.596000 2.000000 -4.000000 -7.000000 112.848447 26.544629 437.332307 434.057731 11.412154 0.000000 0.060215
557.000000 84.857000 3.000000 -4.000000 -7.000000 111.305093 39.287682 94.449676 398.683931 11.780479 0.000000 0.067325
559.000000 52.698000 -4.000000 -3.000000 -7.000000 69.774061 -27.540868 1536.259445 1388.232310 18.984246 0.000000 0.110251
560.000000 60.642000 -3.000000 -3.000000 -7.000000 76.472021 -21.909965 1407.884988 1220.111151 16.495782 0.000000 0.106486
561.000000 68.723000 -2.000000 -3.000000 -7.000000 83.286529 -14.966058 1262.708915 1072.140491 14.554574 0.000000 0.131624
562.000000 76.151000 -1.000000 -3.000000 -7.000000 89.719471 -6.477587 1097.201775 946.303611 13.133341 0.000000 0.155920
563.000000 81.924000 0.000000 -3.000000 -7.000000 95.068960 3.627263 906.771121 845.339351 12.206582 0.000000 0.164178
564.000000 85.098000 1.000000 -3.000000 -7.000000 98.569725 15.063510 685.328745 773.035948 11.750438 0.000000 0.147471
565.000000 85.151000 2.000000 -3.000000 -7.000000 99.685487 27.083319 424.627728 734.682576 11.742561 0.000000 0.100502
566.000000 82.213000 3.000000 -3.000000 -7.000000 98.384174 38.684209 113.212610 737.785810 12.161996 0.000000 0.073364
567.000000 76.980000 4.000000 -3.000000 -7.000000 95.141125 49.049767 -265.309124 793.250612 12.989074 0.000000 0.222625
569.000000 46.452000 -4.000000 -2.000000 -7.000000 58.522848 -24.671990 1469.402725 1666.162092 21.541243 0.000000 0.137502
570.000000 54.097000 -3.000000 -2.000000 -7.000000 64.420326 -18.945247 1344.447753 1485.711875 18.495708 0.000000 0.079810
571.000000 62.031000 -2.000000 -2.000000 -7.000000 70.430492 -12.017899 1204.124865 1332.179498 16.128637 0.000000 0.080991
572.000000 69.473000 -1.000000 -2.000000 -7.000000 76.109357 -3.743064 1045.413201 1207.738374 14.399622 0.000000 0.111920
573.000000 75.372000 0.000000 -2.000000 -7.000000 80.841673 5.864769 864.444644 1115.431381 13.271404 0.000000 0.133484
574.000000 78.698000 1.000000 -2.000000 -7.000000 83.975249 16.500134 656.184379 1059.471977 12.709568 0.000000 0.133738
575.000000 78.863000 2.000000 -2.000000 -7.000000 85.069958 27.531886 413.955155 1045.695900 12.682279 0.000000 0.113858
576.000000 75.998000 3.000000 -2.000000 -7.000000 84.109651 38.178027 128.708071 1082.256616 13.160044 0.000000 0.118938
577.000000 70.854000 4.000000 -2.000000 -7.000000 81.491269 47.803501 -212.132990 1180.730325 14.115501 0.000000 0.237929
579.000000 52.283000 -2.000000 -1.000000 -7.000000 56.580641 -9.349470 1152.204291 1660.768735 19.140594 0.000000 0.074301
580.000000 59.142000 -1.000000 -1.000000 -7.000000 61.381099 -1.324119 999.877838 1528.432225 16.919648 0.000000 0.004549
581.000000 64.700000 0.000000 -1.000000 -7.000000 65.420623 7.800097 827.564172 1437.894935 15.464816 0.000000 0.049252
582.000000 67.959000 1.000000 -1.000000 -7.000000 68.175367 17.722099 631.053213 1393.497494 14.722110 0.000000 0.083882
583.000000 68.324000 2.000000 -1.000000 -7.000000 69.295972 27.911156 404.863181 1401.332598 14.642500 0.000000 0.114757
584.000000 65.897000 3.000000 -1.000000 -7.000000 68.765359 37.747428 141.721214 1469.907054 15.181353 0.000000 0.175790
585.000000 61.381000 4.000000 -1.000000 -7.000000 66.886531 46.727465 -168.233206 1611.164837 16.297957 0.000000 0.304366
597.000000 51.430000 -6.000000 -7.000000 -6.000000 90.199500 -52.208577 2362.979211 934.884340 19.443350 0.000000 0.315705
598.000000 57.834000 -5.000000 -7.000000 -6.000000 98.106009 -50.008389 2258.059049 702.474433 17.288239 0.000000 0.248320
599.000000 64.587000 -4.000000 -7.000000 -6.000000 106.755314 -47.122270 2134.133781 464.780873 15.478473 0.000000 0.191394
600.000000 71.383000 -3.000000 -7.000000 -6.000000 116.063478 -43.194843 1985.525304 218.916543 14.002892 0.000000 0.149639
601.000000 77.772000 -2.000000 -7.000000 -6.000000 125.810729 -37.606190 1804.043429 -39.221015 12.850812 0.000000 0.125437
602.000000 83.193000 -1.000000 -7.000000 -6.000000 135.535853 -29.236630 1577.423886 -315.708965 12.012002 0.000000 0.108981
605.000000 50.738000 -2.000000 -2.000000 -2.000000 83.220572 -49.113301 2218.091095 1136.470782 6.570373 0.000000 0.262912
606.000000 57.829000 -5.000000 -6.000000 -6.000000 91.018686 -46.519359 2109.945272 913.187686 17.292056 0.000000 0.185815
607.000000 65.494000 -2.000000 -3.000000 -3.000000 99.609617 -43.146213 1983.807912 691.240327 7.633016 0.000000 0.116349
608.000000 87.610000 -1.000000 -6.000000 -6.000000 128.180581 -23.259327 1437.620086 19.758289 11.407532 0.000000 0.024077
609.000000 48.973000 -6.000000 -5.000000 -6.000000 75.345565 -46.066915 2092.143402 1346.648109 20.424409 0.000000 0.245234
610.000000 56.625000 -5.000000 -5.000000 -6.000000 82.878576 -43.111293 1982.576358 1125.196125 17.662510 0.000000 0.165978
611.000000 65.119000 -4.000000 -5.000000 -6.000000 91.237662 -39.306992 1856.156019 910.948239 15.356468 0.000000 0.100938
612.000000 74.131000 -3.000000 -5.000000 -6.000000 100.317468 -34.280804 1708.669920 703.873201 13.487611 0.000000 0.063169
613.000000 83.044000 -2.000000 -5.000000 -6.000000 109.811120 -27.461906 1534.374133 504.036114 12.038271 0.000000 0.065874
614.000000 45.890000 -3.000000 -2.000000 -3.000000 66.564856 -43.085001 1981.650028 1579.794831 10.899989 0.000000 0.255559
615.000000 53.852000 -5.000000 -4.000000 -6.000000 73.649313 -39.804545 1871.879245 1352.026879 18.575074 0.000000 0.173207
616.000000 62.935000 -2.000000 -2.000000 -3.000000 81.566618 -35.630147 1746.407903 1137.327792 7.946209 0.000000 0.115843
617.000000 72.856000 -3.000000 -4.000000 -6.000000 90.212013 -30.207548 1601.608063 936.391563 13.726368 0.000000 0.100543
618.000000 49.192000 -5.000000 -3.000000 -6.000000 63.358189 -36.615607 1774.781651 1613.705869 20.338455 0.000000 0.200164
619.000000 58.425000 -4.000000 -3.000000 -6.000000 70.598042 -32.133820 1651.043766 1388.639081 17.122761 0.000000 0.129600
620.000000 79.697000 -2.000000 -3.000000 -6.000000 86.880743 -19.033315 1346.297999 1003.044866 12.549390 0.000000 0.131413
621.000000 89.890000 -1.000000 -3.000000 -6.000000 94.936737 -9.531389 1155.716106 846.732470 11.124921 0.000000 0.157668
623.000000 51.250000 -2.000000 -1.000000 -3.000000 58.445697 -28.829094 1567.409699 1695.464842 9.762086 0.000000 0.167626
624.000000 61.357000 -3.000000 -2.000000 -6.000000 65.419691 -22.899559 1429.634738 1475.438597 16.306622 0.000000 0.096193
625.000000 82.762000 -1.000000 -2.000000 -6.000000 79.847929 -6.110512 1090.222398 1134.827814 12.086570 0.000000 0.128287
626.000000 88.797000 3.000000 -2.000000 -6.000000 87.765785 43.432947 -43.973917 998.824188 11.262109 0.000000 0.147243
627.000000 50.393000 -3.000000 -1.000000 -6.000000 51.126324 -19.660505 1359.532330 1862.356470 19.859285 0.000000 0.185083
628.000000 60.261000 -2.000000 -1.000000 -6.000000 57.207849 -12.197298 1207.649926 1650.430441 16.606138 0.000000 0.079542
629.000000 70.002000 -1.000000 -1.000000 -6.000000 63.109552 -3.135184 1033.952896 1487.627801 14.294155 0.000000 0.020495
630.000000 77.880000 0.000000 -1.000000 -6.000000 68.054277 7.496094 833.377812 1378.403694 12.847094 0.000000 0.065707
631.000000 82.026000 1.000000 -1.000000 -6.000000 71.181858 19.248976 599.162801 1329.499909 12.196732 0.000000 0.095301
632.000000 81.452000 2.000000 -1.000000 -6.000000 71.964915 31.242934 322.070202 1350.880596 12.281835 0.000000 0.123558
633.000000 76.671000 3.000000 -1.000000 -6.000000 70.521183 42.488964 -10.860695 1457.251960 13.047289 0.000000 0.215926
636.000000 52.281000 -1.000000 0.000000 -6.000000 45.394029 -0.536963 985.087080 2002.638200 19.144302 0.000000 0.233577
637.000000 58.878000 0.000000 0.000000 -2.000000 49.317661 9.486947 795.142159 1879.011090 5.666103 0.000000 0.170562
638.000000 62.644000 1.000000 0.000000 -6.000000 51.976547 20.351768 575.760772 1838.637928 15.975122 0.000000 0.171653
639.000000 62.701000 2.000000 0.000000 -6.000000 52.985957 31.341859 319.525337 1891.098919 15.959512 0.000000 0.233851
652.000000 70.823000 -4.000000 -6.000000 -5.000000 101.074793 -50.219091 2267.684090 611.754650 14.116805 0.000000 0.254607
653.000000 80.334000 -3.000000 -6.000000 -5.000000 111.694511 -46.560846 2111.592446 318.254030 12.443358 0.000000 0.195131
654.000000 89.584000 -2.000000 -6.000000 -5.000000 123.150703 -41.132291 1914.980067 7.659399 11.156743 0.000000 0.158295
656.000000 71.188000 -4.000000 -5.000000 -5.000000 92.674825 -45.916554 2086.291830 868.724006 14.046561 0.000000 0.171249
657.000000 82.386000 -3.000000 -5.000000 -5.000000 103.250809 -41.501502 1927.275029 602.588029 12.135391 0.000000 0.091226
659.000000 58.163000 -5.000000 -4.000000 -5.000000 73.661370 -45.464910 2068.904103 1390.875466 17.197845 0.000000 0.245198
660.000000 69.443000 -4.000000 -4.000000 -5.000000 82.712690 -41.743056 1935.395051 1125.462104 14.402352 0.000000 0.151648
661.000000 82.187000 -3.000000 -4.000000 -5.000000 92.938372 -36.686488 1776.850249 872.108285 12.167106 0.000000 0.085674
662.000000 53.092000 -5.000000 -3.000000 -5.000000 62.806423 -41.913397 1941.157989 1684.107738 18.844023 0.000000 0.267663
663.000000 64.771000 -4.000000 -3.000000 -5.000000 71.126080 -37.734810 1807.899767 1406.258619 15.444636 0.000000 0.166380
664.000000 78.498000 -3.000000 -3.000000 -5.000000 80.616024 -32.161034 1651.756870 1151.110446 12.741938 0.000000 0.110062
665.000000 56.529000 -4.000000 -2.000000 -5.000000 58.000604 -33.918855 1698.753964 1751.441404 17.700512 0.000000 0.215156
666.000000 70.130000 -3.000000 -2.000000 -5.000000 66.323305 -27.950895 1546.093138 1475.259706 14.266291 0.000000 0.119300
667.000000 85.628000 -2.000000 -2.000000 -5.000000 75.479597 -20.020340 1367.171832 1237.685950 11.682657 0.000000 0.104208
668.000000 56.582000 -3.000000 -1.000000 -5.000000 50.384912 -24.064895 1455.658517 1916.666399 17.686778 0.000000 0.220435
669.000000 70.667000 -2.000000 -1.000000 -5.000000 57.854197 -15.993019 1283.480509 1644.589971 14.160564 0.000000 0.092118
670.000000 85.312000 -1.000000 -1.000000 -5.000000 65.381783 -5.658185 1081.635188 1436.594632 11.728484 0.000000 0.042147
671.000000 90.181000 3.000000 -1.000000 -5.000000 72.249547 48.845471 -256.411550 1464.534439 11.091982 0.000000 0.308322
681.000000 71.415000 -4.000000 -3.000000 -4.000000 71.067171 -44.567001 2035.148331 1459.207870 14.007187 0.000000 0.247104
682.000000 89.642000 -3.000000 -3.000000 -4.000000 82.382226 -39.574263 1864.574015 1127.751751 11.157182 0.000000 0.134072
684.000000 61.961000 -2.000000 -1.000000 -2.000000 56.921140 -40.181105 1883.930933 1858.609355 8.074138 0.000000 0.297656
685.000000 80.467000 -3.000000 -2.000000 -4.000000 66.879991 -34.507108 1714.913174 1498.635387 12.432986 0.000000 0.160277
687.000000 63.521000 -3.000000 -1.000000 -4.000000 49.020807 -29.794032 1591.250664 2018.326323 15.754532 0.000000 0.281442
688.000000 84.440000 -2.000000 -1.000000 -4.000000 58.393086 -21.246399 1393.470089 1651.620099 11.850497 0.000000 0.117038
690.000000 72.602000 -1.000000 0.000000 -4.000000 43.148774 -5.087088 1070.812228 2093.732977 13.786174 0.000000 0.283351
#UB matrix in q= (UB) B0 G* 
#[[-0.088982178  0.894075759  0.436864485]
# [ 0.922841911  0.239261167 -0.301710611]
# [-0.374759895  0.376865161 -0.847413689]]
#B0 matrix in q= UB (B0) G*
#[[ 0.19670273 -0.          0.03056101]
# [ 0.          0.19187965 -0.        ]
# [ 0.          0.          0.18806537]]
#UBB0 matrix in q= (UB B0) G* i.e. recip. basis vectors are columns in LT frame: astar = UBB0[:,0], bstar = UBB0[:,1], cstar = UBB0[:,2]. (abcstar as columns on xyzlab1, xlab1 = ui, ui = unit vector along incident beam)
#[[-0.01750304  0.17155495  0.0794397 ]
# [ 0.18152553  0.04590935 -0.02853834]
# [-0.0737163   0.07231276 -0.17082221]]
#Euler angles phi theta psi (deg)
#[224.82  147.882 124.578]
#deviatoric strain in direct crystal frame (10-3 unit)
#[[ 1.28 -0.08 -0.25]
# [-0.08  1.92  0.89]
# [-0.25  0.89 -3.2 ]]
#deviatoric strain in sample2 frame (10-3 unit)
#[[ 1.3  -0.48 -1.83]
# [-0.48  0.88 -1.2 ]
# [-1.83 -1.2  -2.18]]
#new lattice parameters
#[ 5.1505     5.2149118  5.3170995 89.945051  99.2452517 90.0093644]
#CCDLabel
#sCMOS
#DetectorParameters
#[79.0, 975.0, 941.0, 0.0, 0.0]
#pixelsize
#0.0734
#Frame dimensions
#[2018, 2016]
#
