#Strain and Orientation Refinement from experimental file: /home/micha/LaueProjects/DepthEffects/testZrO2_67.cor
#File created at Wed Jun 28 14:22:34 2023 with indexingSpotsSet.py
#Number of indexed spots: 537
#Element
#ZrO2
#grainIndex
#G_0
#Mean Deviation(pixel): 0.115
##spot_index intensity h k l 2theta Chi Xexp Yexp Energy GrainIndex PixDev
12.000000 49.497000 -2.000000 9.000000 -7.000000 87.547778 51.671393 -386.426870 1015.322834 20.215787 0.000000 0.311604
13.000000 46.033000 -1.000000 9.000000 -7.000000 78.188691 49.654544 -292.083426 1288.657032 21.740528 0.000000 0.291816
16.000000 48.613000 -3.000000 10.000000 -7.000000 95.785354 49.484184 -284.474512 773.145455 20.580601 0.000000 0.244903
17.000000 46.308000 -2.000000 10.000000 -7.000000 87.312829 47.605613 -203.924548 1015.922842 21.608364 0.000000 0.215691
19.000000 47.822000 -5.000000 11.000000 -7.000000 109.851343 49.299997 -276.307405 345.108960 20.915950 0.000000 0.271980
20.000000 46.967000 -4.000000 11.000000 -7.000000 102.636689 47.359187 -193.789161 584.779218 21.299582 0.000000 0.200828
21.000000 45.481000 -3.000000 11.000000 -7.000000 94.958120 45.616652 -124.714695 807.509241 21.998448 0.000000 0.163471
28.000000 57.539000 -1.000000 4.000000 -3.000000 90.465652 50.935631 -351.063876 927.119491 8.694615 0.000000 0.286267
29.000000 53.301000 -1.000000 8.000000 -6.000000 79.860462 48.656070 -248.227271 1232.386847 18.775738 0.000000 0.262681
30.000000 47.590000 0.000000 4.000000 -3.000000 68.749163 46.633385 -164.478521 1550.564543 10.516440 0.000000 0.279620
33.000000 55.832000 -1.000000 3.000000 -2.000000 99.366866 48.413702 -237.843510 673.518780 5.972815 0.000000 0.220555
34.000000 53.217000 -2.000000 9.000000 -6.000000 89.917238 46.319810 -152.057525 943.251076 18.802221 0.000000 0.184945
35.000000 49.396000 -1.000000 9.000000 -6.000000 79.921846 44.463490 -81.324150 1209.032325 20.260275 0.000000 0.189619
38.000000 53.255000 -2.000000 5.000000 -3.000000 106.565183 45.978588 -138.702148 480.311101 9.391743 0.000000 0.180368
39.000000 51.713000 -3.000000 10.000000 -6.000000 98.120841 44.065932 -66.761465 727.262689 19.346469 0.000000 0.134324
40.000000 49.237000 -1.000000 5.000000 -3.000000 89.145507 42.370899 -6.789724 962.728194 10.161385 0.000000 0.130159
41.000000 45.793000 -1.000000 10.000000 -6.000000 79.733121 40.860866 43.970636 1198.772108 21.854806 0.000000 0.149887
43.000000 50.588000 -6.000000 11.000000 -6.000000 119.491505 45.605923 -124.302836 70.879191 19.769441 0.000000 0.239904
44.000000 50.356000 -5.000000 11.000000 -6.000000 112.432747 43.634214 -51.167415 327.072232 19.862986 0.000000 0.156560
45.000000 49.507000 -4.000000 11.000000 -6.000000 104.846137 41.896754 9.406421 557.716824 20.206165 0.000000 0.102185
46.000000 47.950000 -3.000000 11.000000 -6.000000 96.767864 40.356835 60.399047 773.383599 20.865196 0.000000 0.088681
47.000000 45.625000 -2.000000 11.000000 -6.000000 88.255722 38.984467 103.917105 983.165807 21.931990 0.000000 0.105970
50.000000 47.427000 -2.000000 4.000000 -2.000000 117.259904 41.383005 26.686186 201.884860 7.029259 0.000000 0.142924
51.000000 47.022000 -5.000000 12.000000 -6.000000 110.400857 39.813458 77.837020 419.881270 21.272254 0.000000 0.083718
52.000000 46.082000 -2.000000 6.000000 -3.000000 103.097756 38.421657 121.277082 621.369727 10.854393 0.000000 0.059071
61.000000 68.413000 -2.000000 7.000000 -5.000000 94.257911 49.916759 -303.899612 816.552204 14.624424 0.000000 0.256146
62.000000 63.156000 -1.000000 7.000000 -5.000000 82.037408 47.302065 -191.453267 1163.001782 15.845175 0.000000 0.227179
63.000000 55.564000 0.000000 7.000000 -5.000000 69.105236 45.035517 -102.629460 1522.438438 18.014271 0.000000 0.250486
67.000000 65.217000 -3.000000 8.000000 -5.000000 103.864445 46.941930 -176.841569 551.909706 15.338762 0.000000 0.194049
68.000000 62.309000 -2.000000 8.000000 -5.000000 93.202673 44.588765 -85.954129 856.434389 16.057679 0.000000 0.149014
69.000000 57.596000 -1.000000 8.000000 -5.000000 81.792186 42.550464 -12.987318 1151.737062 17.375372 0.000000 0.158330
70.000000 51.120000 0.000000 8.000000 -5.000000 69.845616 40.772053 46.883443 1462.615544 19.580603 0.000000 0.191087
73.000000 61.133000 -4.000000 9.000000 -5.000000 111.350678 44.095693 -67.844825 355.175450 16.361451 0.000000 0.160340
74.000000 59.641000 -3.000000 9.000000 -5.000000 101.992403 41.994603 6.083848 633.381815 16.773723 0.000000 0.101657
75.000000 56.830000 -2.000000 9.000000 -5.000000 91.930171 40.174571 66.279304 893.529015 17.606473 0.000000 0.101007
76.000000 52.615000 -1.000000 9.000000 -5.000000 81.286851 38.585774 116.243010 1152.019786 19.020924 0.000000 0.128011
77.000000 47.054000 0.000000 9.000000 -5.000000 70.234068 37.188813 158.379342 1426.493022 21.272803 0.000000 0.158093
80.000000 56.254000 -4.000000 10.000000 -5.000000 108.974881 39.521830 87.082520 461.250628 17.781359 0.000000 0.075241
81.000000 54.650000 -3.000000 10.000000 -5.000000 100.059414 37.908436 136.873215 699.007284 18.306259 0.000000 0.062207
82.000000 51.984000 -2.000000 10.000000 -5.000000 90.582371 36.498548 178.626331 927.390697 19.248622 0.000000 0.090313
83.000000 48.215000 -1.000000 10.000000 -5.000000 80.648556 35.257372 214.142741 1158.057885 20.757056 0.000000 0.117638
86.000000 52.888000 -6.000000 11.000000 -5.000000 121.988217 38.805986 109.452034 78.354928 18.909053 0.000000 0.134080
87.000000 52.717000 -5.000000 11.000000 -5.000000 114.586601 37.170690 158.915646 322.981170 18.972955 0.000000 0.064179
88.000000 51.865000 -4.000000 11.000000 -5.000000 106.632260 35.751229 200.143935 544.828850 19.287349 0.000000 0.034657
89.000000 50.224000 -3.000000 11.000000 -5.000000 98.162518 34.508962 235.035526 753.656943 19.920361 0.000000 0.065383
90.000000 47.725000 -2.000000 11.000000 -5.000000 89.239834 33.413637 264.947068 958.108156 20.967282 0.000000 0.096052
93.000000 49.187000 -7.000000 12.000000 -5.000000 125.821720 36.364356 182.520451 -23.738868 20.330958 0.000000 0.129227
94.000000 49.296000 -6.000000 12.000000 -5.000000 119.152087 34.939766 223.055635 208.658955 20.288046 0.000000 0.062717
95.000000 48.910000 -5.000000 12.000000 -5.000000 112.001726 33.700963 257.174800 418.262380 20.450502 0.000000 0.015820
96.000000 47.941000 -4.000000 12.000000 -5.000000 104.389715 32.614791 286.289548 613.165371 20.867089 0.000000 0.047692
97.000000 46.314000 -3.000000 12.000000 -5.000000 96.352432 31.655333 311.425681 800.236209 21.603338 0.000000 0.082199
98.000000 45.839000 -8.000000 13.000000 -5.000000 128.968008 34.055903 247.501448 -109.790801 21.814862 0.000000 0.125938
99.000000 46.107000 -7.000000 13.000000 -5.000000 122.910677 32.826326 280.675541 112.062797 21.690050 0.000000 0.065448
100.000000 46.010000 -6.000000 13.000000 -5.000000 116.435731 31.754749 308.845507 311.682632 21.738245 0.000000 0.011512
101.000000 45.476000 -5.000000 13.000000 -5.000000 109.551726 30.813181 333.064203 495.947681 21.995903 0.000000 0.034953
104.000000 86.681000 -1.000000 5.000000 -4.000000 85.237015 52.227483 -413.925378 1087.407623 11.544086 0.000000 0.333029
105.000000 73.822000 0.000000 5.000000 -4.000000 68.205545 48.769574 -253.124533 1593.971353 13.558926 0.000000 0.325533
108.000000 77.186000 -1.000000 6.000000 -4.000000 84.979347 45.364288 -115.068238 1075.578622 12.964631 0.000000 0.183466
109.000000 66.626000 0.000000 3.000000 -2.000000 69.529650 42.809790 -22.001081 1488.665892 7.511719 0.000000 0.216411
110.000000 52.813000 1.000000 6.000000 -4.000000 53.599846 40.646838 50.976972 1986.836548 18.957166 0.000000 0.289361
112.000000 77.734000 -3.000000 7.000000 -4.000000 109.645382 44.794873 -93.615182 399.577048 12.867722 0.000000 0.166856
113.000000 74.679000 -2.000000 7.000000 -4.000000 97.452032 42.138490 1.179368 751.147759 13.396951 0.000000 0.107032
114.000000 68.785000 -1.000000 7.000000 -4.000000 84.186002 39.913597 74.644231 1083.881109 14.548438 0.000000 0.125868
115.000000 60.039000 0.000000 7.000000 -4.000000 70.162111 38.028295 133.250461 1433.942359 16.671856 0.000000 0.164639
116.000000 48.984000 1.000000 7.000000 -4.000000 55.805785 36.413638 181.091905 1849.714132 20.439257 0.000000 0.221810
118.000000 69.934000 -3.000000 8.000000 -4.000000 106.803022 39.097169 100.407658 522.208952 14.303660 0.000000 0.065555
119.000000 66.818000 -1.000000 4.000000 -2.000000 95.385394 37.180421 158.627716 813.651821 7.486949 0.000000 0.074882
120.000000 61.574000 -1.000000 8.000000 -4.000000 83.167755 35.553464 205.770457 1099.504094 16.252940 0.000000 0.111510
121.000000 54.259000 0.000000 4.000000 -2.000000 70.397191 34.157316 244.722708 1404.215753 9.224080 0.000000 0.139533
123.000000 64.913000 -5.000000 9.000000 -4.000000 123.021236 38.182943 128.558637 51.070585 15.406069 0.000000 0.132616
124.000000 64.661000 -4.000000 9.000000 -4.000000 113.929684 36.240620 186.099281 348.823040 15.468377 0.000000 0.049038
125.000000 63.131000 -3.000000 9.000000 -4.000000 104.014608 34.608281 232.284698 614.603806 15.846068 0.000000 0.042083
126.000000 60.095000 -2.000000 9.000000 -4.000000 93.354596 33.219320 270.174316 865.588420 16.649864 0.000000 0.085203
127.000000 55.448000 -1.000000 9.000000 -4.000000 82.086658 32.024405 301.819072 1117.456362 18.049185 0.000000 0.112530
128.000000 49.269000 0.000000 9.000000 -4.000000 70.406017 30.986380 328.645313 1387.901191 20.316987 0.000000 0.126910
130.000000 59.336000 -3.000000 5.000000 -2.000000 127.470173 35.193684 215.935570 -68.509670 8.426517 0.000000 0.127481
131.000000 59.570000 -5.000000 10.000000 -4.000000 119.462095 33.565434 260.847358 211.333288 16.788950 0.000000 0.049146
132.000000 58.936000 -2.000000 5.000000 -2.000000 110.758160 32.192828 297.409465 458.941551 8.486109 0.000000 0.019612
133.000000 57.247000 -3.000000 10.000000 -4.000000 101.394212 31.021305 327.752323 687.893817 17.475957 0.000000 0.068674
134.000000 54.366000 -1.000000 5.000000 -2.000000 91.443961 30.010492 353.338399 909.669224 9.202629 0.000000 0.101394
135.000000 50.250000 -1.000000 10.000000 -4.000000 81.023271 29.129959 375.204953 1135.638497 19.916794 0.000000 0.116665
138.000000 54.442000 -7.000000 11.000000 -4.000000 130.969906 32.409772 291.705360 -166.055021 18.366999 0.000000 0.123772
139.000000 54.915000 -6.000000 11.000000 -4.000000 123.834294 31.065458 326.622436 98.754200 18.210865 0.000000 0.055023
140.000000 54.785000 -5.000000 11.000000 -4.000000 116.111526 29.927995 355.403374 332.290877 18.256547 0.000000 0.008126
141.000000 53.910000 -4.000000 11.000000 -4.000000 107.815356 28.953773 379.535024 545.715048 18.555564 0.000000 0.056473
142.000000 52.167000 -3.000000 11.000000 -4.000000 98.983980 28.110463 400.059767 748.083984 19.178601 0.000000 0.092859
143.000000 49.476000 -2.000000 11.000000 -4.000000 89.684603 27.373642 417.730045 947.671815 20.225337 0.000000 0.114181
144.000000 45.824000 -1.000000 11.000000 -4.000000 80.014989 26.724542 433.102616 1153.151705 21.841010 0.000000 0.120331
147.000000 50.175000 -4.000000 6.000000 -2.000000 133.768701 29.822590 358.036793 -247.378698 9.964129 0.000000 0.120070
148.000000 50.755000 -7.000000 12.000000 -4.000000 127.346739 28.732647 384.948750 4.370121 19.702378 0.000000 0.060969
149.000000 50.906000 -3.000000 6.000000 -2.000000 120.427126 27.806563 407.376826 226.332311 9.823028 0.000000 0.015017
150.000000 50.524000 -5.000000 12.000000 -4.000000 113.012290 27.010363 426.355456 427.901130 19.797380 0.000000 0.047080
151.000000 49.507000 -1.000000 3.000000 -1.000000 105.120639 26.318763 442.623602 616.544956 5.051692 0.000000 0.084296
152.000000 47.776000 -3.000000 12.000000 -4.000000 96.790287 25.712591 456.723221 798.760399 20.942403 0.000000 0.110278
154.000000 46.454000 -9.000000 13.000000 -4.000000 136.039828 27.421480 416.590022 -316.360403 21.524145 0.000000 0.115943
155.000000 47.071000 -8.000000 13.000000 -4.000000 130.210411 26.557771 437.023807 -76.205967 21.243749 0.000000 0.065446
156.000000 47.376000 -7.000000 13.000000 -4.000000 123.956216 25.820621 454.221055 135.840980 21.109043 0.000000 0.024026
157.000000 47.291000 -6.000000 13.000000 -4.000000 117.274002 25.184311 468.894295 327.814191 21.149247 0.000000 0.040109
158.000000 46.738000 -5.000000 13.000000 -4.000000 110.171184 24.629603 481.561205 506.043315 21.401953 0.000000 0.075697
159.000000 45.648000 -4.000000 13.000000 -4.000000 102.668621 24.141832 492.606952 675.877177 21.916356 0.000000 0.104223
162.000000 82.865000 0.000000 5.000000 -3.000000 70.006812 39.508905 87.490494 1448.558148 12.079462 0.000000 0.177897
163.000000 61.225000 1.000000 5.000000 -3.000000 50.208999 37.193795 158.231886 2066.349518 16.353521 0.000000 0.273030
164.000000 84.749000 -1.000000 6.000000 -3.000000 87.315636 36.067569 191.085480 1003.428464 11.807589 0.000000 0.100230
165.000000 56.019000 1.000000 6.000000 -3.000000 53.061931 32.579461 287.224587 1901.336737 17.873314 0.000000 0.202887
167.000000 83.969000 -4.000000 7.000000 -3.000000 124.629167 37.163291 159.134504 8.287430 11.909475 0.000000 0.130585
168.000000 83.561000 -3.000000 7.000000 -3.000000 112.849974 34.785782 227.352014 388.774781 11.969997 0.000000 0.027609
169.000000 80.317000 -2.000000 7.000000 -3.000000 99.717932 32.887559 279.045481 721.501639 12.456432 0.000000 0.065241
170.000000 73.694000 -1.000000 7.000000 -3.000000 85.437551 31.340119 319.570141 1041.558684 13.579634 0.000000 0.108083
171.000000 63.689000 0.000000 7.000000 -3.000000 70.377239 30.056201 352.192761 1384.347979 15.717150 0.000000 0.124188
172.000000 51.036000 1.000000 7.000000 -3.000000 55.040616 28.974789 379.019285 1801.156090 19.618512 0.000000 0.160859
174.000000 74.667000 -5.000000 8.000000 -3.000000 129.891621 33.315406 267.592446 -135.579719 13.392224 0.000000 0.124967
175.000000 75.209000 -4.000000 8.000000 -3.000000 119.877726 31.453309 316.651881 216.155438 13.297843 0.000000 0.030795
176.000000 74.016000 -3.000000 8.000000 -3.000000 108.768991 29.957642 354.661682 518.847691 13.514787 0.000000 0.044971
177.000000 70.635000 -2.000000 8.000000 -3.000000 96.644874 28.731488 384.977059 798.009496 14.164936 0.000000 0.095671
178.000000 64.803000 -1.000000 8.000000 -3.000000 83.683751 27.708897 409.719668 1075.564640 15.443336 0.000000 0.117915
179.000000 56.610000 0.000000 8.000000 -3.000000 70.168260 26.843576 430.296796 1376.042465 17.682800 0.000000 0.117089
180.000000 46.566000 1.000000 8.000000 -3.000000 56.461572 26.102155 447.678675 1735.447049 21.501627 0.000000 0.133913
182.000000 67.811000 -5.000000 9.000000 -3.000000 125.095659 28.407639 392.864392 81.150935 14.747319 0.000000 0.042584
183.000000 67.623000 -4.000000 9.000000 -3.000000 115.538164 27.263038 420.362103 362.488532 14.790793 0.000000 0.033063
184.000000 62.707000 -2.000000 9.000000 -3.000000 93.925770 25.526858 461.014512 859.149278 15.956596 0.000000 0.116082
185.000000 57.598000 -1.000000 9.000000 -3.000000 82.105261 24.853438 476.463560 1105.480680 17.375866 0.000000 0.124341
186.000000 50.792000 0.000000 3.000000 -1.000000 69.878402 24.273912 489.624352 1373.571266 6.569543 0.000000 0.112991
188.000000 60.427000 -7.000000 10.000000 -3.000000 136.702041 26.660438 434.611210 -337.103382 16.546684 0.000000 0.114458
189.000000 61.450000 -6.000000 10.000000 -3.000000 129.074240 25.628397 458.670147 -28.232199 16.272967 0.000000 0.051407
190.000000 61.749000 -5.000000 10.000000 -3.000000 120.725554 24.787060 477.977159 236.378555 16.196252 0.000000 0.028058
191.000000 61.100000 -4.000000 10.000000 -3.000000 111.656527 24.088322 493.813550 472.870191 16.370911 0.000000 0.072892
192.000000 59.292000 -3.000000 10.000000 -3.000000 101.902527 23.498924 507.037964 693.624157 16.873352 0.000000 0.109538
193.000000 56.171000 -2.000000 10.000000 -3.000000 91.542805 22.995165 518.247378 909.509272 17.814441 0.000000 0.128681
194.000000 51.693000 -1.000000 10.000000 -3.000000 80.704888 22.559707 527.869727 1131.751960 19.361393 0.000000 0.127833
195.000000 45.965000 0.000000 10.000000 -3.000000 69.561086 22.179583 536.219782 1374.153686 21.778785 0.000000 0.110063
198.000000 56.020000 -7.000000 11.000000 -3.000000 132.178499 23.093564 516.064469 -119.142234 17.849471 0.000000 0.056826
199.000000 56.548000 -6.000000 11.000000 -3.000000 124.789890 22.512333 528.912862 131.555644 17.684947 0.000000 0.028041
200.000000 56.426000 -5.000000 11.000000 -3.000000 116.796995 22.026299 539.574117 354.594844 17.725405 0.000000 0.062318
201.000000 55.499000 -4.000000 11.000000 -3.000000 108.211887 21.613899 548.562894 560.103049 18.024445 0.000000 0.100018
202.000000 53.629000 -3.000000 11.000000 -3.000000 99.074527 21.259614 556.244121 756.543528 18.656137 0.000000 0.125914
203.000000 50.730000 -2.000000 11.000000 -3.000000 89.457616 20.951990 562.883758 951.910311 19.725827 0.000000 0.136259
204.000000 46.795000 -1.000000 11.000000 -3.000000 79.467952 20.682393 568.680216 1154.886540 21.388596 0.000000 0.129330
207.000000 51.378000 -8.000000 12.000000 -3.000000 134.649100 20.780967 566.563227 -196.171443 19.461616 0.000000 0.059570
208.000000 52.001000 -7.000000 12.000000 -3.000000 128.037224 20.421634 574.267087 42.510302 19.230323 0.000000 0.030226
209.000000 52.167000 -2.000000 4.000000 -1.000000 120.914956 20.119088 580.725590 254.584229 6.390393 0.000000 0.053163
210.000000 51.763000 -5.000000 12.000000 -3.000000 113.283032 19.860868 586.218126 448.562246 19.323676 0.000000 0.089424
211.000000 50.678000 -4.000000 12.000000 -3.000000 105.160178 19.637905 590.946331 631.370953 19.740392 0.000000 0.118738
212.000000 48.825000 -1.000000 4.000000 -1.000000 96.587067 19.443446 595.059369 809.198100 6.830963 0.000000 0.136599
213.000000 46.157000 -2.000000 12.000000 -3.000000 87.628808 19.272357 598.669963 988.213850 21.681137 0.000000 0.140619
215.000000 47.388000 -9.000000 13.000000 -3.000000 136.649401 18.669226 611.338688 -262.438922 21.099706 0.000000 0.060326
216.000000 48.038000 -8.000000 13.000000 -3.000000 130.676556 18.498438 614.909599 -34.389310 20.816036 0.000000 0.032724
217.000000 48.358000 -7.000000 13.000000 -3.000000 124.268823 18.353668 617.930935 168.356014 20.680230 0.000000 0.045647
218.000000 48.265000 -6.000000 13.000000 -3.000000 117.421621 18.229393 620.520504 353.079949 20.722507 0.000000 0.078901
219.000000 47.675000 -5.000000 13.000000 -3.000000 110.142212 18.121550 622.764686 525.630001 20.981920 0.000000 0.109401
220.000000 46.511000 -4.000000 13.000000 -3.000000 102.452651 18.027082 624.728260 691.054560 21.509843 0.000000 0.131784
224.000000 89.959000 0.000000 5.000000 -2.000000 70.287860 28.356391 394.108103 1379.206739 11.127455 0.000000 0.120059
225.000000 63.906000 1.000000 5.000000 -2.000000 48.626225 27.061434 425.146247 2005.554076 15.668709 0.000000 0.190949
226.000000 90.567000 -1.000000 6.000000 -2.000000 88.081473 25.177051 469.060814 980.837417 11.049399 0.000000 0.123188
227.000000 57.375000 1.000000 6.000000 -2.000000 51.370550 23.541979 506.075978 1879.188141 17.452198 0.000000 0.145032
230.000000 88.397000 -4.000000 7.000000 -2.000000 126.879889 23.961926 496.659652 57.327124 11.312692 0.000000 0.031220
231.000000 88.077000 -3.000000 7.000000 -2.000000 114.374633 23.037119 517.317049 411.085883 11.356265 0.000000 0.067455
232.000000 84.512000 -2.000000 7.000000 -2.000000 100.442821 22.318007 533.184329 726.568470 11.838266 0.000000 0.118598
233.000000 77.064000 -1.000000 7.000000 -2.000000 85.310223 21.743001 545.754513 1036.057023 12.986216 0.000000 0.133213
234.000000 65.782000 0.000000 7.000000 -2.000000 69.401006 21.272817 555.958547 1375.109588 15.217992 0.000000 0.108811
235.000000 51.631000 1.000000 7.000000 -2.000000 53.294663 20.881234 564.407049 1799.806313 19.393561 0.000000 0.116272
237.000000 77.610000 -5.000000 8.000000 -2.000000 131.406426 20.593249 570.592304 -72.881642 12.884349 0.000000 0.040609
238.000000 76.967000 -3.000000 8.000000 -2.000000 109.280983 19.745446 588.667439 540.967325 12.996712 0.000000 0.105316
239.000000 66.777000 -1.000000 8.000000 -2.000000 83.032334 19.194299 600.314761 1080.278439 14.987551 0.000000 0.136975
240.000000 57.727000 0.000000 4.000000 -1.000000 68.935886 18.985253 604.711996 1379.379940 8.670778 0.000000 0.105501
241.000000 46.729000 1.000000 8.000000 -2.000000 54.704681 18.807353 608.445401 1745.902241 21.427624 0.000000 0.097275
244.000000 68.935000 -6.000000 9.000000 -2.000000 134.712622 17.636715 632.820093 -177.106008 14.505100 0.000000 0.045083
245.000000 69.924000 -5.000000 9.000000 -2.000000 125.718390 17.520271 635.227035 129.431909 14.301809 0.000000 0.042503
246.000000 69.716000 -4.000000 9.000000 -2.000000 115.806614 17.427312 637.146305 395.506297 14.346750 0.000000 0.089737
247.000000 67.949000 -3.000000 9.000000 -2.000000 105.000646 17.351384 638.712481 638.844852 14.722779 0.000000 0.128199
248.000000 64.332000 -2.000000 9.000000 -2.000000 93.390845 17.288201 640.014794 874.211544 15.554248 0.000000 0.145970
249.000000 58.748000 -1.000000 9.000000 -2.000000 81.145769 17.234802 641.114746 1116.544652 17.036693 0.000000 0.137525
250.000000 51.348000 0.000000 9.000000 -2.000000 68.508811 17.189077 642.056102 1384.585276 19.496278 0.000000 0.102600
253.000000 61.883000 -7.000000 10.000000 -2.000000 137.208046 15.034219 685.918760 -262.825167 16.157571 0.000000 0.046254
254.000000 62.961000 -3.000000 5.000000 -1.000000 129.361887 15.200114 682.575008 26.113853 7.941235 0.000000 0.035293
255.000000 63.263000 -5.000000 10.000000 -2.000000 120.769785 15.334203 679.868513 276.512973 15.808873 0.000000 0.074793
256.000000 62.542000 -2.000000 5.000000 -1.000000 111.430958 15.444830 677.632948 502.705916 7.996929 0.000000 0.115067
257.000000 60.568000 -3.000000 10.000000 -2.000000 101.383792 15.537658 675.755240 716.077973 16.518307 0.000000 0.142152
258.000000 57.179000 -1.000000 5.000000 -1.000000 90.715542 15.616661 674.155829 927.042690 8.750383 0.000000 0.150503
259.000000 52.342000 -1.000000 10.000000 -2.000000 79.566576 15.684715 672.777115 1146.851142 19.122243 0.000000 0.136414
260.000000 46.190000 0.000000 5.000000 -1.000000 68.125411 15.743947 671.576366 1389.956226 10.836801 0.000000 0.099988
263.000000 56.071000 -8.000000 11.000000 -2.000000 139.143096 12.734783 731.759946 -334.781250 17.831719 0.000000 0.045212
264.000000 57.131000 -7.000000 11.000000 -2.000000 132.200895 13.122588 724.091146 -61.123595 17.502559 0.000000 0.030744
265.000000 57.666000 -6.000000 11.000000 -2.000000 124.643334 13.439718 717.801963 176.372941 17.342221 0.000000 0.061556
266.000000 57.508000 -5.000000 11.000000 -2.000000 116.460398 13.703864 712.550830 389.611692 17.392240 0.000000 0.100737
267.000000 56.489000 -4.000000 11.000000 -2.000000 107.665604 13.927273 708.100340 587.840301 17.708990 0.000000 0.132238
268.000000 54.463000 -3.000000 11.000000 -2.000000 98.303012 14.118687 704.280351 779.035322 18.370965 0.000000 0.150582
269.000000 51.344000 -2.000000 11.000000 -2.000000 88.452314 14.284517 700.965743 971.007946 19.490811 0.000000 0.152214
270.000000 47.133000 -1.000000 11.000000 -2.000000 78.229875 14.429569 698.062445 1172.568878 21.236158 0.000000 0.134458
273.000000 51.217000 -9.000000 12.000000 -2.000000 140.677847 10.694639 771.736391 -396.164132 19.521338 0.000000 0.042696
274.000000 52.214000 -4.000000 6.000000 -1.000000 134.463472 11.256214 760.790401 -136.041314 9.575035 0.000000 0.027888
275.000000 52.844000 -7.000000 12.000000 -2.000000 127.734089 11.720472 751.709087 90.386857 18.923642 0.000000 0.050282
276.000000 52.991000 -3.000000 6.000000 -1.000000 120.476845 12.110643 744.053369 293.182320 9.436773 0.000000 0.086824
277.000000 52.532000 -5.000000 12.000000 -2.000000 112.693441 12.443123 737.511991 480.094620 19.041119 0.000000 0.119863
278.000000 51.352000 -2.000000 6.000000 -1.000000 104.404963 12.729808 731.858160 657.588996 9.740855 0.000000 0.143843
279.000000 49.360000 -3.000000 12.000000 -2.000000 95.656103 12.979538 726.922714 831.609418 20.271176 0.000000 0.155487
280.000000 46.512000 -1.000000 6.000000 -1.000000 86.517687 13.199018 722.576915 1008.272652 10.758171 0.000000 0.152241
282.000000 47.111000 -10.000000 13.000000 -2.000000 141.918577 8.876664 806.905899 -449.216820 21.222383 0.000000 0.039212
283.000000 48.031000 -9.000000 13.000000 -2.000000 136.301364 9.573776 793.465121 -201.240112 20.817425 0.000000 0.025901
284.000000 48.686000 -8.000000 13.000000 -2.000000 130.247343 10.155930 782.198621 15.433102 20.539038 0.000000 0.040888
285.000000 48.995000 -7.000000 13.000000 -2.000000 123.743541 10.649301 772.618289 209.418394 20.411878 0.000000 0.074009
286.000000 48.867000 -6.000000 13.000000 -2.000000 116.786231 11.072702 764.371945 387.342516 20.467450 0.000000 0.106892
287.000000 48.216000 -5.000000 13.000000 -2.000000 109.384234 11.439992 757.199104 554.633868 20.746661 0.000000 0.133792
288.000000 46.963000 -4.000000 13.000000 -2.000000 101.562098 11.761609 750.902954 716.088200 21.303613 0.000000 0.151615
289.000000 45.474000 -4.000000 7.000000 -1.000000 126.443220 9.305800 798.638184 135.634417 10.995552 0.000000 0.062522
290.000000 45.544000 -7.000000 14.000000 -2.000000 120.168991 9.804819 788.998466 306.087556 21.959672 0.000000 0.094254
292.000000 69.589000 1.000000 4.000000 -1.000000 40.768906 18.654123 611.654749 2258.479375 14.390579 0.000000 0.224349
293.000000 62.595000 1.000000 5.000000 -1.000000 45.258394 15.842020 669.586688 2049.742201 15.998280 0.000000 0.158039
294.000000 76.788000 0.000000 6.000000 -1.000000 67.480293 13.566820 715.276687 1400.058573 13.037537 0.000000 0.095477
295.000000 55.990000 1.000000 6.000000 -1.000000 48.276508 13.862859 709.384385 1929.528972 17.885075 0.000000 0.117435
297.000000 88.879000 -5.000000 7.000000 -1.000000 137.818802 8.051873 822.742904 -258.596292 11.249800 0.000000 0.024236
298.000000 90.454000 -3.000000 7.000000 -1.000000 113.504101 10.240183 780.564729 465.345721 11.058192 0.000000 0.122372
299.000000 86.372000 -2.000000 7.000000 -1.000000 99.066630 10.963010 766.510609 766.055767 11.583927 0.000000 0.156711
300.000000 78.036000 -1.000000 7.000000 -1.000000 83.393597 11.538653 755.269210 1068.224599 12.825258 0.000000 0.149655
301.000000 65.609000 0.000000 7.000000 -1.000000 66.968069 12.007825 746.072956 1408.803791 15.259028 0.000000 0.091759
302.000000 50.303000 1.000000 7.000000 -1.000000 50.434214 12.397516 738.410273 1851.538336 19.906721 0.000000 0.090922
304.000000 77.221000 -6.000000 8.000000 -1.000000 140.166401 5.412304 873.027039 -355.047339 12.947786 0.000000 0.020870
305.000000 79.258000 -5.000000 8.000000 -1.000000 130.624938 6.924236 844.292114 10.907658 12.616656 0.000000 0.043489
306.000000 79.821000 -4.000000 8.000000 -1.000000 119.883710 8.078793 822.227066 316.310881 12.529727 0.000000 0.099205
307.000000 78.291000 -3.000000 8.000000 -1.000000 107.942870 8.988608 804.751099 588.143603 12.777382 0.000000 0.143222
308.000000 74.115000 -2.000000 8.000000 -1.000000 94.901892 9.723700 790.567412 847.347800 13.500888 0.000000 0.161748
309.000000 67.020000 -1.000000 8.000000 -1.000000 80.987830 10.329805 778.825752 1114.514975 14.934064 0.000000 0.145551
310.000000 57.228000 0.000000 8.000000 -1.000000 66.555951 10.838029 768.945435 1416.213397 17.493918 0.000000 0.088677
313.000000 68.199000 -7.000000 9.000000 -1.000000 141.887347 3.209034 914.655582 -433.179649 14.660206 0.000000 0.017102
314.000000 70.050000 -6.000000 9.000000 -1.000000 133.695628 4.883500 883.041247 -91.118787 14.274481 0.000000 0.028972
315.000000 70.996000 -5.000000 9.000000 -1.000000 124.559472 6.189832 858.270286 195.289982 14.086199 0.000000 0.078199
316.000000 70.656000 -4.000000 9.000000 -1.000000 114.459989 7.236399 838.337687 447.480900 14.156369 0.000000 0.124465
317.000000 68.646000 -3.000000 9.000000 -1.000000 103.430149 8.093146 821.952003 681.406550 14.574023 0.000000 0.155153
318.000000 64.667000 -2.000000 9.000000 -1.000000 91.574854 8.807122 808.243850 911.056049 15.474391 0.000000 0.162744
319.000000 58.625000 -1.000000 9.000000 -1.000000 79.082423 9.411095 796.606509 1151.436426 17.073334 0.000000 0.141041
320.000000 50.722000 0.000000 9.000000 -1.000000 66.218993 9.928560 786.603694 1422.487216 19.737959 0.000000 0.086099
323.000000 62.666000 -7.000000 10.000000 -1.000000 136.034148 3.119537 916.341900 -176.521474 15.955759 0.000000 0.017923
324.000000 63.717000 -6.000000 10.000000 -1.000000 128.111750 4.528274 889.759369 94.077345 15.694426 0.000000 0.060237
325.000000 63.940000 -5.000000 10.000000 -1.000000 119.405950 5.673662 868.071217 331.405760 15.641998 0.000000 0.105259
326.000000 63.075000 -4.000000 10.000000 -1.000000 109.922516 6.622526 850.039665 548.288091 15.859249 0.000000 0.141246
327.000000 60.885000 -3.000000 10.000000 -1.000000 99.708391 7.421040 834.811859 755.308031 16.433061 0.000000 0.161667
328.000000 57.211000 -2.000000 10.000000 -1.000000 88.862167 8.102066 821.781035 962.592394 17.492123 0.000000 0.161602
329.000000 52.037000 -1.000000 10.000000 -1.000000 77.538015 8.689602 810.503732 1181.621612 19.235527 0.000000 0.136582
330.000000 45.531000 0.000000 10.000000 -1.000000 65.939173 9.201559 800.648314 1427.831455 21.988525 0.000000 0.083921
333.000000 56.640000 -8.000000 11.000000 -1.000000 137.867684 1.582373 945.267746 -249.262623 17.652928 0.000000 0.009470
334.000000 57.680000 -7.000000 11.000000 -1.000000 130.890347 3.057738 917.506162 7.673219 17.336519 0.000000 0.045227
335.000000 58.163000 -6.000000 11.000000 -1.000000 123.266458 4.273228 894.578756 232.940055 17.194553 0.000000 0.087404
336.000000 57.914000 -5.000000 11.000000 -1.000000 114.990976 5.291091 875.323983 437.175319 17.270951 0.000000 0.125029
337.000000 56.758000 -4.000000 11.000000 -1.000000 106.083066 6.155391 858.924826 628.888796 17.625726 0.000000 0.152218
338.000000 54.548000 -3.000000 11.000000 -1.000000 96.593792 6.898122 844.789879 815.679525 18.343106 0.000000 0.164827
339.000000 51.204000 -2.000000 11.000000 -1.000000 86.611402 7.543044 832.480499 1005.285019 19.545106 0.000000 0.159330
340.000000 46.741000 -1.000000 11.000000 -1.000000 76.261954 8.108148 821.664474 1206.786458 21.415401 0.000000 0.132362
343.000000 51.641000 -9.000000 12.000000 -1.000000 139.339801 0.232753 970.627747 -312.077513 19.361359 0.000000 0.003435
344.000000 52.622000 -8.000000 12.000000 -1.000000 133.116445 1.748716 942.140371 -67.227526 19.001981 0.000000 0.032792
345.000000 53.216000 -7.000000 12.000000 -1.000000 126.351759 3.012502 918.358303 147.789187 18.791863 0.000000 0.071477
346.000000 53.302000 -6.000000 12.000000 -1.000000 119.036884 4.081228 898.204698 341.975243 18.764127 0.000000 0.108741
347.000000 52.751000 -5.000000 12.000000 -1.000000 111.177594 4.996219 880.908014 522.426720 18.962480 0.000000 0.139216
348.000000 51.449000 -4.000000 12.000000 -1.000000 102.799645 5.788041 865.900976 695.225944 19.445806 0.000000 0.159231
349.000000 49.304000 -3.000000 12.000000 -1.000000 93.953279 6.479745 852.757169 866.141845 20.295381 0.000000 0.165877
350.000000 46.277000 -2.000000 12.000000 -1.000000 84.715727 7.089022 841.149875 1041.313671 21.626635 0.000000 0.156484
352.000000 47.435000 -10.000000 13.000000 -1.000000 140.545225 -0.960416 993.042989 -366.934852 21.078063 0.000000 0.004306
353.000000 48.341000 -9.000000 13.000000 -1.000000 134.935798 0.577151 964.157926 -132.939400 20.684247 0.000000 0.022520
354.000000 48.970000 -8.000000 13.000000 -1.000000 128.867127 1.872628 939.810370 73.095595 20.420575 0.000000 0.057551
355.000000 49.235000 -7.000000 13.000000 -1.000000 122.329531 2.977958 919.008999 258.897195 20.312864 0.000000 0.093367
356.000000 49.044000 -6.000000 13.000000 -1.000000 115.322404 3.931472 901.031659 430.521765 20.394247 0.000000 0.125061
357.000000 48.308000 -5.000000 13.000000 -1.000000 107.857898 4.762003 885.339813 593.038490 20.707956 0.000000 0.149288
358.000000 46.947000 -4.000000 13.000000 -1.000000 99.964352 5.491612 871.523671 751.038788 21.311487 0.000000 0.163522
359.000000 45.662000 -8.000000 14.000000 -1.000000 125.054265 1.968508 938.007268 185.404568 21.901182 0.000000 0.079298
360.000000 45.686000 -7.000000 14.000000 -1.000000 118.748704 2.950714 919.522132 349.772564 21.891965 0.000000 0.110962
361.000000 154.918000 -3.000000 4.000000 0.000000 136.787377 -9.522143 1155.537526 -220.636415 6.454261 0.000000 0.021282
362.000000 159.142000 -2.000000 4.000000 0.000000 116.601719 -3.664532 1043.931802 400.887255 6.284938 0.000000 0.119859
363.000000 145.833000 -1.000000 4.000000 0.000000 91.488473 0.108227 972.966961 913.032871 6.861865 0.000000 0.167945
364.000000 109.870000 0.000000 4.000000 0.000000 63.027422 2.720176 923.863392 1489.368514 9.112721 0.000000 0.059826
366.000000 122.256000 -4.000000 5.000000 0.000000 140.213202 -11.091486 1185.994464 -376.014096 8.178223 0.000000 0.037321
367.000000 127.209000 -3.000000 5.000000 0.000000 125.293294 -5.678932 1082.028762 175.372610 7.861455 0.000000 0.074524
368.000000 125.146000 -2.000000 5.000000 0.000000 107.103621 -1.972327 1012.064557 609.617864 7.993650 0.000000 0.152962
369.000000 112.321000 -1.000000 5.000000 0.000000 85.978028 0.704466 961.766034 1016.682326 8.910139 0.000000 0.161348
370.000000 56.380000 1.000000 5.000000 0.000000 40.028917 4.289204 894.276964 2225.962546 17.763033 0.000000 0.200037
372.000000 105.114000 -4.000000 6.000000 0.000000 130.629504 -7.246372 1111.852679 10.107335 9.513161 0.000000 0.041945
373.000000 101.837000 -2.000000 6.000000 0.000000 100.350778 -0.988202 993.565094 744.389415 9.824631 0.000000 0.165480
374.000000 90.836000 -1.000000 6.000000 0.000000 82.237432 1.079144 954.726016 1087.743725 11.018461 0.000000 0.153195
375.000000 51.503000 1.000000 6.000000 0.000000 43.784329 4.052407 898.748837 2066.778598 19.444627 0.000000 0.146608
377.000000 89.271000 -5.000000 7.000000 0.000000 134.217449 -8.499020 1135.834440 -117.916991 11.200844 0.000000 0.023148
378.000000 91.029000 -4.000000 7.000000 0.000000 122.893968 -5.065559 1070.404608 242.145223 10.986505 0.000000 0.088312
379.000000 90.019000 -3.000000 7.000000 0.000000 109.897104 -2.427364 1020.625029 551.098588 11.112336 0.000000 0.145100
380.000000 85.214000 -2.000000 7.000000 0.000000 95.339704 -0.344976 981.480403 840.401070 11.742321 0.000000 0.168832
381.000000 76.023000 -1.000000 7.000000 0.000000 79.537616 1.336388 949.891558 1139.802627 13.166023 0.000000 0.145400
382.000000 46.906000 1.000000 7.000000 0.000000 46.493001 3.877703 902.046391 1964.959201 21.349557 0.000000 0.110672
384.000000 79.306000 -5.000000 8.000000 0.000000 127.337358 -6.243290 1092.745832 115.075407 12.609593 0.000000 0.062204
385.000000 77.620000 -3.000000 8.000000 0.000000 104.608955 -1.591066 1004.895658 660.358501 12.888729 0.000000 0.158655
386.000000 65.249000 -1.000000 8.000000 0.000000 77.499448 1.523922 946.366561 1179.704004 15.340634 0.000000 0.138424
388.000000 68.350000 -7.000000 9.000000 0.000000 138.715232 -10.373025 1172.013218 -305.143681 14.628456 0.000000 0.028940
389.000000 70.835000 -5.000000 9.000000 0.000000 121.531888 -4.738498 1064.215608 278.356934 14.118926 0.000000 0.095740
390.000000 70.235000 -4.000000 9.000000 0.000000 111.421876 -2.689559 1025.560182 518.265097 14.242153 0.000000 0.140147
391.000000 63.526000 -2.000000 9.000000 0.000000 88.443079 0.444737 966.645510 970.254659 15.753335 0.000000 0.165084
392.000000 57.086000 -1.000000 9.000000 0.000000 75.907228 1.666697 943.682463 1211.316457 17.534682 0.000000 0.132303
394.000000 62.679000 -7.000000 10.000000 0.000000 133.160513 -8.110474 1128.380108 -78.509887 15.953272 0.000000 0.027687
395.000000 60.122000 -3.000000 10.000000 0.000000 96.858467 -0.533098 985.014472 811.540019 16.642598 0.000000 0.168351
396.000000 50.702000 -1.000000 10.000000 0.000000 74.629509 1.779028 941.570430 1237.007218 19.743163 0.000000 0.126960
398.000000 55.269000 -9.000000 11.000000 0.000000 141.409732 -11.706026 1198.007892 -436.367554 18.090013 0.000000 0.044649
399.000000 56.644000 -8.000000 11.000000 0.000000 135.163907 -8.862285 1142.817422 -154.549119 17.652503 0.000000 0.020634
400.000000 57.596000 -7.000000 11.000000 0.000000 128.249410 -6.508856 1097.796756 87.031583 17.362448 0.000000 0.056594
401.000000 57.962000 -6.000000 11.000000 0.000000 120.654303 -4.535228 1060.372082 301.100118 17.254857 0.000000 0.100359
402.000000 57.564000 -5.000000 11.000000 0.000000 112.381924 -2.860060 1028.770543 497.227940 17.376769 0.000000 0.136789
403.000000 56.227000 -4.000000 11.000000 0.000000 103.459869 -1.422722 1001.731153 683.322340 17.792915 0.000000 0.160857
404.000000 53.812000 -3.000000 11.000000 0.000000 93.948030 -0.177403 978.332501 866.718773 18.594895 0.000000 0.168861
405.000000 50.251000 -2.000000 11.000000 0.000000 83.943735 0.910994 957.885655 1055.206243 19.916735 0.000000 0.157289
406.000000 45.579000 -1.000000 11.000000 0.000000 73.581738 1.869713 939.865188 1258.312365 21.962658 0.000000 0.122284
408.000000 53.068000 -7.000000 12.000000 0.000000 123.901884 -5.317183 1075.170368 214.583085 18.845261 0.000000 0.082623
409.000000 52.369000 -5.000000 12.000000 0.000000 108.740726 -2.235180 1017.008889 575.563552 19.101699 0.000000 0.148545
411.000000 47.429000 -10.000000 13.000000 0.000000 138.128623 -10.105799 1166.829597 -278.678611 21.081133 0.000000 0.026088
412.000000 48.288000 -9.000000 13.000000 0.000000 132.584503 -7.905894 1124.461016 -57.658114 20.707579 0.000000 0.030646
413.000000 48.856000 -8.000000 13.000000 0.000000 126.557292 -6.023054 1088.560951 138.487323 20.469017 0.000000 0.066955
414.000000 49.044000 -7.000000 13.000000 0.000000 120.041831 -4.396655 1057.753118 316.715918 20.392731 0.000000 0.103501
415.000000 48.760000 -6.000000 13.000000 0.000000 113.041857 -2.979806 1031.025808 482.592135 20.513888 0.000000 0.134374
416.000000 47.915000 -5.000000 13.000000 0.000000 105.573913 -1.735901 1007.618675 640.883684 20.878607 0.000000 0.156601
417.000000 46.433000 -4.000000 13.000000 0.000000 97.670879 -0.636083 986.949228 796.027363 21.548587 0.000000 0.167904
418.000000 135.534000 0.000000 2.000000 1.000000 42.194530 -24.461256 1464.616884 2245.285712 7.388542 0.000000 0.248910
420.000000 190.047000 -2.000000 3.000000 1.000000 112.542068 -33.750902 1694.181362 403.702547 5.263056 0.000000 0.020102
421.000000 172.162000 -1.000000 3.000000 1.000000 84.154922 -23.757523 1448.749510 1061.383006 5.813056 0.000000 0.126215
422.000000 111.682000 0.000000 3.000000 1.000000 49.638098 -16.657771 1297.039275 1895.835492 8.966269 0.000000 0.122735
424.000000 146.900000 -3.000000 4.000000 1.000000 123.700796 -31.699278 1639.714161 97.316749 6.807710 0.000000 0.058183
425.000000 146.668000 -2.000000 4.000000 1.000000 104.474937 -23.229221 1436.950213 638.642820 6.820822 0.000000 0.103108
426.000000 128.930000 -1.000000 4.000000 1.000000 80.382206 -16.967203 1303.382633 1131.685559 7.762978 0.000000 0.135003
427.000000 91.530000 0.000000 4.000000 1.000000 53.316669 -12.253385 1208.752989 1761.449038 10.939978 0.000000 0.071611
429.000000 118.302000 -4.000000 5.000000 1.000000 130.031529 -30.158905 1600.385207 -104.675333 8.452563 0.000000 0.090627
430.000000 121.290000 -3.000000 5.000000 1.000000 115.759364 -22.818086 1427.832293 377.544854 8.246297 0.000000 0.061774
431.000000 116.857000 -2.000000 5.000000 1.000000 98.115985 -17.216422 1308.506803 780.314532 8.562067 0.000000 0.141251
432.000000 101.941000 -1.000000 5.000000 1.000000 77.602952 -12.878088 1221.071137 1183.684894 9.818870 0.000000 0.132745
433.000000 76.742000 0.000000 5.000000 1.000000 55.457110 -9.455378 1154.248317 1692.108100 13.047880 0.000000 0.047184
435.000000 98.611000 -5.000000 6.000000 1.000000 134.079580 -28.961452 1570.653395 -250.226149 10.139833 0.000000 0.110642
436.000000 101.884000 -4.000000 6.000000 1.000000 122.808946 -22.489063 1420.574997 190.028329 9.815794 0.000000 0.030752
437.000000 101.611000 -3.000000 6.000000 1.000000 109.157109 -17.421436 1312.732459 549.121765 9.844649 0.000000 0.115071
438.000000 95.988000 -2.000000 6.000000 1.000000 93.251785 -13.404347 1231.495761 878.137465 10.424615 0.000000 0.154618
439.000000 83.859000 -1.000000 6.000000 1.000000 75.539421 -10.171342 1168.100184 1222.990473 11.936549 0.000000 0.127717
440.000000 65.800000 0.000000 6.000000 1.000000 56.842613 -7.528938 1117.249887 1650.279373 15.217279 0.000000 0.035672
442.000000 87.322000 -5.000000 7.000000 1.000000 127.597042 -22.219801 1414.661530 45.748961 11.451863 0.000000 0.025923
443.000000 88.372000 -4.000000 7.000000 1.000000 116.565210 -17.593046 1316.276880 376.443317 11.317993 0.000000 0.085064
444.000000 86.534000 -3.000000 7.000000 1.000000 103.808339 -13.853661 1240.432305 668.545075 11.561127 0.000000 0.141624
445.000000 80.889000 -2.000000 7.000000 1.000000 89.488164 -10.793007 1180.177965 950.788188 12.371532 0.000000 0.158062
446.000000 71.028000 -1.000000 7.000000 1.000000 73.966214 -8.255195 1131.154888 1253.547884 14.093397 0.000000 0.122334
447.000000 57.480000 0.000000 7.000000 1.000000 57.807564 -6.124625 1090.490568 1622.469976 17.419955 0.000000 0.031366
449.000000 76.192000 -6.000000 8.000000 1.000000 131.050163 -21.995385 1409.750268 -69.838874 13.124145 0.000000 0.040134
450.000000 77.611000 -5.000000 8.000000 1.000000 121.839414 -17.738797 1319.292514 239.280854 12.885995 0.000000 0.058856
451.000000 77.363000 -4.000000 8.000000 1.000000 111.292207 -14.241710 1248.178168 508.238772 12.929733 0.000000 0.119134
452.000000 74.848000 -3.000000 8.000000 1.000000 99.465276 -11.337730 1190.801973 757.989203 13.367403 0.000000 0.154949
453.000000 69.598000 -2.000000 8.000000 1.000000 86.517624 -8.899502 1143.533605 1007.294788 14.379495 0.000000 0.157189
454.000000 61.502000 -1.000000 8.000000 1.000000 72.734206 -6.830334 1103.918283 1277.914759 16.276635 0.000000 0.117303
455.000000 50.975000 0.000000 8.000000 1.000000 58.516103 -5.056683 1070.236584 1602.713357 19.642665 0.000000 0.030823
457.000000 67.478000 -7.000000 9.000000 1.000000 133.653853 -21.805476 1405.606335 -165.006333 14.818307 0.000000 0.054667
458.000000 68.931000 -6.000000 9.000000 1.000000 125.770263 -17.864123 1321.889482 126.322647 14.507825 0.000000 0.039094
459.000000 69.359000 -5.000000 9.000000 1.000000 116.830357 -14.580197 1254.956453 378.493866 14.420458 0.000000 0.095683
460.000000 68.381000 -4.000000 9.000000 1.000000 106.850734 -11.818882 1200.219789 607.946672 14.629349 0.000000 0.139707
461.000000 65.640000 -3.000000 9.000000 1.000000 95.901419 -9.474850 1154.624263 828.210177 15.243538 0.000000 0.161232
462.000000 60.903000 -2.000000 9.000000 1.000000 84.125329 -7.466489 1116.056463 1052.690343 16.433054 0.000000 0.154395
463.000000 54.175000 -1.000000 9.000000 1.000000 71.746260 -5.730538 1083.007850 1297.769483 18.478498 0.000000 0.112799
464.000000 45.766000 0.000000 9.000000 1.000000 59.057476 -4.217722 1054.372811 1587.986423 21.878369 0.000000 0.031916
466.000000 60.501000 -8.000000 10.000000 1.000000 135.685214 -21.642689 1402.062931 -244.958200 16.526695 0.000000 0.066606
467.000000 61.868000 -7.000000 10.000000 1.000000 128.806385 -17.973036 1324.149309 31.035087 16.163183 0.000000 0.028427
468.000000 62.572000 -6.000000 10.000000 1.000000 121.075616 -14.878026 1260.937800 269.862222 15.983329 0.000000 0.074278
469.000000 62.367000 -5.000000 10.000000 1.000000 112.493974 -12.246919 1208.625794 484.938115 16.038366 0.000000 0.120750
470.000000 61.001000 -4.000000 10.000000 1.000000 103.091393 -9.991648 1164.617961 686.854295 16.400535 0.000000 0.152119
471.000000 58.262000 -3.000000 10.000000 1.000000 92.939894 -8.042753 1127.082358 885.176846 17.175088 0.000000 0.163578
472.000000 54.038000 -2.000000 10.000000 1.000000 82.163109 -6.345489 1094.688982 1090.053197 18.521566 0.000000 0.150792
473.000000 48.375000 -1.000000 10.000000 1.000000 70.937813 -4.856553 1066.448877 1314.245037 20.693994 0.000000 0.108823
475.000000 54.803000 -9.000000 11.000000 1.000000 137.313284 -21.501601 1398.998337 -313.194427 18.244856 0.000000 0.076144
476.000000 56.048000 -8.000000 11.000000 1.000000 131.218889 -18.068561 1326.133647 -50.758894 17.840838 0.000000 0.028633
477.000000 56.846000 -7.000000 11.000000 1.000000 124.424653 -15.142094 1266.254952 176.834421 17.592368 0.000000 0.056034
478.000000 57.032000 -6.000000 11.000000 1.000000 116.925887 -12.630136 1216.174734 380.797309 17.537209 0.000000 0.101576
479.000000 56.432000 -5.000000 11.000000 1.000000 108.734019 -10.458328 1173.669778 569.815664 17.726422 0.000000 0.137647
480.000000 54.880000 -4.000000 11.000000 1.000000 99.885224 -8.567103 1137.142158 751.326211 18.230785 0.000000 0.159443
481.000000 52.252000 -3.000000 11.000000 1.000000 90.447986 -6.908810 1105.413844 932.522907 19.151334 0.000000 0.163658
482.000000 48.499000 -2.000000 11.000000 1.000000 80.527509 -5.445242 1077.597283 1121.392758 20.637461 0.000000 0.146919
484.000000 50.068000 -10.000000 12.000000 1.000000 138.646795 -21.378147 1396.321642 -372.181645 19.970017 0.000000 0.083783
485.000000 51.189000 -9.000000 12.000000 1.000000 133.180386 -18.153023 1327.889976 -121.918239 19.534069 0.000000 0.035249
486.000000 51.995000 -8.000000 12.000000 1.000000 127.129729 -15.377825 1271.012723 95.869541 19.232732 0.000000 0.041563
487.000000 52.376000 -7.000000 12.000000 1.000000 120.488367 -12.975193 1222.991328 290.704782 19.094932 0.000000 0.083676
488.000000 52.209000 -6.000000 12.000000 1.000000 113.259097 -10.881790 1181.906877 469.914346 19.158520 0.000000 0.121446
489.000000 51.371000 -5.000000 12.000000 1.000000 105.459612 -9.046174 1146.357508 639.585043 19.474010 0.000000 0.149012
490.000000 49.754000 -4.000000 12.000000 1.000000 97.127943 -7.426647 1115.295246 805.268756 20.110345 0.000000 0.163506
491.000000 47.285000 -3.000000 12.000000 1.000000 88.326699 -5.989358 1087.920969 972.614270 21.164156 0.000000 0.162419
493.000000 47.079000 -10.000000 13.000000 1.000000 134.805637 -18.228239 1329.455462 -184.496450 21.238612 0.000000 0.043313
494.000000 47.857000 -9.000000 13.000000 1.000000 129.357867 -15.589540 1275.294974 24.531198 20.895324 0.000000 0.031663
495.000000 48.328000 -8.000000 13.000000 1.000000 123.408853 -13.287497 1229.177216 211.547932 20.693337 0.000000 0.067678
496.000000 48.408000 -7.000000 13.000000 1.000000 116.957420 -11.267731 1189.434515 382.849368 20.661754 0.000000 0.105262
497.000000 48.004000 -6.000000 13.000000 1.000000 110.011576 -9.485529 1154.830452 543.580823 20.838264 0.000000 0.135828
498.000000 47.031000 -5.000000 13.000000 1.000000 102.592315 -7.904218 1124.428924 698.265157 21.272554 0.000000 0.156574
500.000000 149.569000 -2.000000 3.000000 2.000000 90.154946 -47.693548 2157.564433 936.675741 6.689766 0.000000 0.217350
501.000000 122.976000 -1.000000 3.000000 2.000000 64.587267 -38.500732 1831.145565 1594.405468 8.140241 0.000000 0.198923
503.000000 128.905000 -3.000000 4.000000 2.000000 106.873425 -44.686097 2039.565159 481.827426 7.759956 0.000000 0.158762
504.000000 122.973000 -2.000000 4.000000 2.000000 88.699047 -36.609727 1774.610222 971.449672 8.137196 0.000000 0.098748
505.000000 102.263000 -1.000000 4.000000 2.000000 66.537854 -29.933313 1594.729624 1480.045846 9.789232 0.000000 0.129849
507.000000 109.064000 -4.000000 5.000000 2.000000 116.882349 -42.227700 1951.872644 204.155533 9.170226 0.000000 0.156226
508.000000 109.130000 -3.000000 5.000000 2.000000 103.179523 -35.052998 1730.113992 633.120385 9.166963 0.000000 0.047717
509.000000 102.016000 -2.000000 5.000000 2.000000 86.421915 -29.060444 1573.084831 1017.994411 9.809438 0.000000 0.111467
510.000000 85.874000 -1.000000 5.000000 2.000000 67.180559 -24.082429 1456.053632 1437.037679 11.657717 0.000000 0.109106
511.000000 61.879000 0.000000 5.000000 2.000000 46.650526 -19.940068 1365.464608 2021.798514 16.182947 0.000000 0.169988
512.000000 93.308000 -5.000000 6.000000 2.000000 123.421399 -40.187593 1884.139747 11.259269 10.717682 0.000000 0.165533
513.000000 93.091000 -3.000000 6.000000 2.000000 99.396043 -28.321607 1555.048437 738.678867 10.747371 0.000000 0.090090
514.000000 73.352000 -1.000000 6.000000 2.000000 67.301227 -19.912962 1364.888517 1419.824990 13.647897 0.000000 0.100825
516.000000 81.075000 -6.000000 7.000000 2.000000 127.985432 -38.471464 1830.248259 -132.487309 12.334056 0.000000 0.174473
517.000000 83.123000 -5.000000 7.000000 2.000000 119.004191 -32.646759 1664.557160 232.337553 12.031813 0.000000 0.035980
518.000000 83.171000 -4.000000 7.000000 2.000000 108.313925 -27.688331 1539.787535 538.690321 12.027177 0.000000 0.062945
519.000000 80.340000 -3.000000 7.000000 2.000000 95.958609 -23.475809 1442.445827 818.525565 12.454094 0.000000 0.120871
520.000000 73.911000 -2.000000 7.000000 2.000000 82.130338 -19.889194 1364.383518 1099.203839 13.541078 0.000000 0.132991
521.000000 63.715000 -1.000000 7.000000 2.000000 67.209947 -16.821299 1300.389021 1413.426813 15.712562 0.000000 0.096164
522.000000 50.430000 0.000000 7.000000 2.000000 51.752956 -14.181465 1246.973873 1816.059697 19.856134 0.000000 0.092257
524.000000 74.246000 -5.000000 8.000000 2.000000 114.746862 -27.139627 1526.707246 383.512222 13.471445 0.000000 0.037248
525.000000 70.192000 -3.000000 8.000000 2.000000 92.960599 -19.868182 1363.937216 881.812969 14.255680 0.000000 0.137375
526.000000 56.161000 -1.000000 8.000000 2.000000 67.035519 -14.450081 1252.348407 1411.971582 17.826125 0.000000 0.092826
529.000000 65.594000 -7.000000 9.000000 2.000000 127.254836 -30.877750 1618.581303 -12.758182 15.245372 0.000000 0.076342
530.000000 66.642000 -6.000000 9.000000 2.000000 119.577275 -26.659697 1515.371357 257.477057 15.007417 0.000000 0.018100
531.000000 66.625000 -5.000000 9.000000 2.000000 110.844251 -23.011584 1432.116647 495.774209 15.013571 0.000000 0.082074
532.000000 65.193000 -4.000000 9.000000 2.000000 101.083534 -19.849474 1363.539940 716.843021 15.346376 0.000000 0.126948
533.000000 62.038000 -3.000000 9.000000 2.000000 90.378952 -17.098185 1306.074040 933.552145 16.130317 0.000000 0.145833
534.000000 56.992000 -2.000000 9.000000 2.000000 78.885661 -14.693053 1257.221039 1159.588449 17.562333 0.000000 0.134511
535.000000 50.123000 -1.000000 9.000000 2.000000 66.833811 -12.579684 1215.179597 1412.876542 19.973514 0.000000 0.090132
537.000000 60.246000 -7.000000 10.000000 2.000000 123.324651 -26.236430 1505.452729 152.065741 16.599734 0.000000 0.018351
538.000000 60.116000 -5.000000 10.000000 2.000000 107.343440 -19.832711 1363.184033 583.682806 16.640480 0.000000 0.110773
539.000000 55.404000 -3.000000 10.000000 2.000000 88.158655 -14.913878 1261.658939 976.807580 18.062407 0.000000 0.149726
542.000000 53.802000 -9.000000 11.000000 2.000000 132.257370 -29.524814 1584.553477 -182.827145 18.585173 0.000000 0.101825
543.000000 54.858000 -8.000000 11.000000 2.000000 126.310158 -25.860389 1496.701211 62.073295 18.229148 0.000000 0.031614
544.000000 55.442000 -7.000000 11.000000 2.000000 119.653886 -22.644927 1424.008576 277.055734 18.039327 0.000000 0.044125
545.000000 55.395000 -6.000000 11.000000 2.000000 112.288002 -19.817603 1362.863352 472.071285 18.056990 0.000000 0.093122
546.000000 54.553000 -5.000000 11.000000 2.000000 104.229997 -17.323686 1310.716497 655.086351 18.338321 0.000000 0.129588
547.000000 52.769000 -4.000000 11.000000 2.000000 95.522987 -15.115447 1265.717801 833.199158 18.961803 0.000000 0.149760
548.000000 49.938000 -3.000000 11.000000 2.000000 86.242141 -13.152016 1226.491761 1013.596550 20.040494 0.000000 0.150962
549.000000 46.035000 -2.000000 11.000000 2.000000 76.497847 -11.398748 1191.994516 1204.638297 21.743433 0.000000 0.130361
551.000000 50.290000 -9.000000 12.000000 2.000000 128.741341 -25.524117 1488.922252 -15.944003 19.884280 0.000000 0.044897
552.000000 51.153000 -7.000000 12.000000 2.000000 116.278581 -19.803918 1362.572914 376.156586 19.552875 0.000000 0.076009
553.000000 49.784000 -5.000000 12.000000 2.000000 101.467124 -15.300168 1269.444197 714.645759 20.096106 0.000000 0.142044
554.000000 45.481000 -11.000000 13.000000 2.000000 135.597689 -28.457704 1558.351763 -309.028966 21.984801 0.000000 0.117629
555.000000 46.384000 -10.000000 13.000000 2.000000 130.757581 -25.221641 1481.962264 -84.397739 21.557973 0.000000 0.056481
556.000000 47.047000 -9.000000 13.000000 2.000000 125.413154 -22.348027 1417.474746 113.600644 21.255929 0.000000 0.024213
557.000000 47.393000 -8.000000 13.000000 2.000000 119.559556 -19.791463 1362.308634 292.264243 21.103158 0.000000 0.060427
558.000000 47.336000 -7.000000 13.000000 2.000000 113.198403 -17.510885 1314.579095 457.321429 21.131009 0.000000 0.099857
559.000000 46.790000 -6.000000 13.000000 2.000000 106.341175 -15.470067 1272.877370 613.566810 21.380269 0.000000 0.130593
560.000000 45.676000 -5.000000 13.000000 2.000000 99.012680 -13.637531 1236.129392 765.334996 21.905002 0.000000 0.150265
564.000000 106.212000 -3.000000 4.000000 3.000000 90.116583 -52.454606 2375.355425 937.406253 9.420446 0.000000 0.337699
565.000000 96.085000 -2.000000 4.000000 3.000000 73.044674 -45.436993 2067.838511 1408.638532 10.416606 0.000000 0.243416
566.000000 75.245000 -1.000000 4.000000 3.000000 53.101389 -39.223848 1853.550420 1984.091847 13.305908 0.000000 0.284896
568.000000 96.269000 -4.000000 5.000000 3.000000 103.087080 -49.913881 2253.769189 552.444629 10.391222 0.000000 0.269058
569.000000 93.427000 -3.000000 5.000000 3.000000 89.861147 -43.506682 1996.603728 944.596251 10.709985 0.000000 0.147167
570.000000 84.311000 -2.000000 5.000000 3.000000 74.120884 -37.827070 1810.674178 1328.618466 11.871641 0.000000 0.151729
571.000000 68.242000 -1.000000 5.000000 3.000000 56.444494 -32.851050 1669.982371 1790.777412 14.671356 0.000000 0.189902
573.000000 85.597000 -5.000000 6.000000 3.000000 111.925545 -47.706776 2158.113011 297.206124 11.685164 0.000000 0.243871
574.000000 85.546000 -4.000000 6.000000 3.000000 101.313800 -41.830240 1938.340811 652.008664 11.694392 0.000000 0.104061
575.000000 73.955000 -2.000000 6.000000 3.000000 74.283497 -32.014015 1647.909434 1298.189084 13.534320 0.000000 0.124504
576.000000 61.319000 -1.000000 6.000000 3.000000 58.541455 -27.986581 1546.952521 1686.685620 16.327904 0.000000 0.141073
578.000000 76.131000 -6.000000 7.000000 3.000000 118.240808 -45.777054 2080.891221 112.138463 13.136675 0.000000 0.235409
579.000000 77.101000 -5.000000 7.000000 3.000000 109.447766 -40.363055 1889.802185 442.241730 12.973505 0.000000 0.091933
580.000000 76.042000 -4.000000 7.000000 3.000000 99.080842 -35.540247 1743.854505 729.590704 13.156833 0.000000 0.062718
581.000000 72.256000 -3.000000 7.000000 3.000000 87.202371 -31.274536 1628.742194 1002.536867 13.849416 0.000000 0.104957
582.000000 65.273000 -2.000000 7.000000 3.000000 74.019229 -27.514381 1535.626740 1288.540087 15.334874 0.000000 0.117718
583.000000 55.146000 -1.000000 7.000000 3.000000 59.904449 -24.202087 1458.752941 1624.906106 18.155442 0.000000 0.113760
586.000000 69.430000 -6.000000 8.000000 3.000000 115.456686 -39.069857 1848.740836 281.053978 14.405432 0.000000 0.096761
587.000000 69.493000 -5.000000 8.000000 3.000000 106.727492 -34.593857 1717.315389 548.060460 14.394703 0.000000 0.034787
588.000000 67.867000 -4.000000 8.000000 3.000000 96.761520 -30.616706 1611.942323 792.721804 14.742466 0.000000 0.085791
589.000000 64.140000 -3.000000 8.000000 3.000000 85.646888 -27.091818 1525.573674 1033.027873 15.602578 0.000000 0.117394
590.000000 58.090000 -2.000000 8.000000 3.000000 73.569997 -23.968731 1453.493442 1288.334760 17.231642 0.000000 0.115978
591.000000 49.831000 -1.000000 8.000000 3.000000 60.821112 -21.198138 1392.426802 1585.617899 20.091952 0.000000 0.097546
593.000000 62.794000 -7.000000 9.000000 3.000000 120.047465 -37.922543 1813.552541 151.757129 15.926770 0.000000 0.107324
594.000000 62.824000 -5.000000 9.000000 3.000000 104.024924 -30.027858 1597.096735 630.474259 15.923691 0.000000 0.064889
595.000000 60.917000 -4.000000 9.000000 3.000000 94.531718 -26.711495 1516.590207 845.502941 16.425343 0.000000 0.109003
596.000000 52.140000 -2.000000 9.000000 3.000000 73.054379 -21.122989 1390.803612 1292.561266 19.198211 0.000000 0.115034
599.000000 57.129000 -8.000000 10.000000 3.000000 123.654441 -36.898528 1783.061352 44.960037 17.504932 0.000000 0.118368
600.000000 57.884000 -7.000000 10.000000 3.000000 117.088246 -32.995616 1673.836597 284.649718 17.278471 0.000000 0.028370
601.000000 57.923000 -6.000000 10.000000 3.000000 109.687280 -29.497789 1583.883170 498.547348 17.269296 0.000000 0.044230
602.000000 57.034000 -5.000000 10.000000 3.000000 101.463913 -26.367409 1508.514261 697.386905 17.541337 0.000000 0.094972
603.000000 55.021000 -4.000000 10.000000 3.000000 92.463692 -23.565457 1444.448879 890.477958 18.186327 0.000000 0.124709
604.000000 51.747000 -3.000000 10.000000 3.000000 82.774213 -21.054305 1389.321522 1087.221452 19.340768 0.000000 0.131412
605.000000 47.180000 -2.000000 10.000000 3.000000 72.529843 -18.799200 1341.383689 1298.826779 21.217028 0.000000 0.113931
608.000000 52.297000 -9.000000 11.000000 3.000000 126.555318 -35.979509 1756.385624 -45.157150 19.121449 0.000000 0.128193
609.000000 53.113000 -8.000000 11.000000 3.000000 120.727879 -32.315224 1655.805326 183.988618 18.829556 0.000000 0.043724
610.000000 53.437000 -7.000000 11.000000 3.000000 114.203910 -29.018194 1572.046530 387.754627 18.717509 0.000000 0.025265
611.000000 53.122000 -6.000000 11.000000 3.000000 106.985439 -26.054639 1501.214930 575.053829 18.831031 0.000000 0.078747
612.000000 52.021000 -5.000000 11.000000 3.000000 99.094323 -23.390048 1440.532186 753.289608 19.232781 0.000000 0.115727
613.000000 50.006000 -4.000000 11.000000 3.000000 90.578615 -20.991288 1387.962900 929.357779 20.010991 0.000000 0.134734
614.000000 47.002000 -3.000000 11.000000 3.000000 81.517582 -18.827731 1341.981847 1110.589833 21.294002 0.000000 0.134052
616.000000 48.156000 -10.000000 12.000000 3.000000 128.934372 -35.150535 1732.851365 -122.456029 20.765075 0.000000 0.136450
617.000000 49.429000 -8.000000 12.000000 3.000000 117.879276 -28.582251 1561.382248 292.611536 20.234065 0.000000 0.010343
618.000000 49.440000 -7.000000 12.000000 3.000000 111.467409 -25.769111 1494.585329 471.003894 20.232092 0.000000 0.062390
619.000000 47.676000 -5.000000 12.000000 3.000000 96.928130 -20.933263 1386.712934 800.975918 20.986311 0.000000 0.129765
620.000000 45.719000 -4.000000 12.000000 3.000000 88.873838 -18.854109 1342.535051 963.357130 21.888258 0.000000 0.140914
621.000000 45.879000 -9.000000 13.000000 3.000000 120.922064 -28.184304 1551.724369 209.563832 21.798426 0.000000 0.012876
622.000000 46.073000 -8.000000 13.000000 3.000000 115.167332 -25.507428 1488.537328 380.667830 21.708823 0.000000 0.047088
623.000000 45.860000 -7.000000 13.000000 3.000000 108.910229 -23.081234 1433.661811 540.203646 21.812457 0.000000 0.089137
629.000000 77.094000 -3.000000 5.000000 4.000000 77.223255 -49.457852 2233.303159 1316.486145 12.981588 0.000000 0.300708
630.000000 67.079000 -2.000000 5.000000 4.000000 62.572415 -44.297065 2025.203977 1721.401409 14.923401 0.000000 0.287990
633.000000 69.966000 -3.000000 6.000000 4.000000 78.101695 -42.880704 1974.479111 1250.478923 14.304370 0.000000 0.182826
634.000000 49.549000 -1.000000 6.000000 4.000000 50.048938 -34.542231 1715.885183 2035.504570 20.207792 0.000000 0.254977
636.000000 69.890000 -5.000000 7.000000 4.000000 99.676615 -46.111192 2093.872598 676.276835 14.314264 0.000000 0.176189
637.000000 67.809000 -4.000000 7.000000 4.000000 89.626420 -41.609835 1930.909204 950.385997 14.756447 0.000000 0.125570
638.000000 63.280000 -3.000000 7.000000 4.000000 78.267268 -37.507281 1801.086974 1222.782326 15.815897 0.000000 0.135296
639.000000 56.066000 -2.000000 7.000000 4.000000 65.809679 -33.789453 1695.229344 1522.753026 17.855155 0.000000 0.153666
640.000000 46.377000 -1.000000 7.000000 4.000000 52.599702 -30.431801 1607.261379 1895.380439 21.589785 0.000000 0.194250
642.000000 63.772000 -5.000000 8.000000 4.000000 98.344250 -40.464213 1893.080135 733.506591 15.688208 0.000000 0.090920
643.000000 57.306000 -3.000000 8.000000 4.000000 78.035106 -33.107197 1676.820067 1213.290579 17.465265 0.000000 0.120330
645.000000 59.250000 -7.000000 9.000000 4.000000 112.454080 -43.397456 1992.710373 328.830657 16.881305 0.000000 0.154360
646.000000 59.276000 -6.000000 9.000000 4.000000 105.089834 -39.426987 1859.927401 565.302637 16.875962 0.000000 0.072603
647.000000 58.239000 -5.000000 9.000000 4.000000 96.787323 -35.795208 1751.111080 783.070289 17.179291 0.000000 0.070916
648.000000 55.896000 -4.000000 9.000000 4.000000 87.589369 -32.486164 1660.309746 994.715483 17.902666 0.000000 0.101879
649.000000 52.080000 -3.000000 9.000000 4.000000 77.593192 -29.477966 1583.391723 1212.982158 19.218366 0.000000 0.117678
650.000000 46.762000 -2.000000 9.000000 4.000000 66.956733 -26.745843 1517.399056 1453.668965 21.407804 0.000000 0.116768
652.000000 54.910000 -7.000000 10.000000 4.000000 110.425398 -38.484060 1830.634362 428.962435 18.216391 0.000000 0.068019
653.000000 53.317000 -5.000000 10.000000 4.000000 95.161607 -31.918597 1645.418970 826.457936 18.766135 0.000000 0.084787
654.000000 47.546000 -3.000000 10.000000 4.000000 77.050703 -26.456028 1510.589584 1217.427549 21.051486 0.000000 0.118453
657.000000 50.344000 -9.000000 11.000000 4.000000 120.467623 -41.161957 1915.962846 99.975796 19.864972 0.000000 0.160574
658.000000 50.887000 -8.000000 11.000000 4.000000 114.730647 -37.623581 1804.564068 315.098942 19.655184 0.000000 0.072557
659.000000 50.926000 -7.000000 11.000000 4.000000 108.326392 -34.374096 1711.239548 509.071440 19.642362 0.000000 0.029341
660.000000 50.329000 -6.000000 11.000000 4.000000 101.259493 -31.397973 1631.920581 689.967492 19.877794 0.000000 0.067421
661.000000 48.971000 -5.000000 11.000000 4.000000 93.555327 -28.676261 1563.674433 864.778871 20.432267 0.000000 0.102150
662.000000 46.751000 -4.000000 11.000000 4.000000 85.265207 -26.188484 1504.333757 1040.343413 21.406307 0.000000 0.119988
664.000000 47.263000 -9.000000 12.000000 4.000000 118.266209 -36.835530 1781.212412 217.942376 21.161058 0.000000 0.081131
665.000000 47.305000 -7.000000 12.000000 4.000000 106.247969 -30.918777 1619.628006 575.373418 21.146684 0.000000 0.050264
673.000000 58.379000 -3.000000 6.000000 5.000000 68.210923 -47.684536 2157.190825 1580.098720 17.145579 0.000000 0.312772
676.000000 62.160000 -5.000000 7.000000 5.000000 90.180557 -50.477823 2279.620199 935.670223 16.096729 0.000000 0.281956
677.000000 59.274000 -4.000000 7.000000 5.000000 80.465238 -46.343575 2102.993877 1202.875651 16.883588 0.000000 0.223505
678.000000 54.295000 -3.000000 7.000000 5.000000 69.654544 -42.492731 1960.990835 1482.258956 18.435507 0.000000 0.218351
679.000000 47.162000 -2.000000 7.000000 5.000000 57.953314 -38.928338 1844.339256 1807.094917 21.227775 0.000000 0.243694
681.000000 58.892000 -6.000000 8.000000 5.000000 98.341383 -49.030470 2214.465556 700.312841 16.987637 0.000000 0.240102
682.000000 57.543000 -5.000000 8.000000 5.000000 90.010491 -45.116243 2055.670372 940.720739 17.388691 0.000000 0.170474
683.000000 54.729000 -4.000000 8.000000 5.000000 80.701786 -41.469731 1926.211563 1176.171723 18.285944 0.000000 0.156430
684.000000 50.272000 -3.000000 8.000000 5.000000 70.518454 -38.090917 1818.647016 1424.773617 19.910822 0.000000 0.167711
686.000000 55.176000 -7.000000 9.000000 5.000000 104.785693 -47.701729 2157.903673 518.881349 18.129681 0.000000 0.217609
687.000000 54.690000 -6.000000 9.000000 5.000000 97.549115 -43.989680 2013.990708 742.747750 18.293227 0.000000 0.138759
688.000000 53.190000 -5.000000 9.000000 5.000000 89.464234 -40.530018 1895.217809 954.241749 18.812354 0.000000 0.116141
689.000000 50.495000 -4.000000 9.000000 5.000000 80.580497 -37.320545 1795.526589 1165.526144 19.819814 0.000000 0.126780
690.000000 46.505000 -3.000000 9.000000 5.000000 70.996743 -34.353094 1710.660563 1389.979141 21.523831 0.000000 0.140872
692.000000 51.487000 -8.000000 10.000000 5.000000 109.965343 -46.478862 2108.339854 373.196615 19.427285 0.000000 0.206546
693.000000 51.480000 -7.000000 10.000000 5.000000 103.598601 -42.952737 1977.002070 585.282716 19.432126 0.000000 0.121751
694.000000 50.763000 -6.000000 10.000000 5.000000 96.502563 -39.664267 1867.423424 781.637361 19.709125 0.000000 0.087829
695.000000 46.642000 -4.000000 10.000000 5.000000 80.241813 -33.780587 1694.988240 1163.696777 21.457645 0.000000 0.117006
697.000000 48.021000 -9.000000 11.000000 5.000000 114.197818 -45.350693 2064.551018 252.781071 20.827915 0.000000 0.201965
698.000000 48.275000 -8.000000 11.000000 5.000000 108.530440 -41.995736 1943.954691 455.583453 20.720260 0.000000 0.115084
699.000000 48.025000 -7.000000 11.000000 5.000000 102.236156 -38.864430 1842.357335 641.225734 20.830743 0.000000 0.068624
700.000000 47.156000 -6.000000 11.000000 5.000000 95.322812 -35.952011 1755.597084 817.126106 21.217573 0.000000 0.076066
701.000000 45.565000 -5.000000 11.000000 5.000000 87.818920 -33.249832 1680.644935 990.015584 21.961693 0.000000 0.100274
707.000000 51.051000 -4.000000 7.000000 6.000000 71.895715 -50.091302 2261.836462 1489.464596 19.605631 0.000000 0.344198
710.000000 51.219000 -5.000000 8.000000 6.000000 81.999661 -48.847829 2206.513841 1170.871934 19.537907 0.000000 0.266393
712.000000 50.798000 -7.000000 9.000000 6.000000 97.260615 -51.138547 2310.703904 722.453673 19.694749 0.000000 0.295193
713.000000 47.976000 -5.000000 9.000000 6.000000 82.297154 -44.436878 2030.343152 1144.880406 20.858941 0.000000 0.185893
715.000000 47.764000 -7.000000 10.000000 6.000000 96.805435 -46.620038 2113.946920 753.991213 20.946132 0.000000 0.186597
#UB matrix in q= (UB) B0 G* 
#[[ 0.845074225 -0.522665675  0.109144275]
# [ 0.152636254  0.04048026  -0.988013418]
# [ 0.512398017  0.852200215  0.114075316]]
#B0 matrix in q= UB (B0) G*
#[[ 0.19670273 -0.          0.03056101]
# [ 0.          0.19187965 -0.        ]
# [ 0.          0.          0.18806537]]
#UBB0 matrix in q= (UB B0) G* i.e. recip. basis vectors are columns in LT frame: astar = UBB0[:,0], bstar = UBB0[:,1], cstar = UBB0[:,2]. (abcstar as columns on xyzlab1, xlab1 = ui, ui = unit vector along incident beam)
#[[ 0.16622841 -0.10028891  0.04635258]
# [ 0.03002397  0.00776734 -0.18114639]
# [ 0.10079009  0.16351988  0.03711302]]
#Euler angles phi theta psi (deg)
#[148.952  83.458 173.685]
#deviatoric strain in direct crystal frame (10-3 unit)
#[[-1.25 -0.55  0.27]
# [-0.55 -1.75 -0.34]
# [ 0.27 -0.34  3.01]]
#deviatoric strain in sample2 frame (10-3 unit)
#[[-1.25 -0.91 -0.64]
# [-0.91  2.84  0.2 ]
# [-0.64  0.2  -1.59]]
#new lattice parameters
#[ 5.1505     5.2090038  5.3145603 90.0099667 99.2183374 90.0635869]
#CCDLabel
#sCMOS
#DetectorParameters
#[79.0, 975.0, 941.0, 0.0, 0.0]
#pixelsize
#0.0734
#Frame dimensions
#[2018, 2016]
#
