#Strain and Orientation Refinement from experimental file: /home/micha/LaueProjects/DepthEffects/testZrO2_182.cor
#File created at Wed Jun 28 14:29:06 2023 with indexingSpotsSet.py
#Number of indexed spots: 544
#Element
#ZrO2
#grainIndex
#G_0
#Mean Deviation(pixel): 0.116
##spot_index intensity h k l 2theta Chi Xexp Yexp Energy GrainIndex PixDev
18.000000 45.544000 13.000000 8.000000 -8.000000 126.090232 39.093545 100.520695 -69.885981 21.944573 0.000000 0.158863
21.000000 47.529000 12.000000 9.000000 -8.000000 133.474769 31.232880 322.328538 -252.432690 21.026116 0.000000 0.123228
25.000000 46.178000 6.000000 5.000000 -4.000000 135.082058 24.225343 490.721830 -242.611994 10.820327 0.000000 0.077759
28.000000 47.052000 11.000000 11.000000 -8.000000 140.338590 12.786758 730.733518 -390.193668 21.237818 0.000000 0.048847
42.000000 50.218000 12.000000 6.000000 -7.000000 119.061853 45.669408 -126.742252 85.073032 19.903866 0.000000 0.224266
43.000000 46.322000 13.000000 6.000000 -7.000000 114.190753 45.642913 -125.723511 249.428445 21.579609 0.000000 0.193988
46.000000 53.565000 11.000000 7.000000 -7.000000 128.188995 38.723384 112.004241 -144.173475 18.658037 0.000000 0.170641
47.000000 49.621000 12.000000 7.000000 -7.000000 122.765957 39.627739 83.733905 41.603112 20.142415 0.000000 0.141146
48.000000 45.990000 13.000000 7.000000 -7.000000 117.868095 40.318067 61.652434 194.602652 21.734381 0.000000 0.118495
52.000000 52.246000 11.000000 8.000000 -7.000000 130.949535 31.420838 317.489763 -153.431334 19.128510 0.000000 0.104491
53.000000 48.675000 12.000000 8.000000 -7.000000 125.699786 33.323491 267.374961 15.430008 20.533337 0.000000 0.082320
56.000000 53.977000 10.000000 9.000000 -7.000000 138.073601 20.151608 580.032584 -335.585294 18.513333 0.000000 0.072826
57.000000 50.657000 11.000000 9.000000 -7.000000 132.821391 24.019720 495.358975 -150.964259 19.727870 0.000000 0.060700
58.000000 47.463000 12.000000 9.000000 -7.000000 127.884472 26.898276 429.005457 2.007619 21.056825 0.000000 0.044593
61.000000 51.788000 10.000000 10.000000 -7.000000 138.552877 11.837018 749.424577 -304.274734 19.296030 0.000000 0.037819
62.000000 48.893000 11.000000 10.000000 -7.000000 133.887816 16.761890 650.828582 -140.240648 20.439667 0.000000 0.036435
63.000000 46.064000 12.000000 10.000000 -7.000000 129.371416 20.510800 572.358815 -1.956889 21.696361 0.000000 0.031468
66.000000 51.997000 9.000000 11.000000 -7.000000 142.106364 -3.154612 1034.318948 -443.976430 19.217460 0.000000 0.007154
67.000000 49.534000 10.000000 11.000000 -7.000000 138.282501 4.179700 896.345261 -269.483111 20.173845 0.000000 0.017676
68.000000 47.028000 11.000000 11.000000 -7.000000 134.263649 9.862664 787.879214 -123.714558 21.250133 0.000000 0.030464
71.000000 49.369000 9.000000 12.000000 -7.000000 140.484384 -10.246913 1169.565834 -385.075106 20.241005 0.000000 0.027249
72.000000 47.281000 10.000000 12.000000 -7.000000 137.448652 -2.659166 1024.988011 -232.721714 21.135331 0.000000 0.014302
75.000000 46.837000 9.000000 13.000000 -7.000000 138.559101 -16.170912 1287.099954 -328.279712 21.335323 0.000000 0.043784
85.000000 54.799000 11.000000 5.000000 -6.000000 114.288091 46.524718 -160.157901 235.088876 18.241519 0.000000 0.213437
86.000000 49.928000 12.000000 5.000000 -6.000000 109.161156 46.393785 -154.974869 398.752095 20.022831 0.000000 0.187278
87.000000 45.629000 13.000000 5.000000 -6.000000 104.629886 46.291082 -150.926735 534.407664 21.910833 0.000000 0.172683
88.000000 59.385000 5.000000 3.000000 -3.000000 124.512498 39.354506 92.352189 -16.095925 8.415098 0.000000 0.150279
89.000000 54.335000 11.000000 6.000000 -6.000000 118.650314 40.214595 64.990746 170.940992 18.395955 0.000000 0.121755
90.000000 49.785000 4.000000 2.000000 -2.000000 113.440078 40.862162 43.928059 323.973610 6.693020 0.000000 0.103410
91.000000 45.713000 13.000000 6.000000 -6.000000 108.798830 41.367195 27.213623 452.817438 21.869185 0.000000 0.095097
94.000000 62.795000 9.000000 7.000000 -6.000000 134.091501 28.896050 380.950452 -249.970584 15.914314 0.000000 0.106229
95.000000 57.907000 10.000000 7.000000 -6.000000 127.801373 31.631155 312.052336 -39.572752 17.259096 0.000000 0.081508
96.000000 53.359000 11.000000 7.000000 -6.000000 122.107303 33.601421 259.873305 130.166504 18.731738 0.000000 0.058645
97.000000 49.189000 12.000000 7.000000 -6.000000 116.971766 35.085086 218.986174 271.646632 20.321223 0.000000 0.042226
100.000000 60.273000 9.000000 8.000000 -6.000000 135.766924 19.609623 591.545141 -232.565630 16.579997 0.000000 0.055811
101.000000 56.027000 5.000000 4.000000 -3.000000 130.024103 23.789687 500.529060 -46.823038 8.918949 0.000000 0.041821
102.000000 51.996000 11.000000 8.000000 -6.000000 124.680094 26.847327 430.208290 106.324502 19.222300 0.000000 0.025367
103.000000 48.234000 6.000000 4.000000 -3.000000 119.762570 29.168944 374.244827 236.149158 10.361412 0.000000 0.010367
105.000000 61.195000 8.000000 9.000000 -6.000000 141.353927 3.439935 910.303484 -407.458773 16.329175 0.000000 0.017550
106.000000 57.534000 3.000000 3.000000 -2.000000 136.326801 10.763616 770.394138 -206.522346 5.789719 0.000000 0.029407
107.000000 53.890000 10.000000 9.000000 -6.000000 131.287657 16.117037 663.996894 -42.803671 18.545086 0.000000 0.033111
108.000000 50.361000 11.000000 9.000000 -6.000000 126.431465 20.136295 580.358952 94.855267 19.846024 0.000000 0.035068
109.000000 47.010000 4.000000 3.000000 -2.000000 121.848893 23.236706 512.883274 213.374065 7.087392 0.000000 0.037690
112.000000 57.763000 4.000000 5.000000 -3.000000 140.019590 -5.315052 1075.129990 -348.111236 8.649729 0.000000 0.009585
113.000000 54.714000 9.000000 10.000000 -6.000000 136.009051 2.703758 924.172499 -175.130232 18.264426 0.000000 0.023850
114.000000 51.613000 5.000000 5.000000 -3.000000 131.741146 8.865342 807.123772 -30.942115 9.681539 0.000000 0.041308
115.000000 48.552000 11.000000 10.000000 -6.000000 127.456429 13.645489 713.712310 92.479660 20.585137 0.000000 0.052486
116.000000 45.595000 6.000000 5.000000 -3.000000 123.291815 17.413336 637.434680 200.280223 10.960678 0.000000 0.059959
119.000000 54.436000 8.000000 11.000000 -6.000000 138.137073 -12.594390 1215.469622 -289.725749 18.357125 0.000000 0.027986
120.000000 51.910000 9.000000 11.000000 -6.000000 135.055553 -4.399478 1057.806465 -140.570329 19.251544 0.000000 0.026700
121.000000 49.286000 10.000000 11.000000 -6.000000 131.551051 2.208982 933.483973 -13.645123 20.277357 0.000000 0.048685
122.000000 46.649000 11.000000 11.000000 -6.000000 127.868873 7.519122 832.937719 96.807433 21.424896 0.000000 0.064454
124.000000 51.272000 4.000000 6.000000 -3.000000 135.960450 -18.561198 1336.401787 -233.066865 9.745327 0.000000 0.041591
125.000000 49.184000 3.000000 4.000000 -2.000000 133.677219 -10.527358 1175.010975 -104.305528 6.772900 0.000000 0.028498
126.000000 46.973000 5.000000 6.000000 -3.000000 130.878457 -3.766783 1045.860690 7.375858 10.637920 0.000000 0.051849
129.000000 48.300000 8.000000 13.000000 -6.000000 133.661469 -23.442034 1441.691894 -178.549484 20.690462 0.000000 0.052941
130.000000 46.578000 9.000000 13.000000 -6.000000 132.039505 -15.754637 1278.640413 -67.323732 21.456021 0.000000 0.028192
132.000000 46.753000 7.000000 14.000000 -6.000000 131.719707 -35.321739 1737.672085 -235.107354 21.375259 0.000000 0.143559
133.000000 45.533000 4.000000 7.000000 -3.000000 131.348582 -27.454206 1534.190443 -126.373869 10.974258 0.000000 0.063572
140.000000 47.327000 12.000000 3.000000 -5.000000 92.759291 51.821810 -393.797866 857.077833 21.128538 0.000000 0.298952
143.000000 67.055000 9.000000 4.000000 -5.000000 114.406887 47.803439 -212.130405 213.886568 14.907169 0.000000 0.243424
144.000000 59.873000 10.000000 4.000000 -5.000000 108.217427 47.463100 -198.051478 417.040931 16.697205 0.000000 0.207368
145.000000 53.708000 11.000000 4.000000 -5.000000 102.887896 47.208453 -187.636105 578.490028 18.615205 0.000000 0.188842
146.000000 48.426000 12.000000 4.000000 -5.000000 98.269878 47.010760 -179.618945 711.574181 20.647376 0.000000 0.182148
148.000000 73.853000 8.000000 5.000000 -5.000000 127.059668 38.925991 105.733580 -103.792126 13.532766 0.000000 0.164261
149.000000 66.366000 9.000000 5.000000 -5.000000 119.767814 40.062530 69.878380 136.658293 15.060885 0.000000 0.126669
150.000000 53.944000 11.000000 5.000000 -5.000000 107.932145 41.455143 24.276431 476.273524 18.532690 0.000000 0.094500
151.000000 48.894000 12.000000 5.000000 -5.000000 103.117009 41.912323 8.878445 603.981478 20.448268 0.000000 0.096578
154.000000 71.313000 8.000000 6.000000 -5.000000 130.740016 28.973094 379.060896 -118.690931 14.014041 0.000000 0.080596
155.000000 64.770000 9.000000 6.000000 -5.000000 123.774669 31.868065 305.897831 93.412469 15.431362 0.000000 0.053302
156.000000 58.829000 10.000000 6.000000 -5.000000 117.588440 33.909204 251.509278 263.350638 16.991287 0.000000 0.032357
157.000000 53.516000 11.000000 6.000000 -5.000000 112.109735 35.422175 209.490376 404.432407 18.679699 0.000000 0.027740
158.000000 48.806000 12.000000 6.000000 -5.000000 107.255222 36.587001 176.052127 524.654424 20.484285 0.000000 0.039047
160.000000 73.965000 7.000000 7.000000 -5.000000 139.492358 12.326006 739.818094 -348.564407 13.510240 0.000000 0.043313
161.000000 68.135000 8.000000 7.000000 -5.000000 132.794899 18.986651 604.682634 -112.814874 14.667415 0.000000 0.038321
162.000000 62.540000 9.000000 7.000000 -5.000000 126.478514 23.530632 506.329562 73.034413 15.981017 0.000000 0.027184
163.000000 57.326000 10.000000 7.000000 -5.000000 120.678695 26.790856 431.540222 225.702817 17.435928 0.000000 0.020668
164.000000 52.559000 11.000000 7.000000 -5.000000 115.418176 29.229488 372.752306 354.890636 19.018920 0.000000 0.024600
165.000000 48.252000 12.000000 7.000000 -5.000000 110.672143 31.116040 325.326751 466.652182 20.718362 0.000000 0.034312
168.000000 69.391000 7.000000 8.000000 -5.000000 138.913080 1.403535 948.629492 -293.718479 14.400859 0.000000 0.011461
169.000000 64.626000 8.000000 8.000000 -5.000000 133.480703 9.541641 794.085879 -93.995189 15.463764 0.000000 0.033031
170.000000 59.917000 9.000000 8.000000 -5.000000 128.018865 15.394104 678.658322 68.223058 16.680481 0.000000 0.044615
171.000000 55.415000 10.000000 8.000000 -5.000000 122.787139 19.722012 589.164299 204.516137 18.036934 0.000000 0.051995
172.000000 51.207000 11.000000 8.000000 -5.000000 117.897596 23.017751 517.746591 321.898829 19.520713 0.000000 0.057362
173.000000 47.331000 12.000000 8.000000 -5.000000 113.386522 25.595467 459.430887 424.899838 21.120835 0.000000 0.061725
176.000000 64.869000 7.000000 9.000000 -5.000000 137.308749 -7.756678 1121.604989 -236.500263 15.404972 0.000000 0.016387
177.000000 61.011000 8.000000 9.000000 -5.000000 133.123544 1.046271 955.343750 -67.176340 16.380183 0.000000 0.039712
178.000000 57.089000 9.000000 9.000000 -5.000000 128.593548 7.756027 828.407460 74.073085 17.506471 0.000000 0.059986
179.000000 53.248000 10.000000 9.000000 -5.000000 124.035017 12.908906 728.319618 195.224509 18.770706 0.000000 0.072527
180.000000 49.579000 11.000000 9.000000 -5.000000 119.622431 16.930212 647.376784 301.297684 20.161235 0.000000 0.080139
181.000000 46.135000 12.000000 9.000000 -5.000000 115.443451 20.126610 580.565324 395.634274 21.667682 0.000000 0.084644
182.000000 63.354000 6.000000 10.000000 -5.000000 137.230846 -25.905166 1497.740350 -352.523288 15.773243 0.000000 0.093985
183.000000 60.548000 7.000000 10.000000 -5.000000 135.125802 -15.190978 1267.240695 -179.172365 16.504799 0.000000 0.027389
184.000000 57.441000 8.000000 10.000000 -5.000000 132.044145 -6.324821 1094.295968 -35.546242 17.398413 0.000000 0.042470
185.000000 54.198000 9.000000 10.000000 -5.000000 128.420494 0.812200 959.741907 87.226887 18.440292 0.000000 0.067691
186.000000 50.947000 4.000000 4.000000 -2.000000 124.568159 6.515726 852.072504 194.575414 7.847267 0.000000 0.084389
187.000000 47.777000 11.000000 10.000000 -5.000000 120.689902 11.093715 763.962060 290.035695 20.921088 0.000000 0.094777
189.000000 58.692000 6.000000 11.000000 -5.000000 133.866133 -30.993143 1621.527556 -265.814705 17.026715 0.000000 0.113053
190.000000 56.506000 7.000000 11.000000 -5.000000 132.674797 -21.157262 1391.543704 -123.021774 17.686091 0.000000 0.036225
191.000000 54.011000 8.000000 11.000000 -5.000000 130.509697 -12.584330 1215.271229 -1.192096 18.503717 0.000000 0.040248
192.000000 51.341000 9.000000 11.000000 -5.000000 127.704968 -5.353662 1075.861604 105.350865 19.466758 0.000000 0.069198
193.000000 48.605000 10.000000 11.000000 -5.000000 124.536729 0.646978 962.846088 200.219915 20.563730 0.000000 0.089762
194.000000 45.884000 11.000000 11.000000 -5.000000 121.207573 5.604811 869.377187 285.846418 21.784328 0.000000 0.103148
196.000000 54.477000 6.000000 12.000000 -5.000000 130.665485 -34.907621 1726.046147 -186.495413 18.345037 0.000000 0.129965
197.000000 52.774000 7.000000 12.000000 -5.000000 130.149695 -25.954293 1498.881366 -68.761642 18.937293 0.000000 0.045250
198.000000 50.773000 8.000000 12.000000 -5.000000 128.719296 -17.847568 1321.546227 34.505610 19.684073 0.000000 0.034421
199.000000 48.580000 9.000000 12.000000 -5.000000 126.620299 -10.746137 1179.265676 126.802947 20.573407 0.000000 0.066099
200.000000 46.285000 10.000000 12.000000 -5.000000 124.079761 -4.652040 1062.580546 210.441583 21.594530 0.000000 0.090291
202.000000 50.682000 6.000000 13.000000 -5.000000 127.682004 -37.986015 1815.470258 -113.752612 19.719193 0.000000 0.145950
203.000000 49.357000 7.000000 13.000000 -5.000000 127.662970 -29.844296 1592.505045 -16.761593 20.248936 0.000000 0.055691
204.000000 47.753000 8.000000 13.000000 -5.000000 126.810494 -22.264742 1415.646936 70.629339 20.929574 0.000000 0.026748
205.000000 45.953000 9.000000 13.000000 -5.000000 125.301890 -15.423426 1271.934328 150.416393 21.749917 0.000000 0.059644
207.000000 47.274000 6.000000 14.000000 -5.000000 124.929464 -40.457107 1892.849568 -46.862252 21.141762 0.000000 0.161534
208.000000 46.243000 7.000000 14.000000 -5.000000 125.275417 -33.034864 1674.885171 32.816392 21.613189 0.000000 0.067710
216.000000 74.702000 8.000000 3.000000 -4.000000 106.748369 49.041422 -264.944273 446.891913 13.382913 0.000000 0.239899
217.000000 65.153000 9.000000 3.000000 -4.000000 100.298898 48.496689 -241.387736 645.866056 15.345896 0.000000 0.214333
218.000000 57.311000 10.000000 3.000000 -4.000000 94.906287 48.095032 -224.340363 802.670400 17.447225 0.000000 0.206486
219.000000 50.841000 11.000000 3.000000 -4.000000 90.350018 47.786654 -211.431727 931.214017 19.669103 0.000000 0.208146
220.000000 45.465000 12.000000 3.000000 -4.000000 86.461421 47.542454 -201.317784 1039.595730 21.996659 0.000000 0.214463
221.000000 85.196000 7.000000 4.000000 -4.000000 121.494455 39.817140 77.719817 82.495147 11.731807 0.000000 0.134799
222.000000 65.768000 9.000000 4.000000 -4.000000 106.667951 41.580179 20.086869 510.203613 15.200985 0.000000 0.094179
223.000000 58.277000 5.000000 2.000000 -2.000000 100.934771 42.103761 2.365140 660.732902 8.578299 0.000000 0.100214
224.000000 51.982000 11.000000 4.000000 -4.000000 96.042734 42.502408 -11.325224 786.459563 19.236038 0.000000 0.112966
225.000000 46.674000 3.000000 1.000000 -1.000000 91.834435 42.816042 -22.219332 894.006745 5.356262 0.000000 0.127573
226.000000 82.237000 7.000000 5.000000 -4.000000 126.207616 29.062905 376.854653 39.547253 12.153309 0.000000 0.047459
227.000000 73.126000 8.000000 5.000000 -4.000000 118.458159 32.136945 298.874384 252.080277 13.669032 0.000000 0.019291
228.000000 65.145000 9.000000 5.000000 -4.000000 111.753886 34.251899 242.125109 421.404642 15.345385 0.000000 0.018941
229.000000 58.249000 10.000000 5.000000 -4.000000 105.958893 35.792187 198.975170 561.551871 17.163684 0.000000 0.039375
230.000000 52.326000 11.000000 5.000000 -4.000000 100.935282 36.962458 165.059223 680.748035 19.108036 0.000000 0.058876
231.000000 47.245000 12.000000 5.000000 -4.000000 96.560024 37.881038 137.699687 784.186938 21.164833 0.000000 0.076341
232.000000 78.159000 7.000000 6.000000 -4.000000 128.829287 18.263259 619.815211 28.779377 12.787044 0.000000 0.034091
233.000000 63.580000 9.000000 6.000000 -4.000000 115.555371 26.727914 433.023215 364.789913 15.722291 0.000000 0.043599
234.000000 57.415000 5.000000 3.000000 -2.000000 109.955345 29.296044 371.109531 492.899983 8.706076 0.000000 0.051056
235.000000 51.993000 11.000000 6.000000 -4.000000 104.995132 31.257188 321.703847 603.753389 19.229396 0.000000 0.059273
236.000000 47.251000 6.000000 3.000000 -2.000000 100.602901 32.800456 281.363547 701.304013 10.580542 0.000000 0.067903
237.000000 86.111000 5.000000 7.000000 -4.000000 140.651965 -13.970265 1242.757080 -411.740193 11.604453 0.000000 0.043411
238.000000 79.958000 6.000000 7.000000 -4.000000 135.597598 -0.971527 993.251764 -158.141379 12.498195 0.000000 0.025113
239.000000 73.535000 7.000000 7.000000 -4.000000 129.725494 8.139336 821.066668 37.533089 13.590922 0.000000 0.053046
240.000000 67.258000 8.000000 7.000000 -4.000000 123.795969 14.578275 695.082082 196.628127 14.860741 0.000000 0.068305
241.000000 61.367000 9.000000 7.000000 -4.000000 118.162590 19.261308 598.902865 330.634684 16.288854 0.000000 0.076563
242.000000 55.976000 10.000000 7.000000 -4.000000 112.964047 22.777228 523.070817 446.363864 17.859036 0.000000 0.081042
243.000000 51.119000 11.000000 7.000000 -4.000000 108.234594 25.495107 461.746780 548.158065 19.557202 0.000000 0.083608
244.000000 46.784000 12.000000 7.000000 -4.000000 103.960226 27.649986 411.130793 638.948599 21.371074 0.000000 0.085441
245.000000 78.364000 5.000000 8.000000 -4.000000 136.823552 -23.060929 1433.211193 -305.707365 12.752097 0.000000 0.071073
246.000000 68.768000 7.000000 8.000000 -4.000000 129.357990 -0.825092 990.500323 58.151178 14.533294 0.000000 0.062235
247.000000 58.756000 9.000000 8.000000 -4.000000 119.731921 12.094027 744.379847 312.344645 17.012147 0.000000 0.096640
248.000000 54.120000 5.000000 4.000000 -2.000000 115.075023 16.400999 658.208971 416.037727 9.235500 0.000000 0.102780
249.000000 49.842000 11.000000 8.000000 -4.000000 110.703798 19.791317 587.694451 508.684790 20.057851 0.000000 0.105232
250.000000 45.944000 3.000000 2.000000 -1.000000 106.657831 22.511794 528.924734 592.396132 5.440266 0.000000 0.105565
252.000000 71.400000 5.000000 9.000000 -4.000000 132.904499 -29.572046 1585.725866 -209.133003 13.996513 0.000000 0.092349
253.000000 67.991000 6.000000 9.000000 -4.000000 131.162651 -18.066017 1326.080762 -48.782251 14.698897 0.000000 0.027638
254.000000 64.108000 7.000000 9.000000 -4.000000 128.162399 -8.461240 1135.108974 85.875567 15.589900 0.000000 0.062040
255.000000 60.026000 8.000000 9.000000 -4.000000 124.457348 -0.731807 988.747659 202.402262 16.651113 0.000000 0.090294
256.000000 55.946000 9.000000 9.000000 -4.000000 120.453343 5.413716 873.000273 305.358866 17.866446 0.000000 0.107084
257.000000 52.005000 10.000000 9.000000 -4.000000 116.410402 10.312010 779.171116 397.703747 19.221777 0.000000 0.116264
258.000000 48.284000 11.000000 9.000000 -4.000000 112.480365 14.254158 701.572924 481.468815 20.704656 0.000000 0.120522
260.000000 65.232000 5.000000 10.000000 -4.000000 129.175743 -34.351289 1710.610822 -121.321423 15.320600 0.000000 0.111601
261.000000 62.701000 3.000000 5.000000 -2.000000 128.431556 -23.974744 1453.628721 6.335615 7.969728 0.000000 0.027301
262.000000 59.698000 7.000000 10.000000 -4.000000 126.481732 -14.830198 1259.976156 117.689448 16.741835 0.000000 0.055341
263.000000 56.435000 4.000000 5.000000 -2.000000 123.729811 -7.086984 1108.811240 216.859145 8.855390 0.000000 0.089137
264.000000 53.080000 9.000000 10.000000 -4.000000 120.519836 -0.667181 987.533480 306.469186 18.831365 0.000000 0.110520
265.000000 49.756000 5.000000 5.000000 -2.000000 117.105681 4.617281 888.076684 388.304037 10.045197 0.000000 0.123206
266.000000 46.548000 11.000000 10.000000 -4.000000 113.657837 8.973722 805.037710 463.641315 21.476157 0.000000 0.130032
268.000000 59.807000 5.000000 11.000000 -4.000000 125.740871 -37.962209 1814.750598 -41.425573 16.711059 0.000000 0.130493
269.000000 57.928000 6.000000 11.000000 -4.000000 125.696913 -28.638435 1562.751646 59.899697 17.253334 0.000000 0.033134
270.000000 55.607000 7.000000 11.000000 -4.000000 124.556033 -20.100861 1368.886117 151.652775 17.974146 0.000000 0.044344
271.000000 53.003000 8.000000 11.000000 -4.000000 122.601515 -12.576571 1215.118219 235.718381 18.857841 0.000000 0.083095
272.000000 50.253000 9.000000 11.000000 -4.000000 120.105771 -6.107947 1090.173672 313.386357 19.890540 0.000000 0.108876
273.000000 47.465000 10.000000 11.000000 -4.000000 117.294037 -0.619765 986.642668 385.592450 21.059898 0.000000 0.125145
275.000000 55.046000 5.000000 12.000000 -4.000000 122.622478 -40.765987 1902.917895 31.401866 18.157399 0.000000 0.149424
276.000000 53.652000 3.000000 6.000000 -2.000000 123.068609 -32.367195 1657.173001 111.306930 9.314639 0.000000 0.045333
277.000000 51.856000 7.000000 12.000000 -4.000000 122.540570 -24.465539 1464.713991 186.507540 19.274855 0.000000 0.030622
278.000000 49.779000 2.000000 3.000000 -1.000000 121.233903 -17.284298 1309.904786 257.433968 5.019908 0.000000 0.073704
279.000000 47.529000 9.000000 12.000000 -4.000000 119.356155 -10.921570 1182.681855 324.456833 21.030682 0.000000 0.103566
281.000000 50.863000 5.000000 13.000000 -4.000000 119.808349 -42.996156 1978.525659 97.947921 19.651225 0.000000 0.168315
282.000000 49.831000 6.000000 13.000000 -4.000000 120.597263 -35.392704 1739.676284 160.273719 20.058230 0.000000 0.061091
283.000000 48.441000 7.000000 13.000000 -4.000000 120.530094 -28.099822 1549.683332 221.436344 20.634247 0.000000 0.015445
284.000000 46.783000 8.000000 13.000000 -4.000000 119.740918 -21.314683 1394.947373 280.922937 21.365822 0.000000 0.062072
286.000000 47.181000 5.000000 14.000000 -4.000000 117.272861 -44.807308 2044.079133 158.919067 21.185747 0.000000 0.186966
287.000000 46.420000 3.000000 7.000000 -2.000000 118.300968 -37.883814 1812.384027 206.704614 10.766405 0.000000 0.078456
292.000000 82.429000 7.000000 2.000000 -3.000000 96.063179 50.435028 -327.636942 761.515512 12.130452 0.000000 0.259917
293.000000 69.721000 8.000000 2.000000 -3.000000 89.674232 49.639961 -291.430005 950.449788 14.343116 0.000000 0.248915
294.000000 59.882000 9.000000 2.000000 -3.000000 84.537439 49.062998 -265.887883 1098.083429 16.701154 0.000000 0.251116
295.000000 52.143000 10.000000 2.000000 -3.000000 80.334495 48.625299 -246.903448 1218.326618 19.181375 0.000000 0.258685
296.000000 45.955000 11.000000 2.000000 -3.000000 76.841322 48.281910 -232.238575 1319.116571 21.765273 0.000000 0.268230
297.000000 84.166000 7.000000 3.000000 -3.000000 104.652128 41.772029 13.626922 563.688300 11.878588 0.000000 0.094968
298.000000 71.948000 8.000000 3.000000 -3.000000 97.590421 42.380536 -7.121439 746.837002 13.897545 0.000000 0.108350
299.000000 54.441000 10.000000 3.000000 -3.000000 87.075882 43.143108 -33.698338 1016.347213 18.370069 0.000000 0.146831
300.000000 48.123000 11.000000 3.000000 -3.000000 83.089413 43.397736 -42.720351 1120.531229 20.783285 0.000000 0.164757
301.000000 83.182000 7.000000 4.000000 -3.000000 111.153692 32.444717 290.783992 447.503247 12.018049 0.000000 0.023133
302.000000 72.151000 8.000000 4.000000 -3.000000 103.981078 34.635775 231.522039 615.308733 13.857174 0.000000 0.047558
303.000000 63.074000 9.000000 4.000000 -3.000000 97.984291 36.200159 187.267086 753.924274 15.853059 0.000000 0.068778
304.000000 55.603000 10.000000 4.000000 -3.000000 92.933418 37.371483 152.959404 871.601563 17.984594 0.000000 0.087610
305.000000 49.425000 11.000000 4.000000 -3.000000 88.642008 38.280650 125.584032 973.503140 20.234297 0.000000 0.104740
306.000000 80.280000 7.000000 5.000000 -3.000000 115.574173 22.900380 520.347090 381.852129 12.451839 0.000000 0.068901
307.000000 70.773000 8.000000 5.000000 -3.000000 108.793923 26.657321 434.684512 531.163710 14.126129 0.000000 0.074173
308.000000 62.648000 9.000000 5.000000 -3.000000 102.916226 29.369555 369.292609 657.773004 15.959676 0.000000 0.078592
309.000000 55.760000 10.000000 5.000000 -3.000000 97.834521 31.411232 317.737520 767.474999 17.932586 0.000000 0.083607
310.000000 49.930000 11.000000 5.000000 -3.000000 93.431368 32.999950 276.047666 864.050870 20.028144 0.000000 0.089827
311.000000 76.232000 7.000000 6.000000 -3.000000 118.152605 13.650821 713.606243 348.299264 13.112571 0.000000 0.099223
312.000000 68.301000 8.000000 6.000000 -3.000000 112.125728 18.745991 609.731310 478.885133 14.636570 0.000000 0.104715
313.000000 55.100000 10.000000 6.000000 -3.000000 101.773171 25.385570 464.270047 692.701438 18.146591 0.000000 0.104501
314.000000 49.753000 11.000000 6.000000 -3.000000 97.435804 27.640222 411.364522 782.433944 20.098071 0.000000 0.103199
315.000000 85.107000 5.000000 7.000000 -3.000000 128.622077 -13.682466 1237.023342 56.011781 11.743204 0.000000 0.047366
316.000000 78.421000 6.000000 7.000000 -3.000000 124.271551 -2.949697 1030.458714 206.611664 12.745296 0.000000 0.090570
317.000000 71.645000 7.000000 7.000000 -3.000000 119.263034 5.121180 878.542252 335.507527 13.951970 0.000000 0.113072
318.000000 65.171000 8.000000 7.000000 -3.000000 114.178392 11.188058 762.121115 448.420810 15.339145 0.000000 0.123053
319.000000 59.205000 9.000000 7.000000 -3.000000 109.314461 15.818878 670.056371 548.933885 16.886379 0.000000 0.125912
320.000000 53.823000 10.000000 7.000000 -3.000000 104.800191 19.425973 595.428461 639.460925 18.576201 0.000000 0.124849
321.000000 49.030000 11.000000 7.000000 -3.000000 100.675231 22.293956 533.712176 721.722922 20.393596 0.000000 0.121866
323.000000 81.211000 4.000000 8.000000 -3.000000 126.912261 -33.564485 1689.126977 -29.238385 12.306617 0.000000 0.085429
324.000000 77.087000 5.000000 8.000000 -3.000000 125.782828 -21.249806 1393.543748 108.650139 12.965371 0.000000 0.033667
325.000000 72.167000 6.000000 8.000000 -3.000000 123.011105 -10.838425 1181.062285 229.049486 13.849960 0.000000 0.085547
326.000000 66.931000 7.000000 8.000000 -3.000000 119.306843 -2.444970 1020.956372 336.292302 14.934546 0.000000 0.115784
327.000000 61.718000 8.000000 8.000000 -3.000000 115.203592 4.198754 895.985425 433.088734 16.197092 0.000000 0.131352
328.000000 56.742000 9.000000 8.000000 -3.000000 111.039960 9.456630 795.727518 521.284010 17.618680 0.000000 0.138012
329.000000 52.119000 10.000000 8.000000 -3.000000 107.007393 13.655573 713.511724 602.215341 19.182985 0.000000 0.139271
330.000000 47.896000 11.000000 8.000000 -3.000000 103.202472 17.052269 644.869876 676.897915 20.875839 0.000000 0.137335
331.000000 72.844000 4.000000 9.000000 -3.000000 122.889746 -37.929961 1813.776495 58.589180 13.720819 0.000000 0.109027
332.000000 69.988000 5.000000 9.000000 -3.000000 122.813382 -27.027758 1524.056286 161.935442 14.280969 0.000000 0.016862
333.000000 62.343000 7.000000 9.000000 -3.000000 118.636822 -8.984344 1145.166802 345.987494 16.033627 0.000000 0.111102
334.000000 58.178000 8.000000 9.000000 -3.000000 115.453975 -2.102279 1014.508791 428.349787 17.182464 0.000000 0.132334
335.000000 54.071000 3.000000 3.000000 -1.000000 112.007048 3.543716 908.346716 505.161514 6.162906 0.000000 0.143337
336.000000 50.146000 10.000000 9.000000 -3.000000 108.509773 8.175040 820.382196 576.973678 19.937134 0.000000 0.147799
337.000000 46.473000 11.000000 9.000000 -3.000000 105.092516 11.995973 746.305646 644.264284 21.514368 0.000000 0.148083
339.000000 65.755000 4.000000 10.000000 -3.000000 119.323169 -41.169988 1916.229041 137.874524 15.200896 0.000000 0.133669
340.000000 63.777000 5.000000 10.000000 -3.000000 119.935993 -31.499692 1634.546020 214.087693 15.672426 0.000000 0.016466
341.000000 61.115000 6.000000 10.000000 -3.000000 119.229574 -22.525859 1421.384893 289.007543 16.355510 0.000000 0.057847
342.000000 58.019000 7.000000 10.000000 -3.000000 117.525821 -14.555148 1254.454128 361.501717 17.228777 0.000000 0.101584
343.000000 54.705000 8.000000 10.000000 -3.000000 115.151765 -7.682471 1120.185419 431.063533 18.273639 0.000000 0.128129
344.000000 51.336000 9.000000 10.000000 -3.000000 112.383811 -1.854403 1009.846913 497.506977 19.473855 0.000000 0.143484
345.000000 48.030000 10.000000 10.000000 -3.000000 109.429402 3.054637 917.564580 560.815856 20.815171 0.000000 0.151430
347.000000 59.731000 4.000000 11.000000 -3.000000 116.184023 -43.655442 2001.928957 209.518854 16.734778 0.000000 0.158400
348.000000 58.365000 5.000000 11.000000 -3.000000 117.246656 -35.023678 1729.292426 264.191616 17.126316 0.000000 0.036747
349.000000 56.402000 6.000000 11.000000 -3.000000 117.170920 -26.804888 1518.790614 322.041520 17.722596 0.000000 0.039943
350.000000 54.022000 7.000000 11.000000 -3.000000 116.167578 -19.273556 1351.355327 380.753962 18.504076 0.000000 0.089017
351.000000 51.387000 8.000000 11.000000 -3.000000 114.475677 -12.570405 1214.996618 439.023397 19.453624 0.000000 0.120317
352.000000 48.633000 9.000000 11.000000 -3.000000 112.319117 -6.718998 1101.797329 496.104381 20.556161 0.000000 0.139784
353.000000 45.864000 10.000000 11.000000 -3.000000 109.883308 -1.666782 1006.319129 551.576758 21.798355 0.000000 0.151193
355.000000 54.585000 4.000000 12.000000 -3.000000 113.422782 -45.615609 2074.674674 274.405015 18.313176 0.000000 0.182554
356.000000 53.650000 5.000000 12.000000 -3.000000 114.777282 -37.852381 1811.436550 311.816172 18.632207 0.000000 0.059764
357.000000 52.201000 2.000000 4.000000 -1.000000 115.154525 -30.327510 1604.629031 355.446196 6.383145 0.000000 0.022109
358.000000 50.367000 7.000000 12.000000 -3.000000 114.691815 -23.270248 1437.863154 402.325967 19.846936 0.000000 0.074717
359.000000 48.273000 8.000000 12.000000 -3.000000 113.560710 -16.828477 1300.536189 450.658745 20.708881 0.000000 0.110076
360.000000 46.024000 3.000000 4.000000 -1.000000 111.936322 -11.065375 1185.485164 499.328525 7.240414 0.000000 0.133278
362.000000 50.161000 4.000000 13.000000 -3.000000 110.987799 -47.197663 2137.196991 333.339665 19.928823 0.000000 0.205743
363.000000 49.532000 5.000000 13.000000 -3.000000 112.528931 -40.162612 1883.335958 356.804017 20.181865 0.000000 0.082888
364.000000 48.463000 6.000000 13.000000 -3.000000 113.230515 -33.257285 1680.845149 388.536580 20.626848 0.000000 0.013253
365.000000 47.049000 7.000000 13.000000 -3.000000 113.181666 -26.667914 1515.564648 425.242486 21.247276 0.000000 0.059795
367.000000 46.333000 4.000000 14.000000 -3.000000 108.831957 -48.499536 2191.509549 387.036824 21.575950 0.000000 0.227776
368.000000 45.922000 5.000000 14.000000 -3.000000 110.488812 -42.079132 1946.794680 399.151980 21.768711 0.000000 0.105478
373.000000 71.077000 7.000000 1.000000 -2.000000 75.010621 50.910279 -349.865388 1398.036703 14.072845 0.000000 0.335587
376.000000 76.682000 7.000000 2.000000 -2.000000 84.997671 43.277885 -38.464378 1070.399429 13.042455 0.000000 0.155981
377.000000 64.409000 4.000000 1.000000 -1.000000 79.709089 43.601585 -49.997959 1210.859422 7.764513 0.000000 0.181198
378.000000 55.133000 9.000000 2.000000 -2.000000 75.513218 43.841044 -58.610152 1326.550425 18.142915 0.000000 0.203370
379.000000 47.951000 5.000000 1.000000 -1.000000 72.111748 44.025355 -65.286143 1424.135290 10.430847 0.000000 0.223041
380.000000 78.976000 7.000000 3.000000 -2.000000 93.237801 35.068688 219.446091 866.608775 12.662115 0.000000 0.085899
381.000000 67.059000 8.000000 3.000000 -2.000000 87.360958 36.652198 174.150934 1002.835701 14.913733 0.000000 0.104398
382.000000 57.792000 9.000000 3.000000 -2.000000 82.596863 37.818739 139.576617 1118.030632 17.306679 0.000000 0.122886
383.000000 50.471000 10.000000 3.000000 -2.000000 78.674237 38.713162 112.319673 1217.267852 19.818358 0.000000 0.140945
384.000000 78.496000 7.000000 4.000000 -2.000000 99.539412 26.577593 436.558329 738.757866 12.738345 0.000000 0.103803
385.000000 67.685000 4.000000 2.000000 -1.000000 93.588883 29.451170 367.272299 863.477062 7.387217 0.000000 0.102684
386.000000 58.963000 9.000000 4.000000 -2.000000 88.606950 31.580024 313.376510 971.723255 16.961371 0.000000 0.104522
387.000000 51.884000 5.000000 2.000000 -1.000000 84.408146 33.216288 270.255686 1066.957448 9.638541 0.000000 0.109819
388.000000 46.086000 11.000000 4.000000 -2.000000 80.839282 34.511250 234.972240 1151.632659 21.703601 0.000000 0.118039
389.000000 87.016000 6.000000 5.000000 -2.000000 110.282933 12.587754 734.661256 533.434592 11.489116 0.000000 0.132916
390.000000 76.048000 7.000000 5.000000 -2.000000 103.970998 18.165837 621.843436 659.181942 13.147518 0.000000 0.131731
391.000000 66.714000 8.000000 5.000000 -2.000000 98.374417 22.217381 535.391526 769.850900 14.988608 0.000000 0.126286
392.000000 58.872000 9.000000 5.000000 -2.000000 93.492474 25.265537 467.029847 868.364581 16.986578 0.000000 0.120189
393.000000 52.306000 10.000000 5.000000 -2.000000 89.253286 27.629628 411.618086 956.833294 19.120264 0.000000 0.115514
394.000000 46.797000 11.000000 5.000000 -2.000000 85.568415 29.510769 365.794914 1036.848252 21.372143 0.000000 0.113370
395.000000 90.396000 5.000000 6.000000 -2.000000 117.095772 -5.375467 1076.274809 387.900169 11.058221 0.000000 0.123301
396.000000 72.413000 7.000000 6.000000 -2.000000 106.785506 10.175358 781.821933 611.156789 13.806944 0.000000 0.148352
397.000000 64.624000 4.000000 3.000000 -1.000000 101.828318 15.175636 683.068723 707.450842 7.736232 0.000000 0.145756
398.000000 57.808000 9.000000 6.000000 -2.000000 97.291579 19.026381 603.847746 795.325917 17.298291 0.000000 0.139651
399.000000 51.912000 5.000000 3.000000 -1.000000 93.211242 22.057788 538.885635 875.844973 9.632183 0.000000 0.132481
400.000000 46.835000 11.000000 6.000000 -2.000000 89.568971 24.493558 484.650585 949.897708 21.353842 0.000000 0.125788
401.000000 88.038000 4.000000 7.000000 -2.000000 118.199621 -24.771798 1471.675039 305.421761 11.353951 0.000000 0.049043
402.000000 81.780000 5.000000 7.000000 -2.000000 115.928613 -13.489776 1233.192281 402.868993 12.223432 0.000000 0.111844
403.000000 74.963000 6.000000 7.000000 -2.000000 112.398312 -4.353069 1056.929580 496.137296 13.335889 0.000000 0.142044
404.000000 68.201000 7.000000 7.000000 -2.000000 108.319967 2.853816 921.347030 584.191039 14.659224 0.000000 0.154480
405.000000 61.846000 8.000000 7.000000 -2.000000 104.141606 8.517086 813.818603 666.798580 16.166753 0.000000 0.156952
406.000000 56.062000 9.000000 7.000000 -2.000000 100.107577 13.003258 726.453425 744.086532 17.836115 0.000000 0.153884
407.000000 50.894000 10.000000 7.000000 -2.000000 96.333664 16.603739 654.066268 816.337966 19.648424 0.000000 0.147955
408.000000 46.325000 11.000000 7.000000 -2.000000 92.862502 19.535694 593.109458 883.896187 21.587625 0.000000 0.140875
409.000000 81.284000 3.000000 8.000000 -2.000000 114.228519 -41.720980 1934.650413 292.080596 12.297803 0.000000 0.114417
410.000000 74.018000 5.000000 8.000000 -2.000000 114.198644 -19.966638 1366.029502 426.392558 13.505512 0.000000 0.094205
411.000000 63.829000 7.000000 8.000000 -2.000000 108.911539 -3.673742 1044.105525 571.500632 15.663264 0.000000 0.152937
412.000000 58.716000 4.000000 4.000000 -1.000000 105.536009 2.373221 930.393817 641.531751 8.514200 0.000000 0.160988
413.000000 53.887000 9.000000 8.000000 -2.000000 102.080612 7.308982 836.952030 708.756313 18.555512 0.000000 0.162014
414.000000 49.437000 5.000000 4.000000 -1.000000 98.706209 11.357903 758.803812 772.892264 10.113447 0.000000 0.158851
416.000000 71.969000 3.000000 9.000000 -2.000000 110.781025 -44.521209 2033.454872 368.148377 13.890134 0.000000 0.149461
417.000000 70.128000 4.000000 9.000000 -2.000000 112.311015 -34.540479 1715.836674 404.823778 14.254768 0.000000 0.018259
418.000000 67.186000 5.000000 9.000000 -2.000000 112.256477 -25.133228 1479.934437 454.471063 14.879288 0.000000 0.073916
419.000000 63.544000 6.000000 9.000000 -2.000000 110.972314 -16.695273 1297.806981 510.289874 15.732733 0.000000 0.119989
420.000000 59.549000 7.000000 9.000000 -2.000000 108.848850 -9.388031 1152.948363 568.587264 16.788872 0.000000 0.146109
421.000000 55.467000 8.000000 9.000000 -2.000000 106.226511 -3.189741 1034.980869 627.281458 18.025334 0.000000 0.159569
422.000000 51.479000 9.000000 9.000000 -2.000000 103.362365 2.019272 937.052507 685.178659 19.422924 0.000000 0.164929
423.000000 47.695000 10.000000 9.000000 -2.000000 100.432294 6.390395 854.456941 741.596933 20.965077 0.000000 0.165100
425.000000 64.372000 3.000000 10.000000 -2.000000 107.856167 -46.645453 2114.959415 435.946829 15.530128 0.000000 0.182391
426.000000 63.258000 2.000000 5.000000 -1.000000 109.735785 -37.812314 1810.229967 452.245140 7.901735 0.000000 0.045208
427.000000 61.233000 5.000000 10.000000 -2.000000 110.292000 -29.287735 1578.685262 484.712020 16.326331 0.000000 0.053992
428.000000 58.563000 3.000000 5.000000 -1.000000 109.741556 -21.399642 1396.787368 526.149327 8.535453 0.000000 0.104262
429.000000 55.501000 7.000000 10.000000 -2.000000 108.355763 -14.338524 1250.114800 572.405326 18.013367 0.000000 0.135795
430.000000 52.255000 4.000000 5.000000 -1.000000 106.399990 -8.160475 1129.338552 620.989272 9.566593 0.000000 0.154182
431.000000 48.983000 9.000000 10.000000 -2.000000 104.097812 -2.827459 1028.156627 670.367789 20.412580 0.000000 0.163743
432.000000 45.792000 5.000000 5.000000 -1.000000 101.619518 1.747756 942.158433 719.583397 10.918033 0.000000 0.167369
434.000000 58.097000 3.000000 11.000000 -2.000000 105.358831 -48.307907 2183.341912 496.530253 17.208108 0.000000 0.212864
435.000000 57.454000 4.000000 11.000000 -2.000000 107.433194 -40.410992 1891.354319 497.121759 17.400625 0.000000 0.073934
436.000000 56.061000 5.000000 11.000000 -2.000000 108.400656 -32.667904 1665.117546 515.669164 17.832842 0.000000 0.038948
437.000000 54.100000 6.000000 11.000000 -2.000000 108.392671 -25.339501 1484.670084 545.019239 18.479663 0.000000 0.087702
438.000000 51.750000 7.000000 11.000000 -2.000000 107.594923 -18.608371 1337.388109 580.856665 19.319378 0.000000 0.123338
439.000000 49.172000 8.000000 11.000000 -2.000000 106.207459 -12.565386 1214.897655 620.478656 20.333109 0.000000 0.146005
440.000000 46.495000 9.000000 11.000000 -2.000000 104.414748 -7.223968 1111.425034 662.145784 21.504365 0.000000 0.159446
442.000000 52.851000 3.000000 12.000000 -2.000000 103.209864 -49.642309 2241.535201 550.859985 18.916849 0.000000 0.240877
443.000000 52.516000 2.000000 6.000000 -1.000000 105.383259 -42.516832 1961.823836 539.248495 9.518672 0.000000 0.101724
444.000000 51.565000 5.000000 12.000000 -2.000000 106.625559 -35.453672 1741.400953 546.467561 19.388280 0.000000 0.036664
445.000000 50.121000 3.000000 6.000000 -1.000000 107.015560 -28.657737 1563.222458 565.643004 9.973454 0.000000 0.071810
446.000000 48.314000 7.000000 12.000000 -2.000000 106.679365 -22.290228 1416.206020 592.474971 20.693380 0.000000 0.109781
447.000000 46.266000 4.000000 6.000000 -1.000000 105.764951 -16.452082 1292.834019 624.178768 10.805149 0.000000 0.135963
449.000000 48.415000 3.000000 13.000000 -2.000000 101.345795 -50.735938 2291.658719 599.775258 20.650851 0.000000 0.266566
450.000000 48.283000 4.000000 13.000000 -2.000000 103.558372 -44.253518 2023.608266 578.623601 20.706788 0.000000 0.128122
451.000000 47.644000 5.000000 13.000000 -2.000000 104.981878 -37.778871 1809.223879 576.584161 20.984459 0.000000 0.048512
452.000000 46.581000 6.000000 13.000000 -2.000000 105.662414 -31.472959 1633.855467 587.176929 21.463159 0.000000 0.058433
454.000000 75.367000 6.000000 1.000000 -1.000000 66.947856 44.290463 -74.961906 1580.858232 13.273886 0.000000 0.256546
455.000000 61.593000 7.000000 1.000000 -1.000000 63.223764 44.471958 -81.636493 1702.098910 16.243208 0.000000 0.284106
456.000000 51.824000 8.000000 1.000000 -1.000000 60.416509 44.604006 -86.518758 1799.188042 19.305912 0.000000 0.307181
457.000000 82.578000 6.000000 2.000000 -1.000000 77.778845 35.560616 205.567462 1227.562838 12.113076 0.000000 0.128286
458.000000 67.792000 7.000000 2.000000 -1.000000 72.823236 37.155787 159.356452 1358.430431 14.756159 0.000000 0.151739
459.000000 57.070000 8.000000 2.000000 -1.000000 69.000549 38.309789 124.695385 1467.512539 17.529629 0.000000 0.175907
460.000000 49.027000 9.000000 2.000000 -1.000000 65.971973 39.182755 97.735113 1560.025420 20.406037 0.000000 0.198945
461.000000 84.930000 6.000000 3.000000 -1.000000 86.325056 26.486834 438.688231 1018.235021 11.776232 0.000000 0.120559
462.000000 70.863000 7.000000 3.000000 -1.000000 80.851746 29.542307 365.012425 1140.225125 14.115162 0.000000 0.116465
463.000000 60.224000 8.000000 3.000000 -1.000000 76.457578 31.765782 308.558822 1245.911982 16.609963 0.000000 0.121075
464.000000 52.018000 9.000000 3.000000 -1.000000 72.879186 33.451692 263.920651 1338.362070 19.231385 0.000000 0.132086
465.000000 45.562000 10.000000 3.000000 -1.000000 69.922117 34.771850 227.739955 1419.917221 21.957065 0.000000 0.146629
466.000000 83.535000 6.000000 4.000000 -1.000000 92.499584 17.507932 635.481893 891.733561 11.971838 0.000000 0.146702
467.000000 71.237000 7.000000 4.000000 -1.000000 87.157085 21.888987 542.572755 998.600208 14.039926 0.000000 0.133299
468.000000 61.439000 8.000000 4.000000 -1.000000 82.634950 25.133424 470.061076 1094.667746 16.280094 0.000000 0.123045
469.000000 53.597000 9.000000 4.000000 -1.000000 78.813969 27.618093 411.894121 1181.209465 18.663212 0.000000 0.118069
470.000000 47.261000 10.000000 4.000000 -1.000000 75.570852 29.575096 364.198384 1259.415639 21.166376 0.000000 0.118782
471.000000 79.800000 6.000000 5.000000 -1.000000 96.576487 9.036650 803.825931 815.356598 12.531390 0.000000 0.164045
472.000000 69.636000 7.000000 5.000000 -1.000000 91.813665 14.461305 697.426734 905.804008 14.361661 0.000000 0.153839
473.000000 61.084000 8.000000 5.000000 -1.000000 87.522374 18.587535 613.047607 990.133873 16.373591 0.000000 0.141794
474.000000 53.952000 9.000000 5.000000 -1.000000 83.732721 21.800883 544.493762 1068.306853 18.539176 0.000000 0.130800
475.000000 48.007000 10.000000 5.000000 -1.000000 80.410338 24.359211 487.694855 1140.611730 20.835883 0.000000 0.122586
476.000000 83.686000 5.000000 6.000000 -1.000000 102.775139 -6.486335 1097.368225 695.390826 11.947998 0.000000 0.162970
477.000000 74.899000 6.000000 6.000000 -1.000000 99.000844 1.358618 949.473735 770.467538 13.350700 0.000000 0.169825
478.000000 66.791000 7.000000 6.000000 -1.000000 95.043466 7.480902 833.668127 845.198212 14.972644 0.000000 0.166279
479.000000 59.596000 8.000000 6.000000 -1.000000 91.219651 12.289834 740.529938 917.548098 16.781260 0.000000 0.157721
480.000000 53.342000 9.000000 6.000000 -1.000000 87.670477 16.117023 663.997173 986.575183 18.750128 0.000000 0.147310
481.000000 47.955000 10.000000 6.000000 -1.000000 84.442168 19.209599 599.992482 1051.907057 20.857587 0.000000 0.137019
483.000000 89.254000 2.000000 7.000000 -1.000000 101.930381 -45.707796 2078.220014 615.350466 11.201803 0.000000 0.153015
484.000000 86.860000 3.000000 7.000000 -1.000000 104.361948 -33.880540 1697.709240 609.052221 11.510438 0.000000 0.050163
485.000000 82.116000 4.000000 7.000000 -1.000000 104.450368 -22.897086 1429.579998 639.922489 12.175790 0.000000 0.113083
486.000000 76.086000 5.000000 7.000000 -1.000000 102.846274 -13.351738 1230.451600 688.739224 13.141334 0.000000 0.150791
487.000000 69.624000 6.000000 7.000000 -1.000000 100.229189 -5.399238 1076.725319 745.912411 14.361885 0.000000 0.167023
488.000000 63.287000 7.000000 7.000000 -1.000000 97.128630 1.093173 954.462392 806.369760 15.800895 0.000000 0.170690
489.000000 57.381000 8.000000 7.000000 -1.000000 93.891204 6.367096 854.900091 867.337240 17.428482 0.000000 0.167230
490.000000 52.035000 9.000000 7.000000 -1.000000 90.717704 10.668070 772.253229 927.280172 19.219976 0.000000 0.159960
491.000000 47.278000 10.000000 7.000000 -1.000000 87.711905 14.205363 702.548485 985.360900 21.154829 0.000000 0.150988
493.000000 77.318000 2.000000 8.000000 -1.000000 99.164499 -48.001336 2170.401931 681.496368 12.931612 0.000000 0.198339
494.000000 76.214000 3.000000 8.000000 -1.000000 101.968085 -37.759487 1808.641157 652.421343 13.118785 0.000000 0.056407
495.000000 73.283000 4.000000 8.000000 -1.000000 102.891982 -27.932268 1545.644796 662.171200 13.643537 0.000000 0.090238
496.000000 69.163000 5.000000 8.000000 -1.000000 102.299038 -19.010819 1345.825194 692.811924 14.456866 0.000000 0.134474
497.000000 64.433000 6.000000 8.000000 -1.000000 100.644766 -11.238259 1188.858982 734.751744 15.518818 0.000000 0.158528
498.000000 59.534000 7.000000 8.000000 -1.000000 98.346645 -4.636975 1062.295694 782.572120 16.796490 0.000000 0.168947
499.000000 54.758000 8.000000 8.000000 -1.000000 95.724296 0.900539 958.082096 833.097265 18.262538 0.000000 0.170849
500.000000 50.270000 9.000000 8.000000 -1.000000 92.995080 5.530919 870.778423 884.423081 19.894053 0.000000 0.167573
501.000000 46.149000 10.000000 8.000000 -1.000000 90.294276 9.412583 796.577772 935.396573 21.671696 0.000000 0.161305
503.000000 68.040000 2.000000 9.000000 -1.000000 96.915424 -49.724286 2245.213735 739.071633 14.695568 0.000000 0.238188
504.000000 67.648000 3.000000 9.000000 -1.000000 99.866191 -40.729028 1901.708237 693.984838 14.780278 0.000000 0.082134
505.000000 65.846000 4.000000 9.000000 -1.000000 101.303713 -31.917495 1645.390244 687.542479 15.184756 0.000000 0.071936
506.000000 63.019000 5.000000 9.000000 -1.000000 101.427576 -23.670685 1446.803508 703.456931 15.866184 0.000000 0.116609
507.000000 59.557000 6.000000 9.000000 -1.000000 100.534769 -16.235602 1288.417755 732.531296 16.789063 0.000000 0.146542
508.000000 55.789000 7.000000 9.000000 -1.000000 98.935813 -9.708973 1159.147844 769.308374 17.923711 0.000000 0.162840
509.000000 51.961000 8.000000 9.000000 -1.000000 96.899592 -4.073061 1051.641103 810.432080 19.245120 0.000000 0.169822
510.000000 48.237000 9.000000 9.000000 -1.000000 94.632269 0.754374 960.828349 853.785740 20.732070 0.000000 0.170682
512.000000 60.655000 2.000000 10.000000 -1.000000 95.058200 -51.063785 2307.142337 789.413454 16.485259 0.000000 0.273269
513.000000 60.664000 3.000000 10.000000 -1.000000 98.035830 -43.063822 1980.904400 733.018815 16.482414 0.000000 0.112382
514.000000 59.577000 4.000000 10.000000 -1.000000 99.783250 -35.121369 1732.032149 714.106371 16.782910 0.000000 0.063510
515.000000 57.634000 5.000000 10.000000 -1.000000 100.407666 -27.526764 1535.922506 718.078349 17.349053 0.000000 0.099276
516.000000 55.094000 6.000000 10.000000 -1.000000 100.100128 -20.499750 1377.404589 736.318594 18.149142 0.000000 0.132710
517.000000 52.199000 7.000000 10.000000 -1.000000 99.084459 -14.163504 1246.614962 763.509548 19.156328 0.000000 0.153805
518.000000 49.145000 8.000000 10.000000 -1.000000 97.575128 -8.552588 1136.863329 796.257621 20.347721 0.000000 0.165338
519.000000 46.076000 9.000000 10.000000 -1.000000 95.753255 -3.639066 1043.451492 832.342016 21.703682 0.000000 0.170150
521.000000 54.656000 2.000000 11.000000 -1.000000 93.502435 -52.133941 2359.251798 833.680044 18.294825 0.000000 0.304265
522.000000 54.891000 3.000000 11.000000 -1.000000 96.442243 -44.941951 2049.115609 769.305431 18.216325 0.000000 0.142371
523.000000 54.265000 4.000000 11.000000 -1.000000 98.370073 -37.737930 1807.993473 740.753146 18.426078 0.000000 0.068046
524.000000 52.931000 5.000000 11.000000 -1.000000 99.340556 -30.743226 1615.155521 735.020777 18.890666 0.000000 0.084496
525.000000 51.064000 6.000000 11.000000 -1.000000 99.475549 -24.142960 1457.418505 744.142701 19.581645 0.000000 0.118317
526.000000 48.838000 7.000000 11.000000 -1.000000 98.933654 -18.062041 1325.998133 763.039400 20.474650 0.000000 0.142963
527.000000 46.405000 8.000000 11.000000 -1.000000 97.880601 -12.561222 1214.815546 788.369902 21.548693 0.000000 0.158383
530.000000 50.057000 3.000000 12.000000 -1.000000 95.050093 -46.482378 2108.479148 802.872045 19.975551 0.000000 0.170827
531.000000 49.733000 4.000000 12.000000 -1.000000 97.075348 -39.906666 1875.134492 766.849370 20.105450 0.000000 0.082280
532.000000 48.824000 5.000000 12.000000 -1.000000 98.282622 -33.451015 1686.061088 753.213591 20.479943 0.000000 0.074482
533.000000 47.449000 6.000000 12.000000 -1.000000 98.748879 -27.267818 1529.751528 754.656546 21.073387 0.000000 0.104476
534.000000 45.735000 7.000000 12.000000 -1.000000 98.585444 -21.472574 1398.368566 766.386012 21.863599 0.000000 0.131199
536.000000 45.963000 3.000000 13.000000 -1.000000 93.827895 -47.766938 2160.611619 833.860302 21.755269 0.000000 0.197423
537.000000 45.838000 4.000000 13.000000 -1.000000 95.896977 -41.728594 1934.907173 792.043967 21.814372 0.000000 0.101114
539.000000 135.817000 3.000000 1.000000 0.000000 62.986510 29.644736 362.467692 1572.357590 7.366898 0.000000 0.137526
540.000000 96.566000 4.000000 1.000000 0.000000 57.994300 33.708788 256.962427 1749.651582 10.361826 0.000000 0.192860
541.000000 74.073000 5.000000 1.000000 0.000000 54.785874 36.124417 189.449939 1881.452094 13.508764 0.000000 0.240216
542.000000 59.745000 6.000000 1.000000 0.000000 52.566828 37.720183 142.539483 1982.553140 16.748764 0.000000 0.277918
544.000000 144.236000 3.000000 2.000000 0.000000 78.003078 13.663675 713.350528 1176.374283 6.935530 0.000000 0.129706
545.000000 107.667000 4.000000 2.000000 0.000000 71.497255 21.520397 550.593740 1328.171212 9.292065 0.000000 0.108136
546.000000 83.934000 5.000000 2.000000 0.000000 66.633497 26.382585 441.130565 1460.070008 11.920154 0.000000 0.114138
547.000000 56.594000 7.000000 2.000000 0.000000 60.190536 31.971198 303.208757 1667.895210 17.679836 0.000000 0.165562
548.000000 185.272000 1.000000 3.000000 0.000000 88.632697 -37.686652 1806.454314 973.462214 5.397837 0.000000 0.100501
549.000000 163.745000 2.000000 3.000000 0.000000 90.093626 -15.866934 1280.919049 939.171590 6.107747 0.000000 0.151039
550.000000 133.378000 3.000000 3.000000 0.000000 85.930187 -0.311089 980.843820 1017.580909 7.499118 0.000000 0.160054
551.000000 106.986000 4.000000 3.000000 0.000000 80.558682 9.920135 786.766792 1122.693412 9.349949 0.000000 0.140933
552.000000 86.800000 5.000000 3.000000 0.000000 75.633481 16.755740 650.954594 1228.898555 11.525220 0.000000 0.119824
553.000000 60.525000 7.000000 3.000000 0.000000 68.098036 24.987313 473.405847 1418.393801 16.530195 0.000000 0.109392
554.000000 51.946000 8.000000 3.000000 0.000000 65.303251 27.605485 412.195754 1499.552074 19.260809 0.000000 0.120796
555.000000 139.753000 1.000000 4.000000 0.000000 86.688131 -43.766722 2005.929783 1027.244400 7.156058 0.000000 0.152347
556.000000 132.788000 2.000000 4.000000 0.000000 90.453739 -26.094131 1502.134415 931.509001 7.531419 0.000000 0.120923
557.000000 117.160000 3.000000 4.000000 0.000000 89.351900 -11.374339 1191.517408 953.418906 8.536546 0.000000 0.158414
558.000000 84.746000 5.000000 4.000000 0.000000 81.891063 7.747946 828.562072 1095.763528 11.803441 0.000000 0.146561
559.000000 61.964000 7.000000 4.000000 0.000000 74.524471 18.103411 623.141876 1254.507310 16.145101 0.000000 0.115756
560.000000 47.288000 9.000000 4.000000 0.000000 68.885813 24.213810 490.982312 1396.706034 21.157104 0.000000 0.107942
561.000000 111.461000 1.000000 5.000000 0.000000 85.165222 -47.432159 2146.780573 1075.577836 8.972529 0.000000 0.214247
562.000000 109.697000 2.000000 5.000000 0.000000 89.672408 -32.925517 1671.966133 948.331425 9.116651 0.000000 0.098916
563.000000 101.672000 3.000000 5.000000 0.000000 90.446801 -19.764525 1361.737181 932.081324 9.836524 0.000000 0.141555
564.000000 90.957000 4.000000 5.000000 0.000000 88.782293 -8.880025 1143.158786 964.155469 10.995945 0.000000 0.160834
565.000000 70.076000 6.000000 5.000000 0.000000 82.701506 6.333155 855.545563 1079.694138 14.274160 0.000000 0.149799
566.000000 61.481000 7.000000 5.000000 0.000000 79.516505 11.506547 755.897367 1144.243476 16.270596 0.000000 0.136373
567.000000 54.227000 8.000000 5.000000 0.000000 76.557345 15.587109 674.754250 1208.078693 18.448130 0.000000 0.123534
568.000000 48.152000 9.000000 5.000000 0.000000 73.883456 18.857231 607.399467 1269.631774 20.776035 0.000000 0.113656
569.000000 92.425000 1.000000 6.000000 0.000000 84.001956 -49.864617 2251.539701 1116.436955 10.820678 0.000000 0.268875
570.000000 74.253000 5.000000 6.000000 0.000000 88.361683 -7.298942 1112.856269 972.035472 13.469651 0.000000 0.161749
571.000000 59.703000 7.000000 6.000000 0.000000 83.244209 5.339551 874.405797 1069.053785 16.753986 0.000000 0.151858
572.000000 78.823000 1.000000 7.000000 0.000000 83.099982 -51.590930 2332.503917 1150.644572 12.687959 0.000000 0.315081
573.000000 79.789000 2.000000 7.000000 0.000000 87.611721 -41.150769 1915.592099 1000.615782 12.533973 0.000000 0.122292
574.000000 77.747000 3.000000 7.000000 0.000000 89.986165 -30.930029 1619.915225 941.302962 12.863147 0.000000 0.104086
575.000000 73.613000 4.000000 7.000000 0.000000 90.518722 -21.515717 1399.304677 930.525733 13.585752 0.000000 0.136413
576.000000 68.348000 5.000000 7.000000 0.000000 89.705258 -13.247989 1228.393782 946.688119 14.632983 0.000000 0.155808
577.000000 62.702000 6.000000 7.000000 0.000000 88.044335 -6.208688 1092.088115 977.968042 15.951194 0.000000 0.162101
578.000000 51.991000 8.000000 7.000000 0.000000 83.632192 4.603827 888.331068 1061.502255 19.239211 0.000000 0.153267
579.000000 47.301000 9.000000 7.000000 0.000000 81.316635 8.706121 810.186160 1107.292456 21.147412 0.000000 0.144173
581.000000 68.960000 3.000000 8.000000 0.000000 89.334190 -34.695525 1720.137135 956.212715 14.502071 0.000000 0.096562
582.000000 62.759000 5.000000 8.000000 0.000000 90.343098 -18.271635 1330.359286 934.212650 15.935527 0.000000 0.145518
583.000000 54.247000 7.000000 8.000000 0.000000 87.798172 -5.411946 1076.966178 982.566741 18.437496 0.000000 0.162214
584.000000 46.036000 9.000000 8.000000 0.000000 83.922995 4.037291 899.034208 1055.870854 21.727898 0.000000 0.154282
586.000000 62.046000 2.000000 9.000000 0.000000 85.875164 -45.804197 2081.939912 1052.343123 16.118327 0.000000 0.183861
587.000000 60.179000 4.000000 9.000000 0.000000 90.128129 -29.835494 1592.285310 938.225347 16.618399 0.000000 0.107600
588.000000 57.668000 5.000000 9.000000 0.000000 90.535705 -22.508899 1421.011538 930.106712 17.342128 0.000000 0.133278
589.000000 51.217000 7.000000 9.000000 0.000000 89.045302 -9.970232 1164.203207 959.210563 19.527617 0.000000 0.159922
590.000000 47.794000 8.000000 9.000000 0.000000 87.602333 -4.804467 1065.463452 986.225094 20.926902 0.000000 0.162219
592.000000 55.795000 3.000000 10.000000 0.000000 87.943062 -40.107749 1881.572750 991.541595 17.924037 0.000000 0.113586
593.000000 48.231000 7.000000 10.000000 0.000000 89.832334 -14.019153 1243.732488 944.246280 20.736113 0.000000 0.154541
595.000000 50.542000 2.000000 11.000000 0.000000 84.545242 -48.760802 2202.745239 1096.911759 19.787243 0.000000 0.242651
596.000000 50.805000 3.000000 11.000000 0.000000 87.291663 -42.100954 1947.539057 1009.620129 19.684433 0.000000 0.131854
597.000000 50.269000 4.000000 11.000000 0.000000 89.160204 -35.506615 1742.900760 960.380421 19.894166 0.000000 0.096497
598.000000 49.077000 5.000000 11.000000 0.000000 90.206814 -29.144597 1575.155476 936.551835 20.377533 0.000000 0.109964
599.000000 47.393000 6.000000 11.000000 0.000000 90.537529 -23.148307 1435.151342 930.018150 21.101830 0.000000 0.131183
600.000000 45.506000 5.000000 12.000000 0.000000 89.864671 -31.757682 1641.230701 943.989775 21.976472 0.000000 0.101701
606.000000 126.991000 1.000000 2.000000 1.000000 44.792776 -21.683828 1402.957647 2107.664733 7.881093 0.000000 0.241214
607.000000 112.568000 2.000000 2.000000 1.000000 49.674208 -3.563190 1042.020511 1856.366717 8.890851 0.000000 0.109921
608.000000 91.278000 3.000000 2.000000 1.000000 50.473990 8.219226 819.534952 1838.265885 10.964400 0.000000 0.106575
609.000000 73.907000 4.000000 2.000000 1.000000 49.990378 15.887751 668.658252 1880.307888 13.541342 0.000000 0.139304
610.000000 61.038000 5.000000 2.000000 1.000000 49.208733 21.103784 559.610925 1936.515515 16.396103 0.000000 0.174124
611.000000 51.532000 6.000000 2.000000 1.000000 48.426900 24.824858 477.115461 1992.873461 19.420368 0.000000 0.205420
613.000000 116.941000 1.000000 3.000000 1.000000 55.920706 -31.421678 1632.531919 1794.267495 8.556787 0.000000 0.189227
614.000000 109.733000 2.000000 3.000000 1.000000 60.373165 -15.098720 1265.380698 1574.972912 9.118999 0.000000 0.067879
615.000000 94.430000 3.000000 3.000000 1.000000 61.003698 -2.688405 1025.538466 1538.166111 10.596978 0.000000 0.026555
616.000000 79.287000 4.000000 3.000000 1.000000 59.992725 6.279125 856.572898 1566.332457 12.621023 0.000000 0.031007
617.000000 66.727000 5.000000 3.000000 1.000000 58.487426 12.767646 731.111004 1617.608539 14.996830 0.000000 0.059471
618.000000 56.818000 6.000000 3.000000 1.000000 56.950479 17.566703 634.267648 1675.530918 17.612504 0.000000 0.089595
619.000000 49.056000 7.000000 3.000000 1.000000 55.539052 21.212942 557.253241 1733.323117 20.399060 0.000000 0.118164
621.000000 100.723000 1.000000 4.000000 1.000000 61.776505 -37.579789 1803.253507 1669.919597 9.933442 0.000000 0.206761
622.000000 98.408000 2.000000 4.000000 1.000000 66.325283 -23.466616 1442.240590 1455.442160 10.167142 0.000000 0.102361
623.000000 89.316000 3.000000 4.000000 1.000000 67.600339 -11.574841 1195.439013 1393.817803 11.202374 0.000000 0.083402
624.000000 78.311000 4.000000 4.000000 1.000000 66.990545 -2.184349 1016.052615 1398.401808 12.776840 0.000000 0.073791
625.000000 67.922000 5.000000 4.000000 1.000000 65.539646 5.055891 879.778411 1432.508778 14.731432 0.000000 0.064909
626.000000 58.984000 6.000000 4.000000 1.000000 63.824401 10.642949 772.741827 1479.293368 16.964035 0.000000 0.062495
627.000000 51.563000 7.000000 4.000000 1.000000 62.115060 15.008083 686.445068 1530.618641 19.406101 0.000000 0.069706
630.000000 86.625000 1.000000 5.000000 1.000000 65.225532 -41.736743 1935.182044 1606.677116 11.549095 0.000000 0.232594
631.000000 86.576000 2.000000 5.000000 1.000000 69.761273 -29.573105 1585.752175 1397.264423 11.555566 0.000000 0.120846
632.000000 81.544000 3.000000 5.000000 1.000000 71.652683 -18.635842 1337.962740 1317.686812 12.268934 0.000000 0.105844
633.000000 74.139000 4.000000 5.000000 1.000000 71.693199 -9.395760 1153.097527 1301.934238 13.494706 0.000000 0.104384
634.000000 66.242000 5.000000 5.000000 1.000000 70.673001 -1.856605 1009.888305 1318.680620 15.103746 0.000000 0.098120
635.000000 58.831000 6.000000 5.000000 1.000000 69.151280 4.214866 895.681120 1352.005026 17.006946 0.000000 0.088992
636.000000 52.273000 7.000000 5.000000 1.000000 67.458946 9.106726 802.476001 1393.422133 19.140836 0.000000 0.080900
637.000000 46.627000 8.000000 5.000000 1.000000 65.770682 13.078331 724.967524 1438.266223 21.458978 0.000000 0.077005
639.000000 75.362000 1.000000 6.000000 1.000000 67.446326 -44.702931 2040.190946 1569.897512 13.274607 0.000000 0.260391
640.000000 76.262000 2.000000 6.000000 1.000000 71.850993 -34.130247 1704.534942 1367.216061 13.117684 0.000000 0.135181
641.000000 73.610000 3.000000 6.000000 1.000000 74.158240 -24.223357 1459.233300 1275.894500 13.590288 0.000000 0.113442
642.000000 68.790000 4.000000 6.000000 1.000000 74.797157 -15.433133 1272.130560 1244.420888 14.543005 0.000000 0.117285
643.000000 63.038000 5.000000 6.000000 1.000000 74.309623 -7.918962 1124.711241 1246.248513 15.870240 0.000000 0.117573
644.000000 57.185000 6.000000 6.000000 1.000000 73.161840 -1.626450 1005.560875 1266.866008 17.495246 0.000000 0.112362
645.000000 51.676000 7.000000 6.000000 1.000000 71.683865 3.601361 907.259639 1297.991555 19.360907 0.000000 0.104190
646.000000 46.701000 8.000000 6.000000 1.000000 70.083264 7.945766 824.775468 1334.748948 21.423834 0.000000 0.095606
648.000000 66.426000 1.000000 7.000000 1.000000 68.975760 -46.914997 2125.756740 1546.597585 15.059676 0.000000 0.288130
649.000000 67.680000 2.000000 7.000000 1.000000 73.187223 -37.620557 1804.473514 1351.587492 14.780392 0.000000 0.151089
650.000000 66.392000 3.000000 7.000000 1.000000 75.732258 -28.676274 1563.674750 1252.962511 15.067216 0.000000 0.116207
651.000000 63.305000 4.000000 7.000000 1.000000 76.833672 -20.456728 1376.483716 1209.721885 15.802014 0.000000 0.120457
652.000000 59.203000 5.000000 7.000000 1.000000 76.844402 -13.167165 1226.791888 1199.354983 16.897383 0.000000 0.126111
653.000000 54.705000 6.000000 7.000000 1.000000 76.120971 -6.853361 1104.357065 1208.851737 18.287270 0.000000 0.126134
654.000000 50.220000 7.000000 7.000000 1.000000 74.954835 -1.455951 1002.355745 1230.395140 19.920826 0.000000 0.121564
655.000000 45.980000 8.000000 7.000000 1.000000 73.555853 3.134149 916.066597 1259.147844 21.758271 0.000000 0.114404
657.000000 59.259000 1.000000 8.000000 1.000000 70.084422 -48.623402 2196.821895 1530.925707 16.880644 0.000000 0.314693
658.000000 60.601000 2.000000 8.000000 1.000000 74.079737 -40.360595 1889.722614 1343.898372 16.506564 0.000000 0.169493
659.000000 60.092000 3.000000 8.000000 1.000000 76.737754 -32.267962 1654.562936 1241.009843 16.646097 0.000000 0.119418
660.000000 58.146000 4.000000 8.000000 1.000000 78.167698 -24.641746 1468.714885 1189.074435 17.203613 0.000000 0.119122
661.000000 55.249000 5.000000 8.000000 1.000000 78.592998 -17.683113 1318.139824 1168.925106 18.105835 0.000000 0.127779
662.000000 51.843000 6.000000 8.000000 1.000000 78.273163 -11.484235 1193.666170 1168.979893 19.295670 0.000000 0.132416
663.000000 48.262000 7.000000 8.000000 1.000000 77.447224 -6.048717 1089.048419 1181.990704 20.727972 0.000000 0.132018
666.000000 54.734000 2.000000 9.000000 1.000000 74.698256 -42.559473 1963.299214 1340.790566 18.275341 0.000000 0.189605
667.000000 54.674000 3.000000 9.000000 1.000000 77.388688 -35.204735 1734.375301 1235.705913 18.295412 0.000000 0.125466
668.000000 53.473000 4.000000 9.000000 1.000000 79.039318 -28.146900 1550.820313 1177.400520 18.706191 0.000000 0.116672
669.000000 51.441000 5.000000 9.000000 1.000000 79.788839 -21.564469 1400.363159 1149.463880 19.445493 0.000000 0.125564
670.000000 48.882000 6.000000 9.000000 1.000000 79.820824 -15.564701 1274.792105 1141.608806 20.463665 0.000000 0.133565
671.000000 46.055000 7.000000 9.000000 1.000000 79.322578 -10.187031 1168.404416 1147.178956 21.720579 0.000000 0.136984
674.000000 49.829000 2.000000 10.000000 1.000000 75.140362 -44.358171 2027.447044 1340.405199 20.074104 0.000000 0.210423
675.000000 50.024000 3.000000 10.000000 1.000000 77.813269 -37.638809 1805.020154 1234.533482 19.995419 0.000000 0.134842
676.000000 49.315000 4.000000 10.000000 1.000000 79.604341 -31.104626 1624.380734 1171.608294 20.282891 0.000000 0.115308
677.000000 47.898000 5.000000 10.000000 1.000000 80.597937 -24.907220 1474.764021 1137.494985 20.883156 0.000000 0.121607
678.000000 45.984000 6.000000 10.000000 1.000000 80.921676 -19.152746 1348.810307 1123.054002 21.752741 0.000000 0.131446
679.000000 45.685000 2.000000 11.000000 1.000000 75.464705 -45.854068 2083.869398 1341.661602 21.894768 0.000000 0.231188
680.000000 46.024000 3.000000 11.000000 1.000000 78.090103 -39.682174 1867.991222 1235.965536 21.733127 0.000000 0.147005
681.000000 45.641000 4.000000 11.000000 1.000000 79.964033 -33.621265 1690.664130 1169.741229 21.915605 0.000000 0.116307
684.000000 57.276000 3.000000 3.000000 2.000000 39.295330 -4.295960 1055.850646 2259.898902 17.475501 0.000000 0.286762
685.000000 52.368000 4.000000 3.000000 2.000000 41.510301 3.627392 906.768704 2159.529966 19.112953 0.000000 0.241802
686.000000 46.963000 5.000000 3.000000 2.000000 42.699844 9.686481 791.287013 2124.244588 21.312365 0.000000 0.227042
688.000000 61.097000 3.000000 4.000000 2.000000 48.025810 -11.715464 1198.192786 1929.821248 16.381132 0.000000 0.151735
689.000000 50.843000 5.000000 4.000000 2.000000 50.349148 2.979586 918.978318 1834.205744 19.684402 0.000000 0.099150
692.000000 62.024000 2.000000 5.000000 2.000000 51.317347 -27.145749 1526.852476 1909.411105 16.134545 0.000000 0.195224
693.000000 60.375000 3.000000 5.000000 2.000000 54.285010 -17.810450 1320.776829 1753.776369 16.575200 0.000000 0.109034
694.000000 56.578000 4.000000 5.000000 2.000000 55.810175 -9.783475 1160.588630 1682.959802 17.687842 0.000000 0.057834
695.000000 51.924000 5.000000 5.000000 2.000000 56.363537 -3.057881 1032.496526 1658.096969 19.273384 0.000000 0.027637
696.000000 47.195000 6.000000 5.000000 2.000000 56.323627 2.514636 927.732520 1658.849259 21.204312 0.000000 0.026341
698.000000 57.584000 3.000000 6.000000 2.000000 58.791296 -22.800777 1427.449637 1648.322117 17.377202 0.000000 0.111117
699.000000 51.198000 5.000000 6.000000 2.000000 61.005745 -8.407500 1134.077279 1543.938251 19.544935 0.000000 0.042136
702.000000 54.376000 2.000000 7.000000 2.000000 59.268630 -34.824904 1723.738015 1720.453335 18.401114 0.000000 0.195944
703.000000 54.044000 3.000000 7.000000 2.000000 62.085709 -26.903600 1521.120294 1580.416905 18.514116 0.000000 0.123144
704.000000 52.207000 4.000000 7.000000 2.000000 63.772001 -19.619587 1358.665789 1503.938579 19.165898 0.000000 0.087650
705.000000 49.442000 5.000000 7.000000 2.000000 64.561229 -13.102423 1225.509510 1466.639205 20.237599 0.000000 0.070717
706.000000 46.232000 6.000000 7.000000 2.000000 64.699947 -7.378799 1114.381256 1454.011570 21.642924 0.000000 0.061130
708.000000 50.391000 3.000000 8.000000 2.000000 64.541781 -30.303725 1604.029458 1534.496709 19.855120 0.000000 0.135173
709.000000 47.177000 5.000000 8.000000 2.000000 67.282987 -17.203545 1308.241710 1412.703172 21.208335 0.000000 0.089391
710.000000 46.654000 2.000000 9.000000 2.000000 63.705932 -39.845725 1873.190733 1633.652013 21.444906 0.000000 0.219248
711.000000 46.905000 3.000000 9.000000 2.000000 66.410500 -33.148670 1677.930911 1502.342480 21.329675 0.000000 0.146315
712.000000 46.179000 4.000000 9.000000 2.000000 68.266242 -26.752092 1517.546249 1421.472845 21.665210 0.000000 0.112778
#UB matrix in q= (UB) B0 G* 
#[[-0.347701507 -0.618883512  0.703013291]
# [ 0.667989714 -0.690468787 -0.27747069 ]
# [ 0.657946353  0.373559777  0.654364479]]
#B0 matrix in q= UB (B0) G*
#[[ 0.19670273 -0.          0.03056101]
# [ 0.          0.19187965 -0.        ]
# [ 0.          0.          0.18806537]]
#UBB0 matrix in q= (UB B0) G* i.e. recip. basis vectors are columns in LT frame: astar = UBB0[:,0], bstar = UBB0[:,1], cstar = UBB0[:,2]. (abcstar as columns on xyzlab1, xlab1 = ui, ui = unit vector along incident beam)
#[[-0.06839384 -0.11875115  0.12158635]
# [ 0.1313954  -0.13248691 -0.03176819]
# [ 0.12941985  0.07167852  0.1431708 ]]
#Euler angles phi theta psi (deg)
#[119.606  49.178 111.504]
#deviatoric strain in direct crystal frame (10-3 unit)
#[[ 4.45  0.2  -0.76]
# [ 0.2   4.67 -0.84]
# [-0.76 -0.84 -9.12]]
#deviatoric strain in sample2 frame (10-3 unit)
#[[-7.9   3.64 -1.76]
# [ 3.65  3.28  0.39]
# [-1.77  0.39  4.61]]
#new lattice parameters
#[ 5.1505     5.2127382  5.3181973 90.0542341 99.2745885 89.9767203]
#CCDLabel
#sCMOS
#DetectorParameters
#[79.0, 975.0, 941.0, 0.0, 0.0]
#pixelsize
#0.0734
#Frame dimensions
#[2018, 2016]
#
