#Strain and Orientation Refinement from experimental file: /home/micha/LaueProjects/DepthEffects/testZrO2_102.cor
#File created at Wed Jun 28 14:24:34 2023 with indexingSpotsSet.py
#Number of indexed spots: 540
#Element
#ZrO2
#grainIndex
#G_0
#Mean Deviation(pixel): 0.115
##spot_index intensity h k l 2theta Chi Xexp Yexp Energy GrainIndex PixDev
8.000000 45.705000 3.000000 -3.000000 -3.000000 127.016958 -39.960975 1876.869611 -117.792497 6.558748 0.000000 0.179359
10.000000 46.156000 10.000000 -9.000000 -10.000000 121.282280 -40.128589 1882.242185 85.727422 21.650823 0.000000 0.139284
12.000000 48.711000 9.000000 -8.000000 -10.000000 117.764115 -45.987486 2089.048317 125.525345 20.516153 0.000000 0.225896
13.000000 46.283000 5.000000 -4.000000 -5.000000 115.123333 -40.278273 1887.062462 279.447115 10.796753 0.000000 0.105353
15.000000 48.592000 9.000000 -7.000000 -10.000000 111.005714 -45.820562 2082.572694 347.989208 20.568502 0.000000 0.187646
16.000000 46.008000 10.000000 -7.000000 -10.000000 108.531031 -40.412755 1891.411443 467.169995 21.725064 0.000000 0.084997
18.000000 47.945000 9.000000 -6.000000 -10.000000 103.766327 -45.670880 2076.798883 563.638000 20.848518 0.000000 0.165632
20.000000 49.339000 8.000000 -5.000000 -10.000000 97.739685 -51.066870 2307.289033 708.223346 20.261175 0.000000 0.287431
21.000000 46.677000 9.000000 -5.000000 -10.000000 96.056844 -45.535901 2071.618656 777.960791 21.417786 0.000000 0.164142
23.000000 47.344000 4.000000 -2.000000 -5.000000 89.292743 -50.664384 2288.308171 961.961053 10.559109 0.000000 0.286786
29.000000 47.528000 10.000000 -10.000000 -9.000000 129.311774 -33.424671 1685.350436 -114.948597 21.023348 0.000000 0.109895
31.000000 48.155000 10.000000 -9.000000 -9.000000 123.518832 -33.996905 1700.885069 81.127613 20.751524 0.000000 0.072518
32.000000 45.502000 11.000000 -9.000000 -9.000000 119.865356 -29.079518 1573.553864 233.827052 21.962732 0.000000 0.006461
34.000000 51.319000 9.000000 -8.000000 -9.000000 120.619143 -40.146051 1882.803413 107.665039 19.472651 0.000000 0.135105
35.000000 48.446000 10.000000 -8.000000 -9.000000 117.264231 -34.504589 1714.843481 267.927365 20.629014 0.000000 0.038759
36.000000 45.581000 11.000000 -8.000000 -9.000000 113.777106 -29.794964 1591.273922 394.579493 21.927114 0.000000 0.028135
38.000000 54.437000 8.000000 -7.000000 -9.000000 116.572397 -46.627115 2114.228775 157.127154 18.358498 0.000000 0.232956
39.000000 51.399000 9.000000 -7.000000 -9.000000 113.695970 -40.309386 1888.067102 321.549203 19.444511 0.000000 0.099331
40.000000 48.308000 10.000000 -7.000000 -9.000000 110.534064 -34.957993 1727.453986 449.110001 20.690030 0.000000 0.027916
42.000000 54.141000 8.000000 -6.000000 -9.000000 108.894440 -46.405323 2105.430592 406.767515 18.460906 0.000000 0.192431
43.000000 50.903000 3.000000 -2.000000 -3.000000 106.237127 -40.454597 1892.768127 529.066199 6.545513 0.000000 0.082735
44.000000 47.646000 10.000000 -6.000000 -9.000000 103.325221 -35.365333 1738.902834 628.391392 20.980098 0.000000 0.050403
46.000000 53.070000 8.000000 -5.000000 -9.000000 100.618114 -46.208574 2097.685547 649.432147 18.836322 0.000000 0.173901
47.000000 49.711000 9.000000 -5.000000 -9.000000 98.248723 -40.584540 1896.992129 735.546855 20.110058 0.000000 0.092026
48.000000 46.368000 10.000000 -5.000000 -9.000000 95.649121 -35.733253 1749.343472 809.846376 21.561162 0.000000 0.077566
50.000000 54.335000 7.000000 -4.000000 -9.000000 93.389279 -52.116331 2358.374136 837.196576 18.399419 0.000000 0.319548
51.000000 51.084000 8.000000 -4.000000 -9.000000 91.767312 -46.032858 2090.815230 893.164943 19.571420 0.000000 0.181148
52.000000 47.722000 9.000000 -4.000000 -9.000000 89.758184 -40.701502 1900.808209 946.991825 20.951487 0.000000 0.118200
54.000000 51.209000 7.000000 -3.000000 -9.000000 83.615781 -51.622297 2334.031565 1134.971141 19.525886 0.000000 0.330343
55.000000 48.089000 8.000000 -3.000000 -9.000000 82.396414 -45.874977 2084.679373 1147.365170 20.793902 0.000000 0.210583
62.000000 48.126000 10.000000 -11.000000 -8.000000 136.389424 -24.750400 1471.187567 -303.083921 20.760639 0.000000 0.086029
63.000000 45.671000 11.000000 -11.000000 -8.000000 131.873925 -20.024453 1367.259358 -85.899428 21.877738 0.000000 0.031527
66.000000 49.183000 5.000000 -5.000000 -4.000000 131.059800 -25.971678 1499.285363 -101.904600 10.157972 0.000000 0.056543
67.000000 46.452000 11.000000 -10.000000 -8.000000 126.640040 -21.376766 1396.291711 81.366086 21.511461 0.000000 0.026133
69.000000 53.024000 9.000000 -9.000000 -8.000000 129.536572 -32.641262 1664.411516 -114.006265 18.844289 0.000000 0.103134
70.000000 49.988000 10.000000 -9.000000 -8.000000 125.253709 -27.043135 1524.420361 86.857857 19.990284 0.000000 0.024945
71.000000 46.979000 11.000000 -9.000000 -8.000000 120.966936 -22.584703 1422.680968 241.499447 21.272067 0.000000 0.043558
73.000000 53.801000 9.000000 -8.000000 -8.000000 123.067197 -33.329200 1682.778644 102.308624 18.573928 0.000000 0.061988
74.000000 50.449000 5.000000 -4.000000 -4.000000 118.945381 -27.990117 1547.037714 266.889172 9.904791 0.000000 0.015961
75.000000 47.174000 11.000000 -8.000000 -8.000000 114.837111 -23.669294 1446.772355 397.080318 21.186562 0.000000 0.066581
77.000000 57.776000 8.000000 -7.000000 -8.000000 119.782818 -40.167574 1883.495572 134.925312 17.296664 0.000000 0.129996
78.000000 54.102000 9.000000 -7.000000 -8.000000 116.020190 -33.931577 1699.101084 307.746603 18.472798 0.000000 0.026455
79.000000 50.459000 10.000000 -7.000000 -8.000000 112.116081 -28.832688 1567.497651 441.714733 19.807883 0.000000 0.043765
80.000000 46.949000 11.000000 -7.000000 -8.000000 108.240100 -24.647841 1468.853482 550.740287 21.290198 0.000000 0.087608
81.000000 61.655000 7.000000 -6.000000 -8.000000 115.032508 -47.417784 2146.190639 198.179072 16.209528 0.000000 0.242513
82.000000 57.751000 4.000000 -3.000000 -4.000000 111.881559 -40.347265 1889.291437 373.822983 8.653252 0.000000 0.092897
83.000000 53.781000 9.000000 -6.000000 -8.000000 108.378005 -34.463311 1713.702264 507.305017 18.585230 0.000000 0.031972
84.000000 49.904000 5.000000 -3.000000 -4.000000 104.758248 -29.586900 1586.094804 614.956123 10.015398 0.000000 0.069767
85.000000 46.218000 11.000000 -6.000000 -8.000000 101.175730 -25.534678 1489.165887 705.343928 21.629883 0.000000 0.103841
87.000000 61.023000 7.000000 -5.000000 -8.000000 106.153075 -47.119060 2134.003526 482.885069 16.379634 0.000000 0.200225
88.000000 56.861000 8.000000 -5.000000 -8.000000 103.302573 -40.504981 1894.404001 606.316774 17.579682 0.000000 0.083406
89.000000 52.691000 9.000000 -5.000000 -8.000000 100.140928 -34.936062 1726.840818 706.171367 18.972520 0.000000 0.062550
90.000000 48.671000 10.000000 -5.000000 -8.000000 96.880137 -30.265737 1603.072496 790.637857 20.540864 0.000000 0.090195
92.000000 59.193000 7.000000 -4.000000 -8.000000 96.512549 -46.857523 2123.445385 761.321188 16.888990 0.000000 0.188316
93.000000 54.924000 4.000000 -2.000000 -4.000000 94.063553 -40.644519 1898.947374 840.228944 9.101363 0.000000 0.103755
94.000000 50.697000 9.000000 -4.000000 -8.000000 91.333541 -35.359073 1738.726033 910.278165 19.721905 0.000000 0.091292
95.000000 46.667000 5.000000 -2.000000 -4.000000 88.510441 -30.879795 1618.633435 973.610098 10.713112 0.000000 0.104590
97.000000 55.960000 7.000000 -3.000000 -8.000000 86.162925 -46.626646 2114.210075 1046.113912 17.867938 0.000000 0.208602
98.000000 51.798000 8.000000 -3.000000 -8.000000 84.218912 -40.768848 1903.011598 1084.879369 19.304736 0.000000 0.138979
99.000000 47.706000 9.000000 -3.000000 -8.000000 82.010411 -35.739763 1749.529087 1127.112959 20.961906 0.000000 0.118184
102.000000 51.224000 7.000000 -2.000000 -8.000000 75.209451 -46.421342 2106.063645 1353.242542 19.523399 0.000000 0.255387
103.000000 47.428000 4.000000 -1.000000 -4.000000 73.865500 -40.880326 1906.668673 1352.807344 10.543615 0.000000 0.184657
109.000000 45.585000 11.000000 -12.000000 -7.000000 136.940183 -10.059330 1165.929098 -228.753331 21.917554 0.000000 0.021245
111.000000 49.372000 10.000000 -11.000000 -7.000000 137.309398 -15.834676 1280.264247 -271.773967 20.236334 0.000000 0.041109
112.000000 46.668000 11.000000 -11.000000 -7.000000 132.224997 -12.112575 1205.984597 -58.021029 21.410601 0.000000 0.029843
114.000000 53.657000 9.000000 -10.000000 -7.000000 137.232797 -22.674716 1424.665679 -320.100049 18.620334 0.000000 0.077478
115.000000 50.595000 10.000000 -10.000000 -7.000000 132.062084 -17.697843 1318.444681 -78.461664 19.748450 0.000000 0.027231
116.000000 47.567000 11.000000 -10.000000 -7.000000 127.061230 -13.945623 1242.265597 103.462801 21.007225 0.000000 0.050922
119.000000 55.022000 9.000000 -9.000000 -7.000000 131.353991 -24.197744 1458.654887 -97.601524 18.159699 0.000000 0.047302
120.000000 51.572000 10.000000 -9.000000 -7.000000 126.298454 -19.335074 1352.652725 103.173221 19.376253 0.000000 0.034899
121.000000 48.211000 11.000000 -9.000000 -7.000000 121.424815 -15.588880 1275.281609 258.272882 20.728455 0.000000 0.075118
123.000000 59.951000 8.000000 -8.000000 -7.000000 129.807694 -31.645987 1638.332044 -112.650942 16.667071 0.000000 0.094961
124.000000 56.043000 9.000000 -8.000000 -7.000000 124.876473 -25.514343 1488.696803 109.758840 17.830547 0.000000 0.018843
125.000000 52.198000 10.000000 -8.000000 -7.000000 119.988909 -20.782870 1383.477671 276.650965 19.145538 0.000000 0.058616
126.000000 48.514000 11.000000 -8.000000 -7.000000 115.295390 -17.068045 1305.454388 408.909022 20.601424 0.000000 0.098059
127.000000 60.938000 8.000000 -7.000000 -7.000000 122.483598 -32.494094 1660.519110 128.569425 16.398737 0.000000 0.049190
128.000000 56.573000 9.000000 -7.000000 -7.000000 117.764171 -26.662671 1515.441310 306.974468 17.665388 0.000000 0.032060
129.000000 52.355000 10.000000 -7.000000 -7.000000 113.110221 -22.070744 1411.397740 445.375580 19.090385 0.000000 0.083385
130.000000 48.377000 11.000000 -7.000000 -7.000000 108.659459 -18.404821 1333.136049 557.949861 20.661760 0.000000 0.117064
132.000000 66.078000 7.000000 -6.000000 -7.000000 118.695409 -40.194762 1884.370530 169.725621 15.123889 0.000000 0.123638
133.000000 61.218000 8.000000 -6.000000 -7.000000 114.416207 -33.224712 1679.970435 356.924110 16.325701 0.000000 0.015128
134.000000 56.443000 9.000000 -6.000000 -7.000000 109.992275 -27.672280 1539.403051 498.851617 17.708413 0.000000 0.061629
135.000000 51.910000 10.000000 -6.000000 -7.000000 105.650376 -23.222697 1436.805081 612.889115 19.256773 0.000000 0.103851
136.000000 47.702000 11.000000 -6.000000 -7.000000 101.514157 -19.617559 1358.622867 708.237712 20.957195 0.000000 0.129977
137.000000 71.013000 6.000000 -5.000000 -7.000000 112.968234 -48.419709 2188.099672 253.675758 14.073906 0.000000 0.256132
138.000000 65.821000 7.000000 -5.000000 -7.000000 109.499409 -40.394385 1890.816377 440.576680 15.185185 0.000000 0.086725
139.000000 60.553000 8.000000 -5.000000 -7.000000 105.583616 -33.860479 1697.162625 579.516152 16.507681 0.000000 0.043879
140.000000 55.472000 9.000000 -5.000000 -7.000000 101.554678 -28.566347 1560.994868 690.455303 18.021261 0.000000 0.086365
141.000000 50.728000 10.000000 -5.000000 -7.000000 97.614196 -24.258367 1460.024294 783.185558 19.708272 0.000000 0.117138
142.000000 46.389000 11.000000 -5.000000 -7.000000 93.871363 -20.721807 1382.165927 863.128487 21.553173 0.000000 0.134931
144.000000 69.704000 6.000000 -4.000000 -7.000000 102.457381 -48.009417 2170.741074 585.595095 14.340554 0.000000 0.213582
145.000000 64.193000 7.000000 -4.000000 -7.000000 99.421565 -40.566820 1896.415133 705.896931 15.572858 0.000000 0.089360
146.000000 58.700000 8.000000 -4.000000 -7.000000 95.995398 -34.418609 1712.467654 803.975415 17.031506 0.000000 0.077770
147.000000 53.489000 9.000000 -4.000000 -7.000000 92.472286 -29.363263 1580.551788 887.679371 18.692562 0.000000 0.103169
148.000000 48.692000 10.000000 -4.000000 -7.000000 89.029170 -25.193930 1481.326378 961.156069 20.535350 0.000000 0.121509
150.000000 66.427000 6.000000 -3.000000 -7.000000 90.954770 -47.656010 2156.009103 914.370797 15.051084 0.000000 0.213751
151.000000 60.902000 7.000000 -3.000000 -7.000000 88.506997 -40.717263 1901.323485 978.011256 16.417651 0.000000 0.122702
152.000000 55.465000 8.000000 -3.000000 -7.000000 85.704359 -34.912416 1726.180080 1039.587648 18.028472 0.000000 0.106650
153.000000 50.367000 9.000000 -3.000000 -7.000000 82.800809 -30.077784 1598.348530 1098.107293 19.854542 0.000000 0.112714
154.000000 45.726000 10.000000 -3.000000 -7.000000 79.950416 -26.042798 1500.939355 1153.295370 21.871271 0.000000 0.117624
156.000000 60.897000 6.000000 -2.000000 -7.000000 78.577287 -47.348445 2143.349517 1261.960627 16.421423 0.000000 0.254563
157.000000 55.774000 7.000000 -2.000000 -7.000000 76.868156 -40.849669 1905.661721 1272.944459 17.930900 0.000000 0.170227
158.000000 50.750000 8.000000 -2.000000 -7.000000 74.815524 -35.352351 1738.536194 1299.148892 19.706984 0.000000 0.137380
159.000000 46.063000 9.000000 -2.000000 -7.000000 72.635865 -30.721867 1614.612493 1332.493709 21.713574 0.000000 0.123493
161.000000 53.106000 6.000000 -1.000000 -7.000000 65.539222 -47.078362 2132.353761 1659.954267 18.834660 0.000000 0.332381
162.000000 48.846000 7.000000 -1.000000 -7.000000 64.690900 -40.967096 1909.523719 1615.056977 20.477951 0.000000 0.238611
167.000000 48.806000 5.000000 -6.000000 -3.000000 141.819814 -3.533546 1041.461510 -430.306779 10.235137 0.000000 0.013348
168.000000 46.215000 11.000000 -12.000000 -6.000000 136.304486 -1.391139 1001.137516 -185.786311 21.619166 0.000000 0.017841
171.000000 50.325000 10.000000 -11.000000 -6.000000 137.238159 -6.358160 1094.929966 -230.049004 19.853284 0.000000 0.015019
172.000000 47.391000 11.000000 -11.000000 -6.000000 131.730016 -3.919324 1048.739068 -21.205465 21.084174 0.000000 0.043653
174.000000 55.081000 9.000000 -10.000000 -6.000000 137.950498 -12.468044 1212.978974 -281.092144 18.138917 0.000000 0.030926
175.000000 51.692000 5.000000 -5.000000 -3.000000 132.133320 -8.851578 1142.611397 -44.379647 9.664860 0.000000 0.035344
176.000000 48.388000 11.000000 -10.000000 -6.000000 126.676984 -6.199237 1091.908469 134.712496 20.651270 0.000000 0.071057
178.000000 60.584000 8.000000 -9.000000 -6.000000 138.212972 -19.969570 1366.091863 -340.361241 16.491206 0.000000 0.067065
179.000000 56.666000 3.000000 -3.000000 -2.000000 132.197236 -14.795937 1259.287575 -68.296210 5.877566 0.000000 0.026793
180.000000 52.817000 10.000000 -9.000000 -6.000000 126.470784 -11.060859 1185.397087 130.374910 18.919408 0.000000 0.062479
181.000000 49.129000 11.000000 -9.000000 -6.000000 121.118857 -8.259486 1131.237195 284.444514 20.341640 0.000000 0.097576
182.000000 45.656000 4.000000 -3.000000 -2.000000 116.166135 -6.090170 1089.835907 409.186041 7.296845 0.000000 0.123773
184.000000 62.405000 4.000000 -4.000000 -3.000000 131.666534 -21.925581 1408.225823 -91.497011 8.005669 0.000000 0.037569
185.000000 57.915000 9.000000 -8.000000 -6.000000 125.789517 -16.816806 1300.296910 130.385190 17.254120 0.000000 0.047493
186.000000 53.591000 5.000000 -4.000000 -3.000000 120.217505 -13.026385 1224.004229 297.584047 9.324108 0.000000 0.090054
187.000000 49.520000 11.000000 -8.000000 -6.000000 115.032420 -10.125732 1167.215960 430.421493 20.182763 0.000000 0.121001
188.000000 45.750000 6.000000 -4.000000 -3.000000 110.255684 -7.845264 1123.300295 540.060099 10.923960 0.000000 0.142112
190.000000 68.946000 7.000000 -7.000000 -6.000000 130.139348 -30.340402 1604.954109 -110.617981 14.492508 0.000000 0.084913
191.000000 63.737000 8.000000 -7.000000 -6.000000 124.345349 -23.586289 1444.914708 138.511814 15.678383 0.000000 0.023626
192.000000 58.665000 9.000000 -7.000000 -6.000000 118.685627 -18.583469 1336.867371 319.702777 17.035604 0.000000 0.076035
193.000000 53.879000 10.000000 -7.000000 -6.000000 113.346061 -14.782445 1259.016454 460.546111 18.550533 0.000000 0.114414
194.000000 49.457000 11.000000 -7.000000 -6.000000 108.401169 -11.820693 1200.255297 575.182438 20.210945 0.000000 0.139250
195.000000 70.241000 7.000000 -6.000000 -6.000000 121.701383 -31.420148 1632.492447 162.005284 14.227116 0.000000 0.033367
196.000000 64.336000 4.000000 -3.000000 -3.000000 116.196910 -25.011617 1477.149975 356.672644 7.767175 0.000000 0.051561
197.000000 58.721000 3.000000 -2.000000 -2.000000 110.854009 -20.138247 1369.682657 504.294647 5.673850 0.000000 0.102022
198.000000 53.533000 5.000000 -3.000000 -3.000000 105.840093 -16.358001 1290.913537 622.742977 9.336553 0.000000 0.132584
199.000000 48.826000 11.000000 -6.000000 -6.000000 101.219494 -13.364320 1230.701290 721.565131 20.475163 0.000000 0.150265
201.000000 77.135000 6.000000 -5.000000 -6.000000 117.224197 -40.230190 1885.511721 215.725777 12.956114 0.000000 0.115594
202.000000 70.422000 7.000000 -5.000000 -6.000000 112.271930 -32.331205 1656.225733 419.319649 14.192621 0.000000 0.019551
203.000000 63.916000 8.000000 -5.000000 -6.000000 107.187912 -26.246855 1505.696150 569.809201 15.638955 0.000000 0.081825
204.000000 57.870000 9.000000 -5.000000 -6.000000 102.282100 -21.515175 1399.292913 689.132060 17.274467 0.000000 0.120599
205.000000 52.396000 10.000000 -5.000000 -6.000000 97.700860 -17.777471 1320.093517 788.164906 19.081129 0.000000 0.141842
206.000000 47.515000 11.000000 -5.000000 -6.000000 93.497417 -14.774048 1258.847747 872.970599 21.043134 0.000000 0.151943
208.000000 69.066000 7.000000 -4.000000 -6.000000 101.825148 -33.109870 1676.891636 671.974177 14.473809 0.000000 0.061570
209.000000 62.174000 4.000000 -2.000000 -3.000000 97.318699 -27.326701 1531.152242 785.402303 8.040019 0.000000 0.103333
210.000000 55.904000 9.000000 -4.000000 -6.000000 92.986620 -22.741768 1426.145823 880.112216 17.885226 0.000000 0.128334
211.000000 50.328000 5.000000 -2.000000 -3.000000 88.954307 -19.061444 1346.889388 961.785065 9.934170 0.000000 0.139696
212.000000 80.779000 5.000000 -3.000000 -6.000000 97.222745 -49.150564 2219.726079 732.458177 12.375504 0.000000 0.237996
213.000000 65.768000 7.000000 -3.000000 -6.000000 90.395634 -33.782811 1695.048720 932.058123 15.202773 0.000000 0.094940
214.000000 58.847000 8.000000 -3.000000 -6.000000 86.639064 -28.278101 1553.994233 1012.772750 16.992338 0.000000 0.113340
215.000000 52.658000 3.000000 -1.000000 -2.000000 83.023764 -23.840411 1450.609404 1084.984729 6.330406 0.000000 0.123474
216.000000 47.232000 10.000000 -3.000000 -6.000000 79.657415 -20.227315 1371.581869 1150.332181 21.174567 0.000000 0.124821
217.000000 74.510000 5.000000 -2.000000 -6.000000 83.062085 -48.661998 2198.482504 1139.287160 13.420110 0.000000 0.260461
218.000000 67.305000 3.000000 -1.000000 -3.000000 80.818258 -40.807334 1904.272736 1170.841537 7.428885 0.000000 0.152836
219.000000 60.256000 7.000000 -2.000000 -6.000000 78.100877 -34.370039 1711.127696 1215.765145 16.597244 0.000000 0.124151
220.000000 53.790000 4.000000 -1.000000 -3.000000 75.261503 -29.122244 1574.605124 1265.105991 9.296814 0.000000 0.117183
221.000000 48.063000 9.000000 -2.000000 -6.000000 72.496589 -24.829437 1472.988970 1314.996239 20.810503 0.000000 0.111308
223.000000 64.480000 5.000000 -1.000000 -6.000000 67.860805 -48.244328 2180.645568 1598.544949 15.511442 0.000000 0.339069
224.000000 58.469000 6.000000 -1.000000 -6.000000 66.747867 -40.948456 1908.909766 1553.286918 17.107182 0.000000 0.224889
225.000000 52.527000 7.000000 -1.000000 -6.000000 65.153444 -34.886847 1725.466015 1548.569969 19.043428 0.000000 0.171901
226.000000 47.053000 8.000000 -1.000000 -6.000000 63.366154 -29.875987 1593.296580 1563.488774 21.260294 0.000000 0.143003
234.000000 49.306000 10.000000 -12.000000 -5.000000 140.422579 6.543896 851.536398 -369.599438 20.262691 0.000000 0.022226
235.000000 46.554000 11.000000 -12.000000 -5.000000 134.740934 7.116889 840.618270 -133.886498 21.462188 0.000000 0.026483
237.000000 54.121000 9.000000 -11.000000 -5.000000 142.268394 1.730380 942.485142 -450.610158 18.459729 0.000000 0.012040
238.000000 50.924000 10.000000 -11.000000 -5.000000 136.061848 3.193789 914.942848 -177.683199 19.620044 0.000000 0.020313
239.000000 47.794000 11.000000 -11.000000 -5.000000 130.329637 4.231146 895.373638 24.781387 20.906809 0.000000 0.052535
242.000000 56.078000 9.000000 -10.000000 -5.000000 137.379342 -1.765577 1008.176650 -229.170096 17.816639 0.000000 0.011880
243.000000 52.398000 4.000000 -4.000000 -2.000000 131.144054 0.182041 971.580373 0.625631 7.627750 0.000000 0.049062
244.000000 48.858000 11.000000 -10.000000 -5.000000 125.415016 1.591787 945.090775 175.397416 20.452980 0.000000 0.082698
245.000000 45.510000 12.000000 -10.000000 -5.000000 120.168078 2.658256 925.029132 314.710355 21.959282 0.000000 0.109635
247.000000 62.196000 8.000000 -9.000000 -5.000000 138.561602 -8.121299 1128.587576 -290.518803 16.063636 0.000000 0.019039
248.000000 57.842000 9.000000 -9.000000 -5.000000 131.829216 -4.833701 1066.016521 -25.744422 17.274470 0.000000 0.042228
249.000000 53.637000 10.000000 -9.000000 -5.000000 125.631125 -2.525819 1022.477968 168.814061 18.630650 0.000000 0.080826
250.000000 49.665000 11.000000 -9.000000 -5.000000 119.967448 -0.821587 990.434472 320.352436 20.122247 0.000000 0.111150
251.000000 45.973000 12.000000 -9.000000 -5.000000 114.810331 0.486309 965.864522 443.428792 21.740217 0.000000 0.133373
253.000000 69.488000 7.000000 -8.000000 -5.000000 139.342004 -16.317433 1290.085986 -364.760939 14.377902 0.000000 0.053977
254.000000 64.314000 8.000000 -8.000000 -5.000000 132.211230 -11.097496 1186.111688 -53.912325 15.535955 0.000000 0.031450
255.000000 59.279000 9.000000 -8.000000 -5.000000 125.568955 -7.533289 1117.333047 164.629767 16.857452 0.000000 0.075213
256.000000 54.522000 10.000000 -8.000000 -5.000000 119.486034 -4.963153 1068.466121 330.117805 18.330077 0.000000 0.110577
257.000000 50.118000 11.000000 -8.000000 -5.000000 113.960527 -3.029267 1031.957492 462.021835 19.942720 0.000000 0.135449
258.000000 46.095000 12.000000 -8.000000 -5.000000 108.959348 -1.524555 1003.645350 571.125211 21.685334 0.000000 0.151983
260.000000 72.016000 7.000000 -7.000000 -5.000000 131.971983 -18.922376 1343.967560 -82.455963 13.874439 0.000000 0.029041
261.000000 65.956000 8.000000 -7.000000 -5.000000 125.005567 -13.647250 1236.322710 165.314655 15.150827 0.000000 0.063063
262.000000 60.211000 9.000000 -7.000000 -5.000000 118.551379 -9.916917 1163.170901 346.486695 16.598251 0.000000 0.106394
263.000000 54.910000 10.000000 -7.000000 -5.000000 112.676968 -7.160954 1110.222477 487.749218 18.202731 0.000000 0.135400
264.000000 50.101000 11.000000 -7.000000 -5.000000 107.374562 -5.050695 1070.123210 602.921833 19.951770 0.000000 0.153550
265.000000 45.786000 12.000000 -7.000000 -5.000000 102.604599 -3.387180 1038.701991 699.907852 21.834162 0.000000 0.163875
267.000000 81.090000 6.000000 -6.000000 -5.000000 130.550070 -28.554874 1560.715493 -107.397392 12.321970 0.000000 0.072360
268.000000 73.817000 7.000000 -6.000000 -5.000000 123.560711 -21.085786 1390.000654 175.735151 13.537578 0.000000 0.039255
269.000000 66.850000 8.000000 -6.000000 -5.000000 116.883284 -15.847861 1280.531874 373.800387 14.950295 0.000000 0.095949
270.000000 60.424000 9.000000 -6.000000 -5.000000 110.738446 -12.030026 1204.362995 524.325975 16.541983 0.000000 0.131761
271.000000 54.635000 10.000000 -6.000000 -5.000000 105.183130 -9.147279 1148.305453 645.155315 18.296658 0.000000 0.152586
272.000000 49.492000 11.000000 -6.000000 -5.000000 100.201073 -6.904043 1105.322981 745.908648 20.200189 0.000000 0.163361
273.000000 82.856000 6.000000 -5.000000 -5.000000 120.600922 -29.989021 1596.123838 206.065858 12.061126 0.000000 0.013882
274.000000 74.454000 7.000000 -5.000000 -5.000000 114.027913 -22.906287 1429.783689 420.097541 13.423793 0.000000 0.074752
275.000000 66.662000 8.000000 -5.000000 -5.000000 107.800444 -17.761110 1319.754617 578.135171 14.994737 0.000000 0.122218
276.000000 59.673000 9.000000 -5.000000 -5.000000 102.111159 -13.911318 1241.581549 703.064349 16.752770 0.000000 0.147528
277.000000 53.524000 4.000000 -2.000000 -2.000000 97.002043 -10.947101 1183.179356 806.358643 7.471794 0.000000 0.159327
278.000000 48.167000 11.000000 -5.000000 -5.000000 92.448031 -8.606006 1137.889611 894.462042 20.758811 0.000000 0.162575
279.000000 82.724000 6.000000 -4.000000 -5.000000 109.264661 -31.166563 1625.968802 501.380325 12.082723 0.000000 0.040796
280.000000 73.405000 7.000000 -4.000000 -5.000000 103.328962 -24.456481 1464.508631 660.865511 13.618333 0.000000 0.103974
281.000000 65.029000 8.000000 -4.000000 -5.000000 97.747886 -19.436294 1354.789541 785.713778 15.374080 0.000000 0.136242
282.000000 57.713000 9.000000 -4.000000 -5.000000 92.681690 -15.593496 1275.375061 888.661549 17.324934 0.000000 0.149909
283.000000 51.414000 10.000000 -4.000000 -5.000000 88.157742 -12.582412 1215.233409 976.470389 19.449519 0.000000 0.152587
284.000000 46.023000 11.000000 -4.000000 -5.000000 84.145263 -10.171740 1168.107906 1053.127255 21.729474 0.000000 0.148604
285.000000 90.501000 5.000000 -3.000000 -5.000000 101.506407 -40.534238 1895.355027 652.717398 11.045575 0.000000 0.085544
286.000000 79.874000 6.000000 -3.000000 -5.000000 96.517667 -32.149938 1651.466063 795.764996 12.516554 0.000000 0.083013
287.000000 70.136000 7.000000 -3.000000 -5.000000 91.485649 -25.790570 1495.082466 909.997890 14.256226 0.000000 0.118083
288.000000 61.619000 8.000000 -3.000000 -5.000000 86.771357 -20.912847 1386.273356 1005.995561 16.228408 0.000000 0.133431
289.000000 54.342000 9.000000 -3.000000 -5.000000 82.506015 -17.104093 1306.195519 1089.133539 18.403136 0.000000 0.135395
290.000000 48.187000 10.000000 -3.000000 -5.000000 78.708464 -14.072450 1244.796334 1162.548356 20.755380 0.000000 0.129506
291.000000 84.036000 5.000000 -2.000000 -5.000000 86.232275 -40.745079 1902.233408 1034.553977 11.898586 0.000000 0.131178
292.000000 73.604000 6.000000 -2.000000 -5.000000 82.465746 -32.983053 1673.501158 1110.702100 13.586321 0.000000 0.112318
293.000000 64.254000 7.000000 -2.000000 -5.000000 78.618280 -26.949611 1522.207563 1184.056264 15.564820 0.000000 0.116232
294.000000 56.227000 8.000000 -2.000000 -5.000000 74.989770 -22.222465 1414.719926 1252.754558 17.788586 0.000000 0.113724
295.000000 49.466000 9.000000 -2.000000 -5.000000 71.693788 -18.466276 1334.418733 1316.409501 20.221142 0.000000 0.104731
297.000000 81.587000 4.000000 -1.000000 -5.000000 71.140377 -49.967499 2256.200926 1512.576681 12.258372 0.000000 0.355317
298.000000 72.548000 5.000000 -1.000000 -5.000000 69.611609 -40.921756 1908.030937 1470.406416 13.786692 0.000000 0.207495
299.000000 63.657000 6.000000 -1.000000 -5.000000 67.387606 -33.697619 1692.734423 1479.826377 15.713326 0.000000 0.152804
300.000000 55.701000 7.000000 -1.000000 -5.000000 64.966549 -27.965147 1546.436296 1510.101789 17.958959 0.000000 0.126260
301.000000 48.886000 8.000000 -1.000000 -5.000000 62.603931 -23.390781 1440.548532 1548.750098 20.464023 0.000000 0.108218
306.000000 49.447000 5.000000 -6.000000 -2.000000 137.910009 15.953095 667.330903 -298.306251 10.102765 0.000000 0.047379
307.000000 46.572000 11.000000 -12.000000 -4.000000 132.282115 15.119161 684.207341 -72.831799 21.454676 0.000000 0.030350
309.000000 54.502000 9.000000 -11.000000 -4.000000 140.025336 12.715951 732.131733 -375.109890 18.331000 0.000000 0.043526
310.000000 51.119000 10.000000 -11.000000 -4.000000 133.772319 12.312964 740.074772 -114.408579 19.545877 0.000000 0.028587
311.000000 47.839000 11.000000 -11.000000 -4.000000 128.033458 12.024453 745.746443 80.207304 20.887536 0.000000 0.053028
314.000000 56.563000 9.000000 -10.000000 -4.000000 135.421276 8.719536 809.928245 -164.010465 17.664258 0.000000 0.024370
315.000000 52.653000 5.000000 -5.000000 -2.000000 129.055958 8.967499 805.157523 56.885637 9.488939 0.000000 0.053889
316.000000 48.932000 11.000000 -10.000000 -4.000000 123.265522 9.147568 801.688990 225.838261 20.422546 0.000000 0.085603
318.000000 63.163000 8.000000 -9.000000 -4.000000 137.202789 3.998251 899.771189 -224.241583 15.818203 0.000000 0.015858
319.000000 58.443000 9.000000 -9.000000 -4.000000 130.117895 5.119909 878.566318 30.468458 17.097291 0.000000 0.053022
320.000000 53.953000 10.000000 -9.000000 -4.000000 123.717550 5.902472 863.728876 218.896217 18.521908 0.000000 0.088593
321.000000 49.767000 11.000000 -9.000000 -4.000000 117.944952 6.479321 852.765228 366.379608 20.081883 0.000000 0.116184
322.000000 45.916000 12.000000 -9.000000 -4.000000 112.738982 6.922066 844.333479 486.603593 21.767971 0.000000 0.136136
323.000000 71.263000 7.000000 -8.000000 -4.000000 139.018244 -2.373778 1019.616654 -298.995501 14.019946 0.000000 0.005207
324.000000 60.002000 9.000000 -8.000000 -4.000000 124.059307 1.885236 939.573287 213.014233 16.654685 0.000000 0.090078
325.000000 54.898000 5.000000 -4.000000 -2.000000 117.714968 3.099497 916.719455 374.745811 9.102429 0.000000 0.120610
326.000000 50.241000 11.000000 -8.000000 -4.000000 112.041760 4.008186 899.583655 504.167640 19.894643 0.000000 0.141677
327.000000 46.036000 3.000000 -2.000000 -1.000000 106.966153 4.713429 886.258522 611.524691 5.428444 0.000000 0.155238
329.000000 81.305000 6.000000 -7.000000 -4.000000 140.595791 -11.168940 1187.505744 -394.397895 12.288052 0.000000 0.036733
330.000000 74.195000 7.000000 -7.000000 -4.000000 131.962475 -6.270549 1093.264052 -32.649194 13.467113 0.000000 0.039858
331.000000 67.370000 8.000000 -7.000000 -4.000000 124.155488 -3.159257 1034.406478 209.661364 14.833089 0.000000 0.088575
332.000000 61.053000 9.000000 -7.000000 -4.000000 117.191402 -1.019583 994.154762 387.976466 16.369827 0.000000 0.123626
333.000000 55.336000 10.000000 -7.000000 -4.000000 111.011393 0.538151 964.890606 527.585527 18.062981 0.000000 0.146411
334.000000 50.234000 11.000000 -7.000000 -4.000000 105.532869 1.721326 942.655376 641.717088 19.899770 0.000000 0.159973
335.000000 45.715000 12.000000 -7.000000 -4.000000 100.670229 2.649807 925.188187 737.994172 21.868765 0.000000 0.166825
336.000000 76.423000 7.000000 -6.000000 -4.000000 123.745497 -9.565763 1156.380075 211.826710 13.076104 0.000000 0.081158
337.000000 61.364000 9.000000 -6.000000 -4.000000 109.468994 -3.629714 1043.275093 559.754801 16.289227 0.000000 0.149440
338.000000 55.090000 5.000000 -3.000000 -2.000000 103.581278 -1.802516 1008.871214 680.860532 9.073170 0.000000 0.163241
339.000000 49.615000 11.000000 -6.000000 -4.000000 98.406806 -0.394611 982.412840 781.932282 20.150606 0.000000 0.168931
340.000000 87.546000 6.000000 -5.000000 -4.000000 122.326898 -17.729050 1319.090703 225.926757 11.414945 0.000000 0.061671
341.000000 77.455000 7.000000 -5.000000 -4.000000 114.271878 -12.371270 1211.072926 444.132991 12.903828 0.000000 0.118293
342.000000 68.469000 8.000000 -5.000000 -4.000000 107.121311 -8.669106 1139.102285 605.618749 14.599321 0.000000 0.149155
343.000000 60.664000 9.000000 -5.000000 -4.000000 100.866311 -5.978505 1087.714854 733.264772 16.479675 0.000000 0.163759
344.000000 53.969000 10.000000 -5.000000 -4.000000 95.418162 -3.942967 1049.185305 838.673809 18.526088 0.000000 0.168159
345.000000 48.254000 11.000000 -5.000000 -4.000000 90.669313 -2.352932 1019.224409 928.415860 20.722227 0.000000 0.166064
346.000000 76.677000 7.000000 -4.000000 -4.000000 103.479137 -14.777809 1258.923304 674.193724 13.037418 0.000000 0.142722
347.000000 58.678000 9.000000 -4.000000 -4.000000 91.390508 -8.096518 1128.112620 914.611302 17.040638 0.000000 0.162431
348.000000 51.796000 5.000000 -2.000000 -2.000000 86.543741 -5.902572 1086.273031 1006.350756 9.653436 0.000000 0.157690
349.000000 46.037000 11.000000 -4.000000 -4.000000 82.349283 -4.166519 1053.405809 1085.961220 21.723759 0.000000 0.148336
350.000000 85.557000 6.000000 -3.000000 -4.000000 97.722328 -22.145758 1413.039390 783.427750 11.685275 0.000000 0.125993
351.000000 73.428000 7.000000 -3.000000 -4.000000 91.375266 -16.857906 1301.139680 914.000588 13.617373 0.000000 0.146471
352.000000 63.393000 8.000000 -3.000000 -4.000000 85.849024 -12.967846 1222.845999 1021.156604 15.774736 0.000000 0.148434
353.000000 55.172000 9.000000 -3.000000 -4.000000 81.096420 -10.011159 1164.995862 1112.219083 18.127041 0.000000 0.140673
354.000000 48.437000 10.000000 -3.000000 -4.000000 77.016693 -7.699274 1120.506802 1191.409310 20.649174 0.000000 0.127764
355.000000 67.188000 7.000000 -2.000000 -4.000000 78.081112 -18.669248 1338.661770 1180.799068 14.885804 0.000000 0.123092
356.000000 57.676000 4.000000 -1.000000 -2.000000 73.785843 -14.768319 1258.732645 1264.673514 8.671163 0.000000 0.111764
357.000000 50.030000 9.000000 -2.000000 -4.000000 70.098766 -11.746661 1198.804095 1338.973938 19.994166 0.000000 0.095211
358.000000 80.333000 5.000000 -1.000000 -4.000000 70.533426 -31.947000 1646.159775 1389.335053 12.451053 0.000000 0.132540
359.000000 67.915000 6.000000 -1.000000 -4.000000 67.066857 -25.287674 1483.478732 1444.639918 14.729030 0.000000 0.110862
360.000000 57.831000 7.000000 -1.000000 -4.000000 63.861727 -20.257749 1372.231313 1503.986744 17.298560 0.000000 0.092797
361.000000 49.770000 8.000000 -1.000000 -4.000000 61.031884 -16.379638 1291.355037 1562.021559 20.101619 0.000000 0.077257
363.000000 61.342000 5.000000 0.000000 -4.000000 51.547044 -32.842288 1669.749150 1958.275906 16.310145 0.000000 0.256053
364.000000 52.907000 3.000000 0.000000 -2.000000 50.393574 -26.536532 1512.477644 1936.463824 9.455718 0.000000 0.212985
365.000000 45.840000 7.000000 0.000000 -4.000000 49.123606 -21.660103 1402.441598 1943.312965 21.827896 0.000000 0.194147
371.000000 49.201000 10.000000 -12.000000 -3.000000 134.413685 24.319631 488.590487 -216.173971 20.307702 0.000000 0.070142
372.000000 46.249000 11.000000 -12.000000 -3.000000 129.023324 22.383367 531.749000 -2.368147 21.605307 0.000000 0.030503
374.000000 54.381000 9.000000 -11.000000 -3.000000 136.493086 22.515712 528.838479 -286.467733 18.372703 0.000000 0.072902
375.000000 50.874000 10.000000 -11.000000 -3.000000 130.464749 20.615725 570.110414 -39.912288 19.640823 0.000000 0.031707
376.000000 47.504000 11.000000 -11.000000 -3.000000 124.915485 19.222417 599.722450 145.376278 21.036125 0.000000 0.044626
378.000000 60.695000 8.000000 -10.000000 -3.000000 138.960104 20.094417 581.251132 -375.535628 16.461053 0.000000 0.074168
379.000000 56.472000 9.000000 -10.000000 -3.000000 132.144315 18.353995 617.924113 -85.224575 17.693519 0.000000 0.032200
380.000000 52.410000 10.000000 -10.000000 -3.000000 125.930682 17.135473 643.159084 124.782937 19.066645 0.000000 0.048084
381.000000 48.581000 11.000000 -10.000000 -3.000000 120.282609 16.235454 661.585272 286.397592 20.571061 0.000000 0.080059
383.000000 63.363000 8.000000 -9.000000 -3.000000 134.109605 15.368556 679.174559 -141.044468 15.768830 0.000000 0.031182
384.000000 58.386000 3.000000 -3.000000 -1.000000 127.080249 14.498676 696.677902 100.831623 5.704884 0.000000 0.051220
385.000000 53.711000 10.000000 -9.000000 -3.000000 120.762159 13.882561 708.991730 281.086540 18.606271 0.000000 0.085996
386.000000 49.397000 11.000000 -9.000000 -3.000000 115.087611 13.423398 718.126014 422.958394 20.233254 0.000000 0.113174
387.000000 45.463000 4.000000 -3.000000 -1.000000 109.987970 13.068032 725.171425 539.108743 7.328714 0.000000 0.132502
389.000000 72.011000 7.000000 -8.000000 -3.000000 136.403780 11.273553 760.451781 -211.609225 13.874756 0.000000 0.027003
390.000000 65.800000 8.000000 -8.000000 -3.000000 128.367473 11.078949 764.250086 72.752838 15.186162 0.000000 0.053449
391.000000 59.980000 9.000000 -8.000000 -3.000000 121.235976 10.948227 766.798711 276.148150 16.661490 0.000000 0.091983
392.000000 54.652000 10.000000 -8.000000 -3.000000 114.911470 10.854366 768.627266 432.032987 18.287738 0.000000 0.120717
393.000000 49.846000 11.000000 -8.000000 -3.000000 109.296984 10.783703 770.003144 557.376099 20.053246 0.000000 0.140138
394.000000 45.548000 12.000000 -8.000000 -3.000000 104.302207 10.728583 771.075926 661.730262 21.947522 0.000000 0.152245
395.000000 83.095000 6.000000 -7.000000 -3.000000 139.028595 5.387485 873.497426 -303.882927 12.023573 0.000000 0.016076
396.000000 75.184000 7.000000 -7.000000 -3.000000 129.762843 6.506525 852.247588 39.641601 13.290301 0.000000 0.053571
397.000000 67.779000 8.000000 -7.000000 -3.000000 121.646417 7.209527 838.850584 272.370500 14.744252 0.000000 0.097506
398.000000 61.060000 9.000000 -7.000000 -3.000000 114.548976 7.692002 829.632296 444.929234 16.368771 0.000000 0.128379
399.000000 55.076000 10.000000 -7.000000 -3.000000 108.336562 8.043601 822.901398 580.743346 18.149117 0.000000 0.147873
400.000000 49.805000 11.000000 -7.000000 -3.000000 102.884407 8.311198 817.770805 692.190857 20.072205 0.000000 0.158839
401.000000 77.671000 7.000000 -6.000000 -3.000000 121.865472 2.332894 931.152643 271.410417 12.866415 0.000000 0.101416
402.000000 68.990000 8.000000 -6.000000 -3.000000 113.862813 3.731843 904.798484 463.875825 14.487393 0.000000 0.135587
403.000000 54.799000 10.000000 -6.000000 -3.000000 101.007108 5.439791 872.506033 730.703924 18.243440 0.000000 0.164673
404.000000 49.139000 11.000000 -6.000000 -3.000000 95.835562 5.998853 861.898695 830.393374 20.346982 0.000000 0.167116
405.000000 90.457000 6.000000 -5.000000 -3.000000 121.606766 -4.178796 1053.637667 276.918688 11.047783 0.000000 0.101072
406.000000 78.939000 7.000000 -5.000000 -3.000000 112.597176 -1.314877 999.704142 492.926198 12.661760 0.000000 0.141087
407.000000 69.034000 8.000000 -5.000000 -3.000000 104.949840 0.611286 963.516638 653.601133 14.480640 0.000000 0.161275
408.000000 60.659000 9.000000 -5.000000 -3.000000 98.454638 1.992612 937.553933 780.920999 16.482075 0.000000 0.168712
409.000000 53.622000 10.000000 -5.000000 -3.000000 92.912651 3.030519 918.018929 886.162327 18.646853 0.000000 0.168076
410.000000 47.713000 11.000000 -5.000000 -3.000000 88.153993 3.838427 902.787557 975.767021 20.958368 0.000000 0.162344
411.000000 78.301000 7.000000 -4.000000 -3.000000 101.876257 -4.505727 1059.814438 713.953307 12.767535 0.000000 0.164003
412.000000 67.450000 8.000000 -4.000000 -3.000000 94.877971 -2.188576 1016.132141 849.078825 14.823590 0.000000 0.168967
413.000000 58.594000 9.000000 -4.000000 -3.000000 89.016193 -0.491737 984.237455 959.483195 17.065999 0.000000 0.164335
414.000000 51.357000 10.000000 -4.000000 -3.000000 84.072273 0.802385 959.926306 1052.761597 19.472752 0.000000 0.154242
415.000000 74.994000 7.000000 -3.000000 -3.000000 89.695549 -7.303968 1112.952239 946.765920 13.333669 0.000000 0.161528
416.000000 63.793000 8.000000 -3.000000 -3.000000 83.681636 -4.703272 1063.549381 1060.575833 15.676816 0.000000 0.151828
417.000000 54.934000 3.000000 -1.000000 -1.000000 78.703483 -2.760951 1026.904304 1156.246637 6.068846 0.000000 0.136301
418.000000 47.864000 10.000000 -3.000000 -3.000000 74.544199 -1.258272 998.640283 1238.660651 20.897724 0.000000 0.118083
419.000000 82.318000 6.000000 -2.000000 -3.000000 81.920260 -13.590830 1235.200656 1098.192705 12.149029 0.000000 0.139126
420.000000 68.389000 7.000000 -2.000000 -3.000000 76.173295 -9.766702 1160.264202 1209.790891 14.625160 0.000000 0.123336
421.000000 57.764000 8.000000 -2.000000 -3.000000 71.486423 -6.965916 1106.502454 1304.086784 17.316964 0.000000 0.101500
422.000000 49.551000 9.000000 -2.000000 -3.000000 67.634074 -4.835549 1066.051493 1385.449762 20.188865 0.000000 0.077730
423.000000 86.165000 5.000000 -1.000000 -3.000000 69.902021 -21.289818 1394.409269 1363.669481 11.609013 0.000000 0.102862
424.000000 70.177000 6.000000 -1.000000 -3.000000 65.342546 -15.861842 1280.815686 1454.629276 14.255168 0.000000 0.080780
425.000000 58.306000 7.000000 -1.000000 -3.000000 61.594403 -11.943208 1202.658623 1535.965121 17.158696 0.000000 0.058963
426.000000 49.372000 8.000000 -1.000000 -3.000000 58.525609 -9.006501 1145.593447 1608.117618 20.264767 0.000000 0.046197
430.000000 48.555000 5.000000 -6.000000 -1.000000 130.120753 31.514337 315.075496 -122.906658 10.289415 0.000000 0.094865
431.000000 45.580000 11.000000 -12.000000 -2.000000 125.097884 28.808458 383.095291 77.792711 21.923447 0.000000 0.035258
433.000000 53.731000 9.000000 -11.000000 -2.000000 131.913197 30.844913 332.255804 -184.318174 18.596072 0.000000 0.102667
434.000000 50.174000 10.000000 -11.000000 -2.000000 126.304133 27.911855 404.846358 46.166666 19.915787 0.000000 0.037591
435.000000 46.779000 11.000000 -11.000000 -2.000000 121.095420 25.693148 457.173054 220.631468 21.363171 0.000000 0.027325
437.000000 60.090000 4.000000 -5.000000 -1.000000 134.089140 29.962890 354.530327 -262.448197 8.313835 0.000000 0.111687
438.000000 55.770000 9.000000 -10.000000 -2.000000 127.747111 26.776704 431.873812 7.646368 17.917279 0.000000 0.040278
439.000000 51.650000 5.000000 -5.000000 -1.000000 121.908919 24.460029 485.410932 204.755661 9.674067 0.000000 0.031493
440.000000 47.795000 11.000000 -10.000000 -2.000000 116.571412 22.704948 524.667136 357.483753 20.910614 0.000000 0.066829
443.000000 62.722000 8.000000 -9.000000 -2.000000 129.500623 25.294580 466.362585 -40.335742 15.930894 0.000000 0.043250
444.000000 57.626000 9.000000 -9.000000 -2.000000 122.871057 22.911208 520.107360 185.915840 17.341422 0.000000 0.036107
445.000000 52.885000 10.000000 -9.000000 -2.000000 116.881038 21.173000 558.116343 355.915920 18.898126 0.000000 0.073828
446.000000 48.543000 11.000000 -9.000000 -2.000000 111.485927 19.851461 586.417884 490.575820 20.590295 0.000000 0.102999
447.000000 71.570000 7.000000 -8.000000 -2.000000 131.669623 23.281016 511.897158 -101.830040 13.961046 0.000000 0.046241
448.000000 65.118000 4.000000 -4.000000 -1.000000 124.020946 20.911100 563.764246 163.230181 7.672990 0.000000 0.041132
449.000000 59.154000 9.000000 -8.000000 -2.000000 117.212140 19.266069 598.802506 354.738897 16.895270 0.000000 0.081760
450.000000 53.751000 5.000000 -4.000000 -1.000000 111.168199 18.059286 624.059112 502.624019 9.297764 0.000000 0.111842
451.000000 48.918000 11.000000 -8.000000 -2.000000 105.802757 17.136962 643.128464 622.231133 20.434785 0.000000 0.131635
452.000000 83.162000 6.000000 -7.000000 -2.000000 134.404086 20.396910 574.795815 -183.650292 12.014588 0.000000 0.048443
453.000000 74.761000 7.000000 -7.000000 -2.000000 125.407036 18.236748 620.367358 135.457349 13.366327 0.000000 0.046374
454.000000 67.049000 8.000000 -7.000000 -2.000000 117.548925 16.833581 649.359162 354.412726 14.905786 0.000000 0.090710
455.000000 60.156000 9.000000 -7.000000 -2.000000 110.700247 15.849905 669.426645 518.223199 16.615755 0.000000 0.121684
456.000000 54.090000 10.000000 -7.000000 -2.000000 104.724051 15.122460 684.140841 648.010446 18.481069 0.000000 0.140618
457.000000 48.796000 11.000000 -7.000000 -2.000000 99.493097 14.562833 695.391756 755.049270 20.488307 0.000000 0.150845
458.000000 77.260000 7.000000 -6.000000 -2.000000 117.848775 13.637359 713.874036 355.866556 12.935636 0.000000 0.100638
459.000000 60.384000 9.000000 -6.000000 -2.000000 103.275253 12.663810 733.160859 680.734172 16.555300 0.000000 0.149963
460.000000 53.717000 5.000000 -3.000000 -1.000000 97.514377 12.361995 739.109683 795.658600 9.306000 0.000000 0.157549
461.000000 48.043000 11.000000 -6.000000 -2.000000 92.540444 12.128057 743.711162 892.156602 20.812463 0.000000 0.158527
462.000000 90.897000 6.000000 -5.000000 -2.000000 118.001463 9.284267 799.053514 361.092157 10.994950 0.000000 0.111128
463.000000 78.513000 7.000000 -5.000000 -2.000000 108.857617 9.478061 795.313742 568.303585 12.731322 0.000000 0.144014
464.000000 68.143000 8.000000 -5.000000 -2.000000 101.259429 9.608849 792.787469 723.678665 14.670969 0.000000 0.159093
465.000000 59.547000 9.000000 -5.000000 -2.000000 94.898081 9.703059 790.966502 847.426731 16.790891 0.000000 0.162856
466.000000 52.432000 10.000000 -5.000000 -2.000000 89.525437 9.774154 789.591653 950.046126 19.071432 0.000000 0.159581
467.000000 46.523000 11.000000 -5.000000 -2.000000 84.946570 9.829711 788.516871 1037.593016 21.495695 0.000000 0.151982
468.000000 77.792000 7.000000 -4.000000 -2.000000 98.331409 5.736410 866.880742 782.589745 12.851921 0.000000 0.166608
469.000000 66.416000 4.000000 -2.000000 -1.000000 91.323752 6.442368 853.468294 915.971008 7.527660 0.000000 0.164814
470.000000 57.340000 9.000000 -4.000000 -2.000000 85.565620 6.958758 843.634025 1025.085412 17.440380 0.000000 0.155703
471.000000 50.044000 5.000000 -2.000000 -1.000000 80.773915 7.352837 836.114574 1117.274056 9.992388 0.000000 0.142635
472.000000 89.718000 6.000000 -3.000000 -2.000000 93.849372 0.722223 961.432413 868.575274 11.144634 0.000000 0.169080
473.000000 74.280000 7.000000 -3.000000 -2.000000 86.247064 2.379923 930.267699 1011.660394 13.462858 0.000000 0.159203
474.000000 62.550000 8.000000 -3.000000 -2.000000 80.208689 3.549967 908.228844 1127.097294 15.989493 0.000000 0.142090
475.000000 53.506000 9.000000 -3.000000 -2.000000 75.327800 4.419280 891.819340 1223.642765 18.693741 0.000000 0.121952
476.000000 46.417000 10.000000 -3.000000 -2.000000 71.316916 5.090319 879.126606 1306.392461 21.550589 0.000000 0.100998
477.000000 67.292000 7.000000 -2.000000 -2.000000 72.716655 -0.628206 986.801253 1275.905289 14.864819 0.000000 0.108532
478.000000 56.232000 4.000000 -1.000000 -1.000000 68.038827 0.910484 957.895229 1375.057733 8.894916 0.000000 0.079637
479.000000 47.917000 9.000000 -2.000000 -2.000000 64.302547 2.071441 936.071271 1459.265198 20.878208 0.000000 0.051907
480.000000 87.705000 5.000000 -1.000000 -2.000000 66.938785 -9.349446 1152.203836 1405.386503 11.406144 0.000000 0.076580
481.000000 69.338000 6.000000 -1.000000 -2.000000 61.871733 -5.805932 1084.438562 1519.336909 14.428706 0.000000 0.040005
482.000000 56.631000 7.000000 -1.000000 -2.000000 58.035327 -3.325316 1037.535885 1613.753651 17.667490 0.000000 0.021186
483.000000 47.481000 8.000000 -1.000000 -2.000000 55.054328 -1.498028 1003.146692 1693.366601 21.072941 0.000000 0.041998
484.000000 80.112000 4.000000 0.000000 -2.000000 47.893940 -17.827933 1321.139176 1962.778855 12.490259 0.000000 0.188394
485.000000 62.952000 5.000000 0.000000 -2.000000 45.747512 -12.267860 1209.037728 2014.074296 15.895679 0.000000 0.195826
486.000000 51.232000 6.000000 0.000000 -2.000000 44.038558 -8.476198 1135.396190 2066.327137 19.532618 0.000000 0.212379
490.000000 47.518000 10.000000 -12.000000 -1.000000 125.229689 37.586021 146.560084 -18.162930 21.029331 0.000000 0.125745
492.000000 52.555000 9.000000 -11.000000 -1.000000 126.559110 37.736255 142.056835 -68.229604 19.013347 0.000000 0.138236
493.000000 49.028000 10.000000 -11.000000 -1.000000 121.483866 34.180363 244.090286 144.241214 20.382630 0.000000 0.056952
494.000000 45.676000 11.000000 -11.000000 -1.000000 116.715613 31.401996 317.975698 306.358591 21.880178 0.000000 0.001265
496.000000 58.760000 8.000000 -10.000000 -1.000000 128.181509 37.929311 136.243142 -132.060660 17.005262 0.000000 0.154044
497.000000 54.459000 9.000000 -10.000000 -1.000000 122.489619 33.909374 251.504638 115.137142 18.349635 0.000000 0.061111
498.000000 50.383000 10.000000 -10.000000 -1.000000 117.174588 30.864837 331.747965 297.302708 19.835982 0.000000 0.004241
499.000000 46.587000 11.000000 -10.000000 -1.000000 112.267786 28.491478 390.827158 439.555396 21.454410 0.000000 0.048378
501.000000 61.226000 8.000000 -9.000000 -1.000000 123.730645 33.562367 260.930340 78.592245 16.321424 0.000000 0.066414
502.000000 56.165000 9.000000 -9.000000 -1.000000 117.729736 30.198288 348.624832 286.381769 17.794020 0.000000 0.007788
503.000000 51.485000 10.000000 -9.000000 -1.000000 112.245454 27.657122 410.959930 443.988117 19.413328 0.000000 0.054549
504.000000 47.221000 11.000000 -9.000000 -1.000000 107.267692 25.677018 457.546155 569.779653 21.168329 0.000000 0.087624
506.000000 69.880000 7.000000 -8.000000 -1.000000 125.299799 33.102178 273.314278 31.300804 14.299791 0.000000 0.073307
507.000000 63.432000 8.000000 -8.000000 -1.000000 118.414285 29.349465 369.789427 272.957369 15.755104 0.000000 0.012040
508.000000 57.523000 9.000000 -8.000000 -1.000000 112.202356 26.627353 435.389147 449.603471 17.375412 0.000000 0.061915
509.000000 52.207000 10.000000 -8.000000 -1.000000 106.641855 24.571093 482.890683 587.253252 19.146903 0.000000 0.096058
510.000000 47.475000 11.000000 -8.000000 -1.000000 101.677866 22.966813 518.875739 699.391715 21.057268 0.000000 0.117800
512.000000 81.321000 6.000000 -7.000000 -1.000000 127.345637 32.462747 290.308325 -32.370399 12.287554 0.000000 0.082461
513.000000 72.838000 7.000000 -7.000000 -1.000000 119.278308 28.232346 397.113531 256.065297 13.720496 0.000000 0.017212
514.000000 65.148000 8.000000 -7.000000 -1.000000 112.123232 25.325389 465.654418 456.931431 15.341931 0.000000 0.070801
515.000000 58.341000 9.000000 -7.000000 -1.000000 105.833203 23.214820 513.370108 608.874580 17.134040 0.000000 0.105758
516.000000 52.393000 10.000000 -7.000000 -1.000000 100.315276 21.616791 548.500050 730.288067 19.081182 0.000000 0.126404
517.000000 47.229000 11.000000 -7.000000 -1.000000 95.468365 20.366610 575.443577 831.093577 21.169571 0.000000 0.137447
518.000000 85.471000 6.000000 -6.000000 -1.000000 120.400345 26.697299 433.743939 234.181030 11.692267 0.000000 0.023584
519.000000 75.066000 7.000000 -6.000000 -1.000000 111.978650 23.628953 504.130752 466.863920 13.314937 0.000000 0.081656
520.000000 66.054000 8.000000 -6.000000 -1.000000 104.753033 21.514540 550.720858 636.347641 15.133557 0.000000 0.116914
521.000000 58.371000 9.000000 -6.000000 -1.000000 98.558288 19.972906 583.837197 768.661762 17.127595 0.000000 0.135503
522.000000 51.862000 10.000000 -6.000000 -1.000000 93.229561 18.800634 608.586258 876.845861 19.279288 0.000000 0.143461
523.000000 46.352000 11.000000 -6.000000 -1.000000 88.621682 17.879892 627.783510 968.210758 21.573195 0.000000 0.144595
524.000000 88.468000 6.000000 -5.000000 -1.000000 111.707345 21.331707 554.684103 481.017271 11.297977 0.000000 0.095086
525.000000 76.009000 7.000000 -5.000000 -1.000000 103.247861 19.324908 597.561749 672.479542 13.151938 0.000000 0.129637
526.000000 65.743000 8.000000 -5.000000 -1.000000 96.217846 17.931346 626.716040 817.751142 15.207806 0.000000 0.144589
527.000000 57.329000 9.000000 -5.000000 -1.000000 90.335135 16.908299 647.826501 934.420015 17.441848 0.000000 0.147906
528.000000 50.420000 10.000000 -5.000000 -1.000000 85.369281 16.125798 663.818565 1031.747951 19.833912 0.000000 0.144306
529.000000 89.251000 6.000000 -4.000000 -1.000000 101.031270 16.409470 658.036054 722.270473 11.201150 0.000000 0.143687
530.000000 74.941000 7.000000 -4.000000 -1.000000 92.969721 15.335648 679.839327 883.102587 13.342209 0.000000 0.152317
531.000000 63.744000 8.000000 -4.000000 -1.000000 86.471986 14.581495 695.017518 1009.565675 15.687648 0.000000 0.148598
532.000000 54.920000 9.000000 -4.000000 -1.000000 81.157778 14.022938 706.191986 1113.574321 18.210115 0.000000 0.138402
533.000000 47.886000 10.000000 -4.000000 -1.000000 76.749641 13.592693 714.762301 1201.743963 20.886930 0.000000 0.125002
534.000000 86.415000 6.000000 -3.000000 -1.000000 88.218133 11.941420 747.376472 975.223557 11.571733 0.000000 0.155111
535.000000 71.051000 7.000000 -3.000000 -1.000000 81.109859 11.662324 752.848169 1112.902218 14.075921 0.000000 0.140623
536.000000 59.609000 8.000000 -3.000000 -1.000000 75.538460 11.463604 756.737357 1224.228054 16.779497 0.000000 0.121313
537.000000 50.902000 9.000000 -3.000000 -1.000000 71.073851 11.314913 759.643834 1317.361887 19.651484 0.000000 0.100817
538.000000 78.516000 6.000000 -2.000000 -1.000000 73.300291 7.914520 825.373811 1267.003108 12.739584 0.000000 0.111784
539.000000 63.678000 7.000000 -2.000000 -1.000000 67.773365 8.295552 818.070973 1385.461740 15.709591 0.000000 0.080761
540.000000 53.050000 8.000000 -2.000000 -1.000000 63.538853 8.570991 812.783155 1482.759966 18.858445 0.000000 0.054037
541.000000 83.017000 5.000000 -1.000000 -1.000000 61.259225 2.977866 919.010726 1532.047944 12.051507 0.000000 0.026924
542.000000 64.800000 6.000000 -1.000000 -1.000000 56.617033 4.300723 894.059376 1652.229027 15.440425 0.000000 0.026533
543.000000 52.666000 7.000000 -1.000000 -1.000000 53.254435 5.218972 876.690201 1747.922538 18.998870 0.000000 0.064204
546.000000 46.115000 5.000000 -6.000000 0.000000 119.923855 42.671033 -17.168762 98.447274 10.835249 0.000000 0.165598
548.000000 50.888000 9.000000 -11.000000 0.000000 120.684337 43.379295 -42.064411 62.300561 19.637895 0.000000 0.183693
549.000000 47.468000 10.000000 -11.000000 0.000000 116.194617 39.503526 87.660230 254.780668 21.054280 0.000000 0.091579
551.000000 56.747000 4.000000 -5.000000 0.000000 121.601929 44.266191 -74.072404 16.288022 8.804950 0.000000 0.207174
552.000000 52.583000 9.000000 -10.000000 0.000000 116.634799 39.853537 76.560291 237.865472 19.006084 0.000000 0.099186
553.000000 48.648000 3.000000 -3.000000 0.000000 111.921748 36.381852 182.013520 402.989824 6.163544 0.000000 0.033528
555.000000 58.928000 8.000000 -9.000000 0.000000 117.175706 40.291811 62.500504 216.574487 16.959330 0.000000 0.108924
556.000000 49.559000 10.000000 -9.000000 0.000000 107.049176 33.323056 267.386659 545.988109 20.169386 0.000000 0.039725
557.000000 45.471000 11.000000 -9.000000 0.000000 102.578434 30.877692 331.420177 661.185463 21.984237 0.000000 0.072345
558.000000 67.006000 7.000000 -8.000000 0.000000 117.856170 40.856474 44.114857 188.948352 14.914578 0.000000 0.121799
559.000000 55.154000 9.000000 -8.000000 0.000000 106.468364 32.987743 276.373630 561.682534 18.123573 0.000000 0.044153
560.000000 50.077000 5.000000 -4.000000 0.000000 101.522695 30.342084 345.003448 686.756365 9.981331 0.000000 0.079058
561.000000 45.567000 11.000000 -8.000000 0.000000 97.064907 28.230239 397.164523 789.601616 21.940695 0.000000 0.102342
563.000000 77.634000 6.000000 -7.000000 0.000000 118.737734 41.611229 19.043938 151.644864 12.872715 0.000000 0.139572
564.000000 62.163000 8.000000 -7.000000 0.000000 105.730881 32.569985 287.475268 581.267856 16.080162 0.000000 0.049795
565.000000 55.694000 9.000000 -7.000000 0.000000 100.200766 29.691525 361.303561 718.058027 17.949886 0.000000 0.086811
566.000000 50.053000 10.000000 -7.000000 0.000000 95.294320 27.451463 415.874982 828.607612 19.974597 0.000000 0.109397
567.000000 71.196000 7.000000 -6.000000 0.000000 104.763754 32.035179 301.537478 606.408301 14.040308 0.000000 0.057058
568.000000 62.679000 4.000000 -3.000000 0.000000 98.498844 28.884797 381.226196 757.317505 7.974989 0.000000 0.095732
569.000000 55.440000 3.000000 -2.000000 0.000000 93.055570 26.509796 438.149687 876.796534 6.011590 0.000000 0.116643
570.000000 49.315000 5.000000 -3.000000 0.000000 88.328506 24.661146 480.843934 975.559885 10.138171 0.000000 0.126176
571.000000 83.261000 6.000000 -5.000000 0.000000 103.440661 31.326269 319.926750 639.887168 12.006047 0.000000 0.066528
572.000000 71.566000 7.000000 -5.000000 0.000000 96.228590 27.858472 406.129918 808.135177 13.969973 0.000000 0.105824
573.000000 61.971000 8.000000 -5.000000 0.000000 90.140351 25.348875 465.114312 938.082622 16.134972 0.000000 0.123413
574.000000 54.123000 9.000000 -5.000000 0.000000 84.990984 23.455224 508.013727 1043.830989 18.476452 0.000000 0.128512
575.000000 47.683000 4.000000 -2.000000 0.000000 80.610288 21.978518 540.618225 1132.929428 8.389471 0.000000 0.126450
576.000000 69.926000 7.000000 -4.000000 0.000000 86.200064 23.883432 498.424324 1019.180716 14.300583 0.000000 0.128068
577.000000 51.476000 9.000000 -4.000000 0.000000 76.001331 20.536616 571.805898 1227.533462 19.430115 0.000000 0.118450
578.000000 65.540000 7.000000 -3.000000 0.000000 74.643525 20.131118 580.469273 1255.814180 15.261094 0.000000 0.115044
579.000000 55.177000 8.000000 -3.000000 0.000000 69.931141 18.783993 608.935052 1356.325120 18.128846 0.000000 0.100111
580.000000 47.285000 3.000000 -1.000000 0.000000 66.133305 17.759207 630.284793 1441.027593 7.052068 0.000000 0.085921
581.000000 89.987000 5.000000 -2.000000 0.000000 72.154797 19.408526 595.796923 1308.373870 11.115493 0.000000 0.107700
582.000000 57.843000 7.000000 -2.000000 0.000000 61.660701 16.612733 653.882282 1546.762471 17.295767 0.000000 0.071791
583.000000 48.456000 4.000000 -1.000000 0.000000 58.221098 15.770179 671.044360 1633.861789 10.323770 0.000000 0.070319
584.000000 72.209000 5.000000 -1.000000 0.000000 53.296392 14.615464 694.336112 1770.181865 13.856490 0.000000 0.094179
585.000000 56.969000 6.000000 -1.000000 0.000000 49.951200 13.861701 709.407467 1872.818891 17.564235 0.000000 0.126377
586.000000 46.770000 7.000000 -1.000000 0.000000 47.535603 13.331118 719.957519 1953.289700 21.395049 0.000000 0.155770
590.000000 48.789000 9.000000 -11.000000 1.000000 114.502880 48.001162 -220.394669 207.851708 20.484343 0.000000 0.241213
591.000000 45.545000 10.000000 -11.000000 1.000000 110.607534 44.006908 -64.616115 378.315895 21.944854 0.000000 0.139135
593.000000 50.216000 9.000000 -10.000000 1.000000 110.417144 44.783750 -93.200341 376.540285 19.903692 0.000000 0.152855
594.000000 46.508000 10.000000 -10.000000 1.000000 106.332564 41.100901 36.058845 522.456664 21.492062 0.000000 0.081619
596.000000 55.945000 8.000000 -9.000000 1.000000 110.169169 45.735273 -129.278952 374.587147 17.865666 0.000000 0.170536
597.000000 51.388000 9.000000 -9.000000 1.000000 105.697945 41.580718 20.068770 536.611863 19.451448 0.000000 0.087595
598.000000 47.185000 10.000000 -9.000000 1.000000 101.482594 38.225394 127.267235 662.691872 21.185691 0.000000 0.059068
600.000000 63.131000 7.000000 -8.000000 1.000000 109.835300 46.927098 -176.244004 372.508451 15.832028 0.000000 0.194149
601.000000 57.400000 8.000000 -8.000000 1.000000 104.901930 42.168780 0.144046 554.559106 17.414417 0.000000 0.095241
602.000000 52.164000 9.000000 -8.000000 1.000000 100.272550 38.411732 121.580778 692.057182 19.164027 0.000000 0.063497
603.000000 47.458000 10.000000 -8.000000 1.000000 96.006285 35.394098 210.284325 802.084164 21.066041 0.000000 0.075774
604.000000 72.402000 6.000000 -7.000000 1.000000 109.366536 48.461848 -239.898330 370.488780 13.804800 0.000000 0.227199
605.000000 64.983000 7.000000 -7.000000 1.000000 103.874578 42.906198 -25.371363 578.050762 15.382560 0.000000 0.105359
606.000000 58.286000 8.000000 -7.000000 1.000000 98.746826 38.639953 114.576102 728.991761 17.151746 0.000000 0.069211
607.000000 52.364000 9.000000 -7.000000 1.000000 94.071643 35.295222 213.075913 847.131259 19.093054 0.000000 0.082292
608.000000 47.187000 10.000000 -7.000000 1.000000 89.858732 32.619451 286.166168 944.150661 21.189694 0.000000 0.099538
610.000000 74.830000 6.000000 -6.000000 1.000000 102.499183 43.857775 -59.214487 610.109412 13.358573 0.000000 0.119353
611.000000 65.974000 7.000000 -6.000000 1.000000 96.764305 38.925954 105.734733 776.903462 15.153538 0.000000 0.076796
612.000000 58.313000 8.000000 -6.000000 1.000000 91.607287 35.174352 216.479212 904.052957 17.146175 0.000000 0.089957
613.000000 51.772000 9.000000 -6.000000 1.000000 87.036738 32.247783 295.967111 1006.875624 19.314228 0.000000 0.105665
614.000000 46.214000 10.000000 -6.000000 1.000000 83.007458 29.912343 355.794763 1093.297794 21.638661 0.000000 0.114435
616.000000 88.095000 5.000000 -5.000000 1.000000 100.565972 45.131800 -106.257396 656.425033 11.347416 0.000000 0.139908
617.000000 75.868000 6.000000 -5.000000 1.000000 94.085930 39.294838 94.225273 841.653390 13.177844 0.000000 0.087257
618.000000 65.609000 7.000000 -5.000000 1.000000 88.364796 35.023234 220.720025 978.519499 15.240336 0.000000 0.098988
619.000000 57.130000 8.000000 -5.000000 1.000000 83.406222 31.794810 307.804232 1087.378558 17.504001 0.000000 0.111594
620.000000 50.147000 9.000000 -5.000000 1.000000 79.130752 29.283735 371.413505 1177.941813 19.943203 0.000000 0.116547
622.000000 106.812000 4.000000 -4.000000 1.000000 97.658358 46.923357 -176.093357 729.097654 9.359333 0.000000 0.172839
623.000000 88.942000 5.000000 -4.000000 1.000000 90.273291 39.788688 78.625368 934.318958 11.241542 0.000000 0.102525
624.000000 74.600000 6.000000 -4.000000 1.000000 83.915477 34.828889 226.150884 1080.766163 13.404535 0.000000 0.109678
625.000000 63.286000 7.000000 -4.000000 1.000000 78.574443 31.230658 322.385621 1195.381893 15.802612 0.000000 0.116672
626.000000 54.359000 8.000000 -4.000000 1.000000 74.105914 28.520672 390.116986 1289.798903 18.399482 0.000000 0.116313
627.000000 47.258000 9.000000 -4.000000 1.000000 70.351473 26.414858 440.374963 1370.075660 21.165958 0.000000 0.111699
628.000000 134.750000 3.000000 -3.000000 1.000000 92.824695 49.621065 -290.583905 859.028230 7.419415 0.000000 0.233300
629.000000 106.559000 4.000000 -3.000000 1.000000 84.431775 40.483826 56.283181 1078.957484 9.383996 0.000000 0.127015
630.000000 85.453000 5.000000 -3.000000 1.000000 77.457192 34.569685 233.354464 1231.796500 11.703513 0.000000 0.122984
631.000000 69.927000 6.000000 -3.000000 1.000000 71.859416 30.508832 340.790733 1350.298160 14.303643 0.000000 0.120898
632.000000 58.397000 7.000000 -3.000000 1.000000 67.370168 27.575233 412.919207 1447.175317 17.129458 0.000000 0.114852
633.000000 49.672000 8.000000 -3.000000 1.000000 63.732865 25.367373 464.688788 1528.850744 20.139489 0.000000 0.108638
635.000000 129.494000 3.000000 -2.000000 1.000000 74.440768 41.534398 21.622718 1341.345042 7.723225 0.000000 0.174635
636.000000 96.950000 4.000000 -2.000000 1.000000 67.323900 34.206669 243.368023 1484.758136 10.317338 0.000000 0.146395
637.000000 75.494000 5.000000 -2.000000 1.000000 61.989407 29.552856 364.750598 1599.156563 13.251067 0.000000 0.134785
638.000000 60.878000 6.000000 -2.000000 1.000000 57.962270 26.373924 441.333277 1692.778837 16.433611 0.000000 0.130601
639.000000 50.521000 7.000000 -2.000000 1.000000 54.855374 24.077642 494.054252 1770.891317 19.803886 0.000000 0.133547
641.000000 100.008000 3.000000 -1.000000 1.000000 49.575560 33.661915 258.234120 2042.483951 10.004369 0.000000 0.251533
642.000000 73.875000 4.000000 -1.000000 1.000000 46.406270 28.227665 397.226802 2104.029705 13.544249 0.000000 0.241949
643.000000 57.819000 5.000000 -1.000000 1.000000 44.169531 24.798273 477.721597 2161.497892 17.306147 0.000000 0.249461
644.000000 47.183000 6.000000 -1.000000 1.000000 42.535041 22.452550 530.228221 2210.349483 21.207978 0.000000 0.261546
647.000000 47.460000 9.000000 -10.000000 2.000000 104.031614 48.882165 -258.004291 531.971466 21.061307 0.000000 0.220533
649.000000 52.434000 8.000000 -9.000000 2.000000 102.981098 50.154769 -314.736848 553.764232 19.063945 0.000000 0.249683
650.000000 48.296000 9.000000 -9.000000 2.000000 99.274197 45.945163 -137.402768 688.245037 20.698949 0.000000 0.154233
652.000000 48.712000 9.000000 -8.000000 2.000000 93.848901 43.014084 -29.155404 841.968991 20.524070 0.000000 0.118396
654.000000 59.645000 7.000000 -7.000000 2.000000 95.582480 48.121343 -225.448889 783.411089 16.761163 0.000000 0.197900
655.000000 53.775000 8.000000 -7.000000 2.000000 91.503161 43.692909 -53.274345 901.938972 18.592417 0.000000 0.132740
656.000000 48.544000 9.000000 -7.000000 2.000000 87.693986 40.104125 68.543609 997.664937 20.597415 0.000000 0.113142
658.000000 59.860000 7.000000 -6.000000 2.000000 88.473591 44.525495 -83.613262 981.228155 16.703422 0.000000 0.152344
659.000000 47.600000 9.000000 -6.000000 2.000000 80.759004 37.229835 157.164490 1160.930587 21.009152 0.000000 0.122768
661.000000 77.058000 5.000000 -5.000000 2.000000 88.999611 51.549832 -380.505546 971.223653 12.975023 0.000000 0.286665
662.000000 67.181000 6.000000 -5.000000 2.000000 84.420218 45.570247 -122.934416 1091.204283 14.883967 0.000000 0.180608
663.000000 58.726000 7.000000 -5.000000 2.000000 80.182912 40.949608 41.052319 1187.580523 17.028534 0.000000 0.146111
664.000000 51.616000 8.000000 -5.000000 2.000000 76.380592 37.315708 154.617081 1268.884480 19.375919 0.000000 0.136226
665.000000 45.672000 9.000000 -5.000000 2.000000 73.014500 34.404695 237.916366 1339.462542 21.899136 0.000000 0.132088
666.000000 75.819000 5.000000 -4.000000 2.000000 78.743755 46.919049 -175.919862 1254.617092 13.189530 0.000000 0.224568
667.000000 55.749000 7.000000 -4.000000 2.000000 70.632695 37.420930 151.487715 1417.374130 17.941054 0.000000 0.156095
669.000000 85.075000 4.000000 -3.000000 2.000000 70.299402 48.724799 -251.190034 1525.198242 11.755983 0.000000 0.301335
670.000000 70.544000 5.000000 -3.000000 2.000000 66.305716 42.290300 -4.019412 1579.506614 14.178908 0.000000 0.223280
671.000000 59.233000 6.000000 -3.000000 2.000000 62.802478 37.552872 147.551252 1638.637981 16.887811 0.000000 0.191778
672.000000 50.466000 7.000000 -3.000000 2.000000 59.818573 33.964585 249.997871 1695.719121 19.822840 0.000000 0.176088
674.000000 59.816000 5.000000 -2.000000 2.000000 51.642724 37.723189 142.449229 2017.839740 16.725590 0.000000 0.273701
682.000000 49.055000 8.000000 -8.000000 3.000000 90.427896 50.848628 -346.956318 928.268790 20.381331 0.000000 0.266134
684.000000 53.868000 7.000000 -7.000000 3.000000 87.378000 52.320625 -418.598592 1021.636403 18.561023 0.000000 0.310891
685.000000 48.912000 8.000000 -7.000000 3.000000 84.264363 47.903243 -216.294028 1102.257587 20.443209 0.000000 0.219472
687.000000 53.340000 7.000000 -6.000000 3.000000 80.268336 49.084304 -266.820510 1222.834034 18.747300 0.000000 0.257780
688.000000 47.920000 8.000000 -6.000000 3.000000 77.259360 44.953479 -99.547900 1284.877844 20.868956 0.000000 0.201635
690.000000 58.109000 6.000000 -5.000000 3.000000 75.002334 50.529680 -332.028214 1394.602285 17.210107 0.000000 0.313831
691.000000 51.517000 7.000000 -5.000000 3.000000 72.093839 45.835120 -133.135888 1440.136865 19.413371 0.000000 0.239992
692.000000 45.831000 8.000000 -5.000000 3.000000 69.365114 42.014914 5.392869 1486.513513 21.823529 0.000000 0.203585
695.000000 54.728000 6.000000 -4.000000 3.000000 65.241975 46.916639 -175.822859 1667.671197 18.276166 0.000000 0.299142
696.000000 48.019000 7.000000 -4.000000 3.000000 62.803450 42.593885 -14.491341 1692.264949 20.831045 0.000000 0.248371
#UB matrix in q= (UB) B0 G* 
#[[-0.281631737  0.896787203  0.337955902]
# [ 0.171233106 -0.299828082  0.938268801]
# [ 0.944120113  0.322645992 -0.069188848]]
#B0 matrix in q= UB (B0) G*
#[[ 0.19670273 -0.          0.03056101]
# [ 0.          0.19187965 -0.        ]
# [ 0.          0.          0.18806537]]
#UBB0 matrix in q= (UB B0) G* i.e. recip. basis vectors are columns in LT frame: astar = UBB0[:,0], bstar = UBB0[:,1], cstar = UBB0[:,2]. (abcstar as columns on xyzlab1, xlab1 = ui, ui = unit vector along incident beam)
#[[-0.05539773  0.17207522  0.05495085]
# [ 0.03368202 -0.05753091  0.18168893]
# [ 0.18571101  0.0619092   0.01584123]]
#Euler angles phi theta psi (deg)
#[108.846  93.967  19.842]
#deviatoric strain in direct crystal frame (10-3 unit)
#[[ 1.06 -0.4  -0.24]
# [-0.4   1.91  0.42]
# [-0.24  0.42 -2.97]]
#deviatoric strain in sample2 frame (10-3 unit)
#[[ 1.4  -0.82 -0.44]
# [-0.83 -2.69  0.95]
# [-0.44  0.95  1.29]]
#new lattice parameters
#[ 5.1505     5.2160563  5.3188489 89.967392  99.2419625 90.0455571]
#CCDLabel
#sCMOS
#DetectorParameters
#[79.0, 975.0, 941.0, 0.0, 0.0]
#pixelsize
#0.0734
#Frame dimensions
#[2018, 2016]
#
