#Strain and Orientation Refinement from experimental file: /home/micha/LaueProjects/DepthEffects/testZrO2_198.cor
#File created at Wed Jun 28 14:30:07 2023 with indexingSpotsSet.py
#Number of indexed spots: 533
#Element
#ZrO2
#grainIndex
#G_0
#Mean Deviation(pixel): 0.114
##spot_index intensity h k l 2theta Chi Xexp Yexp Energy GrainIndex PixDev
54.000000 182.062000 3.000000 1.000000 1.000000 99.506573 28.534497 389.780563 735.842650 5.494226 0.000000 0.093501
55.000000 140.588000 4.000000 1.000000 1.000000 97.147280 36.300862 184.358331 773.537155 7.115192 0.000000 0.078310
56.000000 113.464000 5.000000 1.000000 1.000000 95.096035 41.084313 36.607474 813.660060 8.816248 0.000000 0.110472
57.000000 94.702000 6.000000 1.000000 1.000000 93.447444 44.285200 -74.768966 850.427959 10.563090 0.000000 0.153367
58.000000 81.076000 7.000000 1.000000 1.000000 92.130376 46.564337 -161.731159 882.767268 12.338560 0.000000 0.193704
59.000000 70.782000 8.000000 1.000000 1.000000 91.066544 48.264816 -231.513749 910.900029 14.133119 0.000000 0.229383
60.000000 62.755000 9.000000 1.000000 1.000000 90.194493 49.580054 -288.749901 935.365171 15.941043 0.000000 0.260553
61.000000 56.333000 10.000000 1.000000 1.000000 89.469064 50.626624 -336.544173 956.722432 17.758689 0.000000 0.287786
62.000000 51.084000 11.000000 1.000000 1.000000 88.857378 51.478691 -377.054892 975.468007 19.583627 0.000000 0.311682
63.000000 46.717000 12.000000 1.000000 1.000000 88.335303 52.185575 -411.829128 992.018796 21.414175 0.000000 0.332767
64.000000 186.775000 3.000000 2.000000 1.000000 121.495784 12.743394 731.589907 264.901109 5.353660 0.000000 0.086150
65.000000 149.119000 4.000000 2.000000 1.000000 116.988348 25.766614 455.472509 332.360710 6.705998 0.000000 0.044547
66.000000 121.931000 5.000000 2.000000 1.000000 112.557998 33.573127 260.639215 404.390562 8.201736 0.000000 0.021838
67.000000 102.178000 6.000000 2.000000 1.000000 108.830731 38.600104 115.802376 471.344629 9.787762 0.000000 0.062571
68.000000 87.468000 7.000000 2.000000 1.000000 105.791161 42.058580 3.905894 531.036990 11.434312 0.000000 0.105656
69.000000 76.213000 8.000000 2.000000 1.000000 103.311166 44.566785 -85.140312 583.567555 13.123409 0.000000 0.144580
70.000000 67.383000 9.000000 2.000000 1.000000 101.267870 46.462380 -157.687137 629.693845 14.843554 0.000000 0.179161
71.000000 60.302000 10.000000 2.000000 1.000000 99.563837 47.942389 -217.931513 670.289499 16.587049 0.000000 0.209810
72.000000 54.514000 11.000000 2.000000 1.000000 98.125389 49.128512 -268.758206 706.167643 18.348547 0.000000 0.237029
73.000000 49.705000 12.000000 2.000000 1.000000 96.897289 50.099604 -312.215446 738.032891 20.124218 0.000000 0.261290
74.000000 45.652000 13.000000 2.000000 1.000000 95.837906 50.908846 -349.797658 766.478722 21.911245 0.000000 0.283007
75.000000 197.727000 2.000000 3.000000 1.000000 129.938819 -33.929916 1699.055749 -145.101783 5.056410 0.000000 0.110361
76.000000 171.352000 3.000000 3.000000 1.000000 134.172036 -7.878557 1123.937635 -114.592783 5.834457 0.000000 0.033819
77.000000 144.610000 4.000000 3.000000 1.000000 131.538495 11.330674 759.335909 -31.468414 6.913617 0.000000 0.037658
78.000000 122.175000 5.000000 3.000000 1.000000 126.895396 23.476165 507.546223 60.116236 8.183669 0.000000 0.021406
79.000000 104.348000 6.000000 3.000000 1.000000 122.249769 31.197960 323.225385 147.103847 9.582338 0.000000 0.030335
80.000000 90.315000 7.000000 3.000000 1.000000 118.145580 36.366469 182.459239 225.948904 11.071780 0.000000 0.062123
81.000000 79.191000 8.000000 3.000000 1.000000 114.645555 40.013764 71.441178 296.257965 12.627670 0.000000 0.095591
82.000000 70.259000 9.000000 3.000000 1.000000 111.682397 42.705227 -18.357591 358.670366 14.233664 0.000000 0.127424
83.000000 62.984000 10.000000 3.000000 1.000000 109.166492 44.764693 -92.489976 414.102598 15.878370 0.000000 0.156877
84.000000 56.975000 11.000000 3.000000 1.000000 107.016053 46.387503 -154.726806 463.475067 17.553608 0.000000 0.183845
85.000000 51.946000 12.000000 3.000000 1.000000 105.163450 47.697267 -207.718630 507.619855 19.253350 0.000000 0.208444
86.000000 47.688000 13.000000 3.000000 1.000000 103.554583 48.775550 -253.382983 547.258055 20.973057 0.000000 0.230867
88.000000 133.404000 4.000000 4.000000 1.000000 140.164125 -6.743493 1102.263875 -358.152832 7.493533 0.000000 0.021499
89.000000 116.910000 5.000000 4.000000 1.000000 137.403898 10.216681 781.020590 -248.481454 8.551056 0.000000 0.022521
90.000000 102.383000 6.000000 4.000000 1.000000 133.160617 21.555175 549.838674 -144.211435 9.764806 0.000000 0.040753
91.000000 90.127000 7.000000 4.000000 1.000000 128.791760 29.117933 375.500984 -49.256682 11.093274 0.000000 0.058663
92.000000 79.934000 8.000000 4.000000 1.000000 124.770857 34.353176 239.337165 35.894510 12.508461 0.000000 0.080045
93.000000 71.469000 9.000000 4.000000 1.000000 121.212085 38.133977 130.046348 111.908944 13.990794 0.000000 0.103509
94.000000 64.404000 10.000000 4.000000 1.000000 118.103030 40.969786 40.387656 179.783335 15.526177 0.000000 0.127404
95.000000 58.464000 11.000000 4.000000 1.000000 115.393082 43.165616 -34.492791 240.537506 17.104202 0.000000 0.150730
96.000000 53.428000 12.000000 4.000000 1.000000 113.025347 44.911396 -97.970595 295.105872 18.717018 0.000000 0.172988
97.000000 49.122000 13.000000 4.000000 1.000000 110.947396 46.330180 -152.466035 344.307148 20.358588 0.000000 0.193963
100.000000 97.783000 6.000000 5.000000 1.000000 141.227235 9.316355 798.434573 -416.854593 10.223200 0.000000 0.028669
101.000000 87.717000 7.000000 5.000000 1.000000 137.443959 19.924365 584.869153 -305.900423 11.396895 0.000000 0.057766
102.000000 78.885000 8.000000 5.000000 1.000000 133.460266 27.285837 419.819989 -206.645335 12.673335 0.000000 0.078499
103.000000 71.255000 9.000000 5.000000 1.000000 129.677773 32.533457 288.441029 -118.038544 14.031095 0.000000 0.097083
104.000000 64.696000 10.000000 5.000000 1.000000 126.230751 36.403608 181.382789 -38.821682 15.454320 0.000000 0.115504
105.000000 59.056000 11.000000 5.000000 1.000000 123.141583 39.350945 92.464064 32.216647 16.931025 0.000000 0.134049
106.000000 54.190000 12.000000 5.000000 1.000000 120.389462 41.659082 17.434690 96.158619 18.451983 0.000000 0.152494
107.000000 49.972000 13.000000 5.000000 1.000000 117.939436 43.510048 -46.723911 153.941129 20.009973 0.000000 0.170555
108.000000 46.297000 14.000000 5.000000 1.000000 115.754363 45.024488 -102.214698 206.364386 21.599266 0.000000 0.188019
113.000000 69.936000 9.000000 6.000000 1.000000 136.938827 25.662992 457.870479 -336.758572 14.294452 0.000000 0.091471
114.000000 64.058000 10.000000 6.000000 1.000000 133.434842 30.883867 331.262710 -246.404081 15.606897 0.000000 0.109897
115.000000 58.872000 11.000000 6.000000 1.000000 130.167110 34.808332 226.723836 -165.464530 16.982143 0.000000 0.126328
116.000000 54.308000 12.000000 6.000000 1.000000 127.177378 37.839675 138.946224 -92.621378 18.409998 0.000000 0.141967
117.000000 50.288000 13.000000 6.000000 1.000000 124.465026 40.239198 64.197926 -26.767752 19.882360 0.000000 0.157227
118.000000 46.739000 14.000000 6.000000 1.000000 122.011794 42.179473 -0.221647 33.023818 21.392711 0.000000 0.172188
126.000000 50.138000 13.000000 7.000000 1.000000 130.468515 36.427505 180.689619 -200.200218 19.940450 0.000000 0.149044
127.000000 46.783000 14.000000 7.000000 1.000000 127.838930 38.900296 106.530807 -133.259157 21.371270 0.000000 0.162463
156.000000 108.597000 2.000000 0.000000 2.000000 46.798507 17.104095 643.804440 1998.532955 9.219804 0.000000 0.235668
157.000000 103.604000 3.000000 0.000000 2.000000 57.757705 25.890520 452.599638 1695.631073 9.662300 0.000000 0.159619
158.000000 92.267000 4.000000 0.000000 2.000000 64.081421 31.928429 304.324648 1557.290792 10.848100 0.000000 0.165499
159.000000 81.273000 5.000000 0.000000 2.000000 68.020549 36.244728 185.980659 1479.627025 12.314362 0.000000 0.180305
160.000000 71.913000 6.000000 0.000000 2.000000 70.645363 39.450386 89.335663 1430.611105 13.916465 0.000000 0.196752
161.000000 64.171000 7.000000 0.000000 2.000000 72.492471 41.911012 8.922902 1397.218041 15.594637 0.000000 0.214196
162.000000 57.778000 8.000000 0.000000 2.000000 73.850204 43.852677 -59.030285 1373.200494 17.319686 0.000000 0.232084
163.000000 52.458000 9.000000 0.000000 2.000000 74.883819 45.420554 -117.211510 1355.209436 19.075665 0.000000 0.249863
164.000000 47.985000 10.000000 0.000000 2.000000 75.693464 46.711303 -167.587253 1341.298708 20.853123 0.000000 0.267124
166.000000 162.557000 1.000000 1.000000 2.000000 59.802060 -13.010098 1223.681921 1583.868606 6.158288 0.000000 0.055129
167.000000 157.409000 2.000000 1.000000 2.000000 74.503919 3.686216 905.659186 1240.022185 6.358147 0.000000 0.106888
168.000000 135.097000 3.000000 1.000000 2.000000 81.074981 15.744161 671.572022 1116.613217 7.407152 0.000000 0.128280
169.000000 113.875000 4.000000 1.000000 2.000000 83.923040 24.165863 492.064739 1066.591230 8.786843 0.000000 0.121463
170.000000 96.864000 5.000000 1.000000 2.000000 85.145671 30.141918 350.041558 1046.698961 10.329458 0.000000 0.112338
171.000000 83.626000 6.000000 1.000000 2.000000 85.637114 34.514892 234.871489 1040.656747 11.964299 0.000000 0.111590
172.000000 73.263000 7.000000 1.000000 2.000000 85.786272 37.818081 139.596434 1041.381331 13.656403 0.000000 0.121017
173.000000 65.025000 8.000000 1.000000 2.000000 85.770942 40.385507 59.471117 1045.485621 15.386497 0.000000 0.137449
174.000000 58.361000 9.000000 1.000000 2.000000 85.676565 42.430758 -8.851783 1051.243114 17.143084 0.000000 0.157231
175.000000 52.883000 10.000000 1.000000 2.000000 85.545902 44.094492 -67.801118 1057.735520 18.918882 0.000000 0.178003
176.000000 48.311000 11.000000 1.000000 2.000000 85.400963 45.472187 -119.182067 1064.461976 20.709053 0.000000 0.198524
178.000000 176.156000 1.000000 2.000000 2.000000 81.202395 -29.678285 1588.366901 1132.723519 5.680382 0.000000 0.114233
179.000000 168.310000 2.000000 2.000000 2.000000 94.491753 -11.561403 1195.176009 854.698667 5.944007 0.000000 0.156212
180.000000 146.128000 3.000000 2.000000 2.000000 99.773438 3.430316 910.484829 755.272737 6.845589 0.000000 0.163738
181.000000 124.004000 4.000000 2.000000 2.000000 101.001565 14.590929 694.828290 724.785968 8.066631 0.000000 0.145189
182.000000 105.623000 5.000000 2.000000 2.000000 100.551483 22.653090 525.811398 723.760969 9.470400 0.000000 0.118384
183.000000 79.498000 7.000000 2.000000 2.000000 98.313678 32.929121 277.937766 753.619348 12.582728 0.000000 0.078368
184.000000 62.847000 9.000000 2.000000 2.000000 96.069382 38.952629 104.906463 793.840450 15.916874 0.000000 0.091152
185.000000 51.642000 11.000000 2.000000 2.000000 94.225014 42.830751 -22.732965 832.581233 19.370531 0.000000 0.131884
187.000000 158.277000 1.000000 3.000000 2.000000 92.192519 -43.657306 2001.995863 884.044432 6.320462 0.000000 0.128171
188.000000 156.243000 2.000000 3.000000 2.000000 105.940344 -26.728162 1516.982636 596.813848 6.401470 0.000000 0.087759
189.000000 141.541000 3.000000 3.000000 2.000000 112.390215 -10.382221 1172.191767 490.218087 7.065769 0.000000 0.131473
190.000000 123.969000 4.000000 3.000000 2.000000 114.054815 3.217619 914.493789 459.810000 8.067061 0.000000 0.134891
191.000000 107.759000 5.000000 3.000000 2.000000 113.314431 13.601356 714.590055 463.769328 9.280606 0.000000 0.118403
192.000000 94.025000 6.000000 3.000000 2.000000 111.601289 21.317181 554.998543 483.538444 10.636467 0.000000 0.094052
193.000000 82.706000 7.000000 3.000000 2.000000 109.610780 27.082708 424.642208 510.293829 12.092391 0.000000 0.068928
194.000000 73.424000 8.000000 3.000000 2.000000 107.642869 31.472289 316.161828 539.651545 13.621346 0.000000 0.049872
195.000000 65.777000 9.000000 3.000000 2.000000 105.812861 34.888889 224.476972 569.385532 15.205231 0.000000 0.046322
196.000000 59.423000 10.000000 3.000000 2.000000 104.154835 37.605830 145.967334 598.368947 16.831473 0.000000 0.059476
197.000000 54.091000 11.000000 3.000000 2.000000 102.668759 39.808862 77.983348 626.053778 18.491061 0.000000 0.079870
198.000000 49.571000 12.000000 3.000000 2.000000 101.341419 41.626185 18.541259 652.203197 20.177373 0.000000 0.101887
199.000000 45.703000 13.000000 3.000000 2.000000 100.155581 43.148076 -33.873654 676.748909 21.885430 0.000000 0.123613
201.000000 137.589000 2.000000 4.000000 2.000000 111.309717 -39.958798 1876.800016 393.268294 7.268494 0.000000 0.069296
202.000000 129.682000 3.000000 4.000000 2.000000 119.493724 -24.262528 1460.118350 273.235452 7.710839 0.000000 0.047718
203.000000 117.647000 4.000000 4.000000 2.000000 122.810807 -9.404516 1153.266516 237.634581 8.499287 0.000000 0.090180
204.000000 105.022000 5.000000 4.000000 2.000000 122.973902 3.038042 917.877211 241.760371 9.520981 0.000000 0.096954
205.000000 83.231000 7.000000 4.000000 2.000000 119.332983 20.130063 580.491756 296.848073 12.014207 0.000000 0.066939
206.000000 67.205000 9.000000 4.000000 2.000000 114.697360 30.130956 350.316869 368.689641 14.880032 0.000000 0.024150
207.000000 55.648000 11.000000 4.000000 2.000000 110.602005 36.338941 183.256471 438.725047 17.971380 0.000000 0.040412
208.000000 47.154000 13.000000 4.000000 2.000000 107.232551 40.477725 56.481274 502.118497 21.209582 0.000000 0.084557
210.000000 116.098000 3.000000 5.000000 2.000000 122.638075 -36.739938 1778.412674 80.802255 8.612459 0.000000 0.086939
211.000000 108.552000 4.000000 5.000000 2.000000 127.790196 -22.178333 1413.752840 39.755494 9.210635 0.000000 0.030592
212.000000 99.442000 5.000000 5.000000 2.000000 129.521424 -8.581163 1137.412273 43.043153 10.054198 0.000000 0.056368
213.000000 90.253000 6.000000 5.000000 2.000000 129.005700 2.884409 920.770909 68.150949 11.077977 0.000000 0.064426
214.000000 81.700000 7.000000 5.000000 2.000000 127.268766 11.992745 746.369036 103.736145 12.238002 0.000000 0.058334
215.000000 74.045000 8.000000 5.000000 2.000000 124.992178 19.069056 602.950558 143.846173 13.503532 0.000000 0.044268
216.000000 67.322000 9.000000 5.000000 2.000000 122.561254 24.569252 482.932511 185.283105 14.852426 0.000000 0.025973
217.000000 61.465000 10.000000 5.000000 2.000000 120.172166 28.893221 381.019786 226.319314 16.268335 0.000000 0.005995
218.000000 56.371000 11.000000 5.000000 2.000000 117.915214 32.345321 293.402813 266.037646 17.738920 0.000000 0.015962
219.000000 51.935000 12.000000 5.000000 2.000000 115.825155 35.146189 217.270743 303.977820 19.254699 0.000000 0.037055
220.000000 48.059000 13.000000 5.000000 2.000000 113.908840 37.453936 150.504299 339.940410 20.808261 0.000000 0.057801
222.000000 92.606000 5.000000 6.000000 2.000000 133.318646 -20.397849 1375.224267 -141.807275 10.795764 0.000000 0.040905
223.000000 78.785000 7.000000 6.000000 2.000000 133.334762 2.751479 923.274032 -75.654070 12.689659 0.000000 0.039576
224.000000 66.393000 9.000000 6.000000 2.000000 129.290406 18.115703 622.886289 14.434943 15.058865 0.000000 0.030065
225.000000 56.364000 11.000000 6.000000 2.000000 124.520463 27.748558 408.768773 104.521806 17.739400 0.000000 0.020110
226.000000 48.458000 13.000000 6.000000 2.000000 120.120769 34.022200 248.423419 187.607596 20.634936 0.000000 0.045530
229.000000 80.450000 6.000000 7.000000 2.000000 137.239357 -18.861997 1342.700511 -288.942701 12.426449 0.000000 0.053699
230.000000 75.067000 7.000000 7.000000 2.000000 137.573330 -7.272123 1112.344259 -246.140510 13.317481 0.000000 0.022999
231.000000 69.745000 8.000000 7.000000 2.000000 136.584335 2.635333 925.460658 -197.730451 14.333829 0.000000 0.021849
232.000000 64.696000 9.000000 7.000000 2.000000 134.814925 10.742526 770.804605 -147.438610 15.452689 0.000000 0.025523
233.000000 60.022000 10.000000 7.000000 2.000000 132.654619 17.254867 640.701507 -97.328798 16.656475 0.000000 0.027317
234.000000 55.756000 11.000000 7.000000 2.000000 130.349855 22.475002 529.734376 -48.533852 17.931405 0.000000 0.030002
235.000000 51.894000 12.000000 7.000000 2.000000 128.044141 26.687669 433.970560 -1.651912 19.266527 0.000000 0.036039
236.000000 48.412000 13.000000 7.000000 2.000000 125.815434 30.124224 350.485923 43.030944 20.653028 0.000000 0.045546
238.000000 70.978000 7.000000 8.000000 2.000000 140.152599 -17.525416 1314.879249 -411.411811 14.084310 0.000000 0.062406
239.000000 62.485000 9.000000 8.000000 2.000000 139.109651 2.532981 927.387245 -303.146690 15.998869 0.000000 0.010412
240.000000 54.681000 11.000000 8.000000 2.000000 135.353423 16.474041 656.717458 -195.302009 18.282788 0.000000 0.032346
241.000000 47.989000 13.000000 8.000000 2.000000 130.949515 25.702337 456.960485 -95.496257 20.833386 0.000000 0.049292
245.000000 59.965000 9.000000 9.000000 2.000000 142.200885 -6.278670 1093.418445 -454.967847 16.670596 0.000000 0.023191
246.000000 56.548000 10.000000 9.000000 2.000000 141.126732 2.442104 929.097575 -395.353970 17.678113 0.000000 0.005819
247.000000 53.264000 11.000000 9.000000 2.000000 139.498759 9.743812 790.178482 -337.567590 18.768218 0.000000 0.025049
248.000000 50.162000 12.000000 9.000000 2.000000 137.563038 15.762820 671.193616 -282.164397 19.929483 0.000000 0.039025
249.000000 47.263000 13.000000 9.000000 2.000000 135.487950 20.707582 568.139516 -229.395091 21.152493 0.000000 0.050166
253.000000 46.300000 13.000000 10.000000 2.000000 139.403335 15.112487 684.341854 -359.871593 21.591167 0.000000 0.044924
264.000000 48.814000 6.000000 -1.000000 3.000000 50.300666 36.219595 186.706279 2048.562961 20.508453 0.000000 0.334992
265.000000 46.617000 7.000000 -1.000000 3.000000 54.513390 38.629329 114.903171 1923.248841 21.473199 0.000000 0.313818
266.000000 86.451000 1.000000 1.000000 3.000000 41.558602 -13.569127 1234.769184 2189.884452 11.582302 0.000000 0.291688
267.000000 99.396000 2.000000 1.000000 3.000000 56.512887 -1.433044 1001.925175 1653.258335 10.072276 0.000000 0.045798
268.000000 96.935000 3.000000 1.000000 3.000000 65.924734 8.429369 815.502924 1427.143862 10.326288 0.000000 0.059481
269.000000 88.989000 4.000000 1.000000 3.000000 71.684374 16.171980 662.878305 1311.954629 11.246939 0.000000 0.097512
270.000000 80.121000 5.000000 1.000000 3.000000 75.253423 22.206767 535.624153 1246.992577 12.490742 0.000000 0.111484
271.000000 71.913000 6.000000 1.000000 3.000000 77.526676 26.945062 427.899978 1208.076457 13.915599 0.000000 0.116230
272.000000 64.759000 7.000000 1.000000 3.000000 79.019379 30.716252 335.530230 1183.911308 15.452074 0.000000 0.119107
273.000000 58.646000 8.000000 1.000000 3.000000 80.028036 33.764449 255.450496 1168.631450 17.062211 0.000000 0.123536
274.000000 53.441000 9.000000 1.000000 3.000000 80.727036 36.266180 185.360951 1158.950366 18.723512 0.000000 0.130648
275.000000 48.996000 10.000000 1.000000 3.000000 81.221980 38.348886 123.501900 1152.918350 20.421795 0.000000 0.140308
277.000000 110.573000 1.000000 2.000000 3.000000 61.024384 -25.298780 1483.733926 1600.226330 9.052899 0.000000 0.115849
278.000000 116.242000 2.000000 2.000000 3.000000 74.202282 -12.491863 1213.448335 1252.897931 8.609867 0.000000 0.105748
279.000000 109.917000 3.000000 2.000000 3.000000 82.173609 -1.271140 998.882133 1088.975478 9.103979 0.000000 0.140756
280.000000 99.461000 4.000000 2.000000 3.000000 86.595023 7.964561 824.415502 1005.661217 10.060172 0.000000 0.149828
281.000000 88.715000 5.000000 2.000000 3.000000 88.897944 15.339181 679.767968 962.469344 11.278065 0.000000 0.143865
282.000000 79.037000 6.000000 2.000000 3.000000 90.005533 21.183173 557.896576 940.888536 12.658504 0.000000 0.131464
283.000000 70.721000 7.000000 2.000000 3.000000 90.451883 25.838157 453.814459 931.568368 14.146809 0.000000 0.117920
284.000000 63.681000 8.000000 2.000000 3.000000 90.535195 29.587449 363.891565 929.438551 15.710353 0.000000 0.106755
285.000000 57.734000 9.000000 2.000000 3.000000 90.421265 32.647523 285.422597 931.601529 17.328462 0.000000 0.100357
286.000000 52.690000 10.000000 2.000000 3.000000 90.203001 35.178942 216.350171 936.334507 18.987401 0.000000 0.099854
287.000000 48.382000 11.000000 2.000000 3.000000 89.933006 37.300057 155.081801 942.582039 20.677688 0.000000 0.104903
289.000000 113.889000 1.000000 3.000000 3.000000 74.362901 -35.930802 1754.989284 1313.049321 8.786851 0.000000 0.136676
290.000000 117.809000 2.000000 3.000000 3.000000 86.782425 -23.440052 1441.647650 1006.947576 8.493040 0.000000 0.126429
291.000000 102.610000 4.000000 3.000000 3.000000 98.631778 -1.130137 996.232245 777.583358 9.749166 0.000000 0.165344
292.000000 92.289000 5.000000 3.000000 3.000000 100.480824 7.553645 832.277858 740.150282 10.838949 0.000000 0.159341
293.000000 74.201000 7.000000 3.000000 3.000000 100.802921 20.249861 577.937053 722.099245 13.480865 0.000000 0.127523
294.000000 66.913000 8.000000 3.000000 3.000000 100.238809 24.816208 477.312716 726.813106 14.949038 0.000000 0.109473
295.000000 55.367000 10.000000 3.000000 3.000000 98.713694 31.596826 312.941537 747.330163 18.066690 0.000000 0.081889
296.000000 50.802000 11.000000 3.000000 3.000000 97.917442 34.149067 244.948988 760.132697 19.690293 0.000000 0.076599
298.000000 107.260000 1.000000 4.000000 3.000000 82.863929 -45.009977 2051.669180 1131.595215 9.328119 0.000000 0.177517
299.000000 111.179000 2.000000 4.000000 3.000000 94.901991 -33.544120 1688.576131 830.246539 8.997861 0.000000 0.085651
300.000000 107.737000 3.000000 4.000000 3.000000 102.946795 -21.814300 1405.798637 674.486152 9.284174 0.000000 0.120079
301.000000 100.430000 4.000000 4.000000 3.000000 107.550324 -10.750059 1179.342000 594.525574 9.958958 0.000000 0.144219
302.000000 91.805000 5.000000 4.000000 3.000000 109.662854 -1.006235 993.903941 556.358601 10.894276 0.000000 0.149349
303.000000 83.256000 6.000000 4.000000 3.000000 110.187107 7.187797 839.265295 542.141296 12.012812 0.000000 0.142482
304.000000 75.396000 7.000000 4.000000 3.000000 109.791824 13.915192 708.341210 541.973370 13.265089 0.000000 0.128878
305.000000 68.419000 8.000000 4.000000 3.000000 108.909364 19.395826 596.065073 550.122018 14.617973 0.000000 0.111973
306.000000 62.321000 9.000000 4.000000 3.000000 107.798231 23.870376 498.717624 563.156919 16.048440 0.000000 0.094155
307.000000 57.022000 10.000000 4.000000 3.000000 106.605661 27.550642 413.507003 578.974059 17.539995 0.000000 0.077401
308.000000 52.419000 11.000000 4.000000 3.000000 105.412328 30.607283 338.296654 596.259890 19.080508 0.000000 0.063858
309.000000 48.410000 12.000000 4.000000 3.000000 104.260404 33.172747 271.423712 614.185299 20.660862 0.000000 0.056127
311.000000 97.611000 1.000000 5.000000 3.000000 88.161856 -52.497433 2377.523900 997.736744 10.249052 0.000000 0.305044
312.000000 101.644000 2.000000 5.000000 3.000000 99.809375 -42.366496 1956.638206 689.135907 9.840736 0.000000 0.095460
313.000000 100.157000 3.000000 5.000000 3.000000 108.259684 -31.415726 1632.378372 524.891376 9.985686 0.000000 0.049032
314.000000 95.211000 4.000000 5.000000 3.000000 113.618919 -20.382495 1374.895985 438.919250 10.503585 0.000000 0.094202
315.000000 88.617000 5.000000 5.000000 3.000000 116.440733 -10.036603 1165.488770 397.450677 11.284793 0.000000 0.117539
316.000000 81.575000 6.000000 5.000000 3.000000 117.438386 -0.896501 991.842030 382.118497 12.258812 0.000000 0.123458
317.000000 74.749000 7.000000 5.000000 3.000000 117.259853 6.860014 845.516155 382.439051 13.378248 0.000000 0.118654
318.000000 68.447000 8.000000 5.000000 3.000000 116.391455 13.302080 720.533562 392.198895 14.610064 0.000000 0.107505
319.000000 62.775000 9.000000 5.000000 3.000000 115.157868 18.611716 612.541928 407.605905 15.930526 0.000000 0.092845
320.000000 57.732000 10.000000 5.000000 3.000000 113.760434 22.992927 518.296984 426.293360 17.322143 0.000000 0.076636
321.000000 53.275000 11.000000 5.000000 3.000000 112.317817 26.629827 435.330986 446.760034 18.771742 0.000000 0.060497
322.000000 49.340000 12.000000 5.000000 3.000000 110.896889 29.674250 361.733507 468.043876 20.269214 0.000000 0.046349
323.000000 45.862000 13.000000 5.000000 3.000000 109.533266 32.246435 296.002512 489.525905 21.806668 0.000000 0.037331
325.000000 91.863000 2.000000 6.000000 3.000000 102.627997 -49.801020 2248.668274 567.408337 10.887802 0.000000 0.229239
326.000000 88.681000 4.000000 6.000000 3.000000 117.379837 -29.510862 1584.207397 300.483338 11.276202 0.000000 0.020017
327.000000 83.937000 5.000000 6.000000 3.000000 121.060324 -19.113390 1347.982030 254.932654 11.913008 0.000000 0.067590
328.000000 72.779000 7.000000 6.000000 3.000000 123.165661 -0.798637 990.003267 237.545336 13.739057 0.000000 0.097290
329.000000 67.330000 8.000000 6.000000 3.000000 122.604858 6.564666 851.141077 248.008892 14.851038 0.000000 0.094732
330.000000 57.631000 10.000000 6.000000 3.000000 120.091824 17.889541 627.583382 285.611508 17.350858 0.000000 0.073909
331.000000 53.455000 11.000000 6.000000 3.000000 118.556059 22.177072 536.274786 308.461550 18.706806 0.000000 0.059623
332.000000 46.349000 13.000000 6.000000 3.000000 115.447162 28.793474 383.461854 356.597119 21.575839 0.000000 0.030164
334.000000 83.564000 3.000000 7.000000 3.000000 112.856820 -47.297268 2141.257371 272.034391 11.967190 0.000000 0.204353
335.000000 81.888000 4.000000 7.000000 3.000000 119.437072 -37.764138 1808.780939 172.690167 12.211053 0.000000 0.078354
336.000000 78.633000 5.000000 7.000000 3.000000 123.907520 -27.799689 1542.458121 123.163352 12.715895 0.000000 0.021965
337.000000 74.487000 6.000000 7.000000 3.000000 126.495915 -17.981803 1324.331340 103.810004 13.423270 0.000000 0.046889
338.000000 69.963000 7.000000 7.000000 3.000000 127.570611 -8.840758 1142.403222 103.065704 14.290972 0.000000 0.066445
339.000000 65.401000 8.000000 7.000000 3.000000 127.539652 -0.710816 988.353287 113.882655 15.287761 0.000000 0.073979
340.000000 61.004000 9.000000 7.000000 3.000000 126.769261 6.297181 856.229596 131.847088 16.390017 0.000000 0.073196
341.000000 56.877000 10.000000 7.000000 3.000000 125.545365 12.232290 741.661948 154.135821 17.579553 0.000000 0.066889
342.000000 53.066000 11.000000 7.000000 3.000000 124.071138 17.222445 641.369177 178.914357 18.842135 0.000000 0.056967
343.000000 49.583000 12.000000 7.000000 3.000000 122.481961 21.416845 552.839816 204.977780 20.166465 0.000000 0.044735
344.000000 46.414000 13.000000 7.000000 3.000000 120.863871 24.956119 474.118907 231.530232 21.543460 0.000000 0.031103
346.000000 75.377000 4.000000 8.000000 3.000000 120.324037 -44.974830 2050.349049 51.084776 13.265451 0.000000 0.200272
347.000000 73.244000 5.000000 8.000000 3.000000 125.406547 -35.761089 1750.137328 -1.827504 13.650901 0.000000 0.095528
348.000000 70.211000 6.000000 8.000000 3.000000 128.769765 -26.256725 1505.926670 -22.880493 14.240049 0.000000 0.040518
349.000000 66.682000 7.000000 8.000000 3.000000 130.618931 -16.967286 1303.384341 -24.123150 14.993448 0.000000 0.035296
350.000000 62.954000 8.000000 8.000000 3.000000 131.249543 -8.334911 1132.684176 -12.945477 15.881221 0.000000 0.047557
351.000000 59.228000 9.000000 8.000000 3.000000 130.980034 -0.631569 986.864436 5.993119 16.880320 0.000000 0.054360
352.000000 55.629000 10.000000 8.000000 3.000000 130.096972 6.053804 860.854949 29.691169 17.972684 0.000000 0.054837
353.000000 52.226000 11.000000 8.000000 3.000000 128.828171 11.763008 750.875527 56.183715 19.143959 0.000000 0.050581
354.000000 49.053000 12.000000 8.000000 3.000000 127.339859 16.604522 654.050245 84.169785 20.382592 0.000000 0.043036
355.000000 46.121000 13.000000 8.000000 3.000000 125.746298 20.706986 568.152310 112.782482 21.679181 0.000000 0.033333
358.000000 63.209000 7.000000 9.000000 3.000000 132.511902 -24.860273 1473.692388 -146.418186 15.816651 0.000000 0.056134
359.000000 60.218000 8.000000 9.000000 3.000000 133.843105 -16.053114 1284.702482 -134.627883 16.602125 0.000000 0.033332
360.000000 54.033000 10.000000 9.000000 3.000000 133.752243 -0.559699 985.514211 -89.457543 18.502657 0.000000 0.038410
361.000000 51.046000 11.000000 9.000000 3.000000 132.812733 5.831423 865.077620 -61.290518 19.585696 0.000000 0.039787
362.000000 45.531000 13.000000 9.000000 3.000000 130.067684 16.030656 665.754262 -0.914131 21.958541 0.000000 0.032985
365.000000 59.729000 7.000000 10.000000 3.000000 133.476705 -32.252704 1654.162121 -265.728879 16.738139 0.000000 0.121299
366.000000 57.363000 8.000000 10.000000 3.000000 135.470228 -23.591854 1445.039184 -252.893262 17.428052 0.000000 0.067839
367.000000 54.818000 9.000000 10.000000 3.000000 136.427852 -15.225504 1267.937191 -231.475292 18.237003 0.000000 0.036938
368.000000 52.211000 10.000000 10.000000 3.000000 136.546356 -7.464821 1116.024588 -204.727108 19.147725 0.000000 0.025336
369.000000 49.624000 11.000000 10.000000 3.000000 136.031207 -0.494221 984.284111 -174.792402 20.146138 0.000000 0.025799
370.000000 47.111000 12.000000 10.000000 3.000000 135.068670 5.627439 868.948001 -143.102071 21.220644 0.000000 0.027983
374.000000 52.440000 9.000000 11.000000 3.000000 137.861350 -22.435721 1419.401700 -345.956330 19.063725 0.000000 0.076236
375.000000 50.260000 10.000000 11.000000 3.000000 138.542987 -14.473018 1252.807929 -317.301722 19.890519 0.000000 0.041791
376.000000 48.043000 11.000000 11.000000 3.000000 138.511652 -7.088036 1108.831312 -285.400503 20.808156 0.000000 0.021750
377.000000 45.847000 12.000000 11.000000 3.000000 137.936397 -0.434319 983.158789 -251.714975 21.805174 0.000000 0.016123
381.000000 46.372000 11.000000 12.000000 3.000000 140.303849 -13.786099 1239.086361 -394.039588 21.557766 0.000000 0.046043
387.000000 53.894000 5.000000 0.000000 4.000000 53.073677 21.926725 541.749207 1812.953310 18.576022 0.000000 0.175843
388.000000 49.047000 7.000000 0.000000 4.000000 61.319345 29.176718 374.053284 1615.342016 20.408585 0.000000 0.159962
390.000000 65.382000 2.000000 1.000000 4.000000 44.383629 -4.359796 1057.056680 2043.895333 15.314662 0.000000 0.231106
391.000000 69.889000 3.000000 1.000000 4.000000 54.315543 3.834697 902.857936 1715.687655 14.325305 0.000000 0.080851
392.000000 68.844000 4.000000 1.000000 4.000000 61.344996 10.705355 771.527897 1539.573692 14.541005 0.000000 0.055338
393.000000 65.290000 5.000000 1.000000 4.000000 66.292798 16.395051 658.330392 1433.653638 15.330991 0.000000 0.081941
394.000000 60.883000 6.000000 1.000000 4.000000 69.810879 21.097219 559.752629 1365.200950 16.439317 0.000000 0.100828
395.000000 56.408000 7.000000 1.000000 4.000000 72.355611 24.999195 473.134145 1318.726412 17.742457 0.000000 0.111867
396.000000 52.195000 8.000000 1.000000 4.000000 74.232449 28.260869 396.423087 1286.029535 19.173476 0.000000 0.118871
397.000000 48.361000 9.000000 1.000000 4.000000 75.643876 31.011168 328.011590 1262.406684 20.692950 0.000000 0.124420
398.000000 72.132000 1.000000 2.000000 4.000000 47.609167 -22.900970 1429.665972 2007.542106 13.879980 0.000000 0.217891
399.000000 82.232000 3.000000 2.000000 4.000000 68.546373 -4.070311 1051.589189 1365.027169 12.172210 0.000000 0.069718
400.000000 73.335000 5.000000 2.000000 4.000000 78.464632 10.251395 780.347224 1164.230084 13.646298 0.000000 0.123763
401.000000 62.000000 7.000000 2.000000 4.000000 82.792797 20.328272 576.262793 1086.145039 16.139420 0.000000 0.126274
402.000000 52.422000 9.000000 2.000000 4.000000 84.664339 27.398329 417.141863 1054.220572 19.086856 0.000000 0.116280
404.000000 81.649000 1.000000 3.000000 4.000000 60.775454 -31.376244 1631.360470 1646.257981 12.259457 0.000000 0.156328
405.000000 88.004000 2.000000 3.000000 4.000000 72.075557 -21.569200 1400.465913 1315.355212 11.372551 0.000000 0.102394
406.000000 87.676000 3.000000 3.000000 4.000000 80.198982 -12.246698 1208.621442 1131.257631 11.413730 0.000000 0.129726
407.000000 83.518000 4.000000 3.000000 4.000000 85.635588 -3.810894 1046.692931 1023.325916 11.980794 0.000000 0.150612
408.000000 77.715000 5.000000 3.000000 4.000000 89.077652 3.552083 908.188934 958.361039 12.874609 0.000000 0.157623
409.000000 71.539000 6.000000 3.000000 4.000000 91.148984 9.837331 788.369426 919.091461 13.985311 0.000000 0.155141
410.000000 65.616000 7.000000 3.000000 4.000000 92.318765 15.144703 683.692448 895.850391 15.247329 0.000000 0.147070
411.000000 60.198000 8.000000 3.000000 4.000000 92.909888 19.613736 591.458085 882.921144 16.619100 0.000000 0.136166
412.000000 55.355000 9.000000 3.000000 4.000000 93.134984 23.385363 509.572273 876.775192 18.073009 0.000000 0.124382
413.000000 51.068000 10.000000 3.000000 4.000000 93.131288 26.584935 436.385890 875.159296 19.589986 0.000000 0.113190
414.000000 47.286000 11.000000 3.000000 4.000000 92.986737 29.317376 370.582541 876.594650 21.156443 0.000000 0.103779
416.000000 83.036000 1.000000 4.000000 4.000000 70.479833 -39.016337 1847.074180 1432.092218 12.052341 0.000000 0.171254
417.000000 87.790000 3.000000 4.000000 4.000000 89.116988 -20.371904 1374.669589 958.695381 11.396724 0.000000 0.135313
418.000000 78.874000 5.000000 4.000000 4.000000 97.857576 -3.577100 1042.282829 792.174077 12.683162 0.000000 0.164806
419.000000 67.342000 7.000000 4.000000 4.000000 100.706326 9.458164 795.697902 734.704600 14.854100 0.000000 0.156351
420.000000 57.153000 9.000000 4.000000 4.000000 100.897343 18.948233 605.489563 721.918653 17.501877 0.000000 0.132081
421.000000 48.947000 11.000000 4.000000 4.000000 100.066160 25.816904 454.307215 728.754399 20.435988 0.000000 0.105195
424.000000 80.058000 1.000000 5.000000 4.000000 77.418780 -45.710428 2078.321382 1284.999778 12.498770 0.000000 0.211049
425.000000 84.426000 2.000000 5.000000 4.000000 87.694786 -37.082135 1788.467558 995.309441 11.850485 0.000000 0.103128
426.000000 84.628000 3.000000 5.000000 4.000000 95.585497 -28.135009 1550.533041 821.639726 11.820827 0.000000 0.105889
427.000000 81.950000 4.000000 5.000000 4.000000 101.161630 -19.290598 1351.714635 716.004608 12.206160 0.000000 0.132994
428.000000 77.638000 5.000000 5.000000 4.000000 104.765093 -10.942980 1183.099054 652.078587 12.883389 0.000000 0.149556
429.000000 72.617000 6.000000 5.000000 4.000000 106.843631 -3.365319 1038.289900 614.590191 13.773721 0.000000 0.155016
430.000000 67.469000 7.000000 5.000000 4.000000 107.827811 3.319281 912.577865 594.281693 14.824379 0.000000 0.152512
431.000000 62.516000 8.000000 5.000000 4.000000 108.070566 9.109689 802.418907 585.338738 15.998687 0.000000 0.144757
432.000000 57.912000 9.000000 5.000000 4.000000 107.834491 14.077901 705.094837 584.002790 17.270362 0.000000 0.133740
433.000000 53.715000 10.000000 5.000000 4.000000 107.303373 18.327045 618.486002 587.786149 18.620077 0.000000 0.120902
434.000000 49.926000 11.000000 5.000000 4.000000 106.600895 21.964925 540.915137 595.010056 20.033303 0.000000 0.107335
435.000000 46.523000 12.000000 5.000000 4.000000 105.808123 25.090799 471.037676 604.523666 21.498907 0.000000 0.093943
436.000000 75.222000 1.000000 6.000000 4.000000 82.337557 -51.474307 2326.842586 1173.477728 13.300788 0.000000 0.297454
437.000000 79.839000 3.000000 6.000000 4.000000 100.081596 -35.301765 1737.108595 706.523941 12.528607 0.000000 0.063247
438.000000 74.858000 5.000000 6.000000 4.000000 109.939134 -18.309875 1331.156107 529.733368 13.360443 0.000000 0.115946
439.000000 66.372000 7.000000 6.000000 4.000000 113.651202 -3.172586 1034.657625 468.909188 15.067716 0.000000 0.136762
440.000000 57.790000 9.000000 6.000000 4.000000 113.873921 8.788348 808.604968 458.978820 17.305071 0.000000 0.128208
441.000000 50.286000 11.000000 6.000000 4.000000 112.523265 17.746023 630.557854 472.373544 19.887697 0.000000 0.106708
443.000000 73.412000 2.000000 7.000000 4.000000 95.261486 -49.391347 2230.350321 788.723407 13.625860 0.000000 0.217596
444.000000 74.477000 3.000000 7.000000 4.000000 103.095111 -41.743373 1935.405729 605.450918 13.429585 0.000000 0.084258
445.000000 73.552000 4.000000 7.000000 4.000000 109.201438 -33.660634 1691.731144 490.657843 13.597342 0.000000 0.030771
446.000000 71.227000 5.000000 7.000000 4.000000 113.623330 -25.441910 1487.027216 419.701767 14.040380 0.000000 0.066628
447.000000 68.044000 6.000000 7.000000 4.000000 116.543472 -17.416827 1312.637352 377.525564 14.696627 0.000000 0.095120
448.000000 64.427000 7.000000 7.000000 4.000000 118.225017 -9.871514 1162.292073 354.609168 15.521370 0.000000 0.110507
449.000000 60.673000 8.000000 7.000000 4.000000 118.952104 -2.996446 1031.339252 344.760779 16.481582 0.000000 0.116384
450.000000 56.971000 9.000000 7.000000 4.000000 118.985969 3.124193 916.254170 343.857331 17.552337 0.000000 0.115651
451.000000 53.434000 10.000000 7.000000 4.000000 118.542458 8.491108 814.317506 349.098815 18.714471 0.000000 0.110381
452.000000 50.117000 11.000000 7.000000 4.000000 117.787144 13.157594 723.397722 358.552370 19.953008 0.000000 0.102052
453.000000 47.046000 12.000000 7.000000 4.000000 116.840584 17.201500 641.800395 370.865642 21.256076 0.000000 0.091735
454.000000 69.128000 3.000000 8.000000 4.000000 105.042488 -47.426904 2146.564879 513.454012 14.468061 0.000000 0.180206
455.000000 67.234000 5.000000 8.000000 4.000000 116.100277 -32.145423 1651.347755 318.256004 14.873437 0.000000 0.003322
456.000000 61.952000 7.000000 8.000000 4.000000 121.658066 -16.600581 1295.869145 248.490798 16.140456 0.000000 0.075126
457.000000 55.637000 9.000000 8.000000 4.000000 123.179811 -2.834848 1028.295774 236.371993 17.972009 0.000000 0.096600
458.000000 49.517000 11.000000 8.000000 4.000000 122.367285 8.215370 819.608888 251.751514 20.193505 0.000000 0.093042
461.000000 64.160000 4.000000 9.000000 4.000000 112.576969 -45.575383 2073.131325 301.672023 15.586502 0.000000 0.167190
462.000000 63.189000 5.000000 9.000000 4.000000 117.644323 -38.294029 1824.823901 222.722457 15.824897 0.000000 0.074520
463.000000 61.447000 6.000000 9.000000 4.000000 121.455249 -30.744070 1615.176987 174.939065 16.272765 0.000000 0.020118
464.000000 59.193000 7.000000 9.000000 4.000000 124.097602 -23.178115 1435.813765 148.384312 16.892011 0.000000 0.034702
465.000000 56.639000 8.000000 9.000000 4.000000 125.718655 -15.851931 1280.614474 136.477266 17.653250 0.000000 0.057984
466.000000 53.949000 9.000000 9.000000 4.000000 126.498229 -8.975899 1145.004212 134.762465 18.533452 0.000000 0.071948
467.000000 51.237000 10.000000 9.000000 4.000000 126.621486 -2.686064 1025.494393 140.167059 19.514310 0.000000 0.078553
468.000000 48.582000 11.000000 9.000000 4.000000 126.258179 2.958347 919.378381 150.538671 20.581093 0.000000 0.079754
469.000000 46.031000 12.000000 9.000000 4.000000 125.551327 7.958895 824.524032 164.350139 21.721807 0.000000 0.077023
471.000000 59.274000 5.000000 10.000000 4.000000 118.494666 -43.830868 2008.242781 131.101561 16.869800 0.000000 0.166348
472.000000 56.326000 7.000000 10.000000 4.000000 125.708167 -29.445706 1582.592354 52.611085 17.751286 0.000000 0.039124
473.000000 52.039000 9.000000 10.000000 4.000000 129.011374 -15.163040 1266.677266 37.629795 19.212880 0.000000 0.044730
474.000000 47.399000 11.000000 10.000000 4.000000 129.472842 -2.548631 1022.907325 53.750338 21.093381 0.000000 0.062660
477.000000 54.760000 6.000000 11.000000 4.000000 123.229774 -42.187310 1950.489757 -10.620377 18.259357 0.000000 0.170224
478.000000 53.469000 7.000000 11.000000 4.000000 126.653470 -35.287914 1736.718032 -40.166166 18.699334 0.000000 0.099584
479.000000 51.847000 8.000000 11.000000 4.000000 129.153687 -28.240579 1553.085726 -53.764747 19.283711 0.000000 0.054468
480.000000 50.011000 9.000000 11.000000 4.000000 130.809293 -21.254191 1393.638600 -56.162612 19.991549 0.000000 0.034224
481.000000 48.053000 10.000000 11.000000 4.000000 131.729936 -14.527205 1253.893911 -50.657047 20.805769 0.000000 0.036036
482.000000 46.047000 11.000000 11.000000 4.000000 132.041425 -8.216475 1130.412292 -39.575096 21.712304 0.000000 0.043635
485.000000 47.940000 9.000000 12.000000 4.000000 131.993423 -27.119952 1526.240642 -147.558562 20.854484 0.000000 0.066661
489.000000 45.882000 9.000000 13.000000 4.000000 132.667987 -32.658483 1664.867844 -237.359120 21.789578 0.000000 0.118917
491.000000 51.387000 3.000000 1.000000 5.000000 45.483411 0.717784 961.515814 1999.367208 19.485246 0.000000 0.213513
492.000000 53.488000 4.000000 1.000000 5.000000 52.884596 6.796619 846.724101 1761.213998 18.718143 0.000000 0.107162
493.000000 53.016000 5.000000 1.000000 5.000000 58.519938 12.037738 745.485559 1614.856719 18.883091 0.000000 0.072683
494.000000 51.179000 6.000000 1.000000 5.000000 62.808720 16.531973 655.533704 1517.776377 19.559002 0.000000 0.080765
495.000000 48.719000 7.000000 1.000000 5.000000 66.095866 20.383584 575.080730 1449.907763 20.545243 0.000000 0.095706
496.000000 46.051000 8.000000 1.000000 5.000000 68.643011 23.692964 502.697480 1400.602320 21.734064 0.000000 0.107630
498.000000 58.413000 2.000000 2.000000 5.000000 49.358790 -13.340323 1230.225113 1890.458924 17.140248 0.000000 0.157885
499.000000 62.193000 3.000000 2.000000 5.000000 58.036732 -5.919280 1086.590249 1616.184224 16.097000 0.000000 0.034693
500.000000 62.304000 4.000000 2.000000 5.000000 64.598016 0.726133 961.358954 1452.148829 16.066556 0.000000 0.038221
501.000000 60.304000 5.000000 2.000000 5.000000 69.456278 6.561194 851.207175 1347.005516 16.597836 0.000000 0.078161
502.000000 57.280000 6.000000 2.000000 5.000000 73.025980 11.625671 753.565921 1276.403384 17.473004 0.000000 0.100249
503.000000 53.881000 7.000000 2.000000 5.000000 75.650390 15.997993 666.418391 1227.429683 18.573963 0.000000 0.111480
504.000000 50.463000 8.000000 2.000000 5.000000 77.589958 19.769411 588.159177 1192.669427 19.831139 0.000000 0.116290
505.000000 47.201000 9.000000 2.000000 5.000000 79.034206 23.029120 517.494459 1167.602491 21.200880 0.000000 0.117536
507.000000 59.555000 1.000000 3.000000 5.000000 50.550749 -28.407942 1557.142965 1947.873638 16.810027 0.000000 0.214266
508.000000 66.361000 2.000000 3.000000 5.000000 60.811535 -20.364158 1374.504019 1582.318728 15.084556 0.000000 0.089375
509.000000 68.607000 3.000000 3.000000 5.000000 68.856147 -12.694546 1217.445737 1367.684210 14.589262 0.000000 0.079158
510.000000 67.697000 4.000000 3.000000 5.000000 74.870425 -5.621827 1080.945558 1233.409026 14.783921 0.000000 0.108937
511.000000 64.965000 5.000000 3.000000 5.000000 79.222557 0.733794 961.215006 1145.891810 15.404235 0.000000 0.129545
512.000000 61.370000 6.000000 3.000000 5.000000 82.304578 6.343828 855.342595 1087.329146 16.305611 0.000000 0.139415
513.000000 57.500000 7.000000 3.000000 5.000000 84.454702 11.242719 761.053946 1047.538692 17.402286 0.000000 0.141754
514.000000 53.679000 8.000000 3.000000 5.000000 85.936176 15.498548 676.546554 1020.352168 18.640168 0.000000 0.139293
515.000000 50.069000 9.000000 3.000000 5.000000 86.943033 19.191512 600.373450 1001.861689 19.983452 0.000000 0.134024
516.000000 46.738000 10.000000 3.000000 5.000000 87.614296 22.401085 531.359655 989.501028 21.407495 0.000000 0.127397
518.000000 64.217000 1.000000 4.000000 5.000000 60.368854 -34.924185 1726.508883 1687.660185 15.587163 0.000000 0.186712
519.000000 69.569000 2.000000 4.000000 5.000000 70.055943 -27.115562 1526.136549 1379.775652 14.386401 0.000000 0.110861
520.000000 71.127000 3.000000 4.000000 5.000000 77.720748 -19.422234 1354.492567 1189.397226 14.069754 0.000000 0.117220
521.000000 69.963000 4.000000 4.000000 5.000000 83.468193 -12.103783 1205.811837 1067.035371 14.302629 0.000000 0.139597
522.000000 67.151000 5.000000 4.000000 5.000000 87.590125 -5.349098 1075.775104 986.494045 14.900357 0.000000 0.154457
523.000000 63.514000 6.000000 4.000000 5.000000 90.434272 0.740850 961.082438 932.841413 15.752679 0.000000 0.160651
524.000000 59.589000 7.000000 4.000000 5.000000 92.323560 6.142526 859.169291 897.076094 16.789696 0.000000 0.160310
525.000000 55.689000 8.000000 4.000000 5.000000 93.522708 10.885931 768.012462 873.528705 17.964952 0.000000 0.155515
526.000000 51.980000 9.000000 4.000000 5.000000 94.233821 15.030462 685.994415 858.500652 19.246367 0.000000 0.147889
527.000000 48.538000 10.000000 4.000000 5.000000 94.604875 18.646873 611.806459 849.508608 20.611072 0.000000 0.138652
529.000000 64.999000 1.000000 5.000000 5.000000 68.010361 -40.844595 1905.495145 1515.530898 15.397281 0.000000 0.200313
530.000000 69.442000 2.000000 5.000000 5.000000 77.249792 -33.437617 1685.699606 1232.849793 14.410418 0.000000 0.121019
531.000000 70.795000 3.000000 5.000000 5.000000 84.699460 -25.924135 1498.180795 1052.027302 14.133608 0.000000 0.119830
532.000000 69.815000 4.000000 5.000000 5.000000 90.380123 -18.557062 1336.315327 933.467709 14.330764 0.000000 0.140402
533.000000 64.000000 6.000000 5.000000 5.000000 97.317399 -5.098142 1071.021533 802.242378 15.630982 0.000000 0.163977
534.000000 60.323000 7.000000 5.000000 5.000000 99.148492 0.747370 960.959952 767.656437 16.583346 0.000000 0.165094
535.000000 56.594000 8.000000 5.000000 5.000000 100.242530 5.955575 862.720590 745.463816 17.675320 0.000000 0.161380
536.000000 52.991000 9.000000 5.000000 5.000000 100.807383 10.552740 774.495718 732.007403 18.877036 0.000000 0.154353
537.000000 46.466000 11.000000 5.000000 5.000000 100.941627 18.132794 622.530842 722.053967 21.527504 0.000000 0.134789
540.000000 63.481000 1.000000 6.000000 5.000000 73.866377 -46.138626 2094.945395 1390.319642 15.763410 0.000000 0.235202
541.000000 67.314000 2.000000 6.000000 5.000000 82.720624 -39.232845 1853.832059 1118.492767 14.864224 0.000000 0.126614
542.000000 68.663000 3.000000 6.000000 5.000000 90.030958 -32.055934 1649.005180 940.313845 14.570545 0.000000 0.101198
543.000000 68.040000 4.000000 6.000000 5.000000 95.750553 -24.823194 1472.846589 821.578764 14.702844 0.000000 0.119423
544.000000 66.044000 5.000000 6.000000 5.000000 99.990230 -17.759978 1319.731170 741.921991 15.146182 0.000000 0.139585
545.000000 63.214000 6.000000 6.000000 5.000000 102.957282 -11.061783 1185.415098 688.674979 15.823559 0.000000 0.152225
546.000000 59.961000 7.000000 6.000000 5.000000 104.895645 -4.866463 1066.636381 653.672047 16.681452 0.000000 0.157570
547.000000 56.568000 8.000000 6.000000 5.000000 106.042182 0.753412 960.846440 631.493098 17.681504 0.000000 0.157268
548.000000 53.215000 9.000000 6.000000 5.000000 106.602495 5.781496 866.025188 618.450986 18.795506 0.000000 0.152870
549.000000 50.004000 10.000000 6.000000 5.000000 106.742472 10.240901 780.550795 611.984850 20.002249 0.000000 0.145618
550.000000 46.989000 11.000000 6.000000 5.000000 106.589503 14.177460 703.106147 610.284418 21.285480 0.000000 0.136469
553.000000 60.778000 1.000000 7.000000 5.000000 78.334352 -50.824181 2295.804890 1292.774839 16.463062 0.000000 0.299674
554.000000 64.155000 2.000000 7.000000 5.000000 86.828103 -44.461298 2031.243290 1024.568249 15.594505 0.000000 0.155379
555.000000 65.553000 3.000000 7.000000 5.000000 94.014789 -37.721860 1807.510878 845.498186 15.260506 0.000000 0.083581
556.000000 65.301000 4.000000 7.000000 5.000000 99.803709 -30.769864 1615.833117 724.550089 15.318058 0.000000 0.083705
557.000000 63.826000 5.000000 7.000000 5.000000 104.232416 -23.803536 1449.781694 642.626454 15.670988 0.000000 0.108126
558.000000 61.541000 6.000000 7.000000 5.000000 107.433656 -17.023525 1304.539456 587.527861 16.252236 0.000000 0.127769
559.000000 58.785000 7.000000 7.000000 5.000000 109.594187 -10.600124 1176.425412 551.220267 17.013613 0.000000 0.139368
560.000000 55.812000 8.000000 7.000000 5.000000 110.917095 -4.651927 1062.578413 528.275585 17.919598 0.000000 0.144207
561.000000 52.795000 9.000000 7.000000 5.000000 111.594554 0.759026 960.740950 514.945899 18.943437 0.000000 0.143931
562.000000 49.844000 10.000000 7.000000 5.000000 111.792672 5.619007 869.107931 508.594961 20.064589 0.000000 0.139924
563.000000 47.026000 11.000000 7.000000 5.000000 111.646259 9.948441 786.218755 507.338737 21.267027 0.000000 0.133263
566.000000 60.582000 2.000000 8.000000 5.000000 89.893864 -49.127714 2218.723202 944.046814 16.513115 0.000000 0.221275
567.000000 62.015000 3.000000 8.000000 5.000000 96.942372 -42.875585 1974.300021 762.168515 16.129956 0.000000 0.106831
568.000000 62.081000 4.000000 8.000000 5.000000 102.784548 -36.304393 1765.743809 637.949980 16.111486 0.000000 0.051156
569.000000 61.076000 5.000000 8.000000 5.000000 107.405615 -29.570983 1585.699468 553.063262 16.375503 0.000000 0.064963
570.000000 59.308000 6.000000 8.000000 5.000000 110.874628 -22.857061 1428.694270 495.572818 16.862783 0.000000 0.092299
571.000000 57.051000 7.000000 8.000000 5.000000 113.320250 -16.341255 1290.571883 457.491115 17.529577 0.000000 0.111776
572.000000 54.520000 8.000000 8.000000 5.000000 114.903225 -10.172313 1168.119020 433.347432 18.342865 0.000000 0.123168
573.000000 51.876000 9.000000 8.000000 5.000000 115.791571 -4.452706 1058.812331 419.319789 19.277256 0.000000 0.128203
574.000000 49.231000 10.000000 8.000000 5.000000 116.142476 0.764258 960.642662 412.692106 20.312909 0.000000 0.128476
575.000000 46.656000 11.000000 8.000000 5.000000 116.092047 5.466991 871.990432 411.505571 21.434091 0.000000 0.125241
578.000000 58.387000 3.000000 9.000000 5.000000 99.064673 -47.511424 2150.039366 686.776035 17.131340 0.000000 0.176539
579.000000 58.697000 4.000000 9.000000 5.000000 104.922451 -41.376420 1923.094102 558.753403 17.039432 0.000000 0.079099
580.000000 58.082000 5.000000 9.000000 5.000000 109.704422 -34.973606 1727.890708 470.588410 17.218722 0.000000 0.024792
581.000000 56.768000 6.000000 9.000000 5.000000 113.431294 -28.451667 1558.205056 410.469990 17.616397 0.000000 0.046970
582.000000 54.968000 7.000000 9.000000 5.000000 116.180100 -21.976627 1409.340463 370.400070 18.192521 0.000000 0.075722
583.000000 52.864000 8.000000 9.000000 5.000000 118.067079 -15.707575 1277.686220 344.843991 18.916336 0.000000 0.094957
584.000000 50.596000 9.000000 9.000000 5.000000 119.228719 -9.774802 1160.420871 329.899709 19.763769 0.000000 0.106324
585.000000 48.271000 10.000000 9.000000 5.000000 119.804614 -4.267219 1055.307733 322.771528 20.715708 0.000000 0.111725
586.000000 45.961000 11.000000 9.000000 5.000000 119.924768 0.769144 960.550862 321.428256 21.756788 0.000000 0.112662
588.000000 54.859000 3.000000 10.000000 5.000000 100.583452 -51.651777 2335.469201 616.872778 18.232536 0.000000 0.273923
589.000000 55.343000 4.000000 10.000000 5.000000 106.414113 -45.972154 2088.451893 484.805585 18.071405 0.000000 0.154016
590.000000 54.100000 6.000000 10.000000 5.000000 115.257976 -33.723096 1693.426036 330.469834 18.484579 0.000000 0.009830
591.000000 52.700000 7.000000 10.000000 5.000000 118.294801 -27.405024 1533.017695 288.358541 18.974839 0.000000 0.032156
592.000000 50.983000 8.000000 10.000000 5.000000 120.495436 -21.155930 1391.514930 261.320439 19.613326 0.000000 0.060465
593.000000 49.071000 9.000000 10.000000 5.000000 121.962175 -15.117613 1265.761449 245.370263 20.377237 0.000000 0.078985
595.000000 52.128000 4.000000 11.000000 5.000000 107.419070 -50.104618 2262.444389 414.510985 19.185481 0.000000 0.248635
596.000000 52.054000 5.000000 11.000000 5.000000 112.378061 -44.506596 2032.915019 319.641014 19.211394 0.000000 0.145931
597.000000 51.424000 6.000000 11.000000 5.000000 116.498888 -38.617844 1834.743370 254.226045 19.445930 0.000000 0.072542
598.000000 50.361000 7.000000 11.000000 5.000000 119.787667 -32.546900 1661.914309 210.125170 19.855433 0.000000 0.022869
599.000000 48.984000 8.000000 11.000000 5.000000 122.285663 -26.424834 1509.858700 181.632366 20.413118 0.000000 0.024070
600.000000 47.394000 9.000000 11.000000 5.000000 124.062669 -20.389396 1375.043526 164.676876 21.097402 0.000000 0.047808
601.000000 45.676000 10.000000 11.000000 5.000000 125.207936 -14.567107 1254.693952 156.309764 21.890697 0.000000 0.064715
603.000000 49.206000 5.000000 12.000000 5.000000 113.038490 -48.622235 2196.771711 248.565785 20.322919 0.000000 0.235645
604.000000 48.817000 6.000000 12.000000 5.000000 117.280724 -43.111364 1982.578842 180.673840 20.484066 0.000000 0.146037
605.000000 48.032000 7.000000 12.000000 5.000000 120.775174 -37.348856 1796.367828 134.706477 20.817900 0.000000 0.081710
606.000000 46.944000 8.000000 12.000000 5.000000 123.537332 -31.439495 1632.991605 104.854056 21.299383 0.000000 0.038827
607.000000 45.639000 9.000000 12.000000 5.000000 125.609126 -25.505486 1488.492536 86.958192 21.908096 0.000000 0.025579
611.000000 45.764000 7.000000 13.000000 5.000000 121.361368 -41.783055 1936.745515 61.288563 21.849293 0.000000 0.149948
612.000000 47.840000 3.000000 2.000000 6.000000 49.837540 -7.229166 1111.524252 1856.609458 20.928729 0.000000 0.139497
613.000000 49.664000 5.000000 2.000000 6.000000 61.790893 3.783469 903.824503 1519.585200 20.156661 0.000000 0.025408
614.000000 46.631000 7.000000 2.000000 6.000000 69.154782 12.541787 735.567624 1360.836285 21.464403 0.000000 0.082878
615.000000 50.880000 2.000000 3.000000 6.000000 52.075713 -19.523873 1356.640556 1830.764586 19.677033 0.000000 0.146253
616.000000 55.054000 4.000000 3.000000 6.000000 65.980972 -6.924799 1105.718609 1424.149900 18.181711 0.000000 0.053468
617.000000 54.263000 5.000000 3.000000 6.000000 70.801507 -1.349200 1000.349237 1315.877517 18.445263 0.000000 0.084715
618.000000 50.147000 7.000000 3.000000 6.000000 77.322341 8.189591 820.103217 1185.606906 19.956634 0.000000 0.119880
619.000000 47.606000 8.000000 3.000000 6.000000 79.458505 12.193716 742.420493 1145.908643 21.021170 0.000000 0.126298
620.000000 50.108000 1.000000 4.000000 6.000000 52.208102 -31.980150 1647.024938 1924.947817 19.978377 0.000000 0.224377
621.000000 57.770000 3.000000 4.000000 6.000000 68.349010 -18.749987 1340.352395 1392.187889 17.325663 0.000000 0.087496
622.000000 56.993000 5.000000 4.000000 6.000000 78.738993 -6.642241 1100.335690 1156.751363 17.559104 0.000000 0.126807
623.000000 52.442000 7.000000 4.000000 6.000000 84.726527 3.595330 907.373375 1040.538142 19.080613 0.000000 0.147886
624.000000 47.001000 9.000000 4.000000 6.000000 87.942460 11.865628 748.863477 980.511522 21.288103 0.000000 0.148089
626.000000 52.752000 1.000000 5.000000 6.000000 60.000314 -37.233310 1792.938501 1721.467066 18.974465 0.000000 0.210325
627.000000 57.054000 2.000000 5.000000 6.000000 68.404734 -30.791834 1616.392273 1436.943980 17.542219 0.000000 0.126588
628.000000 59.075000 3.000000 5.000000 6.000000 75.448326 -24.337493 1461.813633 1247.633871 16.940484 0.000000 0.111332
629.000000 59.246000 4.000000 5.000000 6.000000 81.117532 -18.030493 1325.342600 1117.892638 16.890304 0.000000 0.127244
630.000000 58.090000 5.000000 5.000000 6.000000 85.522782 -12.010190 1203.973486 1027.161619 17.225075 0.000000 0.144627
631.000000 56.087000 6.000000 5.000000 6.000000 88.841877 -6.379243 1095.330945 962.893716 17.839153 0.000000 0.156214
632.000000 53.611000 7.000000 5.000000 6.000000 91.272639 -1.198287 997.512966 917.084460 18.662311 0.000000 0.161858
633.000000 50.925000 8.000000 5.000000 6.000000 93.002429 3.510207 908.978564 884.441947 19.646045 0.000000 0.162737
634.000000 48.201000 9.000000 5.000000 6.000000 94.193137 7.752967 828.466004 861.363537 20.755778 0.000000 0.160078
635.000000 45.544000 10.000000 5.000000 6.000000 94.976833 11.555870 754.932283 845.335832 21.966194 0.000000 0.154908
636.000000 53.270000 1.000000 6.000000 6.000000 66.309033 -42.051692 1945.859408 1577.002451 18.787599 0.000000 0.223216
637.000000 57.903000 5.000000 6.000000 6.000000 91.167259 -17.360057 1311.466357 918.023542 17.278606 0.000000 0.143583
638.000000 53.824000 7.000000 6.000000 6.000000 96.923122 -6.133851 1090.665875 809.560858 18.586244 0.000000 0.163195
640.000000 52.429000 1.000000 7.000000 6.000000 71.370765 -46.427443 2106.304860 1467.387565 19.087169 0.000000 0.253430
641.000000 55.634000 2.000000 7.000000 6.000000 79.109480 -40.674709 1899.932872 1214.036512 17.985857 0.000000 0.149206
642.000000 57.272000 3.000000 7.000000 6.000000 85.783506 -34.702798 1720.339265 1037.518744 17.469898 0.000000 0.106232
643.000000 57.559000 4.000000 7.000000 6.000000 91.324099 -28.633427 1562.629532 912.656186 17.381414 0.000000 0.109940
644.000000 56.793000 5.000000 7.000000 6.000000 95.754393 -22.600699 1423.033480 823.517505 17.614620 0.000000 0.127787
645.000000 55.279000 6.000000 7.000000 6.000000 99.165739 -16.733994 1298.599929 759.659337 18.095974 0.000000 0.143469
646.000000 53.284000 7.000000 7.000000 6.000000 101.689780 -11.142296 1186.985772 714.032092 18.772765 0.000000 0.153719
647.000000 51.018000 8.000000 7.000000 6.000000 103.473379 -5.904363 1086.307034 681.758157 19.606222 0.000000 0.158805
648.000000 48.633000 9.000000 7.000000 6.000000 104.660133 -1.066249 995.031668 659.391005 20.567195 0.000000 0.159687
649.000000 46.235000 10.000000 7.000000 6.000000 105.379215 3.355189 911.901042 644.450883 21.633342 0.000000 0.157325
650.000000 50.794000 1.000000 8.000000 6.000000 75.421213 -50.374635 2274.844238 1379.920551 19.699739 0.000000 0.304409
651.000000 55.180000 3.000000 8.000000 6.000000 89.385199 -39.368463 1858.086414 955.939408 18.130617 0.000000 0.104276
652.000000 55.074000 5.000000 8.000000 6.000000 99.405129 -27.651730 1538.910965 739.734036 18.162876 0.000000 0.100630
653.000000 52.189000 7.000000 8.000000 6.000000 105.622213 -16.148174 1286.636954 627.681618 19.165159 0.000000 0.134928
654.000000 48.086000 9.000000 8.000000 6.000000 108.857016 -5.689288 1082.225228 571.584269 20.799449 0.000000 0.148702
656.000000 51.280000 2.000000 9.000000 6.000000 85.825413 -48.943852 2210.687173 1060.607765 19.509828 0.000000 0.229558
657.000000 53.279000 4.000000 9.000000 6.000000 97.679883 -38.128898 1819.799452 756.495118 18.774947 0.000000 0.071487
658.000000 52.994000 5.000000 9.000000 6.000000 102.255735 -32.449930 1659.353527 663.940975 18.874639 0.000000 0.066882
659.000000 50.712000 7.000000 9.000000 6.000000 108.795382 -21.076267 1389.795285 548.434727 19.721950 0.000000 0.107951
660.000000 49.038000 8.000000 9.000000 6.000000 110.910577 -15.598950 1275.485502 514.049866 20.394726 0.000000 0.122466
662.000000 50.216000 3.000000 10.000000 6.000000 94.367694 -47.570889 2152.490589 819.155275 19.920527 0.000000 0.181901
663.000000 50.732000 5.000000 10.000000 6.000000 104.441207 -36.952110 1784.636353 594.163082 19.715034 0.000000 0.045434
664.000000 48.995000 7.000000 10.000000 6.000000 111.298215 -25.858149 1496.649229 474.723865 20.412101 0.000000 0.073627
665.000000 46.015000 9.000000 10.000000 6.000000 115.302931 -15.083089 1265.065707 414.015784 21.732726 0.000000 0.108562
667.000000 47.681000 3.000000 11.000000 6.000000 96.045775 -51.124486 2310.033191 759.376329 20.978950 0.000000 0.258067
668.000000 48.347000 4.000000 11.000000 6.000000 101.422156 -46.253794 2099.460724 626.519755 20.688312 0.000000 0.152971
669.000000 48.414000 5.000000 11.000000 6.000000 106.085335 -41.134621 1915.057202 528.928870 20.658445 0.000000 0.076293
670.000000 47.978000 6.000000 11.000000 6.000000 110.015571 -35.834369 1752.229784 457.388097 20.844659 0.000000 0.025655
671.000000 47.146000 7.000000 11.000000 6.000000 113.224258 -30.437327 1607.400999 405.337191 21.211925 0.000000 0.032813
672.000000 46.015000 8.000000 11.000000 6.000000 115.749549 -25.037531 1477.742845 368.025759 21.732395 0.000000 0.059886
673.000000 46.119000 5.000000 12.000000 6.000000 107.295952 -44.990536 2050.938768 467.111779 21.685634 0.000000 0.137776
675.000000 47.246000 3.000000 4.000000 7.000000 60.606305 -18.249218 1329.892346 1579.414703 21.188061 0.000000 0.079012
676.000000 48.456000 4.000000 4.000000 7.000000 66.401608 -12.783263 1219.197445 1423.135631 20.657052 0.000000 0.066763
677.000000 48.415000 5.000000 4.000000 7.000000 71.127451 -7.626608 1119.117076 1312.205553 20.673196 0.000000 0.088197
678.000000 47.504000 6.000000 4.000000 7.000000 74.913946 -2.829462 1028.194349 1231.479587 21.068053 0.000000 0.109180
679.000000 46.042000 7.000000 4.000000 7.000000 77.909503 1.584523 945.227329 1171.638987 21.735885 0.000000 0.123790
680.000000 47.064000 2.000000 5.000000 7.000000 60.950287 -28.791572 1566.491634 1623.150119 21.268727 0.000000 0.137677
681.000000 49.406000 3.000000 5.000000 7.000000 67.603813 -23.145096 1435.079982 1423.356389 20.258669 0.000000 0.097733
682.000000 50.297000 4.000000 5.000000 7.000000 73.174081 -17.634189 1317.127653 1282.532322 19.898222 0.000000 0.102719
683.000000 50.065000 5.000000 5.000000 7.000000 77.716796 -12.350682 1210.667604 1180.891489 19.989346 0.000000 0.120702
684.000000 49.037000 6.000000 5.000000 7.000000 81.341901 -7.363983 1114.098287 1106.253751 20.407075 0.000000 0.136384
685.000000 47.495000 7.000000 5.000000 7.000000 84.183055 -2.718366 1026.102534 1050.771121 21.068658 0.000000 0.146933
686.000000 45.654000 8.000000 5.000000 7.000000 86.375712 1.565385 945.587113 1009.198206 21.917122 0.000000 0.152711
687.000000 48.151000 2.000000 6.000000 7.000000 67.084468 -33.387724 1684.354504 1485.918589 20.786095 0.000000 0.144242
688.000000 50.156000 3.000000 6.000000 7.000000 73.513281 -27.867321 1544.082748 1301.327915 19.953513 0.000000 0.113029
689.000000 50.892000 4.000000 6.000000 7.000000 78.933912 -22.391274 1418.424745 1168.663998 19.663190 0.000000 0.118097
690.000000 50.623000 5.000000 6.000000 7.000000 83.378525 -17.056147 1305.209838 1071.688289 19.766375 0.000000 0.133637
691.000000 49.622000 6.000000 6.000000 7.000000 86.932767 -11.944144 1202.676979 999.948968 20.164166 0.000000 0.147558
692.000000 48.130000 7.000000 6.000000 7.000000 89.710920 -7.116928 1109.382470 946.472547 20.788239 0.000000 0.157090
693.000000 46.341000 8.000000 6.000000 7.000000 91.835823 -2.613670 1024.131552 906.466565 21.589886 0.000000 0.162285
694.000000 48.084000 2.000000 7.000000 7.000000 72.180489 -37.699152 1806.829311 1378.247691 20.812702 0.000000 0.154333
695.000000 49.864000 3.000000 7.000000 7.000000 78.425660 -32.364879 1657.112040 1201.969126 20.068068 0.000000 0.117277
696.000000 50.546000 4.000000 7.000000 7.000000 83.746412 -26.994339 1523.265391 1073.362303 19.795896 0.000000 0.117487
697.000000 50.333000 5.000000 7.000000 7.000000 88.152268 -21.680850 1402.892860 978.364796 19.878382 0.000000 0.131520
698.000000 49.446000 6.000000 7.000000 7.000000 91.703395 -16.511962 1294.057326 907.615740 20.233881 0.000000 0.145733
699.000000 46.431000 8.000000 7.000000 7.000000 96.623906 -6.884106 1104.942994 815.105777 21.545972 0.000000 0.162519
700.000000 47.238000 2.000000 8.000000 7.000000 76.378885 -41.707387 1934.192152 1290.343039 21.183276 0.000000 0.169229
701.000000 48.860000 3.000000 8.000000 7.000000 82.463229 -36.602350 1774.395162 1118.380208 20.478360 0.000000 0.117092
702.000000 49.538000 4.000000 8.000000 7.000000 87.711105 -31.394803 1631.838838 991.397836 20.196673 0.000000 0.106451
703.000000 49.425000 5.000000 8.000000 7.000000 92.112801 -26.168851 1503.875824 896.758455 20.241494 0.000000 0.117872
704.000000 48.696000 6.000000 8.000000 7.000000 95.704476 -21.010379 1388.374383 825.829591 20.543487 0.000000 0.133281
705.000000 47.519000 7.000000 8.000000 7.000000 98.554951 -15.998833 1283.598695 772.567440 21.051653 0.000000 0.145984
706.000000 46.039000 8.000000 8.000000 7.000000 100.752068 -11.200462 1188.121022 732.650595 21.727638 0.000000 0.154622
707.000000 45.905000 2.000000 9.000000 7.000000 79.822541 -45.408228 2066.741612 1216.220528 21.797082 0.000000 0.195766
708.000000 47.406000 3.000000 9.000000 7.000000 85.756278 -40.559499 1896.176858 1046.121259 21.104864 0.000000 0.123488
709.000000 48.100000 4.000000 9.000000 7.000000 90.941365 -35.557639 1744.348060 919.261410 20.798887 0.000000 0.092839
710.000000 48.100000 5.000000 9.000000 7.000000 95.353411 -30.474029 1608.328822 823.977583 20.797683 0.000000 0.096258
711.000000 47.541000 6.000000 9.000000 7.000000 99.007901 -25.387398 1485.772029 752.141444 21.041189 0.000000 0.112152
712.000000 46.559000 7.000000 9.000000 7.000000 101.951718 -20.376754 1374.773265 697.966116 21.484154 0.000000 0.127746
713.000000 45.694000 3.000000 10.000000 7.000000 88.428841 -44.229276 2022.721015 982.199151 21.894222 0.000000 0.146934
714.000000 46.407000 4.000000 10.000000 7.000000 93.550378 -39.461388 1861.011012 854.504758 21.556299 0.000000 0.090257
715.000000 46.514000 5.000000 10.000000 7.000000 97.973062 -34.562043 1716.433839 757.945902 21.505522 0.000000 0.072901
716.000000 46.118000 6.000000 10.000000 7.000000 101.695931 -29.599334 1586.403696 684.749346 21.689102 0.000000 0.084446
#UB matrix in q= (UB) B0 G* 
#[[-0.655071627 -0.735741517  0.168844266]
# [ 0.652468414 -0.664701026 -0.36494275 ]
# [ 0.381006737 -0.129064808  0.916294968]]
#B0 matrix in q= UB (B0) G*
#[[ 0.19670273 -0.          0.03056101]
# [ 0.          0.19187965 -0.        ]
# [ 0.          0.          0.18806537]]
#UBB0 matrix in q= (UB B0) G* i.e. recip. basis vectors are columns in LT frame: astar = UBB0[:,0], bstar = UBB0[:,1], cstar = UBB0[:,2]. (abcstar as columns on xyzlab1, xlab1 = ui, ui = unit vector along incident beam)
#[[-0.12885438 -0.14117383  0.01173411]
# [ 0.12834232 -0.1275426  -0.048693  ]
# [ 0.07494507 -0.02476491  0.1839673 ]]
#Euler angles phi theta psi (deg)
#[ 71.331  23.714 155.142]
#deviatoric strain in direct crystal frame (10-3 unit)
#[[ 1.19  0.46 -0.16]
# [ 0.46  1.25  0.05]
# [-0.16  0.05 -2.44]]
#deviatoric strain in sample2 frame (10-3 unit)
#[[-0.49  0.76 -1.88]
# [ 0.76  0.44  0.62]
# [-1.88  0.62  0.05]]
#new lattice parameters
#[ 5.1505     5.2118789  5.313632  90.0052116 99.2462472 89.9478319]
#CCDLabel
#sCMOS
#DetectorParameters
#[79.0, 975.0, 941.0, 0.0, 0.0]
#pixelsize
#0.0734
#Frame dimensions
#[2018, 2016]
#
