#Strain and Orientation Refinement from experimental file: /home/micha/LaueProjects/DepthEffects/testZrO2_83.cor
#File created at Wed Jun 28 14:23:30 2023 with indexingSpotsSet.py
#Number of indexed spots: 517
#Element
#ZrO2
#grainIndex
#G_0
#Mean Deviation(pixel): 0.116
##spot_index intensity h k l 2theta Chi Xexp Yexp Energy GrainIndex PixDev
0.000000 45.465000 2.000000 -1.000000 -4.000000 135.963475 25.632412 458.577372 -293.615442 5.495577 0.000000 0.097011
1.000000 45.858000 6.000000 -7.000000 -15.000000 131.444621 -5.733731 1083.068439 -14.150443 21.795822 0.000000 0.041800
2.000000 46.266000 7.000000 -7.000000 -15.000000 138.133579 -4.566936 1060.971493 -263.790017 21.601618 0.000000 0.007427
5.000000 46.073000 5.000000 -6.000000 -15.000000 124.014283 0.220391 970.859971 214.634537 21.696603 0.000000 0.088630
6.000000 46.871000 2.000000 -2.000000 -5.000000 130.943840 1.968879 938.000290 6.690641 7.108306 0.000000 0.047705
7.000000 47.266000 7.000000 -6.000000 -15.000000 137.625938 4.175206 896.430144 -241.904100 21.144722 0.000000 0.015558
10.000000 45.544000 4.000000 -5.000000 -15.000000 115.625935 5.133776 878.303720 422.647658 21.951374 0.000000 0.125636
11.000000 46.798000 2.000000 -2.000000 -6.000000 122.733732 7.209939 838.842727 243.621986 8.544245 0.000000 0.089350
12.000000 47.612000 6.000000 -5.000000 -15.000000 129.606849 9.750253 790.053930 37.342161 20.993380 0.000000 0.046422
13.000000 47.999000 7.000000 -5.000000 -15.000000 136.169393 12.915630 728.186673 -209.250865 20.822200 0.000000 0.032821
16.000000 45.900000 4.000000 -4.000000 -15.000000 113.657822 11.440350 757.192113 459.926415 21.782152 0.000000 0.121874
17.000000 47.194000 5.000000 -4.000000 -15.000000 120.675135 14.109587 704.462092 282.715188 21.182193 0.000000 0.082538
18.000000 48.026000 6.000000 -4.000000 -15.000000 127.402962 17.330509 639.142843 78.884680 20.812739 0.000000 0.037132
19.000000 48.413000 7.000000 -4.000000 -15.000000 133.750757 21.265597 556.114716 -164.638740 20.644707 0.000000 0.053022
22.000000 45.877000 4.000000 -3.000000 -15.000000 110.990797 17.574557 634.105310 507.829361 21.793640 0.000000 0.111863
23.000000 47.211000 5.000000 -3.000000 -15.000000 117.846796 20.730192 567.654029 333.050400 21.175393 0.000000 0.067857
24.000000 48.067000 2.000000 -1.000000 -5.000000 124.359874 24.470346 485.177014 132.532588 6.931948 0.000000 0.021614
25.000000 48.463000 7.000000 -3.000000 -15.000000 130.430076 28.931470 380.082088 -106.730775 20.624056 0.000000 0.080486
27.000000 46.814000 5.000000 -2.000000 -15.000000 114.301373 26.925929 428.352165 395.911928 21.355982 0.000000 0.046026
28.000000 47.700000 6.000000 -2.000000 -15.000000 120.555712 31.009168 328.062740 199.654230 20.957039 0.000000 0.025091
29.000000 48.117000 7.000000 -2.000000 -15.000000 126.320990 35.758012 199.950450 -34.023404 20.773379 0.000000 0.118905
31.000000 45.986000 5.000000 -1.000000 -15.000000 110.126914 32.607307 286.487685 472.755934 21.741720 0.000000 0.027511
32.000000 46.908000 6.000000 -1.000000 -15.000000 116.103187 36.872515 167.702452 281.795709 21.312397 0.000000 0.063012
33.000000 47.359000 7.000000 -1.000000 -15.000000 121.565247 41.714296 15.574944 55.178530 21.107313 0.000000 0.170849
35.000000 45.552000 6.000000 -9.000000 -14.000000 132.169039 -24.410888 1463.475365 -129.568078 21.941639 0.000000 0.051928
38.000000 46.499000 5.000000 -8.000000 -14.000000 126.495987 -16.887186 1301.740285 108.815813 21.496613 0.000000 0.043148
39.000000 47.226000 3.000000 -4.000000 -7.000000 133.560237 -17.200666 1308.182446 -130.437969 10.581850 0.000000 0.028017
42.000000 46.827000 4.000000 -7.000000 -14.000000 119.597900 -10.299009 1170.576586 319.620346 21.348713 0.000000 0.099521
43.000000 48.010000 5.000000 -7.000000 -14.000000 127.030080 -9.817711 1161.250945 117.000565 20.820184 0.000000 0.061130
44.000000 48.738000 6.000000 -7.000000 -14.000000 134.281300 -9.209292 1149.500769 -122.332020 20.507050 0.000000 0.022669
45.000000 49.030000 2.000000 -2.000000 -4.000000 141.300066 -8.415939 1134.239264 -417.062098 5.823760 0.000000 0.025570
47.000000 46.353000 3.000000 -6.000000 -14.000000 111.581527 -4.624763 1062.064778 513.875642 21.570218 0.000000 0.140977
48.000000 48.066000 2.000000 -3.000000 -7.000000 119.279061 -3.579879 1042.335235 336.349083 10.399166 0.000000 0.111370
49.000000 49.289000 5.000000 -6.000000 -14.000000 126.828220 -2.289034 1018.022111 134.358262 20.279764 0.000000 0.072244
50.000000 50.019000 3.000000 -3.000000 -7.000000 134.158697 -0.655721 987.318187 -104.210368 9.990797 0.000000 0.028442
51.000000 50.280000 7.000000 -6.000000 -14.000000 141.205171 1.473072 947.322417 -398.330152 19.876365 0.000000 0.013505
53.000000 47.210000 3.000000 -5.000000 -14.000000 110.458199 1.643426 944.119974 539.319573 21.178920 0.000000 0.146380
54.000000 49.000000 4.000000 -5.000000 -14.000000 118.211199 3.358760 911.833727 362.631701 20.402534 0.000000 0.116265
55.000000 50.263000 5.000000 -5.000000 -14.000000 125.773638 5.467918 871.972865 161.959767 19.887307 0.000000 0.075274
56.000000 50.998000 6.000000 -5.000000 -14.000000 133.058813 8.115814 821.517550 -74.902663 19.598349 0.000000 0.031346
57.000000 51.233000 7.000000 -5.000000 -14.000000 139.979897 11.521918 755.596661 -367.124846 19.506716 0.000000 0.043685
59.000000 47.691000 3.000000 -4.000000 -14.000000 108.615260 7.971696 824.278861 574.930358 20.966199 0.000000 0.145591
60.000000 49.551000 2.000000 -2.000000 -7.000000 116.329607 10.320220 779.011779 399.611401 10.088011 0.000000 0.113764
61.000000 50.855000 5.000000 -4.000000 -14.000000 123.799455 13.176705 723.019071 201.016058 19.656209 0.000000 0.069320
62.000000 51.602000 3.000000 -2.000000 -7.000000 130.920064 16.705852 651.976422 -33.088463 9.684800 0.000000 0.029813
63.000000 51.822000 7.000000 -4.000000 -14.000000 137.582679 21.137921 558.873994 -321.955134 19.285543 0.000000 0.077799
65.000000 47.728000 3.000000 -3.000000 -14.000000 106.031697 14.208022 702.495335 621.974417 20.950557 0.000000 0.138496
66.000000 49.653000 4.000000 -3.000000 -14.000000 113.618361 17.103973 643.806947 448.589787 20.135419 0.000000 0.103647
67.000000 50.999000 5.000000 -3.000000 -14.000000 120.902996 20.570812 571.073212 252.900585 19.601530 0.000000 0.053559
68.000000 51.766000 6.000000 -3.000000 -14.000000 127.766411 24.761184 478.566781 22.725912 19.309087 0.000000 0.033476
69.000000 51.986000 7.000000 -3.000000 -14.000000 134.085805 29.865857 356.956488 -261.136083 19.225457 0.000000 0.118364
71.000000 47.273000 3.000000 -2.000000 -14.000000 102.729559 20.213082 578.721786 681.906595 21.153144 0.000000 0.125567
72.000000 49.254000 2.000000 -1.000000 -7.000000 110.114237 23.538464 506.154526 511.054074 10.149802 0.000000 0.086493
73.000000 50.643000 5.000000 -2.000000 -14.000000 117.145356 27.444368 416.044222 319.175984 19.740270 0.000000 0.027678
74.000000 51.440000 3.000000 -1.000000 -7.000000 123.696613 32.049820 301.154693 94.234839 9.716116 0.000000 0.057116
75.000000 51.679000 7.000000 -2.000000 -14.000000 129.642702 37.483067 149.635618 -182.758903 19.340539 0.000000 0.169579
77.000000 46.302000 3.000000 -1.000000 -14.000000 98.772258 25.877188 452.909035 756.405428 21.598248 0.000000 0.108921
78.000000 48.328000 4.000000 -1.000000 -14.000000 105.900885 29.503006 365.987446 588.710051 20.690097 0.000000 0.066191
79.000000 49.761000 5.000000 -1.000000 -14.000000 112.638044 33.676547 257.837298 401.626132 20.091681 0.000000 0.017483
80.000000 50.600000 6.000000 -1.000000 -14.000000 118.858292 38.476416 119.599970 183.366108 19.756402 0.000000 0.101055
82.000000 46.878000 4.000000 0.000000 -14.000000 101.096138 34.933308 223.236165 683.522238 21.331545 0.000000 0.059506
83.000000 48.354000 5.000000 0.000000 -14.000000 107.523606 39.226911 96.353711 502.294858 20.677660 0.000000 0.066911
84.000000 49.245000 6.000000 0.000000 -14.000000 113.420634 44.051711 -66.244200 292.320114 20.301220 0.000000 0.163080
86.000000 46.458000 5.000000 1.000000 -14.000000 101.956918 44.113934 -68.509398 623.532954 21.523217 0.000000 0.133476
87.000000 47.410000 6.000000 1.000000 -14.000000 107.553854 48.848240 -256.531649 423.617044 21.088953 0.000000 0.243500
91.000000 46.205000 4.000000 -9.000000 -13.000000 119.660305 -26.565888 1513.166789 255.730121 21.635783 0.000000 0.024348
92.000000 47.307000 5.000000 -9.000000 -13.000000 126.875234 -27.954039 1546.168838 26.978143 21.129177 0.000000 0.039517
93.000000 47.974000 6.000000 -9.000000 -13.000000 133.880744 -29.691782 1588.702842 -250.483366 20.833396 0.000000 0.104483
95.000000 46.571000 3.000000 -8.000000 -13.000000 113.281300 -19.884882 1364.291918 448.528662 21.467900 0.000000 0.093553
96.000000 48.197000 4.000000 -8.000000 -13.000000 120.983609 -20.482454 1377.034317 251.100267 20.741294 0.000000 0.055191
97.000000 49.334000 5.000000 -8.000000 -13.000000 128.541996 -21.225911 1393.027091 21.188229 20.260499 0.000000 0.024058
98.000000 49.987000 6.000000 -8.000000 -13.000000 135.893225 -22.175726 1413.695722 -258.082180 19.993986 0.000000 0.062535
100.000000 46.097000 2.000000 -7.000000 -13.000000 105.705357 -13.870820 1240.774257 629.268228 21.691992 0.000000 0.139775
101.000000 48.324000 3.000000 -7.000000 -13.000000 113.773593 -13.814918 1239.660395 452.766534 20.689288 0.000000 0.115117
102.000000 50.037000 4.000000 -7.000000 -13.000000 121.764307 -13.746213 1238.292129 254.947077 19.978275 0.000000 0.079186
103.000000 51.209000 5.000000 -7.000000 -13.000000 129.602658 -13.659734 1236.571065 24.607973 19.518741 0.000000 0.037509
104.000000 51.844000 6.000000 -7.000000 -13.000000 137.222212 -13.547564 1234.340557 -255.487617 19.277537 0.000000 0.029329
106.000000 47.473000 2.000000 -6.000000 -13.000000 105.353220 -7.979404 1125.868789 642.595239 21.063657 0.000000 0.153162
107.000000 49.838000 3.000000 -6.000000 -13.000000 113.644120 -7.299447 1112.865909 465.941249 20.060950 0.000000 0.130548
108.000000 51.638000 4.000000 -6.000000 -13.000000 121.841194 -6.459858 1096.864454 268.326630 19.359041 0.000000 0.095634
109.000000 52.843000 5.000000 -6.000000 -13.000000 129.859075 -5.397479 1076.691992 38.381623 18.915227 0.000000 0.051717
110.000000 53.461000 6.000000 -6.000000 -13.000000 137.620090 -4.011201 1050.473267 -241.419426 18.694523 0.000000 0.008458
113.000000 45.480000 1.000000 -5.000000 -13.000000 95.901309 -2.928906 1030.067114 829.605433 21.990617 0.000000 0.167968
114.000000 48.518000 2.000000 -5.000000 -13.000000 104.347616 -1.816899 1009.141674 665.564783 20.610369 0.000000 0.160842
115.000000 51.016000 3.000000 -5.000000 -13.000000 112.770755 -0.471201 983.851661 489.198561 19.598199 0.000000 0.139179
116.000000 52.900000 4.000000 -5.000000 -13.000000 121.067069 1.188415 952.672560 292.441709 18.897490 0.000000 0.103857
117.000000 54.138000 5.000000 -5.000000 -13.000000 129.134352 3.282224 913.276292 63.808433 18.462669 0.000000 0.057862
118.000000 54.743000 6.000000 -5.000000 -13.000000 136.873850 5.997657 861.921414 -214.426083 18.256643 0.000000 0.019319
121.000000 45.942000 1.000000 -4.000000 -13.000000 94.105382 2.822572 921.935400 863.654805 21.770168 0.000000 0.168152
122.000000 49.136000 2.000000 -4.000000 -13.000000 102.610617 4.486485 890.549246 699.470214 20.351686 0.000000 0.162315
123.000000 51.756000 3.000000 -4.000000 -13.000000 111.061312 6.490168 852.558844 523.853966 19.318500 0.000000 0.140495
124.000000 53.720000 4.000000 -4.000000 -13.000000 119.336492 8.942717 805.634607 328.666765 18.609372 0.000000 0.103183
125.000000 54.996000 5.000000 -4.000000 -13.000000 127.313002 12.001084 746.205304 102.368012 18.175389 0.000000 0.053716
126.000000 55.596000 6.000000 -4.000000 -13.000000 134.865889 15.895364 668.503657 -172.857575 17.977007 0.000000 0.036877
128.000000 45.915000 1.000000 -3.000000 -13.000000 91.635312 8.600597 812.214327 909.923052 21.784305 0.000000 0.162683
129.000000 49.239000 2.000000 -3.000000 -13.000000 100.101292 10.781479 770.046435 745.812247 20.310191 0.000000 0.157336
130.000000 51.964000 3.000000 -3.000000 -13.000000 108.472078 13.383072 718.926557 571.424022 19.241865 0.000000 0.134211
131.000000 54.003000 4.000000 -3.000000 -13.000000 116.609448 16.525525 655.665491 378.578080 18.512610 0.000000 0.093099
132.000000 55.320000 5.000000 -3.000000 -13.000000 124.370472 20.370754 575.354998 155.750716 18.069575 0.000000 0.037953
133.000000 55.930000 6.000000 -3.000000 -13.000000 131.608284 25.134816 470.029175 -114.832996 17.870350 0.000000 0.060907
135.000000 48.757000 2.000000 -2.000000 -13.000000 96.825696 16.919984 647.586704 806.340991 20.512103 0.000000 0.146202
136.000000 51.566000 3.000000 -2.000000 -13.000000 105.018702 20.017354 582.891708 633.664810 19.391332 0.000000 0.120677
137.000000 53.672000 4.000000 -2.000000 -13.000000 112.921223 23.693892 502.676683 443.990409 18.627681 0.000000 0.073873
138.000000 55.036000 5.000000 -2.000000 -13.000000 120.377218 28.088264 400.595670 225.894245 18.163606 0.000000 0.011168
139.000000 55.675000 6.000000 -2.000000 -13.000000 127.229561 33.363537 266.297036 -38.201784 17.953296 0.000000 0.097970
141.000000 47.654000 2.000000 -1.000000 -13.000000 92.839204 22.774912 523.121993 883.108570 20.988038 0.000000 0.130591
142.000000 50.522000 3.000000 -1.000000 -13.000000 100.775657 26.243212 444.388916 712.619477 19.793562 0.000000 0.102230
143.000000 52.685000 4.000000 -1.000000 -13.000000 108.375205 30.279692 346.576050 527.001809 18.978092 0.000000 0.050362
144.000000 54.102000 5.000000 -1.000000 -13.000000 115.478071 34.984960 221.791609 315.028000 18.478425 0.000000 0.036768
145.000000 54.789000 6.000000 -1.000000 -13.000000 121.929648 40.458800 57.095521 59.502885 18.244671 0.000000 0.152441
147.000000 46.550000 3.000000 1.000000 -13.000000 90.439223 37.143969 159.705900 930.649098 21.485698 0.000000 0.097465
148.000000 48.787000 4.000000 1.000000 -13.000000 97.342889 41.443921 24.651653 755.975036 20.497750 0.000000 0.101027
149.000000 50.322000 5.000000 1.000000 -13.000000 103.725781 46.229985 -148.525697 560.978949 19.869943 0.000000 0.174426
151.000000 46.014000 4.000000 2.000000 -13.000000 91.214797 46.047245 -141.376104 908.116572 21.735138 0.000000 0.178292
152.000000 47.605000 5.000000 2.000000 -13.000000 97.267336 50.707880 -340.343671 724.264790 21.006105 0.000000 0.272718
156.000000 46.342000 2.000000 -5.000000 -6.000000 118.512508 -36.638095 1775.437527 212.349488 10.785907 0.000000 0.068796
157.000000 47.398000 5.000000 -10.000000 -12.000000 125.500858 -39.094206 1849.499924 -48.212071 21.088664 0.000000 0.149542
159.000000 47.221000 1.000000 -3.000000 -4.000000 113.100206 -29.571765 1585.718893 413.159588 7.057480 0.000000 0.033875
160.000000 48.814000 4.000000 -9.000000 -12.000000 120.736240 -31.227726 1627.539048 192.587199 20.478724 0.000000 0.023710
161.000000 49.898000 5.000000 -9.000000 -12.000000 128.171048 -33.275241 1681.327614 -71.003271 20.031430 0.000000 0.096253
163.000000 47.320000 1.000000 -4.000000 -6.000000 106.378802 -22.965465 1431.094397 597.430786 10.565501 0.000000 0.102628
164.000000 49.559000 3.000000 -8.000000 -12.000000 114.552686 -23.868821 1451.247445 403.323531 20.173025 0.000000 0.066758
165.000000 51.245000 2.000000 -4.000000 -6.000000 122.615953 -24.983179 1476.499634 181.162144 9.753482 0.000000 0.022441
166.000000 52.352000 5.000000 -8.000000 -12.000000 130.484203 -26.391005 1509.066540 -84.617308 19.091970 0.000000 0.053357
169.000000 46.404000 1.000000 -7.000000 -12.000000 98.400934 -16.931558 1302.650853 774.846562 21.551528 0.000000 0.142940
170.000000 49.366000 2.000000 -7.000000 -12.000000 106.967991 -17.184270 1307.844964 597.256304 20.255025 0.000000 0.126050
171.000000 51.769000 3.000000 -7.000000 -12.000000 115.521026 -17.493343 1314.216803 402.232053 19.311706 0.000000 0.094832
172.000000 53.547000 4.000000 -7.000000 -12.000000 123.965259 -17.879972 1322.218154 179.185187 18.668084 0.000000 0.052200
173.000000 54.674000 5.000000 -7.000000 -12.000000 132.212524 -18.377484 1332.565752 -87.822825 18.280954 0.000000 0.027014
176.000000 47.985000 1.000000 -6.000000 -12.000000 98.095907 -11.241033 1188.913145 784.904517 20.841779 0.000000 0.157275
177.000000 51.175000 1.000000 -3.000000 -6.000000 106.972257 -10.910727 1182.470595 606.466326 9.769632 0.000000 0.144111
178.000000 53.742000 1.000000 -2.000000 -4.000000 115.832205 -10.503801 1174.553208 411.072364 6.200935 0.000000 0.115849
179.000000 55.611000 2.000000 -3.000000 -6.000000 124.570012 -9.990158 1164.589090 187.927010 8.987572 0.000000 0.074565
180.000000 56.755000 5.000000 -6.000000 -12.000000 133.087621 -9.321609 1151.666777 -79.214526 17.610382 0.000000 0.028077
182.000000 49.212000 1.000000 -5.000000 -12.000000 97.155455 -5.222843 1073.383121 805.319129 20.322454 0.000000 0.166150
183.000000 52.623000 2.000000 -5.000000 -12.000000 106.252004 -4.246473 1054.915859 626.384293 19.001968 0.000000 0.155678
184.000000 55.350000 3.000000 -5.000000 -12.000000 115.313363 -3.041081 1032.180036 431.212981 18.062689 0.000000 0.128858
185.000000 57.308000 4.000000 -5.000000 -12.000000 124.216332 -1.516945 1003.502292 208.845988 17.442976 0.000000 0.087331
186.000000 58.471000 5.000000 -5.000000 -12.000000 132.842705 0.468284 966.203146 -57.183888 17.093797 0.000000 0.036494
187.000000 58.871000 6.000000 -5.000000 -12.000000 141.082069 3.153233 915.707035 -394.033529 16.975664 0.000000 0.017989
189.000000 45.769000 0.000000 -1.000000 -3.000000 86.348865 -0.349837 981.571721 1009.680391 5.464055 0.000000 0.159333
190.000000 49.963000 1.000000 -4.000000 -12.000000 95.484848 1.010385 956.018080 837.635838 20.017610 0.000000 0.168794
191.000000 53.577000 1.000000 -2.000000 -6.000000 104.689283 2.653249 925.123380 658.551862 9.332132 0.000000 0.159996
192.000000 56.453000 3.000000 -4.000000 -12.000000 113.821151 4.673288 887.017664 464.237964 17.710165 0.000000 0.133117
193.000000 59.684000 5.000000 -4.000000 -12.000000 131.279608 10.475334 775.999878 -19.883921 16.746541 0.000000 0.036646
194.000000 60.052000 3.000000 -2.000000 -6.000000 139.309620 14.802168 690.587215 -353.698826 8.321100 0.000000 0.054588
196.000000 45.729000 0.000000 -1.000000 -4.000000 83.873293 5.419159 872.897108 1057.048798 7.292083 0.000000 0.152932
197.000000 50.121000 1.000000 -3.000000 -12.000000 93.023734 7.318308 836.773952 883.679789 19.955534 0.000000 0.164780
198.000000 53.907000 2.000000 -3.000000 -12.000000 102.211053 9.596103 793.033749 704.774174 18.550757 0.000000 0.156610
199.000000 56.916000 1.000000 -1.000000 -4.000000 111.273386 12.368413 738.983317 511.989112 5.855645 0.000000 0.128098
200.000000 59.044000 4.000000 -3.000000 -12.000000 120.038865 15.797497 670.490200 294.197583 16.931055 0.000000 0.079609
201.000000 60.264000 5.000000 -3.000000 -12.000000 128.330229 20.112172 580.872937 34.813446 16.586063 0.000000 0.028227
203.000000 49.592000 1.000000 -2.000000 -12.000000 89.760880 13.550290 715.605245 945.620481 20.169716 0.000000 0.154273
204.000000 53.507000 1.000000 -1.000000 -6.000000 98.807634 16.382554 658.585437 767.176767 9.345133 0.000000 0.145648
205.000000 56.625000 3.000000 -2.000000 -12.000000 107.670966 19.777343 587.990913 576.618358 17.658189 0.000000 0.113930
206.000000 58.832000 2.000000 -1.000000 -6.000000 116.158908 23.888117 498.319065 362.828701 8.496482 0.000000 0.057669
207.000000 60.100000 5.000000 -2.000000 -12.000000 124.074179 28.909180 380.628631 109.369216 16.632295 0.000000 0.032964
208.000000 60.475000 3.000000 -1.000000 -6.000000 131.217449 35.071891 219.356277 -210.963602 8.263620 0.000000 0.151074
210.000000 48.324000 1.000000 -1.000000 -12.000000 85.741467 19.566160 592.464985 1026.055135 20.700103 0.000000 0.138897
211.000000 52.317000 2.000000 -1.000000 -12.000000 94.539506 22.838572 521.714699 848.277822 19.116770 0.000000 0.128824
212.000000 55.512000 3.000000 -1.000000 -12.000000 103.100880 26.688505 433.950894 660.653333 18.013321 0.000000 0.093168
213.000000 57.792000 4.000000 -1.000000 -12.000000 111.223701 31.237964 322.197908 452.147208 17.299998 0.000000 0.029763
214.000000 59.124000 5.000000 -1.000000 -12.000000 118.705835 36.620936 175.062974 206.640800 16.908112 0.000000 0.074766
216.000000 46.325000 1.000000 0.000000 -12.000000 81.064092 25.253571 467.304660 1128.117406 21.594733 0.000000 0.124070
217.000000 50.336000 1.000000 0.000000 -6.000000 89.529923 28.838688 382.355469 951.080741 9.935309 0.000000 0.112481
218.000000 53.573000 1.000000 0.000000 -4.000000 97.720155 32.972893 276.770049 767.080156 6.222286 0.000000 0.077885
219.000000 55.916000 2.000000 0.000000 -6.000000 105.434416 37.738506 141.989220 565.238928 8.941075 0.000000 0.052497
220.000000 57.326000 5.000000 0.000000 -12.000000 112.479308 43.209373 -36.039006 329.960253 17.439890 0.000000 0.142909
221.000000 47.633000 2.000000 1.000000 -12.000000 83.946252 34.313170 240.439259 1079.194081 21.000099 0.000000 0.113166
222.000000 50.872000 3.000000 1.000000 -12.000000 91.728582 38.582251 116.351330 899.448913 19.659620 0.000000 0.097452
223.000000 53.263000 4.000000 1.000000 -12.000000 99.025561 43.390164 -42.450972 705.741658 18.774510 0.000000 0.123059
224.000000 54.762000 5.000000 1.000000 -12.000000 105.660927 48.764474 -252.904020 483.231405 18.258208 0.000000 0.235473
226.000000 47.539000 3.000000 2.000000 -12.000000 85.339804 43.529151 -47.406354 1062.009453 21.040235 0.000000 0.160663
227.000000 49.958000 2.000000 1.000000 -6.000000 92.232762 48.259148 -231.273477 877.969402 10.009201 0.000000 0.218237
231.000000 45.723000 4.000000 -11.000000 -11.000000 115.847862 -46.257751 2099.616216 186.879270 21.864150 0.000000 0.213913
233.000000 47.037000 3.000000 -10.000000 -11.000000 111.387001 -39.223134 1853.528058 396.893494 21.255110 0.000000 0.071300
234.000000 48.581000 4.000000 -10.000000 -11.000000 118.742962 -41.816318 1937.869884 148.950819 20.577080 0.000000 0.145986
236.000000 47.676000 2.000000 -9.000000 -11.000000 105.609621 -32.369985 1657.246466 584.975179 20.972684 0.000000 0.049486
237.000000 49.888000 3.000000 -9.000000 -11.000000 113.659992 -34.242536 1707.617507 370.557100 20.039879 0.000000 0.020293
238.000000 51.524000 4.000000 -9.000000 -11.000000 121.533857 -36.529489 1772.273466 119.111344 19.401166 0.000000 0.086306
241.000000 47.365000 1.000000 -8.000000 -11.000000 98.477345 -25.875001 1497.040227 762.707691 21.113649 0.000000 0.107431
242.000000 50.361000 2.000000 -8.000000 -11.000000 107.099568 -27.042392 1524.402779 569.254760 19.854408 0.000000 0.077148
243.000000 52.755000 3.000000 -8.000000 -11.000000 115.665212 -28.469278 1558.633093 352.674650 18.950478 0.000000 0.029493
244.000000 54.482000 4.000000 -8.000000 -11.000000 124.065052 -30.250460 1602.687841 98.533608 18.347160 0.000000 0.037656
245.000000 55.525000 5.000000 -8.000000 -11.000000 132.192799 -32.531424 1661.505245 -216.254778 18.000436 0.000000 0.119365
247.000000 45.846000 0.000000 -7.000000 -11.000000 90.050157 -19.861757 1363.800749 939.998221 21.817214 0.000000 0.136979
248.000000 49.682000 1.000000 -7.000000 -11.000000 99.071390 -20.394270 1375.147736 757.664735 20.129020 0.000000 0.130284
249.000000 52.956000 2.000000 -7.000000 -11.000000 108.168103 -21.041672 1389.049064 562.561852 18.881346 0.000000 0.106513
250.000000 55.539000 3.000000 -7.000000 -11.000000 117.223028 -21.845403 1406.476648 344.477385 18.000191 0.000000 0.066249
251.000000 57.357000 4.000000 -7.000000 -11.000000 126.120125 -22.869392 1428.967101 88.566368 17.427252 0.000000 0.022644
252.000000 58.393000 5.000000 -7.000000 -11.000000 134.751680 -24.217524 1459.101556 -228.968598 17.115967 0.000000 0.067924
254.000000 47.582000 0.000000 -6.000000 -11.000000 89.703743 -14.393304 1251.211333 946.745532 21.021665 0.000000 0.150065
255.000000 51.773000 1.000000 -6.000000 -11.000000 99.124465 -14.391110 1251.167410 762.534243 19.316160 0.000000 0.149323
256.000000 55.333000 2.000000 -6.000000 -11.000000 108.637479 -14.388418 1251.113504 566.248337 18.070366 0.000000 0.130663
257.000000 58.109000 3.000000 -6.000000 -11.000000 118.112853 -14.385035 1251.045779 347.391295 17.204241 0.000000 0.094918
258.000000 60.015000 4.000000 -6.000000 -11.000000 127.423664 -14.380657 1250.958135 90.765967 16.655309 0.000000 0.046831
259.000000 61.038000 5.000000 -6.000000 -11.000000 136.455816 -14.374770 1250.840272 -228.026511 16.374085 0.000000 0.029305
261.000000 48.947000 0.000000 -5.000000 -11.000000 88.749014 -8.552326 1136.858278 964.767650 20.435924 0.000000 0.158227
262.000000 53.488000 1.000000 -5.000000 -11.000000 98.485341 -7.936399 1125.045143 778.875404 18.697249 0.000000 0.162464
263.000000 57.330000 2.000000 -5.000000 -11.000000 108.316328 -7.176626 1110.521517 581.896083 17.441055 0.000000 0.147460
264.000000 60.296000 3.000000 -5.000000 -11.000000 118.093347 -6.216344 1092.233636 363.074842 16.580156 0.000000 0.113997
265.000000 62.289000 4.000000 -5.000000 -11.000000 127.669357 -4.964952 1068.500180 106.934790 16.047181 0.000000 0.065248
266.000000 63.298000 5.000000 -5.000000 -11.000000 136.908873 -3.268410 1036.463378 -211.384704 15.789243 0.000000 0.011726
268.000000 49.790000 0.000000 -4.000000 -11.000000 87.078997 -2.431338 1020.699818 995.967752 20.090481 0.000000 0.160194
269.000000 54.656000 1.000000 -4.000000 -11.000000 97.014820 -1.156355 996.724944 808.538105 18.298456 0.000000 0.168474
270.000000 58.763000 2.000000 -4.000000 -11.000000 107.027713 0.415454 967.195616 611.365822 17.016288 0.000000 0.155726
271.000000 61.910000 3.000000 -4.000000 -11.000000 116.943153 2.397940 929.928671 393.465638 16.148221 0.000000 0.122453
272.000000 63.989000 4.000000 -4.000000 -11.000000 126.582549 4.968941 881.424333 139.168379 15.621064 0.000000 0.071259
273.000000 64.992000 5.000000 -4.000000 -11.000000 135.770235 8.419234 815.697484 -176.672801 15.377914 0.000000 0.023487
275.000000 49.963000 0.000000 -3.000000 -11.000000 84.617038 3.843445 902.692857 1042.645459 20.022037 0.000000 0.155259
276.000000 55.103000 1.000000 -3.000000 -11.000000 94.612094 5.774979 866.148852 853.731853 18.150879 0.000000 0.166602
277.000000 59.440000 2.000000 -3.000000 -11.000000 104.646091 8.139931 821.055275 656.858928 16.822950 0.000000 0.154697
278.000000 62.753000 3.000000 -3.000000 -11.000000 114.514287 11.091033 764.014375 440.838658 15.932046 0.000000 0.119406
279.000000 64.919000 4.000000 -3.000000 -11.000000 124.000675 14.853616 689.553036 189.913534 15.397954 0.000000 0.062652
280.000000 65.933000 5.000000 -3.000000 -11.000000 132.882979 19.765004 588.252655 -121.131508 15.158960 0.000000 0.041112
282.000000 49.342000 0.000000 -2.000000 -11.000000 81.335757 10.125274 782.792918 1107.603545 20.275166 0.000000 0.143554
283.000000 54.681000 1.000000 -2.000000 -11.000000 91.240391 12.658945 733.256853 917.115165 18.291767 0.000000 0.156757
284.000000 59.198000 2.000000 -2.000000 -11.000000 101.131378 15.722226 672.016773 720.996208 16.892852 0.000000 0.144235
285.000000 62.649000 3.000000 -2.000000 -11.000000 110.776353 19.476119 594.368997 507.879451 15.959273 0.000000 0.104589
286.000000 64.904000 4.000000 -2.000000 -11.000000 119.927920 24.137729 492.699505 262.040502 15.402204 0.000000 0.037560
287.000000 65.958000 5.000000 -2.000000 -11.000000 128.331799 29.991218 353.821144 -41.535890 15.154077 0.000000 0.073263
289.000000 47.859000 0.000000 -1.000000 -11.000000 77.269696 16.266423 660.954082 1194.290958 20.904549 0.000000 0.127300
290.000000 53.303000 1.000000 -1.000000 -11.000000 86.942574 19.304757 597.986781 1001.912876 18.766112 0.000000 0.140482
291.000000 57.930000 2.000000 -1.000000 -11.000000 96.545710 22.916372 519.993035 806.919453 17.263916 0.000000 0.126028
292.000000 61.486000 3.000000 -1.000000 -11.000000 105.829215 27.241870 420.865249 597.777028 16.262476 0.000000 0.080701
293.000000 63.832000 4.000000 -1.000000 -11.000000 114.530488 32.449147 290.667131 358.933371 15.662226 0.000000 0.009582
294.000000 64.959000 5.000000 -1.000000 -11.000000 122.389245 38.721059 112.076003 65.899690 15.388354 0.000000 0.128970
296.000000 47.760000 1.000000 1.000000 -11.000000 76.113844 31.321387 320.052438 1252.472421 20.947356 0.000000 0.123914
297.000000 52.366000 2.000000 1.000000 -11.000000 84.852344 35.523386 206.623752 1060.132189 19.101501 0.000000 0.112038
298.000000 56.000000 3.000000 1.000000 -11.000000 93.196668 40.315237 61.743866 862.164995 17.859024 0.000000 0.102450
299.000000 58.514000 4.000000 1.000000 -11.000000 100.905228 45.748101 -129.773707 643.838572 17.089050 0.000000 0.162152
301.000000 48.348000 2.000000 2.000000 -11.000000 78.216233 40.826895 45.085707 1237.729022 20.690935 0.000000 0.161607
302.000000 51.947000 3.000000 2.000000 -11.000000 86.065347 45.602175 -124.159014 1046.809833 19.254358 0.000000 0.186572
303.000000 54.522000 4.000000 2.000000 -11.000000 93.308382 50.884133 -348.630694 842.382722 18.342180 0.000000 0.278938
305.000000 47.331000 3.000000 3.000000 -11.000000 78.750383 50.149407 -314.491513 1275.089910 21.134187 0.000000 0.304105
307.000000 46.001000 3.000000 -11.000000 -10.000000 108.228748 -48.323349 2183.997808 407.909036 21.734746 0.000000 0.226399
309.000000 47.079000 1.000000 -5.000000 -5.000000 103.350114 -41.594715 1930.401254 599.466009 10.619464 0.000000 0.092478
310.000000 49.227000 3.000000 -10.000000 -10.000000 111.064677 -44.282526 2024.670939 361.949935 20.309567 0.000000 0.151409
313.000000 47.324000 1.000000 -9.000000 -10.000000 97.123998 -34.969329 1727.771058 776.846141 21.131952 0.000000 0.071090
314.000000 50.284000 2.000000 -9.000000 -10.000000 105.560262 -37.013200 1786.434731 565.666951 19.884795 0.000000 0.045371
315.000000 52.624000 3.000000 -9.000000 -10.000000 113.867838 -39.479617 1861.585638 324.008567 18.997925 0.000000 0.083852
316.000000 54.283000 4.000000 -9.000000 -10.000000 121.918379 -42.501988 1961.310708 31.661586 18.414944 0.000000 0.178690
318.000000 46.425000 0.000000 -4.000000 -5.000000 89.515775 -28.613585 1562.145782 951.361815 10.772250 0.000000 0.108393
319.000000 50.305000 1.000000 -8.000000 -10.000000 98.532062 -30.004950 1596.522774 754.542310 19.879487 0.000000 0.086423
320.000000 53.581000 1.000000 -4.000000 -5.000000 107.573415 -31.689461 1639.459433 540.402995 9.330389 0.000000 0.045071
321.000000 56.126000 3.000000 -8.000000 -10.000000 116.504425 -33.766576 1694.607330 295.362313 17.812025 0.000000 0.024629
322.000000 57.868000 2.000000 -4.000000 -5.000000 125.186395 -36.383677 1768.039369 -1.608944 8.636675 0.000000 0.110104
324.000000 48.932000 0.000000 -7.000000 -10.000000 89.994003 -23.437276 1441.585707 941.122790 20.440988 0.000000 0.125925
325.000000 53.250000 1.000000 -7.000000 -10.000000 99.579518 -24.381613 1462.812319 741.568088 18.779924 0.000000 0.112447
326.000000 56.867000 2.000000 -7.000000 -10.000000 109.223081 -25.543959 1489.380044 525.051453 17.582301 0.000000 0.078568
327.000000 59.626000 3.000000 -7.000000 -10.000000 118.777193 -27.008266 1523.594935 277.499300 16.765889 0.000000 0.025264
328.000000 61.446000 4.000000 -7.000000 -10.000000 128.095083 -28.906829 1569.313750 -22.864189 16.266827 0.000000 0.055044
330.000000 45.902000 -1.000000 -6.000000 -10.000000 80.102431 -17.423572 1312.776522 1137.827343 21.794804 0.000000 0.128130
331.000000 51.233000 0.000000 -3.000000 -5.000000 89.977078 -17.723414 1318.974000 941.452043 9.761614 0.000000 0.142697
332.000000 56.014000 1.000000 -6.000000 -10.000000 100.091469 -18.089541 1326.569755 739.487862 17.853453 0.000000 0.137130
333.000000 59.988000 1.000000 -3.000000 -5.000000 110.292207 -18.546624 1336.097178 521.232506 8.333660 0.000000 0.110587
334.000000 62.968000 3.000000 -6.000000 -10.000000 120.417182 -19.133275 1348.400474 272.160399 15.875704 0.000000 0.064682
335.000000 64.861000 2.000000 -3.000000 -5.000000 130.310009 -19.913487 1364.899660 -30.154508 7.705055 0.000000 0.025449
338.000000 47.298000 -1.000000 -5.000000 -10.000000 79.024514 -11.786287 1199.580772 1154.228209 21.152405 0.000000 0.131634
339.000000 53.152000 0.000000 -2.000000 -4.000000 89.309577 -11.514481 1194.257840 954.236530 7.527561 0.000000 0.154854
340.000000 58.401000 1.000000 -5.000000 -10.000000 99.867331 -11.180044 1187.722466 750.167422 17.123978 0.000000 0.155885
341.000000 62.738000 2.000000 -5.000000 -10.000000 110.524221 -10.758545 1179.507158 530.862215 15.936877 0.000000 0.134556
342.000000 65.940000 3.000000 -5.000000 -10.000000 121.096067 -10.210969 1168.868641 281.391452 15.160257 0.000000 0.092374
343.000000 67.900000 4.000000 -5.000000 -10.000000 131.406013 -9.470968 1154.549305 -21.197416 14.720164 0.000000 0.036783
345.000000 48.133000 -1.000000 -4.000000 -10.000000 77.258750 -5.814889 1084.608568 1185.626497 20.786374 0.000000 0.129262
346.000000 54.478000 0.000000 -2.000000 -5.000000 87.838659 -4.905898 1067.382578 981.769159 9.180741 0.000000 0.160209
347.000000 60.173000 1.000000 -4.000000 -10.000000 98.705010 -3.784505 1046.195034 775.847370 16.620022 0.000000 0.166544
348.000000 64.860000 1.000000 -2.000000 -5.000000 109.656697 -2.367673 1019.501789 556.219843 7.707891 0.000000 0.148410
349.000000 68.277000 3.000000 -4.000000 -10.000000 120.475453 -0.523616 984.836345 307.608719 14.641479 0.000000 0.106958
350.000000 70.981000 5.000000 -4.000000 -10.000000 140.855739 5.507656 871.219497 -387.424303 14.079600 0.000000 0.024879
351.000000 48.227000 -1.000000 -3.000000 -10.000000 74.718528 0.382336 967.817760 1235.073273 20.746841 0.000000 0.119831
352.000000 54.989000 0.000000 -3.000000 -10.000000 85.441533 1.953386 938.291657 1026.861284 18.191824 0.000000 0.157480
353.000000 61.073000 1.000000 -3.000000 -10.000000 96.439718 3.884978 901.909103 819.238908 16.375892 0.000000 0.167831
354.000000 66.073000 2.000000 -3.000000 -10.000000 107.477978 6.310934 855.968101 600.034206 15.133506 0.000000 0.150899
355.000000 69.690000 3.000000 -3.000000 -10.000000 118.293702 9.435667 796.132211 353.681607 14.345130 0.000000 0.107028
356.000000 71.795000 4.000000 -3.000000 -10.000000 128.612867 13.582019 714.974519 56.679503 13.922285 0.000000 0.042784
357.000000 72.431000 5.000000 -3.000000 -10.000000 138.153861 19.274365 598.627633 -332.184087 13.798082 0.000000 0.070593
359.000000 47.429000 -1.000000 -2.000000 -10.000000 71.365046 6.668473 849.164854 1306.416327 21.096844 0.000000 0.103933
360.000000 54.487000 0.000000 -1.000000 -5.000000 82.056841 8.875592 806.926527 1092.994639 9.180162 0.000000 0.146379
361.000000 60.864000 1.000000 -2.000000 -10.000000 92.988290 11.563486 754.783230 883.650361 16.433223 0.000000 0.159251
362.000000 66.112000 1.000000 -1.000000 -5.000000 103.889897 14.891655 688.788087 665.595619 7.562660 0.000000 0.141470
363.000000 69.906000 3.000000 -2.000000 -10.000000 114.455496 19.086862 602.576055 423.038207 14.301675 0.000000 0.091608
364.000000 72.749000 5.000000 -2.000000 -10.000000 133.267064 31.481209 315.931450 -246.930698 13.738558 0.000000 0.127623
365.000000 45.658000 -1.000000 -1.000000 -10.000000 67.224789 12.894474 728.604959 1404.574703 21.916761 0.000000 0.087558
366.000000 52.852000 0.000000 -1.000000 -10.000000 77.709296 15.662535 673.226555 1184.529808 18.929879 0.000000 0.128976
367.000000 59.387000 1.000000 -1.000000 -10.000000 88.381705 18.984266 604.732734 973.156618 16.843050 0.000000 0.142146
368.000000 64.796000 2.000000 -1.000000 -10.000000 98.946871 23.013610 517.838418 756.902699 15.433805 0.000000 0.121659
369.000000 68.730000 3.000000 -1.000000 -10.000000 109.070315 27.947927 403.978304 519.801306 14.547409 0.000000 0.063208
370.000000 71.036000 4.000000 -1.000000 -10.000000 118.402580 34.026911 248.294603 238.743177 14.072912 0.000000 0.041588
372.000000 50.077000 0.000000 0.000000 -4.000000 72.516403 22.138070 537.128936 1306.997443 7.992004 0.000000 0.114410
373.000000 56.617000 1.000000 0.000000 -10.000000 82.769804 25.930579 451.669536 1092.829412 17.668617 0.000000 0.123601
374.000000 62.079000 2.000000 0.000000 -10.000000 92.850305 30.421846 342.990141 878.857392 16.110835 0.000000 0.101205
375.000000 66.108000 3.000000 0.000000 -10.000000 102.418521 35.751389 200.139379 648.965586 15.125922 0.000000 0.053686
376.000000 68.541000 4.000000 0.000000 -10.000000 111.132583 42.055979 3.994504 380.709158 14.586657 0.000000 0.117253
377.000000 46.298000 0.000000 1.000000 -10.000000 66.672476 28.172186 398.568591 1467.513176 21.612749 0.000000 0.125729
378.000000 52.684000 1.000000 1.000000 -10.000000 76.394783 32.265491 295.501981 1249.055588 18.989258 0.000000 0.125208
379.000000 58.085000 2.000000 1.000000 -10.000000 85.902858 36.994762 164.108352 1037.527703 17.220278 0.000000 0.111842
380.000000 62.154000 3.000000 1.000000 -10.000000 94.874211 42.439433 -9.150973 816.631308 16.090027 0.000000 0.117863
381.000000 64.720000 4.000000 1.000000 -10.000000 102.996916 48.652584 -248.077239 564.959446 15.449735 0.000000 0.226611
383.000000 47.858000 1.000000 2.000000 -10.000000 69.544732 37.932903 136.134662 1449.985165 20.905865 0.000000 0.173909
384.000000 53.092000 1.000000 1.000000 -5.000000 78.445878 42.722199 -18.948149 1240.507208 9.420829 0.000000 0.179652
385.000000 57.139000 3.000000 2.000000 -10.000000 86.827261 48.089666 -224.114402 1030.316572 17.504334 0.000000 0.228067
387.000000 47.470000 2.000000 3.000000 -10.000000 70.803320 47.663692 -206.327230 1497.415615 21.075277 0.000000 0.294665
390.000000 45.549000 2.000000 -11.000000 -9.000000 99.748777 -50.202245 2266.911448 652.102292 21.953237 0.000000 0.255202
392.000000 46.226000 1.000000 -10.000000 -9.000000 94.361816 -43.771041 2006.085360 827.312554 21.634286 0.000000 0.132501
393.000000 49.086000 2.000000 -10.000000 -9.000000 102.402636 -46.519340 2109.944503 597.027876 20.370937 0.000000 0.174018
396.000000 45.885000 0.000000 -3.000000 -3.000000 87.609694 -37.380661 1797.313619 997.539862 7.266024 0.000000 0.102044
397.000000 49.698000 1.000000 -9.000000 -9.000000 96.371141 -39.556745 1864.020285 785.127433 20.122629 0.000000 0.083827
398.000000 52.894000 2.000000 -9.000000 -9.000000 105.080634 -42.152745 1949.307757 549.804229 18.903652 0.000000 0.101015
399.000000 55.352000 1.000000 -3.000000 -3.000000 113.585023 -45.288698 2062.195598 273.106472 6.020530 0.000000 0.181863
401.000000 49.039000 0.000000 -8.000000 -9.000000 88.788652 -32.762557 1667.629255 968.063693 20.396325 0.000000 0.097827
402.000000 53.349000 1.000000 -8.000000 -9.000000 98.240672 -34.654930 1719.009613 751.505792 18.744918 0.000000 0.067984
403.000000 56.922000 2.000000 -8.000000 -9.000000 107.673041 -36.960086 1784.870991 511.828540 17.565298 0.000000 0.041686
404.000000 59.604000 3.000000 -8.000000 -9.000000 116.913409 -39.819006 1872.339599 229.670049 16.772129 0.000000 0.103639
406.000000 46.736000 -1.000000 -7.000000 -9.000000 79.690603 -26.310168 1507.175440 1159.403036 21.405305 0.000000 0.114601
407.000000 52.214000 0.000000 -7.000000 -9.000000 89.657329 -27.510302 1535.529314 948.257757 19.156022 0.000000 0.112056
408.000000 57.081000 1.000000 -7.000000 -9.000000 99.822126 -28.973977 1570.960773 728.005158 17.519246 0.000000 0.088452
409.000000 61.069000 2.000000 -7.000000 -9.000000 110.008148 -30.795978 1616.497749 484.755157 16.372125 0.000000 0.039896
410.000000 63.988000 3.000000 -7.000000 -9.000000 120.025103 -33.120738 1677.182662 198.298989 15.622602 0.000000 0.037444
411.000000 65.756000 4.000000 -7.000000 -9.000000 129.680478 -36.177587 1762.081968 -165.227793 15.200336 0.000000 0.141903
413.000000 49.082000 -1.000000 -6.000000 -9.000000 79.450758 -20.895853 1385.907559 1155.546971 20.382704 0.000000 0.121650
414.000000 55.255000 0.000000 -2.000000 -3.000000 90.050864 -21.591284 1400.945669 939.972431 6.033950 0.000000 0.131840
415.000000 60.728000 1.000000 -6.000000 -9.000000 100.911551 -22.452800 1419.777274 716.494602 16.467121 0.000000 0.118691
416.000000 65.163000 2.000000 -6.000000 -9.000000 111.836039 -23.547390 1444.044967 470.553405 15.343239 0.000000 0.080218
417.000000 70.126000 4.000000 -6.000000 -9.000000 133.049926 -26.946112 1522.124859 -186.864163 14.252588 0.000000 0.075423
419.000000 51.044000 -1.000000 -5.000000 -9.000000 78.604785 -14.959245 1262.571804 1165.535020 19.600136 0.000000 0.127020
420.000000 57.939000 0.000000 -5.000000 -9.000000 89.770146 -15.020632 1263.807610 945.470557 17.263804 0.000000 0.148825
421.000000 64.045000 1.000000 -5.000000 -9.000000 101.251244 -15.097619 1265.358494 719.232831 15.614307 0.000000 0.144749
422.000000 68.946000 2.000000 -5.000000 -9.000000 112.825810 -15.197019 1267.362560 471.581414 14.501246 0.000000 0.114227
423.000000 72.356000 3.000000 -5.000000 -9.000000 124.260505 -15.330288 1270.052428 180.840293 13.815146 0.000000 0.060639
424.000000 74.174000 4.000000 -5.000000 -9.000000 135.338186 -15.518287 1273.852796 -189.279637 13.474423 0.000000 0.028999
426.000000 52.375000 -1.000000 -4.000000 -9.000000 76.996704 -8.565680 1137.114827 1192.350960 19.102535 0.000000 0.126651
427.000000 59.974000 0.000000 -4.000000 -9.000000 88.600517 -7.883993 1124.041714 967.545264 16.678687 0.000000 0.158768
428.000000 66.706000 1.000000 -4.000000 -9.000000 100.553203 -7.023448 1107.599459 738.970735 14.991933 0.000000 0.161907
429.000000 72.069000 2.000000 -4.000000 -9.000000 112.596017 -5.903624 1086.292990 490.681377 13.873106 0.000000 0.136204
430.000000 75.722000 3.000000 -4.000000 -9.000000 124.452660 -4.387974 1057.589081 200.421257 13.201128 0.000000 0.084216
431.000000 77.554000 4.000000 -4.000000 -9.000000 135.859455 -2.225457 1016.825968 -168.915178 12.887055 0.000000 0.017886
433.000000 52.809000 -1.000000 -3.000000 -9.000000 74.492514 -1.834967 1009.481430 1239.787481 18.946796 0.000000 0.118186
434.000000 68.321000 1.000000 -3.000000 -9.000000 98.552156 1.522643 946.390605 779.087810 14.637966 0.000000 0.167888
435.000000 74.111000 2.000000 -3.000000 -9.000000 110.794270 3.950591 900.670800 531.303819 13.491220 0.000000 0.144052
436.000000 79.859000 4.000000 -3.000000 -9.000000 134.021165 11.778443 750.572987 -121.505785 12.515391 0.000000 0.027612
438.000000 52.099000 -1.000000 -2.000000 -9.000000 71.014939 5.064550 879.614483 1312.735278 19.206041 0.000000 0.101462
439.000000 60.771000 0.000000 -2.000000 -9.000000 82.894552 7.342165 836.318386 1076.272606 16.461596 0.000000 0.149524
440.000000 68.507000 1.000000 -2.000000 -9.000000 95.080708 10.185900 781.617520 843.776239 14.599201 0.000000 0.161547
441.000000 74.649000 2.000000 -2.000000 -9.000000 107.211006 13.815797 710.322102 597.671683 13.394887 0.000000 0.136546
442.000000 78.750000 3.000000 -2.000000 -9.000000 118.872690 18.564438 613.530479 314.946895 12.694594 0.000000 0.073625
443.000000 80.679000 4.000000 -2.000000 -9.000000 129.628396 24.935589 474.588005 -41.911639 12.388868 0.000000 0.045916
445.000000 50.095000 -1.000000 -1.000000 -9.000000 66.575604 11.937427 747.454838 1417.605355 19.975848 0.000000 0.083050
446.000000 58.990000 0.000000 -1.000000 -9.000000 78.237012 14.920923 688.199342 1172.944767 16.960038 0.000000 0.131040
447.000000 66.977000 1.000000 -1.000000 -9.000000 90.136581 18.582127 613.160679 938.293224 14.933979 0.000000 0.143810
448.000000 73.355000 2.000000 -1.000000 -9.000000 101.869428 23.138613 515.064043 694.999933 13.632236 0.000000 0.114823
449.000000 77.644000 3.000000 -1.000000 -9.000000 112.974645 28.879654 381.352211 419.895610 12.876496 0.000000 0.038057
450.000000 79.697000 4.000000 -1.000000 -9.000000 122.974255 36.163382 188.327508 76.099996 12.542540 0.000000 0.098213
452.000000 50.917000 0.000000 1.000000 -9.000000 65.993105 28.811614 383.018070 1488.075277 19.651989 0.000000 0.129704
453.000000 58.711000 1.000000 1.000000 -9.000000 76.717254 33.423160 264.690294 1245.427627 17.039658 0.000000 0.127215
454.000000 65.112000 2.000000 1.000000 -9.000000 87.129734 38.819303 109.040011 1010.260550 15.361420 0.000000 0.114469
455.000000 69.635000 3.000000 1.000000 -9.000000 96.792766 45.095740 -104.897231 759.390554 14.360877 0.000000 0.152141
457.000000 52.581000 1.000000 2.000000 -9.000000 68.977695 39.606400 84.409416 1477.875520 19.028021 0.000000 0.191618
458.000000 58.764000 2.000000 2.000000 -9.000000 78.641355 45.022556 -102.142029 1246.888522 17.022792 0.000000 0.208342
459.000000 63.301000 3.000000 2.000000 -9.000000 87.598205 51.116817 -359.667510 1012.915537 15.800092 0.000000 0.295315
461.000000 45.806000 1.000000 3.000000 -9.000000 61.075525 44.967943 -100.090567 1781.628167 21.844419 0.000000 0.313597
466.000000 47.873000 1.000000 -10.000000 -8.000000 92.722945 -48.551396 2193.730545 863.669546 20.890443 0.000000 0.219395
469.000000 47.796000 0.000000 -9.000000 -8.000000 86.068302 -41.891127 1940.402815 1040.370147 20.926763 0.000000 0.135676
470.000000 51.964000 1.000000 -9.000000 -8.000000 95.108289 -44.576013 2035.481911 805.929165 19.245128 0.000000 0.142736
471.000000 55.398000 2.000000 -9.000000 -8.000000 104.031106 -47.776641 2161.015140 540.758918 18.049207 0.000000 0.202908
473.000000 46.203000 -1.000000 -8.000000 -8.000000 77.865534 -35.324268 1737.743438 1224.633813 21.652290 0.000000 0.122585
474.000000 56.401000 1.000000 -8.000000 -8.000000 97.465716 -39.856155 1873.523165 757.269603 17.730778 0.000000 0.082955
475.000000 60.279000 1.000000 -4.000000 -4.000000 107.232129 -42.880600 1974.475467 485.429098 8.293548 0.000000 0.115488
476.000000 63.076000 3.000000 -8.000000 -8.000000 116.688755 -46.635315 2114.555428 153.024718 15.848773 0.000000 0.227018
477.000000 49.370000 -1.000000 -7.000000 -8.000000 78.365739 -30.430249 1607.222150 1198.005754 20.263559 0.000000 0.112528
478.000000 55.617000 0.000000 -7.000000 -8.000000 88.917212 -32.141701 1651.250237 965.024594 17.983997 0.000000 0.098869
479.000000 61.101000 1.000000 -7.000000 -8.000000 99.652735 -34.246348 1707.722287 719.544641 16.366377 0.000000 0.064182
480.000000 65.480000 2.000000 -7.000000 -8.000000 110.342097 -36.889024 1782.782238 442.084337 15.268919 0.000000 0.040979
481.000000 68.526000 3.000000 -7.000000 -8.000000 120.734600 -40.289206 1887.415377 102.058670 14.587634 0.000000 0.133895
483.000000 52.439000 -1.000000 -6.000000 -8.000000 78.435972 -24.885331 1474.264284 1183.767947 19.077971 0.000000 0.114940
484.000000 59.619000 0.000000 -3.000000 -4.000000 89.807533 -26.093467 1502.118967 945.025808 8.388426 0.000000 0.116906
485.000000 65.898000 1.000000 -6.000000 -8.000000 101.448816 -27.611198 1537.940915 695.011685 15.174768 0.000000 0.091572
486.000000 74.130000 3.000000 -6.000000 -8.000000 124.483851 -32.194622 1652.637607 67.409509 13.484278 0.000000 0.058146
487.000000 46.581000 -2.000000 -5.000000 -8.000000 66.343242 -18.254600 1330.004427 1437.477388 21.482160 0.000000 0.083894
488.000000 55.168000 -1.000000 -5.000000 -8.000000 77.889181 -18.675898 1338.800966 1184.786658 18.134814 0.000000 0.120785
489.000000 63.358000 0.000000 -5.000000 -8.000000 90.036098 -19.200798 1349.822125 940.281965 15.787063 0.000000 0.138825
490.000000 70.503000 1.000000 -5.000000 -8.000000 102.540123 -19.872738 1364.033964 686.441466 14.183677 0.000000 0.126304
491.000000 76.030000 2.000000 -5.000000 -8.000000 115.107905 -20.763273 1383.056568 401.614413 13.149502 0.000000 0.081599
492.000000 79.580000 3.000000 -5.000000 -8.000000 127.433076 -21.999047 1409.830296 52.429170 12.560340 0.000000 0.023314
494.000000 47.630000 -1.000000 -2.000000 -4.000000 64.420479 -12.110293 1205.939751 1467.927360 10.505131 0.000000 0.063630
495.000000 57.224000 -1.000000 -4.000000 -8.000000 76.513859 -11.846466 1200.760704 1204.737355 17.484200 0.000000 0.122517
496.000000 74.476000 1.000000 -4.000000 -8.000000 102.529409 -11.084040 1185.849211 697.265063 13.427100 0.000000 0.152631
497.000000 84.409000 3.000000 -4.000000 -8.000000 128.862005 -9.679310 1158.574354 61.193087 11.841604 0.000000 0.050882
498.000000 47.716000 -2.000000 -3.000000 -8.000000 61.653647 -5.558097 1079.736931 1524.391245 20.973553 0.000000 0.034082
499.000000 58.202000 -1.000000 -3.000000 -8.000000 74.106946 -4.519208 1060.069260 1248.405159 17.191079 0.000000 0.115455
500.000000 68.363000 0.000000 -3.000000 -8.000000 87.329890 -3.207728 1035.319818 991.272808 14.632243 0.000000 0.160317
501.000000 77.240000 1.000000 -3.000000 -8.000000 100.997114 -1.502292 1003.226850 731.773922 12.947179 0.000000 0.165709
502.000000 83.960000 2.000000 -3.000000 -8.000000 114.695833 0.800986 959.952597 446.006413 11.907797 0.000000 0.132122
503.000000 87.997000 3.000000 -3.000000 -8.000000 127.976622 4.069771 898.421012 98.689745 11.359038 0.000000 0.064077
504.000000 89.296000 4.000000 -3.000000 -8.000000 140.396530 9.028180 803.989052 -376.173988 11.191813 0.000000 0.035723
505.000000 46.569000 -1.000000 -1.000000 -4.000000 57.965363 1.259309 951.340214 1614.611045 10.745787 0.000000 0.012647
506.000000 57.703000 -1.000000 -2.000000 -8.000000 70.526741 3.103210 916.649516 1322.129435 17.341162 0.000000 0.097954
507.000000 78.152000 1.000000 -2.000000 -8.000000 97.622586 8.403525 815.999018 795.396541 12.796794 0.000000 0.163218
508.000000 89.650000 3.000000 -2.000000 -8.000000 124.255085 17.826566 628.889142 171.071345 11.150175 0.000000 0.049771
509.000000 55.441000 -1.000000 -1.000000 -8.000000 65.751550 10.762219 770.421334 1434.480209 18.049939 0.000000 0.076997
510.000000 66.712000 0.000000 -1.000000 -8.000000 78.881537 13.988766 706.873836 1158.985499 14.996699 0.000000 0.133617
511.000000 76.682000 1.000000 -1.000000 -8.000000 92.322355 18.062647 623.989275 895.088323 13.043221 0.000000 0.145296
512.000000 84.260000 2.000000 -1.000000 -8.000000 105.498419 23.305247 511.357593 616.035352 11.867164 0.000000 0.103995
513.000000 88.776000 3.000000 -1.000000 -8.000000 117.751854 30.164974 349.462291 285.989620 11.260946 0.000000 0.002615
515.000000 51.383000 -1.000000 0.000000 -8.000000 59.915564 18.191883 621.301405 1597.320772 19.476845 0.000000 0.088943
516.000000 72.625000 1.000000 0.000000 -8.000000 85.319036 26.982612 427.012050 1039.892514 13.773383 0.000000 0.121198
517.000000 85.104000 3.000000 0.000000 -8.000000 109.051978 40.381978 59.585378 453.052277 11.748166 0.000000 0.084794
518.000000 45.808000 -1.000000 1.000000 -8.000000 53.296134 25.170847 469.203095 1827.540744 21.848354 0.000000 0.163325
519.000000 56.529000 0.000000 1.000000 -8.000000 65.137230 29.601767 363.535853 1514.618188 17.701379 0.000000 0.135513
520.000000 66.245000 1.000000 1.000000 -8.000000 77.087568 34.874736 224.872047 1241.766543 15.101595 0.000000 0.130612
521.000000 73.912000 2.000000 1.000000 -8.000000 88.570655 41.136023 34.896341 976.657766 13.532035 0.000000 0.124485
522.000000 78.844000 3.000000 1.000000 -8.000000 98.976088 48.495550 -241.338988 684.453405 12.682966 0.000000 0.218541
524.000000 49.137000 0.000000 1.000000 -4.000000 57.207772 36.245366 185.962225 1800.794443 10.182792 0.000000 0.226956
525.000000 58.233000 1.000000 2.000000 -8.000000 68.213263 41.661195 17.363598 1516.832718 17.181267 0.000000 0.217937
526.000000 65.617000 1.000000 1.000000 -4.000000 78.757370 47.862883 -214.608345 1259.888132 7.622362 0.000000 0.255447
534.000000 49.444000 0.000000 -9.000000 -7.000000 83.943011 -46.775335 2120.148714 1107.757320 20.229481 0.000000 0.209428
535.000000 53.977000 1.000000 -9.000000 -7.000000 93.199982 -50.003399 2257.832117 847.379496 18.527696 0.000000 0.251854
537.000000 47.972000 -1.000000 -8.000000 -7.000000 75.701722 -39.883667 1874.400505 1298.477343 20.853863 0.000000 0.157676
538.000000 54.022000 0.000000 -8.000000 -7.000000 85.837058 -42.481609 1960.606628 1047.222207 18.514943 0.000000 0.142518
539.000000 59.299000 1.000000 -8.000000 -7.000000 96.036771 -45.611415 2074.513654 778.286494 16.864151 0.000000 0.158124
540.000000 63.480000 2.000000 -8.000000 -7.000000 106.045932 -49.429182 2232.029251 465.043053 15.750624 0.000000 0.246744
542.000000 51.879000 -1.000000 -7.000000 -7.000000 76.493118 -35.058878 1730.278853 1256.836889 19.283753 0.000000 0.125008
543.000000 65.160000 1.000000 -7.000000 -7.000000 98.871388 -40.251023 1886.183345 720.889989 15.346828 0.000000 0.082829
544.000000 69.935000 2.000000 -7.000000 -7.000000 109.975559 -43.869325 2009.631847 398.335075 14.296055 0.000000 0.139917
546.000000 47.007000 -2.000000 -6.000000 -7.000000 65.288929 -27.969785 1546.547985 1501.795780 21.287230 0.000000 0.116937
547.000000 55.850000 -1.000000 -6.000000 -7.000000 76.910009 -29.468379 1583.154111 1228.451723 17.913095 0.000000 0.112695
548.000000 64.220000 0.000000 -6.000000 -7.000000 89.074988 -31.328700 1630.135834 961.343916 15.574600 0.000000 0.100599
549.000000 71.427000 1.000000 -6.000000 -7.000000 101.494243 -33.693874 1692.632812 677.949058 13.999852 0.000000 0.059418
550.000000 76.877000 2.000000 -6.000000 -7.000000 113.815931 -36.789067 1779.850730 347.802242 13.004473 0.000000 0.048029
551.000000 80.228000 3.000000 -6.000000 -7.000000 125.656795 -40.983776 1910.073418 -81.878119 12.459014 0.000000 0.180194
552.000000 49.330000 -2.000000 -5.000000 -7.000000 64.224768 -22.131438 1412.725866 1502.065233 20.285750 0.000000 0.092436
553.000000 59.606000 -1.000000 -5.000000 -7.000000 76.732358 -23.048320 1432.931429 1216.799117 16.784627 0.000000 0.113917
554.000000 69.404000 0.000000 -5.000000 -7.000000 89.952510 -24.210059 1458.932975 941.978127 14.411491 0.000000 0.123344
555.000000 77.800000 1.000000 -5.000000 -7.000000 103.556862 -25.728369 1493.641957 652.914455 12.852967 0.000000 0.096181
556.000000 83.996000 2.000000 -5.000000 -7.000000 117.143029 -27.793601 1542.311979 317.252157 11.901924 0.000000 0.027308
557.000000 87.553000 3.000000 -5.000000 -7.000000 130.286504 -30.756256 1615.486933 -120.648393 11.415966 0.000000 0.087115
559.000000 50.938000 -2.000000 -4.000000 -7.000000 62.389827 -15.642934 1276.376331 1525.568359 19.646187 0.000000 0.066472
560.000000 62.711000 -1.000000 -4.000000 -7.000000 75.683516 -15.797601 1279.511916 1226.455600 15.954241 0.000000 0.116547
561.000000 74.041000 0.000000 -4.000000 -7.000000 89.859685 -15.996827 1283.557906 943.741986 13.509209 0.000000 0.146759
562.000000 83.726000 1.000000 -4.000000 -7.000000 104.543254 -16.263098 1288.978137 650.146069 11.943268 0.000000 0.135155
563.000000 90.713000 2.000000 -4.000000 -7.000000 119.268358 -16.637087 1296.615990 311.438086 11.020316 0.000000 0.081209
564.000000 51.395000 -2.000000 -3.000000 -7.000000 59.595247 -8.581934 1137.427095 1579.729678 19.472854 0.000000 0.033527
565.000000 64.568000 -1.000000 -3.000000 -7.000000 73.463538 -7.818730 1122.792430 1263.556744 15.496459 0.000000 0.111113
566.000000 77.390000 0.000000 -3.000000 -7.000000 88.348949 -6.827077 1103.856231 972.244934 12.925328 0.000000 0.159462
567.000000 88.356000 1.000000 -3.000000 -7.000000 103.810146 -5.487336 1078.395251 675.216680 11.317624 0.000000 0.159218
568.000000 50.259000 -2.000000 -2.000000 -7.000000 55.706304 -1.107300 995.803094 1675.161771 19.914414 0.000000 0.028980
569.000000 64.504000 -1.000000 -2.000000 -7.000000 69.824256 0.656598 962.665342 1336.507918 15.512903 0.000000 0.092845
570.000000 78.547000 0.000000 -2.000000 -7.000000 85.018904 2.943085 919.665838 1034.929617 12.735713 0.000000 0.156395
571.000000 90.615000 1.000000 -2.000000 -7.000000 100.759406 6.012855 861.632754 735.344642 11.036121 0.000000 0.163360
572.000000 47.235000 -2.000000 -1.000000 -7.000000 50.705097 6.549679 851.426342 1827.563099 21.190248 0.000000 0.099373
573.000000 61.980000 -1.000000 -1.000000 -7.000000 64.674077 9.286093 799.018291 1457.121702 16.145846 0.000000 0.068554
574.000000 76.707000 0.000000 -1.000000 -7.000000 79.684937 12.782561 730.816419 1141.866262 13.042410 0.000000 0.136877
575.000000 89.481000 1.000000 -1.000000 -7.000000 95.116723 17.365831 638.414582 840.024000 11.177080 0.000000 0.146208
576.000000 49.582000 -1.000000 1.000000 -7.000000 50.669113 25.540941 460.689606 1918.422196 20.186004 0.000000 0.189124
577.000000 63.470000 0.000000 1.000000 -7.000000 64.026952 30.602614 338.415060 1550.162029 15.765720 0.000000 0.144343
578.000000 75.904000 1.000000 1.000000 -7.000000 77.509485 36.745582 171.422213 1238.543715 13.179751 0.000000 0.136931
579.000000 85.172000 2.000000 1.000000 -7.000000 90.264481 44.163308 -70.310235 934.074184 11.742595 0.000000 0.152051
581.000000 53.591000 0.000000 2.000000 -7.000000 54.906545 37.987773 134.476559 1900.533315 18.673532 0.000000 0.264670
582.000000 65.056000 1.000000 2.000000 -7.000000 67.147615 44.236705 -72.992817 1574.096621 15.379461 0.000000 0.258948
583.000000 73.969000 2.000000 2.000000 -7.000000 78.706996 51.438186 -375.095012 1285.790539 13.523182 0.000000 0.336329
590.000000 50.646000 0.000000 -3.000000 -2.000000 81.110801 -52.002279 2352.706790 1214.435801 6.583307 0.000000 0.335957
592.000000 49.307000 -1.000000 -8.000000 -6.000000 72.848622 -44.863085 2046.162650 1409.638130 20.289820 0.000000 0.230048
593.000000 56.019000 0.000000 -4.000000 -3.000000 83.306057 -48.051723 2172.518124 1129.972065 8.927632 0.000000 0.235371
594.000000 61.804000 1.000000 -8.000000 -6.000000 93.756486 -51.880013 2346.663281 826.525296 16.180903 0.000000 0.300351
596.000000 54.029000 -1.000000 -7.000000 -6.000000 73.902684 -40.224092 1885.315214 1347.799966 18.516627 0.000000 0.168362
597.000000 62.101000 0.000000 -7.000000 -6.000000 85.525972 -43.249361 1987.453932 1056.620233 16.106308 0.000000 0.152260
598.000000 68.990000 1.000000 -7.000000 -6.000000 97.220670 -46.991628 2128.846223 741.086443 14.494846 0.000000 0.182415
600.000000 48.759000 -1.000000 -3.000000 -3.000000 62.324271 -32.584683 1662.913561 1610.936007 10.261442 0.000000 0.156015
601.000000 59.076000 -1.000000 -6.000000 -6.000000 74.673104 -34.714895 1720.675533 1299.862953 16.935143 0.000000 0.128138
602.000000 77.072000 1.000000 -6.000000 -6.000000 100.741736 -40.795592 1903.887797 671.293538 12.974353 0.000000 0.084808
603.000000 51.818000 -2.000000 -5.000000 -6.000000 61.398386 -26.631942 1514.718719 1597.506402 19.311960 0.000000 0.119574
604.000000 64.169000 -1.000000 -5.000000 -6.000000 74.920149 -28.200164 1552.107895 1270.059092 15.591427 0.000000 0.111877
605.000000 75.948000 0.000000 -5.000000 -6.000000 89.271172 -30.218575 1601.885430 956.844813 13.169707 0.000000 0.103488
606.000000 85.823000 1.000000 -5.000000 -6.000000 103.993742 -32.905439 1671.430944 621.519804 11.651123 0.000000 0.053274
607.000000 54.166000 -1.000000 -2.000000 -3.000000 59.660645 -19.842674 1363.395549 1610.688293 9.237979 0.000000 0.086792
608.000000 68.776000 -1.000000 -4.000000 -6.000000 74.302258 -20.596157 1379.470033 1264.141072 14.547578 0.000000 0.109631
609.000000 55.169000 -2.000000 -3.000000 -6.000000 56.845082 -12.258009 1208.843936 1660.501976 18.141320 0.000000 0.057578
610.000000 72.039000 -1.000000 -3.000000 -6.000000 72.393436 -11.940870 1202.612728 1290.110559 13.889380 0.000000 0.104688
611.000000 54.108000 -1.000000 -1.000000 -3.000000 52.728908 -4.036955 1050.959450 1762.095937 9.249271 0.000000 0.066688
612.000000 72.835000 -1.000000 -2.000000 -6.000000 68.774442 -2.467447 1021.379374 1359.407407 13.738787 0.000000 0.085277
613.000000 50.430000 -2.000000 -1.000000 -6.000000 47.237738 4.534954 889.633106 1939.469360 19.848626 0.000000 0.143185
614.000000 70.104000 -1.000000 -1.000000 -6.000000 63.211612 7.379491 835.605519 1488.940077 14.275235 0.000000 0.056215
615.000000 90.118000 0.000000 -1.000000 -6.000000 80.710692 11.162377 762.622352 1120.438246 11.101246 0.000000 0.141046
616.000000 63.448000 -1.000000 0.000000 -6.000000 55.844947 17.040177 645.118366 1704.743960 15.774027 0.000000 0.097104
617.000000 53.580000 -1.000000 1.000000 -6.000000 47.225520 26.013758 449.736238 2049.024694 18.680230 0.000000 0.229930
618.000000 72.232000 0.000000 1.000000 -6.000000 62.531587 31.910442 304.793636 1600.141987 13.853415 0.000000 0.158437
619.000000 88.672000 1.000000 1.000000 -6.000000 77.976284 39.241560 95.895044 1236.988732 11.281742 0.000000 0.149942
621.000000 73.319000 1.000000 2.000000 -6.000000 65.600975 47.543840 -201.374905 1664.241397 13.646138 0.000000 0.327006
629.000000 45.793000 -2.000000 -7.000000 -5.000000 58.753991 -42.803140 1971.769014 1831.030506 21.851682 0.000000 0.292584
630.000000 55.469000 -1.000000 -7.000000 -5.000000 70.397102 -45.926017 2086.659174 1492.063639 18.036586 0.000000 0.260981
631.000000 64.542000 0.000000 -7.000000 -5.000000 82.419055 -49.723264 2245.167778 1162.575308 15.497535 0.000000 0.273960
633.000000 49.741000 -2.000000 -6.000000 -5.000000 58.455502 -37.791516 1809.604190 1777.074482 20.118081 0.000000 0.228812
634.000000 61.701000 -1.000000 -6.000000 -5.000000 71.468541 -40.671576 1899.830555 1416.676160 16.214974 0.000000 0.183987
635.000000 72.995000 0.000000 -6.000000 -5.000000 85.086264 -44.287855 2024.866285 1070.261852 13.702628 0.000000 0.166960
636.000000 82.350000 1.000000 -6.000000 -5.000000 98.776241 -48.920485 2209.670126 688.130229 12.143017 0.000000 0.223417
638.000000 53.606000 -2.000000 -5.000000 -5.000000 57.614249 -31.848983 1643.605283 1744.659112 18.668487 0.000000 0.176551
639.000000 68.433000 -1.000000 -5.000000 -5.000000 72.145803 -34.251379 1707.860601 1360.421284 14.620148 0.000000 0.132493
640.000000 56.849000 -2.000000 -4.000000 -5.000000 55.942700 -24.857744 1473.634690 1742.822195 17.604541 0.000000 0.134864
641.000000 75.114000 -1.000000 -4.000000 -5.000000 72.044818 -26.453662 1510.534124 1330.568452 13.320323 0.000000 0.108669
642.000000 58.589000 -2.000000 -3.000000 -5.000000 53.082815 -16.780276 1299.548147 1785.572306 17.082955 0.000000 0.108540
643.000000 80.602000 -1.000000 -3.000000 -5.000000 70.599427 -17.173522 1307.623758 1337.723070 12.414120 0.000000 0.097281
644.000000 57.663000 -2.000000 -2.000000 -5.000000 48.683380 -7.735213 1121.194315 1895.788860 17.358654 0.000000 0.126488
645.000000 83.047000 -1.000000 -2.000000 -5.000000 67.132328 -6.566251 1098.889084 1397.926349 12.049634 0.000000 0.074402
646.000000 53.031000 -2.000000 -1.000000 -5.000000 42.567503 1.946862 938.414344 2113.471230 18.876005 0.000000 0.216785
647.000000 80.321000 -1.000000 -1.000000 -5.000000 61.128461 4.828828 884.075681 1536.562854 12.459901 0.000000 0.037203
649.000000 83.525000 0.000000 1.000000 -5.000000 60.415107 33.689788 257.478063 1675.382224 11.980609 0.000000 0.182408
657.000000 63.066000 -1.000000 -6.000000 -4.000000 66.994089 -47.337407 2142.897946 1615.346393 15.864441 0.000000 0.308505
659.000000 53.962000 -2.000000 -5.000000 -4.000000 52.561360 -37.859068 1811.638031 1984.718964 18.545847 0.000000 0.280268
660.000000 71.583000 -1.000000 -5.000000 -4.000000 67.995729 -41.285952 1920.080170 1519.825450 13.977260 0.000000 0.208841
661.000000 88.459000 0.000000 -5.000000 -4.000000 84.420655 -45.769713 2080.607753 1091.728644 11.307283 0.000000 0.191004
662.000000 58.089000 -1.000000 -2.000000 -2.000000 50.833869 -30.847830 1617.818531 1962.214264 8.614684 0.000000 0.224459
663.000000 80.895000 -1.000000 -4.000000 -4.000000 68.405282 -33.593030 1689.899497 1452.435922 12.368723 0.000000 0.139598
664.000000 60.628000 -2.000000 -3.000000 -4.000000 47.820684 -22.398014 1418.572844 1995.790474 16.509002 0.000000 0.196528
665.000000 89.735000 -1.000000 -3.000000 -4.000000 67.551714 -23.901640 1451.984840 1427.389627 11.150876 0.000000 0.099929
666.000000 59.754000 -1.000000 -1.000000 -2.000000 42.998611 -12.503104 1213.669868 2123.278995 8.375998 0.000000 0.225127
668.000000 80.274000 -1.000000 0.000000 -4.000000 47.978687 14.944139 687.732207 1944.774890 12.468973 0.000000 0.160818
678.000000 84.277000 -1.000000 -4.000000 -3.000000 62.655114 -42.181717 1950.298432 1692.107863 11.872861 0.000000 0.253783
#UB matrix in q= (UB) B0 G* 
#[[-0.602111356  0.387922715  0.696668253]
# [ 0.198675435  0.919243975 -0.340152746]
# [-0.773298123 -0.066458462 -0.63124161 ]]
#B0 matrix in q= UB (B0) G*
#[[ 0.19670273 -0.          0.03056101]
# [ 0.          0.19187965 -0.        ]
# [ 0.          0.          0.18806537]]
#UBB0 matrix in q= (UB B0) G* i.e. recip. basis vectors are columns in LT frame: astar = UBB0[:,0], bstar = UBB0[:,1], cstar = UBB0[:,2]. (abcstar as columns on xyzlab1, xlab1 = ui, ui = unit vector along incident beam)
#[[-0.11843695  0.07443448  0.11261805]
# [ 0.03908     0.17638421 -0.05789923]
# [-0.15210985 -0.01275203 -0.14234746]]
#Euler angles phi theta psi (deg)
#[274.887 129.093 115.982]
#deviatoric strain in direct crystal frame (10-3 unit)
#[[  6.33  -0.26  -1.05]
# [ -0.26   6.2    0.38]
# [ -1.05   0.38 -12.52]]
#deviatoric strain in sample2 frame (10-3 unit)
#[[  6.42   0.65   1.18]
# [  0.66   3.84  -6.04]
# [  1.21  -6.03 -10.26]]
#new lattice parameters
#[ 5.1505     5.2109024  5.3176379 89.9725437 99.2928421 90.0299207]
#CCDLabel
#sCMOS
#DetectorParameters
#[79.0, 975.0, 941.0, 0.0, 0.0]
#pixelsize
#0.0734
#Frame dimensions
#[2018, 2016]
#
