#Strain and Orientation Refinement from experimental file: /home/micha/LaueProjects/DepthEffects/testZrO2_145.cor
#File created at Wed Jun 28 14:27:05 2023 with indexingSpotsSet.py
#Number of indexed spots: 507
#Element
#ZrO2
#grainIndex
#G_0
#Mean Deviation(pixel): 0.113
##spot_index intensity h k l 2theta Chi Xexp Yexp Energy GrainIndex PixDev
0.000000 45.649000 7.000000 -7.000000 -13.000000 113.566232 -31.769532 1641.538631 388.799086 21.906175 0.000000 0.011419
1.000000 45.590000 8.000000 -7.000000 -13.000000 117.642141 -26.391295 1509.073320 311.736286 21.933162 0.000000 0.033969
2.000000 45.646000 7.000000 -6.000000 -13.000000 108.842679 -27.413642 1533.223110 527.242065 21.909597 0.000000 0.066678
3.000000 45.584000 8.000000 -6.000000 -13.000000 112.774746 -22.104093 1412.127342 453.279026 21.938065 0.000000 0.083477
11.000000 47.504000 8.000000 -9.000000 -12.000000 130.775449 -36.070554 1759.000345 -207.380951 21.045061 0.000000 0.157482
12.000000 46.949000 3.000000 -3.000000 -4.000000 134.563451 -29.406333 1581.617400 -275.788517 7.097603 0.000000 0.115242
13.000000 46.110000 10.000000 -9.000000 -12.000000 137.560639 -22.143973 1413.000311 -329.802587 21.679418 0.000000 0.081045
15.000000 47.826000 5.000000 -8.000000 -12.000000 112.108615 -46.986297 2128.631011 300.068520 20.908765 0.000000 0.215616
16.000000 48.487000 3.000000 -4.000000 -6.000000 117.744570 -42.068423 1946.429603 178.368843 10.310966 0.000000 0.149234
17.000000 48.656000 7.000000 -8.000000 -12.000000 122.751609 -36.555082 1773.018268 79.115632 20.549172 0.000000 0.100391
18.000000 48.386000 2.000000 -2.000000 -3.000000 127.045826 -30.452160 1607.775888 -1.397662 5.165610 0.000000 0.066552
19.000000 47.747000 9.000000 -8.000000 -12.000000 130.566355 -23.819436 1450.138521 -66.189663 20.938381 0.000000 0.045040
20.000000 46.808000 5.000000 -4.000000 -6.000000 133.282917 -16.782462 1299.592963 -117.736507 10.678699 0.000000 0.032060
21.000000 45.641000 11.000000 -8.000000 -12.000000 135.202185 -9.529063 1155.671171 -158.082665 21.902917 0.000000 0.022822
22.000000 47.186000 4.000000 -7.000000 -12.000000 102.143697 -46.679763 2116.327834 603.433267 21.195789 0.000000 0.178018
23.000000 48.450000 5.000000 -7.000000 -12.000000 108.231334 -42.083063 1946.928737 463.322373 20.641124 0.000000 0.105931
24.000000 49.136000 6.000000 -7.000000 -12.000000 113.736301 -36.969676 1785.153188 348.633300 20.351126 0.000000 0.051494
25.000000 49.287000 7.000000 -7.000000 -12.000000 118.562749 -31.342761 1630.497881 254.982875 20.287503 0.000000 0.015211
26.000000 48.967000 8.000000 -7.000000 -12.000000 122.639148 -25.245189 1482.502863 178.852493 20.419012 0.000000 0.022356
27.000000 48.253000 9.000000 -7.000000 -12.000000 125.924617 -18.768819 1340.746961 117.392155 20.719907 0.000000 0.038725
28.000000 47.229000 10.000000 -7.000000 -12.000000 128.413756 -12.054506 1204.843780 68.274716 21.168779 0.000000 0.047463
29.000000 45.970000 11.000000 -7.000000 -12.000000 130.138131 -5.278538 1074.438188 29.586072 21.747683 0.000000 0.049075
30.000000 47.294000 2.000000 -3.000000 -6.000000 97.678553 -42.095814 1947.363690 745.439865 10.574685 0.000000 0.102276
31.000000 48.643000 5.000000 -6.000000 -12.000000 103.669116 -37.328424 1795.760637 611.816551 20.560852 0.000000 0.048101
32.000000 49.369000 2.000000 -2.000000 -4.000000 109.035424 -32.109958 1650.418827 502.594597 6.752401 0.000000 0.032556
33.000000 49.518000 7.000000 -6.000000 -12.000000 113.689817 -26.471755 1510.958221 413.457355 20.194767 0.000000 0.052158
34.000000 49.165000 4.000000 -3.000000 -6.000000 117.575859 -20.482203 1377.028929 340.970961 10.169184 0.000000 0.070804
35.000000 48.399000 3.000000 -2.000000 -4.000000 120.672728 -14.248217 1248.308272 282.375702 6.886453 0.000000 0.082177
36.000000 47.310000 5.000000 -3.000000 -6.000000 122.996389 -7.907835 1124.498193 235.433276 10.567082 0.000000 0.086346
37.000000 45.984000 11.000000 -6.000000 -12.000000 124.596625 -1.613794 1005.322952 198.313299 21.743212 0.000000 0.084115
38.000000 46.855000 4.000000 -5.000000 -12.000000 92.539486 -37.641873 1805.111942 880.716384 21.349966 0.000000 0.084284
39.000000 48.303000 5.000000 -5.000000 -12.000000 98.421977 -32.777512 1668.026602 751.467274 20.707749 0.000000 0.071560
40.000000 49.087000 6.000000 -5.000000 -12.000000 103.653940 -27.537227 1536.172458 646.139666 20.375584 0.000000 0.084615
41.000000 49.259000 7.000000 -5.000000 -12.000000 108.158164 -21.972745 1409.255682 560.353660 20.302951 0.000000 0.101459
42.000000 48.903000 8.000000 -5.000000 -12.000000 111.893578 -16.166203 1287.004047 490.665519 20.449743 0.000000 0.113767
43.000000 48.115000 9.000000 -5.000000 -12.000000 114.856919 -10.226248 1169.164975 434.335454 20.783711 0.000000 0.119904
44.000000 46.994000 10.000000 -5.000000 -12.000000 117.080354 -4.277599 1055.503801 389.160782 21.278630 0.000000 0.119996
45.000000 45.632000 11.000000 -5.000000 -12.000000 118.625239 1.553943 945.802208 353.353997 21.912956 0.000000 0.114606
46.000000 45.771000 1.000000 -1.000000 -3.000000 86.744190 -33.363501 1683.701998 1014.307019 5.464503 0.000000 0.100064
47.000000 47.336000 5.000000 -4.000000 -12.000000 92.516420 -28.470776 1558.669491 887.191337 21.133752 0.000000 0.105408
48.000000 48.203000 3.000000 -2.000000 -6.000000 97.628623 -23.279590 1438.071112 784.068139 10.375907 0.000000 0.120980
49.000000 48.431000 7.000000 -4.000000 -12.000000 102.014461 -17.853784 1321.675093 700.353601 20.652665 0.000000 0.135108
50.000000 48.109000 2.000000 -1.000000 -3.000000 105.646412 -12.279439 1209.265543 632.495236 5.197455 0.000000 0.144164
51.000000 47.340000 9.000000 -4.000000 -12.000000 108.534691 -6.658282 1100.641110 577.701879 21.126451 0.000000 0.147496
52.000000 46.229000 5.000000 -2.000000 -6.000000 110.722065 -1.097226 995.613778 533.753877 10.816503 0.000000 0.145377
53.000000 45.669000 5.000000 -3.000000 -12.000000 86.007391 -24.433585 1463.989643 1023.511970 21.907933 0.000000 0.123729
54.000000 46.650000 2.000000 -1.000000 -4.000000 91.021600 -19.347661 1352.918285 920.658568 7.148493 0.000000 0.140036
55.000000 46.974000 7.000000 -3.000000 -12.000000 95.326320 -14.105989 1245.466043 837.536730 21.296251 0.000000 0.153425
56.000000 46.732000 8.000000 -3.000000 -12.000000 98.904381 -8.791667 1141.458866 770.367668 21.405259 0.000000 0.161530
57.000000 46.031000 3.000000 -1.000000 -4.000000 101.774766 -3.494946 1040.733688 716.227042 7.243224 0.000000 0.164073
71.000000 52.326000 6.000000 -8.000000 -11.000000 123.109553 -43.047190 1980.319247 -19.442113 19.107655 0.000000 0.204344
72.000000 52.251000 7.000000 -8.000000 -11.000000 128.286918 -36.769701 1779.283655 -119.619353 19.133860 0.000000 0.146071
73.000000 51.688000 8.000000 -8.000000 -11.000000 132.603647 -29.709179 1589.135959 -198.631957 19.341139 0.000000 0.102620
74.000000 50.728000 9.000000 -8.000000 -11.000000 135.985105 -21.961724 1409.014963 -260.115977 19.706310 0.000000 0.069446
75.000000 49.462000 10.000000 -8.000000 -11.000000 138.401240 -13.738971 1238.147962 -307.020874 20.209985 0.000000 0.042336
76.000000 47.976000 11.000000 -8.000000 -11.000000 139.878382 -5.352504 1075.839659 -341.755493 20.835827 0.000000 0.018216
77.000000 46.343000 12.000000 -8.000000 -11.000000 140.500768 2.847673 921.462710 -366.299340 21.569968 0.000000 0.011496
80.000000 51.695000 4.000000 -7.000000 -11.000000 106.926682 -48.083106 2173.838256 450.692706 19.345400 0.000000 0.219988
81.000000 52.872000 5.000000 -7.000000 -11.000000 113.392297 -42.987538 1978.223077 304.525549 18.912914 0.000000 0.141152
82.000000 53.359000 6.000000 -7.000000 -11.000000 119.148233 -37.223973 1792.661846 187.185542 18.738824 0.000000 0.084379
83.000000 53.225000 7.000000 -7.000000 -11.000000 124.077447 -30.792094 1616.398874 93.430239 18.784886 0.000000 0.047825
84.000000 52.564000 8.000000 -7.000000 -11.000000 128.095352 -23.757650 1448.752356 19.094037 19.020050 0.000000 0.031436
85.000000 51.483000 9.000000 -7.000000 -11.000000 131.160471 -16.269349 1289.105555 -39.163965 19.418840 0.000000 0.029240
86.000000 50.085000 10.000000 -7.000000 -11.000000 133.282897 -8.554457 1136.899221 -84.045704 19.960163 0.000000 0.028577
87.000000 48.466000 11.000000 -7.000000 -11.000000 134.525855 -0.884952 991.625046 -117.752848 20.626399 0.000000 0.024425
88.000000 46.708000 12.000000 -7.000000 -11.000000 134.996950 6.476443 852.819992 -142.091664 21.402718 0.000000 0.019611
89.000000 47.337000 2.000000 -6.000000 -11.000000 88.039018 -51.899168 2347.607921 1000.721846 21.132852 0.000000 0.310310
90.000000 50.146000 3.000000 -6.000000 -11.000000 95.486128 -47.688831 2157.368843 787.436415 19.947081 0.000000 0.197440
91.000000 52.189000 4.000000 -6.000000 -11.000000 102.458990 -42.936501 1976.432876 616.184197 19.163965 0.000000 0.110795
92.000000 53.442000 5.000000 -6.000000 -11.000000 108.797710 -37.609212 1804.133892 478.545615 18.712893 0.000000 0.045926
93.000000 53.940000 6.000000 -6.000000 -11.000000 114.365256 -31.705201 1639.867879 368.053414 18.538854 0.000000 0.007441
94.000000 53.763000 7.000000 -6.000000 -11.000000 119.058635 -25.270574 1483.085860 279.671797 18.598353 0.000000 0.035207
95.000000 53.024000 8.000000 -6.000000 -11.000000 122.818577 -18.412093 1333.287768 209.432259 18.856545 0.000000 0.055000
96.000000 51.844000 9.000000 -6.000000 -11.000000 125.636189 -11.297558 1190.017117 154.173958 19.285191 0.000000 0.064595
97.000000 50.339000 10.000000 -6.000000 -11.000000 127.554000 -4.137422 1052.856355 111.355386 19.861161 0.000000 0.065567
98.000000 48.615000 11.000000 -6.000000 -11.000000 128.659251 2.849793 921.422801 78.915621 20.565328 0.000000 0.059420
99.000000 46.758000 12.000000 -6.000000 -11.000000 129.069940 9.475402 795.365078 55.170660 21.381738 0.000000 0.047714
100.000000 46.818000 2.000000 -5.000000 -11.000000 82.904380 -47.344599 2143.192126 1138.725029 21.369483 0.000000 0.221201
101.000000 49.848000 3.000000 -5.000000 -11.000000 90.303795 -42.892339 1974.886208 933.210573 20.068159 0.000000 0.129326
102.000000 52.053000 4.000000 -5.000000 -11.000000 97.183422 -37.940014 1814.080088 768.996749 19.216263 0.000000 0.069748
103.000000 53.401000 5.000000 -5.000000 -11.000000 103.381343 -32.485166 1660.283397 637.467248 18.729238 0.000000 0.055129
104.000000 53.935000 6.000000 -5.000000 -11.000000 108.768390 -26.560812 1513.047608 532.107638 18.542489 0.000000 0.072657
105.000000 53.747000 7.000000 -5.000000 -11.000000 113.259525 -20.245114 1371.961660 447.913018 18.605818 0.000000 0.091108
106.000000 52.965000 8.000000 -5.000000 -11.000000 116.820854 -13.663608 1236.648129 380.984042 18.879624 0.000000 0.102354
107.000000 51.723000 9.000000 -5.000000 -11.000000 119.470807 -6.979417 1106.759857 328.245122 19.332251 0.000000 0.105779
108.000000 50.150000 10.000000 -5.000000 -11.000000 121.274544 -0.371409 981.976976 287.243867 19.938085 0.000000 0.102094
109.000000 48.359000 11.000000 -5.000000 -11.000000 122.332132 5.993294 862.004278 256.005799 20.676184 0.000000 0.092215
110.000000 46.442000 12.000000 -5.000000 -11.000000 122.763122 11.982565 746.568886 232.927411 21.529253 0.000000 0.077033
111.000000 45.513000 2.000000 -4.000000 -11.000000 77.027756 -42.853750 1973.536545 1279.201661 21.985036 0.000000 0.179297
112.000000 48.763000 3.000000 -4.000000 -11.000000 84.342929 -38.227139 1822.785870 1076.716590 20.517507 0.000000 0.113159
113.000000 51.141000 4.000000 -4.000000 -11.000000 91.108914 -33.158895 1678.204950 916.114092 19.561415 0.000000 0.090775
114.000000 52.611000 5.000000 -4.000000 -11.000000 97.166457 -27.673097 1539.422618 788.193223 19.012976 0.000000 0.100888
115.000000 53.218000 6.000000 -4.000000 -11.000000 102.397569 -21.827984 1406.096893 686.136635 18.794703 0.000000 0.118354
116.000000 53.065000 7.000000 -4.000000 -11.000000 106.735526 -15.718721 1277.912166 604.795749 18.847582 0.000000 0.131650
117.000000 52.290000 8.000000 -4.000000 -11.000000 110.168042 -9.472387 1154.576709 540.217617 19.125868 0.000000 0.138161
118.000000 51.039000 9.000000 -4.000000 -11.000000 112.733228 -3.234295 1035.820457 489.323335 19.593561 0.000000 0.137855
119.000000 49.452000 10.000000 -4.000000 -11.000000 114.509336 2.851374 921.393032 449.684348 20.221939 0.000000 0.131371
120.000000 47.646000 11.000000 -4.000000 -11.000000 115.600639 8.660560 811.061982 419.363612 20.987807 0.000000 0.119482
121.000000 45.719000 12.000000 -4.000000 -11.000000 116.122646 14.102121 704.611209 396.800751 21.872231 0.000000 0.102937
122.000000 46.772000 3.000000 -3.000000 -11.000000 77.643038 -33.746554 1694.063228 1224.572314 21.393607 0.000000 0.117632
123.000000 49.335000 4.000000 -3.000000 -11.000000 84.284741 -28.641179 1562.818574 1063.736092 20.280320 0.000000 0.112483
124.000000 50.958000 5.000000 -3.000000 -11.000000 90.214249 -23.206648 1436.448149 936.621029 19.632547 0.000000 0.127791
125.000000 51.685000 6.000000 -3.000000 -11.000000 95.325556 -17.516030 1314.685371 835.792825 19.354771 0.000000 0.144442
126.000000 51.625000 7.000000 -3.000000 -11.000000 99.567620 -11.669008 1197.282750 755.755471 19.375936 0.000000 0.155793
127.000000 50.923000 8.000000 -3.000000 -11.000000 102.943739 -5.783361 1084.010208 692.365284 19.642086 0.000000 0.160517
128.000000 49.732000 9.000000 -3.000000 -11.000000 105.503580 0.018442 974.653577 642.444743 20.111513 0.000000 0.158874
129.000000 48.196000 10.000000 -3.000000 -11.000000 107.330382 5.624000 869.013242 603.521000 20.751466 0.000000 0.151557
130.000000 46.439000 11.000000 -3.000000 -11.000000 108.526459 10.942879 766.902930 573.644554 21.535873 0.000000 0.139347
131.000000 46.572000 4.000000 -2.000000 -11.000000 76.802805 -24.416900 1463.611581 1218.177188 21.486693 0.000000 0.115552
132.000000 48.380000 5.000000 -2.000000 -11.000000 82.624162 -19.098228 1347.663028 1088.439951 20.681928 0.000000 0.133127
133.000000 49.281000 6.000000 -2.000000 -11.000000 87.656815 -13.613719 1235.655801 986.314125 20.302438 0.000000 0.151009
134.000000 49.380000 7.000000 -2.000000 -11.000000 91.860932 -8.058929 1127.392299 905.681529 20.259987 0.000000 0.163189
135.000000 48.825000 8.000000 -2.000000 -11.000000 95.248646 -2.536974 1022.687913 842.031090 20.489167 0.000000 0.168659
136.000000 47.770000 9.000000 -2.000000 -11.000000 97.873799 2.852598 921.369972 791.968778 20.940469 0.000000 0.167842
137.000000 46.362000 10.000000 -2.000000 -11.000000 99.818297 8.024007 823.276802 752.896126 21.575724 0.000000 0.161526
138.000000 46.013000 6.000000 -1.000000 -11.000000 79.523686 -10.096635 1166.652002 1143.149766 21.747599 0.000000 0.137340
139.000000 46.339000 7.000000 -1.000000 -11.000000 83.741556 -4.844948 1066.229299 1059.457173 21.592996 0.000000 0.153063
140.000000 46.006000 8.000000 -1.000000 -11.000000 87.198575 0.324460 968.905002 993.667255 21.747793 0.000000 0.161766
159.000000 57.759000 5.000000 -7.000000 -10.000000 119.155698 -44.160311 2020.200832 104.040943 17.311096 0.000000 0.197095
160.000000 57.953000 6.000000 -7.000000 -10.000000 125.169001 -37.559842 1802.657066 -15.672125 17.251948 0.000000 0.131912
161.000000 57.434000 7.000000 -7.000000 -10.000000 130.163595 -30.054582 1597.766636 -108.470235 17.406533 0.000000 0.086734
162.000000 56.339000 8.000000 -7.000000 -10.000000 134.035303 -21.752705 1404.456777 -179.431285 17.744029 0.000000 0.055619
163.000000 54.808000 9.000000 -7.000000 -10.000000 136.743996 -12.913573 1221.772659 -232.576064 18.239268 0.000000 0.032301
164.000000 52.971000 10.000000 -7.000000 -10.000000 138.329799 -3.925817 1048.861612 -271.116092 18.871498 0.000000 0.011131
165.000000 50.941000 11.000000 -7.000000 -10.000000 138.912547 4.782091 884.959821 -297.636592 19.623452 0.000000 0.011749
166.000000 48.809000 12.000000 -7.000000 -10.000000 138.668706 12.855211 729.381043 -314.233296 20.480650 0.000000 0.038215
167.000000 46.645000 13.000000 -7.000000 -10.000000 137.795209 20.082403 581.507008 -322.615932 21.430855 0.000000 0.068856
170.000000 55.737000 3.000000 -6.000000 -10.000000 100.378844 -49.287044 2225.735344 638.784279 17.944568 0.000000 0.234734
171.000000 57.783000 2.000000 -3.000000 -5.000000 107.882559 -44.006144 2014.588385 458.185380 8.653537 0.000000 0.138011
172.000000 58.844000 5.000000 -6.000000 -10.000000 114.593328 -37.972196 1815.052462 316.100214 16.993437 0.000000 0.068555
173.000000 58.995000 3.000000 -3.000000 -5.000000 120.340762 -31.175397 1626.195464 204.706127 8.474291 0.000000 0.025358
174.000000 58.369000 7.000000 -6.000000 -10.000000 125.001662 -23.687604 1447.182447 117.984696 17.129252 0.000000 0.024529
175.000000 57.126000 4.000000 -3.000000 -5.000000 128.515983 -15.686709 1277.263300 51.247268 8.750500 0.000000 0.037600
176.000000 55.430000 9.000000 -6.000000 -10.000000 130.898326 -7.451090 1115.762233 0.800571 18.036053 0.000000 0.042150
177.000000 53.427000 5.000000 -3.000000 -5.000000 132.237918 0.688350 962.068800 -36.293270 9.355887 0.000000 0.038309
178.000000 51.242000 11.000000 -6.000000 -10.000000 132.682562 8.422740 815.630182 -62.391762 19.509522 0.000000 0.029339
179.000000 48.972000 6.000000 -3.000000 -5.000000 132.410550 15.528303 675.944550 -79.401563 10.206907 0.000000 0.025056
180.000000 46.690000 13.000000 -6.000000 -10.000000 131.601357 21.889787 542.555311 -88.875587 21.411678 0.000000 0.039442
182.000000 52.593000 2.000000 -5.000000 -10.000000 87.082097 -48.789762 2203.997881 1024.269421 19.021649 0.000000 0.236060
183.000000 55.891000 3.000000 -5.000000 -10.000000 95.132046 -43.875346 2009.849477 806.903318 17.896980 0.000000 0.130419
184.000000 58.109000 4.000000 -5.000000 -10.000000 102.517657 -38.318408 1825.567620 636.432512 17.211826 0.000000 0.056793
185.000000 59.382000 6.000000 -5.000000 -10.000000 114.529691 -25.299068 1483.740558 397.724921 16.840003 0.000000 0.056384
186.000000 58.684000 7.000000 -5.000000 -10.000000 118.909227 -18.010768 1324.932846 316.001572 17.039082 0.000000 0.076256
187.000000 57.335000 8.000000 -5.000000 -10.000000 122.157216 -10.447069 1173.451078 252.937083 17.439264 0.000000 0.085495
188.000000 55.517000 9.000000 -5.000000 -10.000000 124.331091 -2.861611 1028.799753 205.027947 18.009575 0.000000 0.085031
189.000000 53.395000 4.000000 -2.000000 -4.000000 125.549848 4.487658 890.527071 169.507825 7.490037 0.000000 0.076355
190.000000 51.101000 11.000000 -5.000000 -10.000000 125.971037 11.387763 758.220220 144.170502 19.565536 0.000000 0.060954
191.000000 48.737000 12.000000 -5.000000 -10.000000 125.764517 17.700455 631.501255 127.240763 20.514232 0.000000 0.040576
192.000000 46.379000 13.000000 -5.000000 -10.000000 125.090757 23.365124 510.023496 117.278800 21.557348 0.000000 0.020437
193.000000 46.917000 1.000000 -4.000000 -10.000000 72.539010 -48.358146 2185.477241 1450.500264 21.327862 0.000000 0.290498
194.000000 51.517000 1.000000 -2.000000 -5.000000 80.971385 -43.762977 2005.794894 1177.800881 9.710622 0.000000 0.173329
195.000000 55.094000 3.000000 -4.000000 -10.000000 88.927688 -38.613191 1834.600195 966.782198 18.158274 0.000000 0.099623
196.000000 57.508000 2.000000 -2.000000 -5.000000 96.169424 -32.900737 1671.305625 802.433927 8.696973 0.000000 0.078064
197.000000 58.753000 5.000000 -4.000000 -10.000000 102.498759 -26.659922 1515.376664 674.033321 17.023773 0.000000 0.093264
198.000000 58.932000 3.000000 -2.000000 -5.000000 107.780584 -19.980578 1366.325953 573.735820 8.485276 0.000000 0.112173
199.000000 58.224000 7.000000 -4.000000 -10.000000 111.955612 -13.011426 1223.708198 495.685139 17.176007 0.000000 0.123765
200.000000 56.833000 4.000000 -2.000000 -5.000000 115.042060 -5.946955 1087.115731 435.432675 8.797662 0.000000 0.126650
201.000000 54.963000 9.000000 -4.000000 -10.000000 117.125315 1.002054 956.174618 389.547851 18.193476 0.000000 0.121504
202.000000 52.788000 5.000000 -2.000000 -5.000000 118.337962 7.644476 830.541242 355.350131 9.471344 0.000000 0.109376
203.000000 50.449000 11.000000 -4.000000 -10.000000 118.835602 13.837020 709.899286 330.720681 19.820655 0.000000 0.091305
204.000000 48.052000 6.000000 -2.000000 -5.000000 118.774859 19.495607 593.957081 313.967459 10.404628 0.000000 0.068213
205.000000 45.672000 13.000000 -4.000000 -10.000000 118.297935 24.590703 482.445247 303.726931 21.893618 0.000000 0.040908
206.000000 49.299000 2.000000 -3.000000 -10.000000 73.972278 -38.867198 1842.443093 1338.103844 20.297850 0.000000 0.153827
207.000000 53.150000 3.000000 -3.000000 -10.000000 81.796778 -33.578301 1689.500815 1127.235063 18.824994 0.000000 0.109568
208.000000 55.788000 4.000000 -3.000000 -10.000000 88.885396 -27.823175 1543.022084 964.677655 17.932996 0.000000 0.112094
209.000000 57.198000 5.000000 -3.000000 -10.000000 95.051299 -21.667645 1402.605642 838.632161 17.489385 0.000000 0.130686
210.000000 57.490000 6.000000 -3.000000 -10.000000 100.180560 -15.222806 1267.882769 740.692700 17.399127 0.000000 0.146406
211.000000 56.854000 7.000000 -3.000000 -10.000000 104.240004 -8.638501 1138.514056 664.721764 17.592270 0.000000 0.154476
212.000000 55.514000 8.000000 -3.000000 -10.000000 107.271189 -2.085147 1014.186543 606.143559 18.016185 0.000000 0.154575
213.000000 53.681000 9.000000 -3.000000 -10.000000 109.373367 4.271511 894.611196 561.485015 18.630514 0.000000 0.147494
214.000000 51.540000 10.000000 -3.000000 -10.000000 110.680747 10.293997 779.520661 528.068900 19.403792 0.000000 0.134248
215.000000 49.237000 11.000000 -3.000000 -10.000000 111.340051 15.887307 668.667272 503.803396 20.311122 0.000000 0.115840
216.000000 46.879000 12.000000 -3.000000 -10.000000 111.492899 21.001302 561.821266 487.034603 21.332553 0.000000 0.093254
217.000000 45.833000 1.000000 -1.000000 -5.000000 66.168245 -34.165185 1705.493191 1515.573904 10.918204 0.000000 0.149943
218.000000 49.940000 3.000000 -2.000000 -10.000000 73.833440 -28.828172 1567.387116 1297.148979 20.038599 0.000000 0.114020
219.000000 52.825000 2.000000 -1.000000 -5.000000 80.773024 -23.126383 1434.664307 1131.119584 9.471092 0.000000 0.122669
220.000000 54.460000 5.000000 -2.000000 -10.000000 86.813190 -17.143985 1307.016026 1003.712134 18.371699 0.000000 0.143077
221.000000 54.952000 3.000000 -1.000000 -5.000000 91.857597 -10.997245 1184.156705 905.440029 9.102852 0.000000 0.159156
222.000000 54.494000 7.000000 -2.000000 -10.000000 95.890177 -4.823409 1065.821805 829.567678 18.357475 0.000000 0.167357
223.000000 53.311000 4.000000 -1.000000 -5.000000 98.963774 1.236658 951.765919 771.189675 9.381713 0.000000 0.167751
224.000000 51.624000 9.000000 -2.000000 -10.000000 101.179939 7.056978 841.761076 726.655804 19.375875 0.000000 0.161283
225.000000 49.618000 5.000000 -1.000000 -5.000000 102.666332 12.540388 735.595213 693.199360 10.079182 0.000000 0.149061
226.000000 47.442000 11.000000 -2.000000 -10.000000 103.557010 17.624593 633.070816 668.689651 21.082541 0.000000 0.132195
228.000000 48.610000 4.000000 -1.000000 -10.000000 71.997397 -18.824990 1341.924376 1310.529949 20.588253 0.000000 0.106459
229.000000 50.528000 5.000000 -1.000000 -10.000000 77.952555 -13.074631 1224.959212 1176.818397 19.804859 0.000000 0.129675
230.000000 51.309000 6.000000 -1.000000 -10.000000 82.976131 -7.258124 1112.077013 1074.678648 19.501685 0.000000 0.149629
231.000000 51.136000 7.000000 -1.000000 -10.000000 87.059604 -1.493824 1003.067655 996.302319 19.566444 0.000000 0.161398
232.000000 50.226000 8.000000 -1.000000 -10.000000 90.256660 4.106095 897.735191 936.166235 19.919324 0.000000 0.165044
233.000000 48.796000 9.000000 -1.000000 -10.000000 92.662560 9.447868 795.896675 890.259834 20.502042 0.000000 0.161681
234.000000 47.030000 10.000000 -1.000000 -10.000000 94.393205 14.463583 697.381098 855.605627 21.271040 0.000000 0.152598
235.000000 45.520000 2.000000 0.000000 -4.000000 68.674552 -9.429636 1153.751380 1366.935833 8.795005 0.000000 0.088976
236.000000 46.664000 6.000000 0.000000 -10.000000 73.727973 -3.952842 1049.371681 1255.909282 21.447014 0.000000 0.116135
237.000000 46.868000 7.000000 0.000000 -10.000000 77.920962 1.418725 948.343980 1171.396289 21.351775 0.000000 0.135258
238.000000 46.334000 8.000000 0.000000 -10.000000 81.300185 6.597854 850.509361 1106.790627 21.596350 0.000000 0.145414
259.000000 64.139000 4.000000 -6.000000 -9.000000 114.051233 -45.411848 2066.879623 256.745367 15.590556 0.000000 0.191368
260.000000 64.868000 5.000000 -6.000000 -9.000000 121.158059 -38.459607 1829.884955 109.950557 15.413608 0.000000 0.114885
261.000000 63.284000 7.000000 -6.000000 -9.000000 131.561681 -21.510557 1399.192682 -84.734697 15.797273 0.000000 0.039997
262.000000 61.402000 8.000000 -6.000000 -9.000000 134.648981 -11.957357 1202.936312 -145.767314 16.280953 0.000000 0.025754
263.000000 59.080000 3.000000 -2.000000 -3.000000 136.369794 -2.284957 1017.945403 -188.926280 5.640207 0.000000 0.014252
264.000000 56.496000 10.000000 -6.000000 -9.000000 136.898819 6.977482 843.277033 -217.686887 17.694177 0.000000 0.015001
265.000000 53.793000 11.000000 -6.000000 -9.000000 136.481949 15.422190 678.090652 -234.799753 18.583505 0.000000 0.037989
266.000000 51.072000 4.000000 -2.000000 -3.000000 135.379564 22.842195 521.634561 -242.459535 6.524540 0.000000 0.069742
267.000000 48.406000 13.000000 -6.000000 -9.000000 133.822534 29.209937 373.234468 -242.429944 20.652010 0.000000 0.107468
268.000000 45.841000 14.000000 -6.000000 -9.000000 131.992590 34.608314 232.283780 -236.137509 21.808160 0.000000 0.149967
271.000000 59.496000 2.000000 -5.000000 -9.000000 91.921798 -50.613375 2285.925887 884.086777 16.812985 0.000000 0.268950
272.000000 63.035000 3.000000 -5.000000 -9.000000 100.730143 -45.140559 2056.588048 651.854688 15.866950 0.000000 0.146990
273.000000 65.152000 4.000000 -5.000000 -9.000000 108.678422 -38.814445 1840.809674 474.029831 15.349575 0.000000 0.059934
274.000000 65.894000 5.000000 -5.000000 -9.000000 115.506066 -31.610893 1637.422750 338.029769 15.175196 0.000000 0.001956
275.000000 65.439000 6.000000 -5.000000 -9.000000 121.022830 -23.607521 1445.389668 234.594360 15.279548 0.000000 0.036806
276.000000 64.036000 7.000000 -5.000000 -9.000000 125.135284 -15.019535 1263.785523 156.786405 15.613479 0.000000 0.056298
277.000000 61.949000 8.000000 -5.000000 -9.000000 127.863117 -6.192646 1091.783210 99.328616 16.138750 0.000000 0.061553
278.000000 59.421000 9.000000 -5.000000 -9.000000 129.334826 2.466373 928.640836 58.152506 16.825169 0.000000 0.055550
279.000000 56.648000 10.000000 -5.000000 -9.000000 129.757664 10.594136 773.691018 30.084620 17.648577 0.000000 0.041424
280.000000 53.781000 11.000000 -5.000000 -9.000000 129.371719 17.949862 626.331761 12.624003 18.589417 0.000000 0.026077
281.000000 50.926000 12.000000 -5.000000 -9.000000 128.407339 24.433219 486.018639 3.781637 19.631683 0.000000 0.032778
282.000000 48.154000 13.000000 -5.000000 -9.000000 127.059190 30.053597 352.258075 1.962791 20.762153 0.000000 0.062883
283.000000 45.508000 14.000000 -5.000000 -9.000000 125.477868 34.884427 224.601540 5.879609 21.969807 0.000000 0.101306
285.000000 53.569000 1.000000 -4.000000 -9.000000 76.292137 -49.994765 2257.439594 1349.377760 18.678342 0.000000 0.305873
286.000000 58.874000 2.000000 -4.000000 -9.000000 85.626389 -44.912503 2048.012036 1057.237435 16.992948 0.000000 0.171031
287.000000 62.758000 3.000000 -4.000000 -9.000000 94.326890 -39.109044 1849.962757 836.050845 15.939217 0.000000 0.084162
288.000000 65.076000 4.000000 -4.000000 -9.000000 102.080755 -32.564853 1662.389001 667.668102 15.369677 0.000000 0.059732
289.000000 65.884000 5.000000 -4.000000 -9.000000 108.639841 -25.331280 1484.481052 539.332954 15.179447 0.000000 0.080945
290.000000 65.395000 6.000000 -4.000000 -9.000000 113.853442 -17.555970 1315.510547 441.848889 15.291897 0.000000 0.100800
291.000000 63.896000 7.000000 -4.000000 -9.000000 117.685948 -9.485014 1154.820511 368.441948 15.649737 0.000000 0.109478
292.000000 61.687000 8.000000 -4.000000 -9.000000 120.214188 -1.427280 1001.816821 314.030401 16.209276 0.000000 0.107218
293.000000 59.037000 9.000000 -4.000000 -9.000000 121.603085 6.311315 855.960863 274.741439 16.936615 0.000000 0.095559
294.000000 56.157000 10.000000 -4.000000 -9.000000 122.066459 13.492017 716.763197 247.582913 17.805049 0.000000 0.076079
295.000000 53.204000 11.000000 -4.000000 -9.000000 121.826584 19.975686 583.778075 230.215266 18.793252 0.000000 0.050221
296.000000 50.285000 12.000000 -4.000000 -9.000000 121.084564 25.717973 456.598665 220.789871 19.883991 0.000000 0.019812
297.000000 47.471000 13.000000 -4.000000 -9.000000 120.005666 30.742894 334.852900 217.832398 21.063189 0.000000 0.019335
298.000000 51.050000 1.000000 -3.000000 -9.000000 68.981086 -44.718113 2040.755624 1523.003544 19.602891 0.000000 0.246498
299.000000 56.787000 2.000000 -3.000000 -9.000000 78.201103 -39.357530 1857.742836 1231.774508 17.620209 0.000000 0.141208
300.000000 63.600000 4.000000 -3.000000 -9.000000 94.297880 -26.770888 1517.989138 850.402351 15.728744 0.000000 0.110279
301.000000 64.561000 5.000000 -3.000000 -9.000000 100.635727 -19.683546 1360.020475 726.339067 15.493042 0.000000 0.130878
302.000000 62.670000 7.000000 -3.000000 -9.000000 109.338791 -4.792720 1065.241244 561.943490 15.958281 0.000000 0.147370
303.000000 60.464000 8.000000 -3.000000 -9.000000 111.823356 2.526635 927.506674 509.584594 16.539809 0.000000 0.141200
304.000000 57.811000 3.000000 -1.000000 -3.000000 113.277412 9.460199 795.658618 471.593463 5.766062 0.000000 0.126998
305.000000 54.935000 10.000000 -3.000000 -9.000000 113.905829 15.854784 669.327602 445.053856 18.203421 0.000000 0.106131
306.000000 51.997000 11.000000 -3.000000 -9.000000 113.908510 21.631770 548.174442 427.710948 19.231934 0.000000 0.079896
307.000000 49.104000 4.000000 -1.000000 -3.000000 113.460287 26.776136 431.887196 417.799803 6.788314 0.000000 0.049804
308.000000 46.324000 13.000000 -3.000000 -9.000000 112.702821 31.316489 320.178490 413.923992 21.587289 0.000000 0.021108
309.000000 46.916000 1.000000 -2.000000 -9.000000 60.694167 -39.569938 1864.437291 1724.724666 21.333224 0.000000 0.229811
310.000000 53.013000 2.000000 -2.000000 -9.000000 69.728866 -34.041663 1702.108931 1420.727570 18.877690 0.000000 0.137296
311.000000 57.609000 3.000000 -2.000000 -9.000000 78.083169 -27.989812 1547.030366 1198.228795 17.369653 0.000000 0.113986
312.000000 60.495000 4.000000 -2.000000 -9.000000 85.454934 -21.489074 1398.726527 1032.949716 16.539053 0.000000 0.131404
313.000000 61.719000 5.000000 -2.000000 -9.000000 91.641317 -14.670234 1256.762966 909.120327 16.209559 0.000000 0.152121
314.000000 61.518000 6.000000 -2.000000 -9.000000 96.561341 -7.711548 1120.741602 816.074562 16.261150 0.000000 0.164355
315.000000 60.224000 7.000000 -2.000000 -9.000000 100.249880 -0.814270 990.296999 746.356966 16.609298 0.000000 0.166773
316.000000 58.177000 8.000000 -2.000000 -9.000000 102.829613 5.830608 865.093081 694.612211 17.192756 0.000000 0.160404
317.000000 55.671000 9.000000 -2.000000 -9.000000 104.473291 12.071610 744.820248 656.904386 17.966054 0.000000 0.146710
318.000000 52.933000 10.000000 -2.000000 -9.000000 105.368394 17.811914 629.192812 630.283910 18.894728 0.000000 0.127172
319.000000 50.127000 11.000000 -2.000000 -9.000000 105.691649 23.008725 517.946739 612.503124 19.952182 0.000000 0.103336
320.000000 47.361000 12.000000 -2.000000 -9.000000 105.595116 27.662230 410.837629 601.824304 21.117561 0.000000 0.077305
321.000000 47.519000 2.000000 -1.000000 -9.000000 60.391658 -29.034295 1572.442115 1640.539056 21.063793 0.000000 0.138032
322.000000 52.441000 3.000000 -1.000000 -9.000000 68.540798 -23.037636 1432.694417 1400.744038 19.085194 0.000000 0.101824
323.000000 55.693000 4.000000 -1.000000 -9.000000 75.761435 -16.732185 1298.562872 1226.189963 17.968628 0.000000 0.119429
324.000000 57.295000 5.000000 -1.000000 -9.000000 81.870509 -10.254634 1169.715598 1097.240346 17.464550 0.000000 0.144154
325.000000 57.465000 6.000000 -1.000000 -9.000000 86.804239 -3.766024 1045.846357 1001.224371 17.411258 0.000000 0.160233
326.000000 56.526000 7.000000 -1.000000 -9.000000 90.605442 2.570974 926.672126 929.614970 17.699367 0.000000 0.166113
327.000000 54.810000 8.000000 -1.000000 -9.000000 93.392243 8.615345 811.930937 876.474487 18.252235 0.000000 0.163059
328.000000 52.610000 9.000000 -1.000000 -9.000000 95.321951 14.263808 701.379956 837.550086 19.014563 0.000000 0.152788
329.000000 50.153000 10.000000 -1.000000 -9.000000 96.560571 19.456017 594.793768 809.722774 19.945449 0.000000 0.137041
330.000000 47.602000 11.000000 -1.000000 -9.000000 97.262531 24.170379 491.962839 790.658726 21.013990 0.000000 0.117677
331.000000 45.709000 6.000000 1.000000 -9.000000 66.258646 2.604964 926.032319 1414.876653 21.898050 0.000000 0.071342
332.000000 45.897000 7.000000 1.000000 -9.000000 70.501962 7.961787 824.468639 1325.803567 21.806572 0.000000 0.099501
343.000000 68.406000 7.000000 -6.000000 -8.000000 138.753840 -18.339727 1331.778383 -352.125389 14.613262 0.000000 0.066021
344.000000 65.735000 4.000000 -3.000000 -4.000000 141.129844 -6.602914 1099.586962 -403.204922 7.603276 0.000000 0.026311
345.000000 62.677000 9.000000 -6.000000 -8.000000 141.857633 4.873150 883.237094 -434.532873 15.948400 0.000000 0.021690
353.000000 71.465000 3.000000 -5.000000 -8.000000 107.252890 -46.827881 2122.255220 452.456380 13.993826 0.000000 0.192508
354.000000 73.287000 4.000000 -5.000000 -8.000000 115.826835 -39.492960 1862.006459 265.969319 13.644210 0.000000 0.096555
355.000000 73.380000 5.000000 -5.000000 -8.000000 122.930481 -30.914651 1619.522685 128.467979 13.625530 0.000000 0.040780
356.000000 72.061000 6.000000 -5.000000 -8.000000 128.324197 -21.226736 1393.044933 28.335970 13.873919 0.000000 0.028019
357.000000 69.711000 7.000000 -5.000000 -8.000000 131.921298 -10.837231 1181.039035 -42.974939 14.340953 0.000000 0.032378
358.000000 66.694000 8.000000 -5.000000 -8.000000 133.819549 -0.381195 982.160816 -91.857112 14.989245 0.000000 0.028682
359.000000 63.314000 9.000000 -5.000000 -8.000000 134.281053 9.482524 795.227570 -123.157711 15.789474 0.000000 0.021729
360.000000 59.796000 10.000000 -5.000000 -8.000000 133.655665 18.293050 619.194518 -140.597008 16.718318 0.000000 0.035278
361.000000 56.299000 11.000000 -5.000000 -8.000000 132.291002 25.867438 453.135274 -147.060819 17.756998 0.000000 0.068333
362.000000 52.923000 12.000000 -5.000000 -8.000000 130.474699 32.237942 296.225535 -144.808622 18.890219 0.000000 0.110658
363.000000 49.725000 13.000000 -5.000000 -8.000000 128.417849 37.546911 147.729397 -135.624071 20.105402 0.000000 0.159021
368.000000 67.965000 1.000000 -2.000000 -4.000000 91.176069 -46.410660 2105.641491 908.953727 7.359210 0.000000 0.179135
369.000000 72.073000 3.000000 -4.000000 -8.000000 100.745336 -39.769190 1870.754490 675.266542 13.877583 0.000000 0.072029
370.000000 74.098000 5.000000 -4.000000 -8.000000 115.731050 -23.515080 1443.322934 375.319069 13.495158 0.000000 0.062307
371.000000 70.008000 7.000000 -4.000000 -8.000000 123.882674 -4.745479 1064.347638 215.746438 14.281999 0.000000 0.085976
372.000000 63.141000 9.000000 -4.000000 -8.000000 125.971693 13.024622 726.030665 139.211208 15.834516 0.000000 0.056238
373.000000 59.443000 5.000000 -2.000000 -4.000000 125.476798 20.614916 570.127760 121.467787 8.409903 0.000000 0.029633
374.000000 55.807000 11.000000 -4.000000 -8.000000 124.362871 27.187272 422.162096 113.664127 17.915693 0.000000 0.022526
375.000000 52.331000 6.000000 -2.000000 -4.000000 122.866622 32.793722 281.542573 113.762980 9.552949 0.000000 0.058745
376.000000 49.067000 13.000000 -4.000000 -8.000000 121.160278 37.546711 147.735367 120.161246 20.377190 0.000000 0.104414
377.000000 46.038000 7.000000 -2.000000 -4.000000 119.361611 41.575106 20.257151 131.586992 10.859349 0.000000 0.154359
379.000000 59.562000 1.000000 -3.000000 -8.000000 73.026574 -46.063468 2092.008898 1414.452680 16.800076 0.000000 0.245007
380.000000 66.300000 2.000000 -3.000000 -8.000000 83.342122 -39.995641 1877.978597 1104.992316 15.090473 0.000000 0.126815
381.000000 70.857000 3.000000 -3.000000 -8.000000 92.711491 -33.079747 1676.085405 880.166514 14.117942 0.000000 0.087009
382.000000 73.088000 4.000000 -3.000000 -8.000000 100.718469 -25.367989 1485.325389 715.531941 13.685420 0.000000 0.104954
383.000000 73.214000 5.000000 -3.000000 -8.000000 107.093831 -17.036320 1304.802368 594.825060 13.660343 0.000000 0.126112
384.000000 71.687000 6.000000 -3.000000 -8.000000 111.755074 -8.388565 1133.713836 506.846840 13.950255 0.000000 0.135036
385.000000 69.020000 7.000000 -3.000000 -8.000000 114.800630 0.194889 971.339028 443.664993 14.488708 0.000000 0.131208
386.000000 65.672000 8.000000 -3.000000 -8.000000 116.462146 8.349870 817.028776 399.527283 15.226714 0.000000 0.116448
387.000000 62.004000 9.000000 -3.000000 -8.000000 117.034762 15.811956 670.196835 370.178664 16.127367 0.000000 0.092727
388.000000 58.264000 10.000000 -3.000000 -8.000000 116.812937 22.448721 530.312435 352.417796 17.162331 0.000000 0.061817
389.000000 54.614000 11.000000 -3.000000 -8.000000 116.050113 28.241422 396.893875 343.800748 18.309493 0.000000 0.025589
390.000000 51.146000 12.000000 -3.000000 -8.000000 114.943885 33.244325 269.502978 342.438118 19.551342 0.000000 0.018864
391.000000 47.906000 13.000000 -3.000000 -8.000000 113.638121 37.546547 147.740287 346.853091 20.873829 0.000000 0.063058
393.000000 55.042000 1.000000 -2.000000 -8.000000 64.011083 -40.184652 1884.045081 1627.789862 18.182996 0.000000 0.215756
394.000000 62.326000 1.000000 -1.000000 -4.000000 74.114961 -33.881910 1697.746573 1309.936374 8.027821 0.000000 0.125355
395.000000 67.368000 3.000000 -2.000000 -8.000000 83.250392 -26.895972 1520.940114 1083.830425 14.852153 0.000000 0.116675
396.000000 70.375000 5.000000 -2.000000 -8.000000 97.205776 -11.452335 1193.042260 802.157862 14.214263 0.000000 0.158181
397.000000 66.537000 7.000000 -2.000000 -8.000000 104.864461 4.226166 895.467703 654.556118 15.032007 0.000000 0.158363
398.000000 63.330000 4.000000 -1.000000 -4.000000 106.712265 11.462095 756.766878 611.269064 7.896302 0.000000 0.143001
399.000000 59.797000 9.000000 -2.000000 -8.000000 107.590487 18.052700 624.195991 582.108453 16.725399 0.000000 0.120036
400.000000 56.191000 5.000000 -1.000000 -4.000000 107.756509 23.930899 497.357454 563.925615 8.899112 0.000000 0.091606
401.000000 52.675000 11.000000 -2.000000 -8.000000 107.426453 29.102233 375.887335 554.350833 18.986451 0.000000 0.061005
402.000000 49.337000 6.000000 -1.000000 -4.000000 106.768047 33.616982 259.451873 551.573688 10.135455 0.000000 0.039244
403.000000 46.223000 13.000000 -2.000000 -8.000000 105.904594 37.546409 147.744410 554.193012 21.636452 0.000000 0.052822
404.000000 48.183000 1.000000 -1.000000 -8.000000 53.899868 -34.556203 1716.272066 1893.986275 20.774984 0.000000 0.225939
405.000000 55.873000 2.000000 -1.000000 -8.000000 63.714957 -28.175905 1551.521304 1544.048158 17.913771 0.000000 0.121886
406.000000 61.404000 3.000000 -1.000000 -8.000000 72.609432 -21.288979 1394.391113 1302.783320 16.298260 0.000000 0.108505
407.000000 64.524000 4.000000 -1.000000 -8.000000 80.215344 -14.050829 1244.364708 1132.336129 15.508386 0.000000 0.135521
408.000000 65.422000 5.000000 -1.000000 -8.000000 86.343546 -6.675607 1100.971000 1010.248936 15.293868 0.000000 0.157600
409.000000 64.561000 6.000000 -1.000000 -8.000000 90.990726 0.597286 963.779652 922.386461 15.496300 0.000000 0.166936
410.000000 62.483000 7.000000 -1.000000 -8.000000 94.296623 7.547424 832.396768 859.430148 16.010539 0.000000 0.164566
411.000000 59.672000 8.000000 -1.000000 -8.000000 96.480010 14.009451 706.461112 815.004487 16.764050 0.000000 0.152817
412.000000 56.498000 9.000000 -1.000000 -8.000000 97.780451 19.888050 585.640797 784.613072 17.705181 0.000000 0.134113
413.000000 53.217000 10.000000 -1.000000 -8.000000 98.419551 25.152214 469.630357 765.003768 18.796145 0.000000 0.111089
414.000000 49.991000 11.000000 -1.000000 -8.000000 98.582546 29.818127 358.148176 753.773951 20.008667 0.000000 0.087528
415.000000 46.914000 12.000000 -1.000000 -8.000000 98.414374 33.930284 250.934200 749.116307 21.321164 0.000000 0.070819
416.000000 47.203000 1.000000 0.000000 -4.000000 52.509329 -22.938986 1430.507772 1837.484900 10.603887 0.000000 0.145303
417.000000 53.174000 3.000000 0.000000 -8.000000 61.168271 -16.273946 1289.199280 1558.203806 18.824818 0.000000 0.070889
418.000000 58.494000 5.000000 0.000000 -8.000000 74.855876 -2.596422 1023.806890 1232.595233 17.108992 0.000000 0.121787
419.000000 58.351000 3.000000 0.000000 -4.000000 79.707718 4.037139 899.037072 1136.932243 8.574729 0.000000 0.141391
420.000000 56.964000 7.000000 0.000000 -8.000000 83.349798 10.313672 779.138860 1068.548144 17.565664 0.000000 0.147905
421.000000 54.790000 4.000000 0.000000 -4.000000 85.968077 16.125118 663.832403 1019.971382 9.130775 0.000000 0.144267
422.000000 52.187000 9.000000 0.000000 -8.000000 87.765446 21.415965 552.858879 986.111915 19.171227 0.000000 0.133555
423.000000 49.410000 5.000000 0.000000 -4.000000 88.930381 26.175094 445.978561 963.391205 10.123998 0.000000 0.119002
424.000000 46.623000 11.000000 0.000000 -8.000000 89.622356 30.422680 342.969087 949.226816 21.457838 0.000000 0.104622
425.000000 47.662000 4.000000 1.000000 -8.000000 56.832299 -5.412167 1076.970375 1647.591032 21.003496 0.000000 0.026382
426.000000 50.053000 5.000000 1.000000 -8.000000 63.128761 0.894228 958.200669 1486.422534 19.998289 0.000000 0.046818
427.000000 50.787000 6.000000 1.000000 -8.000000 68.253158 6.949372 843.812952 1373.506533 19.707563 0.000000 0.086323
428.000000 50.273000 7.000000 1.000000 -8.000000 72.291739 12.643120 733.569109 1293.200357 19.907394 0.000000 0.108691
429.000000 48.915000 8.000000 1.000000 -8.000000 75.391002 17.905710 627.247967 1235.813831 20.458581 0.000000 0.118593
430.000000 47.046000 9.000000 1.000000 -8.000000 77.716463 22.706004 524.643821 1195.034439 21.270038 0.000000 0.120321
441.000000 82.543000 4.000000 -5.000000 -7.000000 124.145812 -40.476984 1893.494677 -18.634037 12.112529 0.000000 0.167563
442.000000 81.626000 5.000000 -5.000000 -7.000000 131.453916 -29.876021 1593.297411 -155.386501 12.247536 0.000000 0.095143
443.000000 79.103000 6.000000 -5.000000 -7.000000 136.473398 -17.644348 1317.337790 -248.061202 12.637496 0.000000 0.049491
444.000000 75.530000 7.000000 -5.000000 -7.000000 139.147250 -4.663346 1062.794330 -307.714301 13.234837 0.000000 0.014225
445.000000 71.386000 8.000000 -5.000000 -7.000000 139.752712 7.815618 827.267115 -342.414071 14.003131 0.000000 0.023952
446.000000 67.026000 9.000000 -5.000000 -7.000000 138.809695 18.795117 608.701903 -358.135032 14.914009 0.000000 0.067734
454.000000 79.260000 2.000000 -4.000000 -7.000000 97.854158 -48.440993 2189.007769 717.194500 12.619378 0.000000 0.213105
455.000000 83.383000 3.000000 -4.000000 -7.000000 108.443947 -40.691187 1900.471120 467.594325 11.993564 0.000000 0.085035
456.000000 84.610000 4.000000 -4.000000 -7.000000 117.267126 -31.459288 1633.502468 290.674338 11.818054 0.000000 0.008090
457.000000 83.401000 5.000000 -4.000000 -7.000000 123.913505 -20.889491 1385.770642 166.482869 11.988257 0.000000 0.038436
458.000000 80.435000 6.000000 -4.000000 -7.000000 128.233791 -9.508226 1155.268739 81.199590 12.429646 0.000000 0.054013
459.000000 76.388000 7.000000 -4.000000 -7.000000 130.384774 1.848737 940.259639 25.018054 13.087678 0.000000 0.049418
460.000000 71.812000 8.000000 -4.000000 -7.000000 130.773204 12.355774 739.232142 -9.162157 13.921519 0.000000 0.032402
461.000000 67.097000 9.000000 -4.000000 -7.000000 129.908603 21.507880 550.865403 -26.571057 14.899990 0.000000 0.029036
462.000000 62.490000 10.000000 -4.000000 -7.000000 128.259055 29.178886 373.999870 -31.117838 15.998874 0.000000 0.064259
463.000000 58.130000 11.000000 -4.000000 -7.000000 126.180587 35.488474 207.613394 -25.761491 17.199072 0.000000 0.114043
464.000000 54.087000 12.000000 -4.000000 -7.000000 123.913261 40.652216 50.801466 -12.766238 18.485325 0.000000 0.170870
469.000000 70.670000 1.000000 -3.000000 -7.000000 78.020610 -47.840835 2163.688621 1281.243397 14.158073 0.000000 0.251463
470.000000 78.571000 2.000000 -3.000000 -7.000000 89.694130 -40.859926 1905.998505 948.597120 12.732301 0.000000 0.111030
471.000000 83.209000 3.000000 -3.000000 -7.000000 100.004723 -32.687512 1665.637430 715.400217 12.020678 0.000000 0.066642
472.000000 84.582000 4.000000 -3.000000 -7.000000 108.387444 -23.407179 1440.914254 551.143159 11.823980 0.000000 0.093080
473.000000 83.259000 5.000000 -3.000000 -7.000000 114.537327 -13.346665 1230.350954 436.018424 12.010782 0.000000 0.113002
474.000000 80.054000 6.000000 -3.000000 -7.000000 118.463132 -3.066032 1032.650079 356.679889 12.490877 0.000000 0.114767
475.000000 75.749000 7.000000 -3.000000 -7.000000 120.447536 6.799564 846.667991 303.859603 13.200292 0.000000 0.100667
476.000000 70.952000 8.000000 -3.000000 -7.000000 120.928440 15.753002 671.392731 270.959298 14.092399 0.000000 0.073902
477.000000 66.076000 9.000000 -3.000000 -7.000000 120.363492 23.548707 505.925593 253.182493 15.132409 0.000000 0.037290
478.000000 61.367000 10.000000 -3.000000 -7.000000 119.139811 30.164838 349.465715 246.980584 16.293837 0.000000 0.008744
479.000000 56.955000 11.000000 -3.000000 -7.000000 117.543685 35.710776 201.297113 249.688560 17.556166 0.000000 0.058123
480.000000 52.898000 12.000000 -3.000000 -7.000000 115.768858 40.345127 60.777731 259.279147 18.903257 0.000000 0.113096
481.000000 49.205000 13.000000 -3.000000 -7.000000 113.938554 44.227878 -72.669863 274.193110 20.322236 0.000000 0.171602
482.000000 45.865000 14.000000 -3.000000 -7.000000 112.127265 47.499935 -199.566410 293.219767 21.802712 0.000000 0.232713
484.000000 65.957000 1.000000 -2.000000 -7.000000 68.204662 -40.996285 1910.485826 1511.234127 15.172727 0.000000 0.201221
485.000000 74.697000 2.000000 -2.000000 -7.000000 79.632349 -33.667247 1691.910466 1177.592235 13.395475 0.000000 0.113693
486.000000 79.967000 3.000000 -2.000000 -7.000000 89.630168 -25.410206 1486.297059 948.691431 12.510786 0.000000 0.120247
487.000000 81.728000 4.000000 -2.000000 -7.000000 97.680122 -16.436989 1292.525805 789.675099 12.239496 0.000000 0.145823
488.000000 80.611000 5.000000 -2.000000 -7.000000 103.576305 -7.128449 1109.602280 679.063466 12.407869 0.000000 0.157894
489.000000 77.518000 6.000000 -2.000000 -7.000000 107.426096 2.041184 936.640368 602.956890 12.902119 0.000000 0.154111
490.000000 73.296000 7.000000 -2.000000 -7.000000 109.555511 10.637495 772.847908 552.005301 13.644605 0.000000 0.137014
491.000000 68.589000 8.000000 -2.000000 -7.000000 110.378243 18.373634 617.514562 519.718460 14.580538 0.000000 0.109568
492.000000 63.819000 9.000000 -2.000000 -7.000000 110.289277 25.136022 470.001514 501.473304 15.670146 0.000000 0.074848
493.000000 59.232000 10.000000 -2.000000 -7.000000 109.609903 30.943818 329.732693 493.905046 16.883861 0.000000 0.039034
494.000000 54.951000 11.000000 -2.000000 -7.000000 108.576157 35.889716 196.187253 494.519847 18.199241 0.000000 0.037556
495.000000 51.027000 12.000000 -2.000000 -7.000000 107.350134 40.093239 68.893110 501.440668 19.598951 0.000000 0.081003
496.000000 47.467000 13.000000 -2.000000 -7.000000 106.038033 43.673541 -52.578637 513.236006 21.069383 0.000000 0.134002
498.000000 57.716000 1.000000 -1.000000 -7.000000 56.847622 -34.466539 1713.791472 1793.719351 17.342750 0.000000 0.202123
499.000000 67.137000 2.000000 -1.000000 -7.000000 67.925172 -27.038049 1524.299938 1431.046805 14.907269 0.000000 0.111381
500.000000 73.144000 3.000000 -1.000000 -7.000000 77.631866 -18.964792 1344.858201 1190.557561 13.681152 0.000000 0.122746
501.000000 75.605000 4.000000 -1.000000 -7.000000 85.503336 -10.510708 1174.687417 1027.087615 13.234005 0.000000 0.152198
502.000000 75.120000 5.000000 -1.000000 -7.000000 91.394451 -2.026700 1013.087198 914.783843 13.318005 0.000000 0.167072
503.000000 72.594000 6.000000 -1.000000 -7.000000 95.444406 6.129018 859.425968 837.828840 13.780373 0.000000 0.166125
504.000000 68.884000 7.000000 -1.000000 -7.000000 97.963810 13.674623 713.132723 786.037310 14.521797 0.000000 0.152519
505.000000 64.638000 8.000000 -1.000000 -7.000000 99.315395 20.448613 573.689931 752.579972 15.474925 0.000000 0.129772
506.000000 60.283000 9.000000 -1.000000 -7.000000 99.833018 26.404077 440.627425 732.725743 16.592466 0.000000 0.101815
507.000000 56.066000 10.000000 -1.000000 -7.000000 99.785877 31.574592 313.517097 723.107995 17.840236 0.000000 0.075213
508.000000 52.114000 11.000000 -1.000000 -7.000000 99.373946 36.036850 191.968304 721.276965 19.192917 0.000000 0.064935
509.000000 48.481000 12.000000 -1.000000 -7.000000 98.738145 39.882903 75.623854 725.416288 20.631350 0.000000 0.085015
510.000000 50.256000 3.000000 1.000000 -7.000000 51.021195 -8.508144 1136.009671 1821.598006 19.920828 0.000000 0.092532
511.000000 54.754000 4.000000 1.000000 -7.000000 58.892163 -1.296889 999.366068 1590.629445 18.282522 0.000000 0.009064
512.000000 56.600000 5.000000 1.000000 -7.000000 65.259954 5.653476 868.454135 1439.375905 17.684390 0.000000 0.066229
513.000000 56.413000 6.000000 1.000000 -7.000000 70.193575 12.168276 742.920649 1337.535174 17.741443 0.000000 0.099042
514.000000 54.873000 7.000000 1.000000 -7.000000 73.887078 18.137121 622.440824 1268.175316 18.237812 0.000000 0.114003
515.000000 52.549000 8.000000 1.000000 -7.000000 76.577567 23.513359 506.715512 1221.113470 19.043077 0.000000 0.117962
516.000000 49.848000 9.000000 1.000000 -7.000000 78.492241 28.300269 395.468715 1189.872830 20.073795 0.000000 0.116987
517.000000 47.034000 10.000000 1.000000 -7.000000 79.824012 32.533292 288.445395 1170.148457 21.274092 0.000000 0.117002
518.000000 46.426000 6.000000 2.000000 -7.000000 57.728755 14.438136 697.890854 1642.814323 21.562247 0.000000 0.070977
519.000000 46.232000 7.000000 2.000000 -7.000000 62.029989 19.814796 587.196222 1548.522860 21.650632 0.000000 0.090448
527.000000 82.729000 7.000000 -4.000000 -6.000000 136.792056 11.319843 759.547514 -227.550734 12.083581 0.000000 0.025001
528.000000 70.663000 9.000000 -4.000000 -6.000000 132.932338 32.022707 301.863451 -239.988525 14.147304 0.000000 0.128183
533.000000 85.451000 1.000000 -3.000000 -6.000000 84.290687 -50.292224 2271.044771 1109.429821 11.707783 0.000000 0.278935
534.000000 82.546000 7.000000 -3.000000 -6.000000 125.892821 15.666707 673.142041 132.044740 12.112126 0.000000 0.047767
535.000000 76.006000 8.000000 -3.000000 -6.000000 124.786972 25.108168 470.639805 115.296786 13.154388 0.000000 0.018113
536.000000 64.041000 10.000000 -3.000000 -6.000000 120.566472 38.963719 104.561937 123.466061 15.612777 0.000000 0.120670
537.000000 58.867000 11.000000 -3.000000 -6.000000 118.150446 43.919048 -61.430525 141.486513 16.985651 0.000000 0.189362
543.000000 81.127000 1.000000 -2.000000 -6.000000 73.654023 -42.116947 1948.084928 1366.556474 12.334416 0.000000 0.186416
544.000000 80.199000 7.000000 -2.000000 -6.000000 113.973726 18.822688 608.123892 435.352985 12.469025 0.000000 0.093603
545.000000 67.483000 9.000000 -2.000000 -6.000000 112.243269 33.376146 265.957412 413.891677 14.818675 0.000000 0.019319
546.000000 61.850000 5.000000 -1.000000 -3.000000 110.666344 38.805856 109.456053 420.033787 8.084251 0.000000 0.070122
547.000000 56.801000 11.000000 -2.000000 -6.000000 108.943281 43.276021 -38.398290 433.615150 17.606058 0.000000 0.133994
548.000000 52.316000 6.000000 -1.000000 -3.000000 107.199052 46.978170 -178.302999 452.709706 9.557986 0.000000 0.201890
549.000000 48.345000 13.000000 -2.000000 -6.000000 105.502661 50.070388 -310.882427 475.878088 20.686269 0.000000 0.272274
551.000000 71.272000 1.000000 -1.000000 -6.000000 60.755555 -34.343720 1710.402241 1670.853459 14.043364 0.000000 0.176329
552.000000 82.857000 2.000000 -1.000000 -6.000000 73.406325 -25.459272 1487.427217 1296.223225 12.077990 0.000000 0.111085
553.000000 88.798000 3.000000 -1.000000 -6.000000 83.919302 -15.738296 1278.309055 1060.121766 11.268025 0.000000 0.141540
554.000000 89.500000 4.000000 -1.000000 -6.000000 91.752338 -5.666608 1081.794974 907.910573 11.178172 0.000000 0.165433
555.000000 86.480000 5.000000 -1.000000 -6.000000 96.942862 4.156744 896.778789 809.591381 11.567401 0.000000 0.167468
556.000000 81.380000 6.000000 -1.000000 -6.000000 99.932234 13.213995 722.280082 747.406823 12.291452 0.000000 0.151538
557.000000 75.440000 7.000000 -1.000000 -6.000000 101.303992 21.204911 557.426820 710.232577 13.258702 0.000000 0.123021
558.000000 69.420000 8.000000 -1.000000 -6.000000 101.594134 28.053236 401.440782 690.785939 14.408162 0.000000 0.088238
559.000000 63.717000 9.000000 -1.000000 -6.000000 101.213568 33.831547 253.625270 684.129255 15.697664 0.000000 0.060957
560.000000 58.501000 10.000000 -1.000000 -6.000000 100.445856 38.679599 113.354712 686.818557 17.097118 0.000000 0.071566
561.000000 53.819000 11.000000 -1.000000 -6.000000 99.474489 42.750517 -19.934191 696.395229 18.584481 0.000000 0.116724
562.000000 49.655000 12.000000 -1.000000 -6.000000 98.413308 46.184713 -146.750027 711.069998 20.143230 0.000000 0.174204
563.000000 45.965000 13.000000 -1.000000 -6.000000 97.330660 49.101028 -267.553157 729.519689 21.760741 0.000000 0.236657
564.000000 56.156000 1.000000 0.000000 -6.000000 46.258709 -27.200833 1528.159903 2099.087336 17.827438 0.000000 0.239988
565.000000 68.569000 2.000000 0.000000 -6.000000 58.396379 -18.524383 1335.632417 1639.420632 14.598744 0.000000 0.084430
566.000000 78.154000 4.000000 0.000000 -6.000000 76.616966 -0.354401 981.657456 1197.077589 12.804794 0.000000 0.129919
567.000000 76.712000 5.000000 0.000000 -6.000000 82.259461 8.268945 818.581369 1088.833099 13.043902 0.000000 0.147015
568.000000 68.362000 7.000000 0.000000 -6.000000 88.215489 23.060937 516.788628 977.445044 14.635109 0.000000 0.128957
569.000000 63.394000 8.000000 0.000000 -6.000000 89.435748 29.061527 376.888544 953.126501 15.781112 0.000000 0.109089
570.000000 58.567000 3.000000 0.000000 -2.000000 89.968571 34.197351 243.623913 941.713813 5.693845 0.000000 0.095938
571.000000 54.074000 10.000000 0.000000 -6.000000 90.057458 38.576321 116.533592 939.619380 18.500186 0.000000 0.102987
572.000000 49.990000 11.000000 0.000000 -6.000000 89.868410 42.313084 -4.801798 944.342767 20.011365 0.000000 0.132843
573.000000 46.321000 4.000000 0.000000 -2.000000 89.511392 45.513583 -120.764497 954.098535 7.198773 0.000000 0.177232
574.000000 50.552000 2.000000 1.000000 -6.000000 42.771674 -12.557205 1214.736351 2132.957654 19.805667 0.000000 0.219411
575.000000 59.150000 3.000000 1.000000 -6.000000 52.893218 -4.193572 1053.916704 1757.380959 16.925294 0.000000 0.060535
576.000000 63.370000 4.000000 1.000000 -6.000000 61.095109 3.937765 900.912885 1536.672475 15.796239 0.000000 0.034037
577.000000 64.049000 5.000000 1.000000 -6.000000 67.343941 11.543792 755.168638 1399.529218 15.627079 0.000000 0.084491
578.000000 62.391000 6.000000 1.000000 -6.000000 71.887478 18.437630 616.179269 1312.096511 16.040824 0.000000 0.107843
579.000000 59.443000 7.000000 1.000000 -6.000000 75.079602 24.544885 483.485807 1256.280024 16.835044 0.000000 0.115645
580.000000 55.930000 8.000000 1.000000 -6.000000 77.263557 29.877327 356.669941 1221.561111 17.891316 0.000000 0.117689
581.000000 52.290000 9.000000 1.000000 -6.000000 78.722108 34.497607 235.349613 1201.429557 19.135745 0.000000 0.122888
582.000000 48.761000 10.000000 1.000000 -6.000000 79.669275 38.490273 119.175177 1191.656238 20.519830 0.000000 0.137798
584.000000 47.192000 2.000000 1.000000 -3.000000 46.006907 7.441287 834.425057 1988.940234 10.607744 0.000000 0.160802
585.000000 50.002000 5.000000 2.000000 -6.000000 52.837398 14.197294 702.709759 1782.548563 20.021467 0.000000 0.100286
586.000000 50.476000 3.000000 1.000000 -3.000000 58.174984 20.313279 576.583061 1653.279183 9.915719 0.000000 0.100560
587.000000 49.447000 7.000000 2.000000 -6.000000 62.260283 25.756935 455.696670 1569.459372 20.242537 0.000000 0.118544
588.000000 47.565000 4.000000 1.000000 -3.000000 65.353870 30.550702 339.730646 1514.416417 10.521007 0.000000 0.136888
593.000000 88.896000 7.000000 -3.000000 -5.000000 130.414683 27.486199 415.046130 -92.086669 11.246083 0.000000 0.066623
594.000000 80.415000 8.000000 -3.000000 -5.000000 127.399079 36.582668 176.178377 -83.737160 12.432571 0.000000 0.137639
600.000000 86.719000 7.000000 -2.000000 -5.000000 117.524705 29.133629 375.114605 298.891357 11.530710 0.000000 0.010171
601.000000 78.097000 8.000000 -2.000000 -5.000000 115.449750 36.722741 172.090240 301.969042 12.803898 0.000000 0.060142
602.000000 70.461000 9.000000 -2.000000 -5.000000 113.068646 42.659590 -16.771214 317.683451 14.191880 0.000000 0.138480
603.000000 63.812000 10.000000 -2.000000 -5.000000 110.657404 47.337502 -192.901807 342.215219 15.671163 0.000000 0.222374
608.000000 90.408000 6.000000 -1.000000 -5.000000 103.978412 22.280669 534.003691 651.462874 11.063013 0.000000 0.111839
609.000000 81.637000 7.000000 -1.000000 -5.000000 103.838382 30.319831 345.564573 633.862093 12.251358 0.000000 0.067628
610.000000 73.591000 8.000000 -1.000000 -5.000000 102.913908 36.827216 169.031370 632.698061 13.590848 0.000000 0.054945
611.000000 66.478000 9.000000 -1.000000 -5.000000 101.617334 42.076053 3.310282 642.894158 15.045196 0.000000 0.105827
612.000000 60.292000 10.000000 -1.000000 -5.000000 100.183183 46.332629 -152.562490 661.002844 16.588871 0.000000 0.177050
613.000000 54.946000 11.000000 -1.000000 -5.000000 98.737438 49.818118 -299.439498 684.627019 18.203388 0.000000 0.254540
616.000000 60.961000 2.000000 1.000000 -5.000000 43.908287 -8.176641 1129.648489 2070.594655 16.424023 0.000000 0.191768
617.000000 70.572000 3.000000 1.000000 -5.000000 54.947780 1.564122 945.610856 1696.373636 14.185527 0.000000 0.034833
618.000000 73.556000 4.000000 1.000000 -5.000000 63.259444 10.685954 771.905337 1492.844442 13.608197 0.000000 0.062385
619.000000 72.083000 5.000000 1.000000 -5.000000 69.101218 18.843589 607.685603 1375.244457 13.884574 0.000000 0.099686
620.000000 68.275000 6.000000 1.000000 -5.000000 73.024849 25.907938 452.195299 1306.254960 14.657549 0.000000 0.114342
621.000000 63.556000 7.000000 1.000000 -5.000000 75.582932 31.911870 304.756401 1266.950655 15.744813 0.000000 0.122423
622.000000 58.710000 8.000000 1.000000 -5.000000 77.212725 36.972649 164.759329 1246.757612 17.043566 0.000000 0.137219
623.000000 54.111000 9.000000 1.000000 -5.000000 78.225110 41.233768 31.654524 1239.337023 18.491433 0.000000 0.165526
624.000000 49.907000 10.000000 1.000000 -5.000000 78.830240 44.833439 -95.054760 1240.681225 20.048372 0.000000 0.206801
625.000000 46.134000 11.000000 1.000000 -5.000000 79.167162 47.891868 -215.818656 1248.149425 21.687500 0.000000 0.257512
627.000000 52.629000 4.000000 2.000000 -5.000000 45.980780 13.876273 709.117050 2012.329067 19.023492 0.000000 0.179610
628.000000 54.753000 5.000000 2.000000 -5.000000 52.885686 20.967123 562.557781 1813.167510 18.283660 0.000000 0.136714
629.000000 54.181000 6.000000 2.000000 -5.000000 58.049283 27.150152 423.043068 1695.378957 18.474649 0.000000 0.143283
630.000000 52.135000 7.000000 2.000000 -5.000000 61.863771 32.471516 290.076923 1623.222162 19.198086 0.000000 0.163176
631.000000 49.413000 8.000000 2.000000 -5.000000 64.678150 37.025295 163.208852 1578.880174 20.254544 0.000000 0.187757
632.000000 46.476000 9.000000 2.000000 -5.000000 66.765458 40.919942 42.028755 1552.504728 21.533136 0.000000 0.217622
637.000000 86.699000 7.000000 -1.000000 -4.000000 104.923323 40.966901 40.482697 561.112105 11.535476 0.000000 0.090677
638.000000 76.612000 8.000000 -1.000000 -4.000000 102.827369 46.564168 -161.724440 584.557965 13.054654 0.000000 0.183809
639.000000 68.209000 9.000000 -1.000000 -4.000000 100.756234 50.892450 -349.023282 616.857185 14.663273 0.000000 0.284857
644.000000 77.970000 7.000000 0.000000 -4.000000 89.989722 40.518051 55.171241 941.253985 12.830343 0.000000 0.115519
645.000000 62.309000 9.000000 0.000000 -4.000000 88.810364 49.504750 -285.390272 975.417774 16.054916 0.000000 0.257179
650.000000 75.259000 2.000000 1.000000 -4.000000 45.116200 -1.919921 1011.078995 2013.539609 13.303574 0.000000 0.166330
651.000000 84.849000 3.000000 1.000000 -4.000000 56.943426 9.434645 796.151925 1651.070537 11.798197 0.000000 0.049024
652.000000 84.772000 4.000000 1.000000 -4.000000 64.957746 19.422236 595.507394 1474.192964 11.807162 0.000000 0.091071
653.000000 79.845000 5.000000 1.000000 -4.000000 70.042320 27.790289 407.767510 1382.795748 12.534149 0.000000 0.117452
654.000000 73.269000 6.000000 1.000000 -4.000000 73.165721 34.628420 231.726098 1336.762695 13.657896 0.000000 0.137303
655.000000 66.603000 7.000000 1.000000 -4.000000 75.054159 40.173221 66.322761 1317.001753 15.023924 0.000000 0.168820
656.000000 60.464000 8.000000 1.000000 -4.000000 76.180709 44.681074 -89.378498 1313.342703 16.548734 0.000000 0.217032
657.000000 55.027000 9.000000 1.000000 -4.000000 76.837574 48.375292 -236.207000 1319.921380 18.183246 0.000000 0.278426
661.000000 57.723000 2.000000 1.000000 -2.000000 45.225063 21.862079 543.159720 2091.621085 8.672206 0.000000 0.227251
662.000000 58.750000 5.000000 2.000000 -4.000000 52.113523 29.006645 378.237145 1898.579809 17.039199 0.000000 0.199929
663.000000 56.916000 3.000000 1.000000 -2.000000 57.055316 34.961201 222.456286 1792.059210 8.793188 0.000000 0.214310
664.000000 53.825000 7.000000 2.000000 -4.000000 60.609111 39.900024 75.077547 1731.228016 18.595110 0.000000 0.244144
665.000000 50.338000 4.000000 1.000000 -2.000000 63.195450 44.005390 -64.560980 1697.015499 9.940914 0.000000 0.283764
666.000000 46.877000 9.000000 2.000000 -4.000000 65.108222 47.438806 -197.053457 1679.362270 21.348911 0.000000 0.331748
671.000000 85.676000 5.000000 1.000000 -3.000000 69.449345 38.417474 121.405073 1455.987637 11.680621 0.000000 0.177467
672.000000 76.225000 6.000000 1.000000 -3.000000 71.797282 44.440744 -80.485623 1436.709463 13.127984 0.000000 0.236251
673.000000 67.868000 7.000000 1.000000 -3.000000 73.165455 49.105061 -267.729879 1438.439308 14.743832 0.000000 0.313874
#UB matrix in q= (UB) B0 G* 
#[[-0.592747222  0.706176468  0.385721676]
# [ 0.793595957  0.431307131  0.429908989]
# [ 0.137317834  0.561501842 -0.816813458]]
#B0 matrix in q= UB (B0) G*
#[[ 0.19670273 -0.          0.03056101]
# [ 0.          0.19187965 -0.        ]
# [ 0.          0.          0.18806537]]
#UBB0 matrix in q= (UB B0) G* i.e. recip. basis vectors are columns in LT frame: astar = UBB0[:,0], bstar = UBB0[:,1], cstar = UBB0[:,2]. (abcstar as columns on xyzlab1, xlab1 = ui, ui = unit vector along incident beam)
#[[-0.116595    0.1355009   0.05442594]
# [ 0.15610249  0.08275906  0.10510408]
# [ 0.02701079  0.10774078 -0.14941776]]
#Euler angles phi theta psi (deg)
#[166.255 144.694  41.955]
#deviatoric strain in direct crystal frame (10-3 unit)
#[[ 1.49 -0.46 -0.22]
# [-0.46  1.44  0.65]
# [-0.22  0.65 -2.93]]
#deviatoric strain in sample2 frame (10-3 unit)
#[[ 1.22  0.42 -1.65]
# [ 0.42  0.44  1.42]
# [-1.65  1.42 -1.66]]
#new lattice parameters
#[ 5.1505     5.2113561  5.314946  89.9523382 99.2474235 90.0531079]
#CCDLabel
#sCMOS
#DetectorParameters
#[79.0, 975.0, 941.0, 0.0, 0.0]
#pixelsize
#0.0734
#Frame dimensions
#[2018, 2016]
#
