#Strain and Orientation Refinement from experimental file: /home/micha/LaueProjects/DepthEffects/testZrO2_97.cor
#File created at Wed Jun 28 14:24:17 2023 with indexingSpotsSet.py
#Number of indexed spots: 544
#Element
#ZrO2
#grainIndex
#G_0
#Mean Deviation(pixel): 0.113
##spot_index intensity h k l 2theta Chi Xexp Yexp Energy GrainIndex PixDev
24.000000 186.589000 0.000000 2.000000 1.000000 59.410507 -13.096559 1225.393384 1594.243434 5.365767 0.000000 0.060248
25.000000 111.594000 0.000000 3.000000 1.000000 49.596660 -20.335796 1373.897959 1918.000929 8.972654 0.000000 0.164529
26.000000 159.115000 1.000000 3.000000 1.000000 79.278981 -31.770161 1641.554958 1180.690420 6.289659 0.000000 0.114633
27.000000 168.555000 2.000000 3.000000 1.000000 101.137172 -45.209445 2059.191979 640.246831 5.934790 0.000000 0.152872
28.000000 76.441000 0.000000 4.000000 1.000000 44.012406 -24.002903 1454.262434 2160.509826 13.099438 0.000000 0.256566
29.000000 108.484000 1.000000 4.000000 1.000000 67.135525 -32.609021 1663.557709 1479.788907 9.227002 0.000000 0.141201
30.000000 122.964000 2.000000 4.000000 1.000000 86.240714 -42.258554 1952.930183 1036.551339 8.137439 0.000000 0.140198
33.000000 79.529000 1.000000 5.000000 1.000000 59.313498 -33.088038 1676.307251 1703.340574 12.587850 0.000000 0.179434
34.000000 93.050000 2.000000 5.000000 1.000000 75.850833 -40.610771 1897.846791 1298.411447 10.755501 0.000000 0.165747
35.000000 97.838000 3.000000 5.000000 1.000000 89.226131 -48.573307 2194.670272 962.971837 10.226440 0.000000 0.231258
37.000000 61.523000 1.000000 6.000000 1.000000 53.902120 -33.397820 1684.626563 1881.011523 16.273106 0.000000 0.221067
38.000000 72.987000 2.000000 6.000000 1.000000 68.323996 -39.560666 1864.144202 1495.883065 13.713850 0.000000 0.190565
39.000000 79.025000 3.000000 6.000000 1.000000 80.673787 -46.044188 2091.256896 1195.653123 12.662923 0.000000 0.213070
41.000000 49.535000 1.000000 7.000000 1.000000 49.952287 -33.614577 1690.482974 2027.296619 20.212355 0.000000 0.260645
42.000000 59.042000 2.000000 7.000000 1.000000 62.670498 -38.833428 1841.397168 1655.042003 16.954444 0.000000 0.214514
43.000000 65.069000 3.000000 7.000000 1.000000 73.968669 -44.294583 2025.112934 1373.072187 15.380735 0.000000 0.218292
44.000000 67.915000 4.000000 7.000000 1.000000 83.616096 -49.910774 2253.628443 1127.992797 14.733556 0.000000 0.278014
46.000000 48.997000 2.000000 8.000000 1.000000 58.290039 -38.300152 1825.010625 1788.365983 20.431733 0.000000 0.238211
47.000000 54.569000 3.000000 8.000000 1.000000 68.619433 -43.014418 1979.167132 1517.291581 18.342122 0.000000 0.229827
48.000000 57.871000 4.000000 8.000000 1.000000 77.730991 -47.862527 2164.593514 1289.869046 17.292376 0.000000 0.259138
51.000000 46.523000 3.000000 9.000000 1.000000 64.276499 -42.038005 1945.393204 1639.167101 21.515797 0.000000 0.243348
52.000000 49.882000 4.000000 9.000000 1.000000 72.827707 -46.297860 2101.193408 1422.392306 20.063683 0.000000 0.256062
53.000000 51.753000 5.000000 9.000000 1.000000 80.374078 -50.628237 2286.619484 1228.763186 19.335454 0.000000 0.308072
56.000000 45.552000 5.000000 10.000000 1.000000 75.919529 -48.928728 2210.028805 1351.894337 21.969390 0.000000 0.290081
62.000000 187.886000 0.000000 2.000000 2.000000 78.077198 6.187897 858.307061 1169.589996 5.327063 0.000000 0.133160
64.000000 129.528000 0.000000 3.000000 2.000000 67.319747 -6.163096 1091.221602 1393.402603 7.728637 0.000000 0.078215
65.000000 161.820000 1.000000 3.000000 2.000000 94.889524 -15.491237 1273.305554 845.456297 6.183047 0.000000 0.149342
66.000000 166.039000 2.000000 3.000000 2.000000 116.072331 -27.815690 1542.842322 345.573617 6.023428 0.000000 0.028670
69.000000 117.996000 1.000000 4.000000 2.000000 81.532950 -20.755515 1382.889906 1112.340329 8.481477 0.000000 0.127861
70.000000 127.608000 2.000000 4.000000 2.000000 99.946655 -29.923647 1594.487876 723.221490 7.839702 0.000000 0.080840
71.000000 125.690000 3.000000 4.000000 2.000000 113.694787 -40.487760 1893.844564 319.940696 7.957192 0.000000 0.104530
74.000000 70.644000 0.000000 5.000000 2.000000 53.748261 -17.416582 1312.632284 1768.143271 14.173342 0.000000 0.109083
75.000000 89.351000 1.000000 5.000000 2.000000 72.076909 -23.796414 1449.621866 1321.457262 11.202374 0.000000 0.109702
76.000000 99.616000 2.000000 5.000000 2.000000 88.128140 -31.060002 1623.237873 982.062404 10.044794 0.000000 0.102978
77.000000 102.223000 3.000000 5.000000 2.000000 101.147308 -39.124210 1850.436019 667.618873 9.786027 0.000000 0.068690
78.000000 99.638000 4.000000 5.000000 2.000000 111.024467 -47.765398 2160.547619 325.561347 10.038002 0.000000 0.233441
79.000000 70.171000 1.000000 6.000000 2.000000 65.177797 -25.766567 1494.526391 1493.786098 14.265900 0.000000 0.111843
80.000000 83.913000 3.000000 6.000000 2.000000 91.333242 -38.290467 1824.715269 909.085155 11.923423 0.000000 0.093129
82.000000 45.573000 0.000000 7.000000 2.000000 46.456663 -22.430494 1419.286766 2047.638260 21.971867 0.000000 0.213951
83.000000 56.846000 1.000000 7.000000 2.000000 59.975035 -27.143854 1526.807540 1640.010541 17.611144 0.000000 0.132469
84.000000 65.013000 2.000000 7.000000 2.000000 72.482887 -32.255893 1654.245888 1342.701088 15.395398 0.000000 0.126243
85.000000 69.824000 3.000000 7.000000 2.000000 83.557946 -37.728197 1807.701161 1094.650618 14.331458 0.000000 0.116881
86.000000 71.682000 4.000000 7.000000 2.000000 92.989113 -43.491066 1996.046220 863.532672 13.957318 0.000000 0.133908
87.000000 71.305000 5.000000 7.000000 2.000000 100.754429 -49.444419 2232.706112 626.586508 14.028921 0.000000 0.244225
89.000000 47.246000 1.000000 8.000000 2.000000 55.933630 -28.159810 1551.132281 1766.495029 21.190822 0.000000 0.161460
90.000000 58.946000 3.000000 8.000000 2.000000 77.301187 -37.323446 1795.612750 1245.982653 16.978178 0.000000 0.135532
91.000000 62.221000 5.000000 8.000000 2.000000 93.888670 -47.352754 2143.525847 833.011173 16.079073 0.000000 0.197197
93.000000 46.082000 2.000000 9.000000 2.000000 62.836100 -32.877307 1670.681448 1598.609167 21.723004 0.000000 0.159347
94.000000 50.456000 3.000000 9.000000 2.000000 72.186806 -37.018180 1786.581483 1374.134310 19.836470 0.000000 0.151672
95.000000 53.231000 4.000000 9.000000 2.000000 80.604177 -41.332154 1921.618341 1178.182389 18.799411 0.000000 0.152693
96.000000 54.589000 5.000000 9.000000 2.000000 88.009048 -45.778788 2080.958189 994.646712 18.328982 0.000000 0.181625
97.000000 54.803000 6.000000 9.000000 2.000000 94.393940 -50.308858 2271.810617 811.505030 18.255367 0.000000 0.264210
99.000000 48.198000 5.000000 10.000000 2.000000 82.953957 -44.553194 2034.637426 1127.683239 20.761501 0.000000 0.180907
102.000000 189.462000 0.000000 1.000000 3.000000 90.162750 41.454899 24.284589 936.920836 5.280951 0.000000 0.118401
103.000000 105.142000 -1.000000 2.000000 3.000000 53.478889 23.499149 507.032929 1810.108396 9.522717 0.000000 0.146631
104.000000 159.609000 0.000000 2.000000 3.000000 85.865686 20.300904 576.847357 1023.950232 6.269712 0.000000 0.134076
105.000000 184.408000 1.000000 2.000000 3.000000 115.729010 15.292562 680.709372 403.304302 5.423550 0.000000 0.102452
106.000000 180.819000 2.000000 2.000000 3.000000 139.570285 6.542776 851.557714 -330.595292 5.529231 0.000000 0.013735
107.000000 86.103000 -1.000000 3.000000 3.000000 51.420210 10.930866 767.137012 1815.438214 11.629253 0.000000 0.101431
108.000000 147.331000 1.000000 3.000000 3.000000 102.853474 -0.326768 981.138359 695.411378 6.790106 0.000000 0.163475
109.000000 150.863000 2.000000 3.000000 3.000000 123.226528 -9.524823 1155.589276 226.125582 6.628683 0.000000 0.082104
110.000000 142.711000 3.000000 3.000000 3.000000 138.113784 -22.592629 1422.855610 -358.883850 7.005812 0.000000 0.092288
111.000000 69.319000 -1.000000 4.000000 3.000000 48.633102 2.093990 935.647134 1889.409798 14.445614 0.000000 0.119063
112.000000 97.407000 0.000000 4.000000 3.000000 70.592118 -2.865732 1028.877355 1320.664272 10.276718 0.000000 0.097589
113.000000 115.840000 1.000000 4.000000 3.000000 91.229415 -9.092324 1147.246517 917.608133 8.637972 0.000000 0.160719
114.000000 122.768000 2.000000 4.000000 3.000000 108.878773 -16.924546 1302.506921 556.285139 8.147641 0.000000 0.120237
115.000000 120.846000 3.000000 4.000000 3.000000 122.690206 -26.647675 1515.088646 168.205988 8.275153 0.000000 0.019543
117.000000 56.362000 -1.000000 5.000000 3.000000 45.979425 -4.182169 1053.701369 1983.889490 17.766917 0.000000 0.160272
118.000000 76.960000 0.000000 5.000000 3.000000 64.381393 -8.887665 1143.305792 1463.375726 13.008337 0.000000 0.062725
119.000000 91.929000 1.000000 5.000000 3.000000 81.863542 -14.465489 1252.657099 1099.916064 10.886608 0.000000 0.138463
120.000000 99.767000 2.000000 5.000000 3.000000 97.326565 -21.043631 1389.091322 792.727590 10.028098 0.000000 0.129599
121.000000 101.318000 3.000000 5.000000 3.000000 110.118320 -28.693364 1564.091900 491.550342 9.872113 0.000000 0.050404
122.000000 98.555000 4.000000 5.000000 3.000000 120.052858 -37.360131 1796.703013 157.539559 10.147019 0.000000 0.095691
124.000000 46.663000 -1.000000 6.000000 3.000000 43.687404 -8.768345 1141.010323 2081.098050 21.460212 0.000000 0.203520
125.000000 74.294000 1.000000 6.000000 3.000000 74.482300 -18.038064 1325.499900 1255.287840 13.472497 0.000000 0.114504
126.000000 81.871000 2.000000 6.000000 3.000000 88.159337 -23.642663 1446.176107 978.757762 12.222270 0.000000 0.125973
127.000000 84.836000 4.000000 6.000000 3.000000 109.635766 -36.833599 1781.155807 461.217396 11.789924 0.000000 0.041390
128.000000 82.314000 5.000000 6.000000 3.000000 117.253090 -44.244254 2023.269110 167.098330 12.149463 0.000000 0.190904
129.000000 51.405000 0.000000 7.000000 3.000000 55.436337 -16.173528 1287.153218 1713.033875 19.477273 0.000000 0.090426
130.000000 61.243000 1.000000 7.000000 3.000000 68.634789 -20.567162 1378.848566 1390.705152 16.344869 0.000000 0.099387
131.000000 68.124000 2.000000 7.000000 3.000000 80.841549 -25.425221 1486.642819 1133.129170 14.690439 0.000000 0.118908
132.000000 71.953000 3.000000 7.000000 3.000000 91.681030 -30.744333 1615.183688 904.247717 13.905741 0.000000 0.097559
133.000000 73.148000 4.000000 7.000000 3.000000 100.954506 -36.489079 1771.098426 681.881366 13.676024 0.000000 0.055256
134.000000 72.364000 5.000000 7.000000 3.000000 108.623332 -42.584708 1964.173314 448.385558 13.822065 0.000000 0.119230
136.000000 51.436000 1.000000 8.000000 3.000000 63.939214 -22.444969 1419.605058 1510.499511 19.462659 0.000000 0.099232
137.000000 57.524000 2.000000 8.000000 3.000000 74.926807 -26.721511 1516.826010 1265.524716 17.399322 0.000000 0.114285
138.000000 61.454000 3.000000 8.000000 3.000000 84.901556 -31.330561 1630.183751 1053.420164 16.283406 0.000000 0.107324
139.000000 63.392000 4.000000 8.000000 3.000000 93.687647 -36.246117 1764.059464 854.987436 15.782683 0.000000 0.080378
140.000000 63.700000 5.000000 8.000000 3.000000 101.218003 -41.420874 1924.578160 656.332722 15.704004 0.000000 0.093381
141.000000 62.799000 6.000000 8.000000 3.000000 107.513518 -46.785906 2120.572153 444.986583 15.927415 0.000000 0.197076
143.000000 49.258000 2.000000 9.000000 3.000000 70.078247 -27.705698 1540.203679 1381.590125 20.320814 0.000000 0.115264
144.000000 55.313000 4.000000 9.000000 3.000000 87.562149 -36.065582 1758.857390 997.686772 18.089989 0.000000 0.099631
145.000000 56.274000 5.000000 9.000000 3.000000 94.851895 -40.560159 1896.198321 820.744771 17.778306 0.000000 0.096234
146.000000 55.315000 7.000000 9.000000 3.000000 106.456293 -49.957916 2255.765899 446.836678 18.082462 0.000000 0.270803
148.000000 46.246000 3.000000 10.000000 3.000000 74.562518 -32.111991 1650.472065 1291.902882 21.641982 0.000000 0.122066
149.000000 48.624000 4.000000 10.000000 3.000000 82.356811 -35.926156 1754.856163 1119.363562 20.580357 0.000000 0.114323
150.000000 49.954000 5.000000 10.000000 3.000000 89.356308 -39.898062 1874.859833 956.761720 20.029786 0.000000 0.108674
151.000000 50.395000 6.000000 10.000000 3.000000 95.533679 -43.997442 2014.272451 796.048451 19.851971 0.000000 0.135907
152.000000 50.131000 7.000000 10.000000 3.000000 100.900524 -48.186927 2178.217001 630.109021 19.954387 0.000000 0.214190
155.000000 45.516000 7.000000 11.000000 3.000000 95.930545 -46.781957 2120.413938 777.729039 21.979689 0.000000 0.183631
158.000000 105.278000 -1.000000 1.000000 4.000000 61.188608 45.936795 -137.077674 1792.211767 9.508119 0.000000 0.329155
159.000000 145.028000 0.000000 1.000000 4.000000 89.906120 47.713700 -208.400297 943.621043 6.898832 0.000000 0.210314
161.000000 98.527000 -1.000000 2.000000 4.000000 62.363618 31.174568 323.825804 1599.657583 10.160312 0.000000 0.147729
162.000000 132.334000 0.000000 2.000000 4.000000 88.846147 29.976742 354.183616 966.025633 7.561253 0.000000 0.105451
163.000000 149.584000 1.000000 2.000000 4.000000 113.656755 28.217578 397.470867 405.918475 6.686300 0.000000 0.040983
164.000000 150.589000 2.000000 2.000000 4.000000 134.936671 25.389376 464.182459 -247.731506 6.639522 0.000000 0.078625
166.000000 85.942000 -1.000000 3.000000 4.000000 60.817307 19.125198 601.769513 1577.209588 11.649074 0.000000 0.084270
167.000000 113.056000 0.000000 3.000000 4.000000 84.028984 16.162204 663.077373 1058.204860 8.851753 0.000000 0.140034
168.000000 128.802000 1.000000 3.000000 4.000000 105.879928 12.129512 743.682571 627.825545 7.766408 0.000000 0.144222
169.000000 132.582000 2.000000 3.000000 4.000000 124.840445 6.393499 854.397913 187.140097 7.542518 0.000000 0.079719
170.000000 127.966000 3.000000 3.000000 4.000000 140.158045 -2.179948 1015.969831 -349.820918 7.812910 0.000000 0.012955
171.000000 72.696000 -1.000000 4.000000 4.000000 58.080584 9.874351 787.653033 1621.521446 13.772779 0.000000 0.044523
172.000000 107.780000 1.000000 4.000000 4.000000 96.998590 1.511617 946.597865 808.828567 9.282942 0.000000 0.168392
173.000000 113.302000 2.000000 4.000000 4.000000 113.689140 -4.519300 1060.070995 467.310375 8.827625 0.000000 0.133489
174.000000 112.203000 3.000000 4.000000 4.000000 127.478473 -12.382408 1211.292221 96.119177 8.911997 0.000000 0.052219
175.000000 61.091000 -1.000000 5.000000 4.000000 55.100079 2.887324 920.716011 1692.785458 16.389780 0.000000 0.037713
176.000000 77.722000 0.000000 5.000000 4.000000 72.354428 -0.950743 992.861233 1283.410245 12.879172 0.000000 0.107533
177.000000 89.558000 1.000000 5.000000 4.000000 88.784994 -5.568150 1079.927558 963.935389 11.173501 0.000000 0.161589
178.000000 95.743000 2.000000 5.000000 4.000000 103.554070 -11.147015 1187.077861 676.540930 10.448523 0.000000 0.150418
179.000000 96.954000 3.000000 5.000000 4.000000 116.124410 -17.877527 1322.167443 386.380284 10.315560 0.000000 0.088786
180.000000 94.628000 4.000000 5.000000 4.000000 126.266007 -25.906110 1497.762268 63.152060 10.567357 0.000000 0.032943
182.000000 51.620000 -1.000000 6.000000 4.000000 52.294972 -2.429847 1020.671762 1773.754390 19.397644 0.000000 0.070238
183.000000 74.759000 1.000000 6.000000 4.000000 81.719355 -10.487007 1174.226914 1100.304028 13.387041 0.000000 0.142636
184.000000 83.410000 3.000000 6.000000 4.000000 106.410741 -21.253642 1393.626722 600.876563 11.992655 0.000000 0.109234
185.000000 80.656000 5.000000 6.000000 4.000000 123.839147 -35.148026 1732.780875 58.512085 12.398249 0.000000 0.094588
186.000000 54.608000 0.000000 7.000000 4.000000 63.031137 -10.076437 1166.260577 1497.242698 18.333311 0.000000 0.057906
187.000000 63.024000 1.000000 7.000000 4.000000 75.784118 -14.054905 1244.446065 1222.076243 15.881402 0.000000 0.120816
188.000000 68.789000 2.000000 7.000000 4.000000 87.619340 -18.526528 1335.677219 988.191801 14.547062 0.000000 0.139937
189.000000 71.890000 3.000000 7.000000 4.000000 98.210630 -23.523736 1443.516343 771.623753 13.916392 0.000000 0.117886
190.000000 72.708000 4.000000 7.000000 4.000000 107.370449 -29.055065 1572.952596 555.849451 13.757419 0.000000 0.059708
191.000000 71.796000 5.000000 7.000000 4.000000 115.038317 -35.091576 1731.195893 326.553933 13.930041 0.000000 0.037410
192.000000 69.714000 6.000000 7.000000 4.000000 121.251873 -41.554972 1929.067228 68.165032 14.344639 0.000000 0.168313
194.000000 53.755000 1.000000 8.000000 4.000000 70.819512 -16.742020 1298.764331 1331.966891 18.621455 0.000000 0.102131
195.000000 62.290000 3.000000 8.000000 4.000000 91.296184 -25.150123 1480.321719 914.096690 16.063294 0.000000 0.119609
196.000000 63.865000 5.000000 8.000000 4.000000 107.412013 -35.052666 1730.104697 528.676605 15.662013 0.000000 0.031100
198.000000 46.393000 1.000000 9.000000 4.000000 66.650193 -18.830191 1342.033434 1431.908883 21.577697 0.000000 0.091439
199.000000 51.093000 2.000000 9.000000 4.000000 76.414096 -22.457072 1419.871224 1222.445895 19.589256 0.000000 0.116884
200.000000 54.348000 3.000000 9.000000 4.000000 85.441309 -26.370792 1508.593413 1036.782947 18.412771 0.000000 0.118096
201.000000 56.224000 4.000000 9.000000 4.000000 93.593293 -30.565911 1610.654641 862.504415 17.795328 0.000000 0.094258
202.000000 56.907000 5.000000 9.000000 4.000000 100.795363 -35.024221 1729.307636 690.393742 17.579171 0.000000 0.055658
203.000000 56.637000 6.000000 9.000000 4.000000 107.029219 -39.712589 1868.956264 512.462445 17.660798 0.000000 0.072354
204.000000 55.658000 7.000000 9.000000 4.000000 112.320865 -44.582287 2035.714196 320.596098 17.969481 0.000000 0.170282
206.000000 47.777000 3.000000 10.000000 4.000000 80.451006 -27.319927 1530.991023 1144.787024 20.946693 0.000000 0.115992
207.000000 50.868000 5.000000 10.000000 4.000000 95.036700 -35.002520 1728.699906 825.195870 19.667982 0.000000 0.076342
208.000000 50.707000 7.000000 10.000000 4.000000 106.465739 -43.392332 1992.528086 503.229862 19.726046 0.000000 0.127538
210.000000 45.654000 5.000000 11.000000 4.000000 90.003406 -34.985418 1728.221211 940.921904 21.916199 0.000000 0.091957
211.000000 46.237000 6.000000 11.000000 4.000000 95.946237 -38.662456 1836.116991 797.433952 21.637361 0.000000 0.079517
212.000000 46.246000 7.000000 11.000000 4.000000 101.220302 -42.459921 1959.857848 651.595132 21.631195 0.000000 0.107589
213.000000 45.799000 8.000000 11.000000 4.000000 105.841158 -46.349077 2103.210787 498.565962 21.839941 0.000000 0.182788
216.000000 116.773000 0.000000 1.000000 5.000000 89.405447 51.566657 -381.323236 958.968060 8.568072 0.000000 0.301909
219.000000 88.554000 -1.000000 2.000000 5.000000 67.836195 36.776480 170.517869 1488.374652 11.303239 0.000000 0.166365
220.000000 110.969000 0.000000 2.000000 5.000000 89.897104 36.669881 173.634737 943.409827 9.016597 0.000000 0.093791
221.000000 123.605000 1.000000 2.000000 5.000000 110.764458 36.522501 177.929815 433.197304 8.091875 0.000000 0.038431
222.000000 126.435000 2.000000 2.000000 5.000000 129.328412 36.305407 184.226864 -153.252991 7.908485 0.000000 0.143201
223.000000 57.126000 -2.000000 3.000000 5.000000 47.105672 26.962669 427.483686 2062.904447 17.527684 0.000000 0.237492
224.000000 80.730000 -1.000000 3.000000 5.000000 67.030004 25.640546 458.389380 1447.024797 12.399564 0.000000 0.107833
225.000000 99.950000 0.000000 3.000000 5.000000 87.197750 23.943632 497.071116 998.642344 10.011629 0.000000 0.125139
226.000000 111.661000 1.000000 3.000000 5.000000 106.365203 21.691016 546.885967 600.853958 8.958446 0.000000 0.109178
227.000000 115.536000 2.000000 3.000000 5.000000 123.578797 18.568372 613.448256 187.248734 8.655376 0.000000 0.051028
228.000000 113.411000 3.000000 3.000000 5.000000 138.346270 13.986948 706.910096 -305.942936 8.815720 0.000000 0.036116
230.000000 51.936000 -2.000000 4.000000 5.000000 46.951290 18.603099 612.722138 2001.798170 19.280007 0.000000 0.188867
231.000000 71.220000 -1.000000 4.000000 5.000000 64.849232 16.496416 656.260337 1468.030390 14.056384 0.000000 0.078603
232.000000 87.266000 0.000000 4.000000 5.000000 82.867747 13.889052 708.862333 1079.731026 11.468082 0.000000 0.141208
233.000000 97.870000 1.000000 4.000000 5.000000 100.043927 10.594325 773.687327 747.063421 10.222127 0.000000 0.157275
234.000000 102.554000 2.000000 4.000000 5.000000 115.591096 6.332621 855.555711 422.367305 9.752490 0.000000 0.124566
235.000000 102.325000 3.000000 4.000000 5.000000 129.023721 0.681036 962.206210 68.634413 9.772163 0.000000 0.059818
236.000000 98.792000 4.000000 4.000000 5.000000 140.114546 -6.986676 1106.898256 -356.532697 10.120091 0.000000 0.028096
238.000000 46.335000 -2.000000 5.000000 5.000000 46.153723 11.723377 751.652161 1996.823621 21.611602 0.000000 0.173305
239.000000 61.908000 -1.000000 5.000000 5.000000 62.098598 9.202419 800.631729 1518.332750 16.171797 0.000000 0.048649
240.000000 84.556000 1.000000 5.000000 5.000000 93.362317 2.541893 927.219500 877.704394 11.833354 0.000000 0.167671
241.000000 89.617000 2.000000 5.000000 5.000000 107.334713 -1.916122 1011.007553 604.868243 11.162040 0.000000 0.154487
242.000000 90.812000 3.000000 5.000000 5.000000 119.574544 -7.414888 1115.070615 325.061402 11.012669 0.000000 0.104706
243.000000 89.133000 4.000000 5.000000 5.000000 129.860736 -14.221837 1247.780842 13.917376 11.218308 0.000000 0.036890
245.000000 53.635000 -1.000000 6.000000 5.000000 59.261290 3.423298 910.617131 1582.184806 18.667193 0.000000 0.016150
246.000000 64.558000 0.000000 6.000000 5.000000 73.450389 0.297941 969.403159 1260.831178 15.504908 0.000000 0.113341
247.000000 72.776000 1.000000 6.000000 5.000000 87.079324 -3.352587 1038.049919 996.006253 13.750481 0.000000 0.160061
248.000000 77.847000 2.000000 6.000000 5.000000 99.671933 -7.634375 1119.265596 755.927767 12.851482 0.000000 0.161908
249.000000 79.948000 3.000000 6.000000 5.000000 110.884379 -12.664362 1216.850025 520.099320 12.511073 0.000000 0.127774
250.000000 79.651000 4.000000 6.000000 5.000000 120.518890 -18.556634 1336.306383 271.741078 12.555517 0.000000 0.065051
251.000000 77.656000 5.000000 6.000000 5.000000 128.500169 -25.393657 1485.916084 -6.691658 12.876359 0.000000 0.043778
253.000000 46.611000 -1.000000 7.000000 5.000000 56.573071 -1.181324 997.194175 1651.562350 21.480957 0.000000 0.019932
254.000000 55.662000 0.000000 7.000000 5.000000 69.242446 -4.263259 1055.232934 1350.065591 17.984339 0.000000 0.089633
255.000000 62.793000 1.000000 7.000000 5.000000 81.462922 -7.767838 1121.818519 1104.061656 15.938262 0.000000 0.144115
256.000000 67.641000 2.000000 7.000000 5.000000 92.870153 -11.756091 1198.988903 885.883246 14.792644 0.000000 0.157486
257.000000 70.230000 3.000000 7.000000 5.000000 103.187735 -16.288007 1289.485941 678.254982 14.244330 0.000000 0.137167
258.000000 70.873000 4.000000 7.000000 5.000000 112.243174 -21.413513 1397.087970 468.187719 14.112516 0.000000 0.087967
259.000000 70.019000 5.000000 7.000000 5.000000 119.959539 -27.158318 1527.150699 243.740397 14.282685 0.000000 0.017898
260.000000 68.122000 6.000000 7.000000 5.000000 126.335537 -33.505280 1687.526275 -8.402498 14.678774 0.000000 0.094906
262.000000 48.320000 0.000000 8.000000 5.000000 65.517727 -7.857562 1123.535709 1435.738564 20.718282 0.000000 0.068169
263.000000 54.496000 1.000000 8.000000 5.000000 76.549617 -11.161398 1187.358538 1203.372385 18.366664 0.000000 0.125280
264.000000 59.000000 2.000000 8.000000 5.000000 86.941239 -14.838626 1260.145585 1000.497284 16.961011 0.000000 0.147083
265.000000 61.790000 3.000000 8.000000 5.000000 96.471219 -18.920496 1343.928102 811.946564 16.192059 0.000000 0.138219
266.000000 63.024000 4.000000 8.000000 5.000000 104.991166 -23.429006 1441.401173 626.888230 15.872107 0.000000 0.102518
267.000000 62.981000 5.000000 8.000000 5.000000 112.424261 -28.369876 1556.219038 436.226162 15.880632 0.000000 0.042099
268.000000 61.975000 6.000000 8.000000 5.000000 118.754264 -33.724473 1693.463444 230.927431 16.136704 0.000000 0.042761
269.000000 60.298000 7.000000 8.000000 5.000000 124.011554 -39.442508 1860.416161 0.535418 16.583960 0.000000 0.154590
271.000000 47.643000 1.000000 9.000000 5.000000 72.284172 -13.833777 1240.036106 1295.087812 21.009938 0.000000 0.107250
272.000000 51.760000 2.000000 9.000000 5.000000 81.803171 -17.218281 1308.545090 1103.309638 19.335149 0.000000 0.134320
273.000000 54.570000 3.000000 9.000000 5.000000 90.636120 -20.911827 1386.251414 928.207436 18.336171 0.000000 0.134499
274.000000 56.145000 4.000000 9.000000 5.000000 98.656449 -24.923703 1475.140464 760.313626 17.818838 0.000000 0.110524
275.000000 56.652000 5.000000 9.000000 5.000000 105.790366 -29.252416 1577.813364 592.147608 17.656864 0.000000 0.064712
276.000000 56.302000 6.000000 9.000000 5.000000 112.011258 -33.881879 1697.745747 416.905709 17.764563 0.000000 0.016789
277.000000 55.309000 7.000000 9.000000 5.000000 117.330677 -38.778207 1839.688991 227.475334 18.081748 0.000000 0.098244
278.000000 53.866000 8.000000 9.000000 5.000000 121.788897 -43.888212 2010.314693 15.444601 18.564903 0.000000 0.215351
280.000000 45.709000 2.000000 10.000000 5.000000 77.349303 -19.104838 1347.802096 1196.661918 21.896240 0.000000 0.121709
281.000000 48.435000 3.000000 10.000000 5.000000 85.563500 -22.467341 1420.097100 1031.365007 20.660557 0.000000 0.128503
282.000000 50.181000 4.000000 10.000000 5.000000 93.118842 -26.074922 1501.687110 875.709751 19.938793 0.000000 0.114142
283.000000 51.161000 6.000000 10.000000 5.000000 106.014549 -34.000395 1700.980445 568.375570 19.551704 0.000000 0.036808
284.000000 50.688000 7.000000 10.000000 5.000000 111.320903 -38.281317 1824.436283 405.848963 19.732235 0.000000 0.062785
285.000000 49.770000 8.000000 10.000000 5.000000 115.888275 -42.731137 1969.259273 229.882787 20.094323 0.000000 0.153994
287.000000 46.113000 5.000000 11.000000 5.000000 94.787503 -30.451213 1607.751947 836.433688 21.696753 0.000000 0.092036
288.000000 46.555000 6.000000 11.000000 5.000000 100.674719 -34.092847 1703.510064 696.019120 21.488348 0.000000 0.058303
289.000000 46.467000 7.000000 11.000000 5.000000 105.915644 -37.895689 1812.742174 552.080408 21.526717 0.000000 0.051280
290.000000 45.959000 8.000000 11.000000 5.000000 110.520272 -41.835162 1938.507360 400.318225 21.762414 0.000000 0.112921
296.000000 78.984000 -1.000000 2.000000 6.000000 71.402885 40.971170 40.342044 1420.647322 12.671856 0.000000 0.189235
297.000000 104.343000 1.000000 2.000000 6.000000 108.025369 42.091873 2.770777 469.028757 9.585960 0.000000 0.106230
299.000000 56.678000 -2.000000 3.000000 6.000000 53.630419 31.493034 315.625992 1870.550231 17.664326 0.000000 0.206333
300.000000 74.146000 -1.000000 3.000000 6.000000 71.214203 30.820226 332.884786 1367.306091 13.499419 0.000000 0.121683
301.000000 97.235000 1.000000 3.000000 6.000000 105.715100 28.888760 381.129096 595.119655 10.287445 0.000000 0.070389
302.000000 100.972000 2.000000 3.000000 6.000000 121.194142 27.433228 416.309897 206.756508 9.904072 0.000000 0.013008
304.000000 67.524000 -1.000000 4.000000 6.000000 69.670129 22.060607 538.823979 1371.272903 14.824202 0.000000 0.101615
305.000000 88.124000 1.000000 4.000000 6.000000 101.399360 18.103747 623.134906 712.691187 11.352215 0.000000 0.135527
306.000000 92.632000 3.000000 4.000000 6.000000 128.508422 11.589588 754.272341 66.795059 10.794807 0.000000 0.048534
308.000000 47.815000 -2.000000 5.000000 6.000000 52.637570 16.673280 652.643285 1798.837969 20.940793 0.000000 0.114202
309.000000 60.414000 -1.000000 5.000000 6.000000 67.375808 14.748871 691.658047 1404.834243 16.569923 0.000000 0.084677
310.000000 70.974000 0.000000 5.000000 6.000000 82.078364 12.456321 737.251981 1094.372726 14.100820 0.000000 0.141147
311.000000 78.534000 1.000000 5.000000 6.000000 96.210528 9.688782 791.242521 822.182149 12.740039 0.000000 0.161363
312.000000 82.793000 2.000000 5.000000 6.000000 109.318917 6.299559 856.184395 561.396000 12.081631 0.000000 0.146079
313.000000 84.065000 3.000000 5.000000 6.000000 121.085692 2.086623 935.785693 291.673746 11.896324 0.000000 0.103553
314.000000 83.015000 4.000000 5.000000 6.000000 131.327571 -3.224802 1035.641556 -6.966771 12.044843 0.000000 0.045116
315.000000 80.384000 5.000000 5.000000 6.000000 139.955372 -9.991214 1164.609555 -359.371394 12.437694 0.000000 0.038382
317.000000 53.607000 -1.000000 6.000000 6.000000 64.779302 8.737534 809.582180 1453.892959 18.675146 0.000000 0.062990
318.000000 69.409000 1.000000 6.000000 6.000000 90.891457 3.200489 914.816596 924.226579 14.416415 0.000000 0.165550
319.000000 73.874000 5.000000 6.000000 6.000000 131.378126 -15.502553 1273.534461 -42.948510 13.535116 0.000000 0.031802
321.000000 47.471000 -1.000000 7.000000 6.000000 62.155608 3.809605 903.331392 1510.790781 21.089837 0.000000 0.037803
322.000000 55.171000 0.000000 7.000000 6.000000 74.196190 1.175774 952.910130 1245.702039 18.142745 0.000000 0.117088
323.000000 61.201000 1.000000 7.000000 6.000000 85.831965 -1.835076 1009.483468 1019.474682 16.351584 0.000000 0.158045
324.000000 65.313000 2.000000 7.000000 6.000000 96.767687 -5.289399 1074.643950 812.729049 15.318737 0.000000 0.166252
325.000000 67.542000 3.000000 7.000000 6.000000 106.774287 -9.261493 1150.507278 612.289533 14.810190 0.000000 0.147442
326.000000 68.134000 4.000000 7.000000 6.000000 115.699104 -13.829273 1239.946370 407.572427 14.679238 0.000000 0.106078
327.000000 67.435000 5.000000 7.000000 6.000000 123.459327 -19.064964 1346.963399 188.435542 14.829237 0.000000 0.048416
328.000000 65.810000 6.000000 7.000000 6.000000 130.027088 -25.018400 1477.305115 -56.587174 15.193934 0.000000 0.051591
331.000000 54.041000 1.000000 8.000000 6.000000 81.196827 -5.799907 1084.324212 1108.537840 18.519745 0.000000 0.144456
332.000000 60.322000 3.000000 8.000000 6.000000 100.500930 -12.786699 1219.265326 736.429384 16.584753 0.000000 0.151462
333.000000 61.331000 5.000000 8.000000 6.000000 116.285408 -21.539284 1399.816260 369.492642 16.306991 0.000000 0.069854
334.000000 58.904000 7.000000 8.000000 6.000000 128.099292 -32.239057 1653.803741 -56.719763 16.975550 0.000000 0.095367
336.000000 47.893000 1.000000 9.000000 6.000000 77.029393 -8.974473 1144.976744 1191.973027 20.898414 0.000000 0.128251
337.000000 51.496000 2.000000 9.000000 6.000000 86.271098 -12.075218 1205.250628 1012.733225 19.433010 0.000000 0.150639
338.000000 55.295000 4.000000 9.000000 6.000000 102.770638 -19.244944 1350.752230 682.612732 18.091760 0.000000 0.127344
339.000000 55.704000 5.000000 9.000000 6.000000 109.842759 -23.351770 1439.678870 517.950025 17.956444 0.000000 0.086626
340.000000 54.406000 7.000000 9.000000 6.000000 121.457230 -32.624176 1663.958963 159.202550 18.380833 0.000000 0.049382
341.000000 53.050000 8.000000 9.000000 6.000000 126.019895 -37.743539 1808.161945 -48.612644 18.849401 0.000000 0.145402
342.000000 48.365000 3.000000 10.000000 6.000000 89.900045 -17.623021 1316.896674 942.970104 20.688979 0.000000 0.143597
343.000000 50.608000 5.000000 10.000000 6.000000 104.077697 -24.734095 1470.816241 643.836994 19.766672 0.000000 0.098184
344.000000 50.173000 7.000000 10.000000 6.000000 115.439374 -32.910031 1671.553328 331.168304 19.933670 0.000000 0.015122
345.000000 48.089000 9.000000 10.000000 6.000000 123.987064 -42.005884 1944.299874 -35.503129 20.794288 0.000000 0.196972
346.000000 46.044000 5.000000 11.000000 6.000000 98.922704 -25.821981 1495.810490 753.275909 21.727660 0.000000 0.105535
347.000000 46.390000 6.000000 11.000000 6.000000 104.764503 -29.376692 1580.883935 615.487482 21.563242 0.000000 0.067816
348.000000 46.250000 7.000000 11.000000 6.000000 109.990947 -33.130609 1677.447039 473.440960 21.626115 0.000000 0.021822
349.000000 45.724000 8.000000 11.000000 6.000000 114.605859 -37.066155 1787.995982 323.285554 21.873077 0.000000 0.059816
353.000000 56.141000 -2.000000 2.000000 7.000000 57.536016 43.548647 -48.103282 1885.721400 17.831154 0.000000 0.318422
354.000000 70.675000 -1.000000 2.000000 7.000000 73.851711 44.197796 -71.569885 1375.681308 14.160721 0.000000 0.217056
355.000000 82.267000 0.000000 2.000000 7.000000 90.101516 45.000429 -101.310388 938.303126 12.161912 0.000000 0.162212
356.000000 89.800000 1.000000 2.000000 7.000000 105.652072 46.017814 -140.229056 506.745412 11.138682 0.000000 0.171564
358.000000 54.444000 -2.000000 3.000000 7.000000 58.504482 35.201452 215.717043 1748.017182 18.387748 0.000000 0.203584
359.000000 67.656000 -1.000000 3.000000 7.000000 74.112689 34.973616 222.109008 1314.842812 14.793336 0.000000 0.132197
360.000000 78.302000 0.000000 3.000000 7.000000 89.670036 34.694195 229.899835 948.538796 12.778473 0.000000 0.093660
361.000000 85.432000 1.000000 3.000000 7.000000 104.625201 34.343452 239.605149 600.841107 11.708824 0.000000 0.044880
362.000000 88.898000 2.000000 3.000000 7.000000 118.544910 33.890125 252.029492 235.703066 11.249611 0.000000 0.037917
363.000000 89.216000 3.000000 3.000000 7.000000 131.169165 33.281594 268.501638 -184.861383 11.207460 0.000000 0.121527
365.000000 51.362000 -2.000000 4.000000 7.000000 58.484869 27.648319 411.170712 1686.016558 19.491827 0.000000 0.141470
366.000000 63.066000 -1.000000 4.000000 7.000000 73.130738 26.719027 433.232468 1306.387937 15.870947 0.000000 0.111701
367.000000 72.641000 0.000000 4.000000 7.000000 87.717688 25.597631 459.380902 988.564027 13.775231 0.000000 0.120136
368.000000 79.313000 1.000000 4.000000 7.000000 101.774829 24.218897 490.867434 694.991357 12.613198 0.000000 0.108919
369.000000 82.902000 2.000000 4.000000 7.000000 114.918217 22.485086 529.512507 399.845822 12.064205 0.000000 0.073137
370.000000 83.753000 3.000000 4.000000 7.000000 126.894597 20.243607 578.070498 79.861518 11.939346 0.000000 0.028739
371.000000 82.492000 4.000000 4.000000 7.000000 137.578333 17.244416 640.916740 -292.233094 12.120100 0.000000 0.046849
373.000000 47.548000 -2.000000 5.000000 7.000000 57.763914 21.003018 561.784281 1668.028379 21.056216 0.000000 0.103199
374.000000 57.744000 -1.000000 5.000000 7.000000 71.336042 19.572957 592.321162 1326.846969 17.334507 0.000000 0.103384
375.000000 66.234000 0.000000 5.000000 7.000000 84.834506 17.880949 627.761590 1043.235244 15.108940 0.000000 0.138140
376.000000 72.401000 1.000000 5.000000 7.000000 97.864337 15.851721 669.389777 786.457632 13.818541 0.000000 0.147205
377.000000 76.055000 2.000000 5.000000 7.000000 110.091502 13.380316 718.981260 536.328590 13.151625 0.000000 0.129492
378.000000 77.397000 3.000000 5.000000 7.000000 121.276680 10.317595 779.062729 276.457079 12.921169 0.000000 0.091258
379.000000 76.867000 4.000000 5.000000 7.000000 131.276453 6.448258 853.356231 -9.779117 13.008151 0.000000 0.041978
380.000000 74.985000 5.000000 5.000000 7.000000 140.018681 1.459322 947.580884 -342.943683 13.333217 0.000000 0.003498
382.000000 52.314000 -1.000000 6.000000 7.000000 69.100715 13.505178 716.501728 1363.668725 19.134971 0.000000 0.091359
383.000000 59.776000 0.000000 6.000000 7.000000 81.509603 11.471786 756.577328 1104.944000 16.742677 0.000000 0.140734
384.000000 65.415000 1.000000 6.000000 7.000000 93.507461 9.091714 802.765221 874.191008 15.295861 0.000000 0.162149
385.000000 69.045000 2.000000 6.000000 7.000000 104.810588 6.278793 856.579209 654.700622 14.488428 0.000000 0.156748
386.000000 70.765000 3.000000 6.000000 7.000000 115.203767 2.921202 920.077968 433.788836 14.133544 0.000000 0.129384
387.000000 70.869000 4.000000 6.000000 7.000000 124.545182 -1.124932 996.134431 199.890267 14.110708 0.000000 0.085574
388.000000 69.733000 5.000000 6.000000 7.000000 132.753815 -6.039984 1088.882542 -59.603749 14.338709 0.000000 0.035223
389.000000 67.732000 6.000000 6.000000 7.000000 139.787899 -12.036717 1204.494398 -360.695683 14.760827 0.000000 0.045822
391.000000 47.151000 -1.000000 7.000000 7.000000 66.692815 8.396814 816.127839 1409.709924 21.231268 0.000000 0.074511
392.000000 58.794000 1.000000 7.000000 7.000000 89.105336 3.657688 906.197284 957.841821 17.019773 0.000000 0.163196
393.000000 62.319000 2.000000 7.000000 7.000000 99.540675 0.742970 961.042624 760.089341 16.053780 0.000000 0.167187
394.000000 64.289000 3.000000 7.000000 7.000000 109.196447 -2.632014 1024.476863 565.873781 15.559040 0.000000 0.149365
395.000000 64.888000 4.000000 7.000000 7.000000 117.942304 -6.555736 1098.688955 366.356218 15.412959 0.000000 0.113631
396.000000 64.382000 5.000000 7.000000 7.000000 125.699130 -11.126664 1186.680750 152.813321 15.532073 0.000000 0.064972
397.000000 63.054000 6.000000 7.000000 7.000000 132.427237 -16.444685 1292.682949 -84.687707 15.857588 0.000000 0.032817
399.000000 48.151000 0.000000 8.000000 7.000000 74.735923 1.826324 940.681101 1234.864878 20.787673 0.000000 0.119684
400.000000 52.760000 1.000000 8.000000 7.000000 84.883560 -0.732034 988.751925 1037.375858 18.967958 0.000000 0.156067
401.000000 56.119000 2.000000 8.000000 7.000000 94.530084 -3.617983 1043.053851 855.554869 17.829104 0.000000 0.167509
402.000000 58.223000 3.000000 8.000000 7.000000 103.516635 -6.880926 1104.882385 680.397042 17.181938 0.000000 0.157888
403.000000 59.180000 4.000000 8.000000 7.000000 111.727473 -10.574071 1175.918910 504.683255 16.901426 0.000000 0.130301
404.000000 59.171000 5.000000 8.000000 7.000000 119.088718 -14.751059 1258.385912 321.812171 16.901618 0.000000 0.087660
405.000000 58.405000 6.000000 8.000000 7.000000 125.561955 -19.459683 1355.283694 124.911319 17.121479 0.000000 0.037716
406.000000 57.083000 7.000000 8.000000 7.000000 131.136205 -24.731769 1470.763277 -94.048086 17.516474 0.000000 0.057360
409.000000 47.386000 1.000000 9.000000 7.000000 80.950593 -4.312904 1056.170743 1112.906585 21.120710 0.000000 0.144303
410.000000 50.543000 2.000000 9.000000 7.000000 89.890294 -7.104686 1109.148927 943.076760 19.797785 0.000000 0.161698
411.000000 52.690000 3.000000 9.000000 7.000000 98.274337 -10.202965 1168.713398 781.963009 18.988029 0.000000 0.159056
412.000000 53.886000 4.000000 9.000000 7.000000 106.001627 -13.639763 1236.173779 623.387042 18.563817 0.000000 0.139020
413.000000 54.250000 5.000000 9.000000 7.000000 113.004459 -17.444651 1313.211552 462.011191 18.436605 0.000000 0.103640
414.000000 53.933000 6.000000 9.000000 7.000000 119.245197 -21.640812 1402.022120 292.666339 18.543035 0.000000 0.055367
415.000000 53.088000 7.000000 9.000000 7.000000 124.711096 -26.239628 1505.527396 109.774656 18.836575 0.000000 0.026212
416.000000 51.857000 8.000000 9.000000 7.000000 129.409085 -31.234124 1627.703427 -93.276554 19.282277 0.000000 0.095724
419.000000 45.602000 2.000000 10.000000 7.000000 85.655165 -9.936568 1163.551358 1024.019346 21.944916 0.000000 0.152299
420.000000 47.727000 3.000000 10.000000 7.000000 93.497588 -12.855059 1220.615957 873.525318 20.964437 0.000000 0.155523
421.000000 49.067000 4.000000 10.000000 7.000000 100.785008 -16.042965 1284.496060 727.669527 20.388896 0.000000 0.142218
422.000000 49.699000 5.000000 10.000000 7.000000 107.456049 -19.516764 1356.490227 581.921917 20.127149 0.000000 0.114048
423.000000 49.727000 6.000000 10.000000 7.000000 113.474041 -23.287593 1438.249279 432.137642 20.113495 0.000000 0.072251
424.000000 49.266000 7.000000 10.000000 7.000000 118.823739 -27.358295 1531.904428 274.132312 20.299378 0.000000 0.020038
425.000000 48.430000 8.000000 10.000000 7.000000 123.507479 -31.720144 1640.255739 103.281160 20.648137 0.000000 0.055225
426.000000 47.319000 9.000000 10.000000 7.000000 127.541639 -36.349762 1767.056854 -85.941745 21.131574 0.000000 0.138795
428.000000 45.546000 5.000000 11.000000 7.000000 102.419199 -21.156271 1391.522292 686.853649 21.964139 0.000000 0.120130
429.000000 45.832000 6.000000 11.000000 7.000000 108.219776 -24.573001 1467.152651 551.439062 21.824734 0.000000 0.085519
430.000000 45.675000 7.000000 11.000000 7.000000 113.442953 -28.220624 1552.602821 411.327127 21.897597 0.000000 0.038335
434.000000 63.657000 -1.000000 2.000000 8.000000 75.609030 46.741879 -168.809640 1343.991616 15.721224 0.000000 0.248476
435.000000 78.563000 1.000000 2.000000 8.000000 103.643354 48.909254 -259.181652 543.519863 12.732252 0.000000 0.231687
436.000000 51.526000 -2.000000 3.000000 8.000000 62.220917 38.268993 125.939347 1663.143838 19.427753 0.000000 0.210816
437.000000 61.754000 -1.000000 3.000000 8.000000 76.181033 38.345250 123.612965 1278.556500 16.206181 0.000000 0.145009
438.000000 70.038000 0.000000 3.000000 8.000000 90.041916 38.436962 120.808579 939.994780 14.285893 0.000000 0.098412
439.000000 75.808000 1.000000 3.000000 8.000000 103.414534 38.549358 117.361997 612.771743 13.195454 0.000000 0.060096
440.000000 78.956000 2.000000 3.000000 8.000000 115.987123 38.690323 113.024104 268.840888 12.666617 0.000000 0.084178
441.000000 79.768000 3.000000 3.000000 8.000000 127.557881 38.872332 107.397806 -122.004817 12.535505 0.000000 0.164852
443.000000 58.553000 -1.000000 4.000000 8.000000 75.650817 30.627661 337.779799 1260.964359 17.093009 0.000000 0.116176
444.000000 71.620000 1.000000 4.000000 8.000000 101.608227 29.189248 373.744489 687.747893 13.967831 0.000000 0.082309
445.000000 75.885000 3.000000 4.000000 8.000000 124.799979 26.989383 426.851874 101.530483 13.177675 0.000000 0.022053
447.000000 46.286000 -2.000000 5.000000 8.000000 61.824710 24.781291 478.108649 1575.978863 21.628900 0.000000 0.110587
448.000000 54.591000 -1.000000 5.000000 8.000000 74.317011 23.750994 501.396894 1271.150142 18.334727 0.000000 0.111381
449.000000 61.497000 0.000000 5.000000 8.000000 86.716059 22.542248 528.254235 1007.864738 16.271992 0.000000 0.128947
450.000000 66.601000 1.000000 5.000000 8.000000 98.726377 21.105716 559.569246 763.917600 15.021443 0.000000 0.128580
451.000000 69.777000 2.000000 5.000000 8.000000 110.098037 19.372753 596.552163 523.537521 14.334748 0.000000 0.107911
452.000000 71.151000 3.000000 5.000000 8.000000 120.648571 17.245477 640.894905 273.228442 14.055448 0.000000 0.071865
453.000000 71.016000 4.000000 5.000000 8.000000 130.265715 14.580513 695.037210 -0.994320 14.080073 0.000000 0.032007
454.000000 69.733000 5.000000 5.000000 8.000000 138.894204 11.161928 762.631114 -316.310658 14.337454 0.000000 0.027352
456.000000 50.321000 -1.000000 6.000000 8.000000 72.471251 17.750170 630.471964 1297.940288 19.891405 0.000000 0.106553
457.000000 61.264000 1.000000 6.000000 8.000000 95.238246 14.310803 700.439903 839.165074 16.331620 0.000000 0.152666
458.000000 66.008000 3.000000 6.000000 8.000000 115.785424 9.529931 794.312068 413.760465 15.151890 0.000000 0.118311
459.000000 65.522000 5.000000 6.000000 8.000000 132.977016 2.560869 926.862325 -62.856291 15.260206 0.000000 0.035113
461.000000 46.068000 -1.000000 7.000000 8.000000 70.350780 12.575692 734.899121 1334.739420 21.728883 0.000000 0.096926
462.000000 51.615000 0.000000 7.000000 8.000000 81.081211 10.753971 770.581861 1112.924237 19.390125 0.000000 0.140242
463.000000 55.974000 1.000000 7.000000 8.000000 91.501698 8.668522 810.908934 912.458290 17.876492 0.000000 0.161617
464.000000 59.027000 2.000000 7.000000 8.000000 101.423438 6.264540 856.850187 722.216360 16.948645 0.000000 0.162075
465.000000 60.799000 3.000000 7.000000 8.000000 110.695453 3.473763 909.665710 533.651455 16.451648 0.000000 0.144753
466.000000 61.428000 4.000000 7.000000 8.000000 119.209132 0.211702 971.023185 339.250201 16.280779 0.000000 0.112995
467.000000 61.113000 5.000000 7.000000 8.000000 126.894462 -3.624523 1043.177191 131.438751 16.362709 0.000000 0.070897
468.000000 60.072000 6.000000 7.000000 8.000000 133.710894 -8.155975 1129.252281 -98.434081 16.644561 0.000000 0.029657
469.000000 58.511000 7.000000 7.000000 8.000000 139.636400 -13.515704 1233.707413 -361.337552 17.087244 0.000000 0.051458
471.000000 50.961000 1.000000 8.000000 8.000000 87.754809 3.993579 899.859373 983.299961 19.636609 0.000000 0.160957
472.000000 55.758000 3.000000 8.000000 8.000000 105.676377 -1.307106 999.558097 638.867471 17.940774 0.000000 0.158355
473.000000 56.711000 5.000000 8.000000 8.000000 120.969869 -8.188519 1129.876236 288.414021 17.634443 0.000000 0.096494
474.000000 54.988000 7.000000 8.000000 8.000000 133.195059 -17.166465 1307.478551 -116.649892 18.183465 0.000000 0.036256
476.000000 46.343000 1.000000 9.000000 8.000000 84.139527 0.105367 973.020697 1051.473994 21.594610 0.000000 0.154270
477.000000 49.122000 2.000000 9.000000 8.000000 92.759934 -2.368321 1019.513979 889.070474 20.369784 0.000000 0.167342
478.000000 51.025000 3.000000 9.000000 8.000000 100.891466 -5.127700 1071.581211 733.072515 19.606569 0.000000 0.163525
479.000000 52.105000 4.000000 9.000000 8.000000 108.445868 -8.210028 1130.288674 578.289997 19.197392 0.000000 0.145072
480.000000 52.458000 5.000000 9.000000 8.000000 115.361082 -11.654221 1196.993149 420.094801 19.065696 0.000000 0.113948
481.000000 52.207000 6.000000 9.000000 8.000000 121.598553 -15.498282 1273.448064 253.913283 19.155512 0.000000 0.072576
482.000000 51.478000 7.000000 9.000000 8.000000 127.139012 -19.775024 1361.959878 74.769380 19.424976 0.000000 0.032072
483.000000 50.392000 8.000000 9.000000 8.000000 131.978161 -24.505695 1465.624774 -123.222246 19.842147 0.000000 0.061757
486.000000 46.672000 3.000000 10.000000 8.000000 96.418589 -8.225302 1130.581563 818.662193 21.437443 0.000000 0.163086
487.000000 48.444000 5.000000 10.000000 8.000000 110.134896 -14.357224 1250.489058 533.667159 20.647483 0.000000 0.125167
488.000000 48.068000 7.000000 10.000000 8.000000 121.503198 -21.724490 1403.842496 230.930295 20.804607 0.000000 0.044270
489.000000 46.301000 9.000000 10.000000 8.000000 130.418958 -30.417635 1606.903487 -121.914254 21.595537 0.000000 0.095958
494.000000 57.753000 -1.000000 2.000000 9.000000 76.917291 48.791777 -254.085099 1320.660182 17.327845 0.000000 0.281575
495.000000 64.725000 0.000000 2.000000 9.000000 89.661323 49.848124 -300.794303 950.866511 15.458054 0.000000 0.257434
496.000000 69.682000 1.000000 2.000000 9.000000 101.947421 51.117128 -359.682321 578.198851 14.355416 0.000000 0.286388
498.000000 48.454000 -2.000000 3.000000 9.000000 65.114354 40.834803 44.826230 1600.890008 20.657959 0.000000 0.222405
499.000000 56.549000 -1.000000 3.000000 9.000000 77.698919 41.118937 35.462031 1252.531950 17.697173 0.000000 0.162000
500.000000 67.911000 1.000000 3.000000 9.000000 102.222294 41.858259 10.710782 627.973507 14.729882 0.000000 0.097419
501.000000 70.741000 2.000000 3.000000 9.000000 113.645921 42.351507 -6.122563 303.337488 14.137871 0.000000 0.130011
503.000000 46.807000 -2.000000 4.000000 9.000000 65.409583 34.186882 243.911350 1536.433686 21.385545 0.000000 0.156580
504.000000 54.296000 -1.000000 4.000000 9.000000 77.517133 33.925213 251.072579 1228.154244 18.432439 0.000000 0.120110
505.000000 60.463000 0.000000 4.000000 9.000000 89.517201 33.617839 259.428662 951.891092 16.548815 0.000000 0.095262
506.000000 64.994000 1.000000 4.000000 9.000000 101.156029 33.251664 269.305863 687.189974 15.391775 0.000000 0.062223
507.000000 67.805000 2.000000 4.000000 9.000000 112.223162 32.808069 281.161122 417.811100 14.750853 0.000000 0.017160
508.000000 69.015000 3.000000 4.000000 9.000000 122.569083 32.259675 295.654760 128.003037 14.489711 0.000000 0.046780
509.000000 68.880000 4.000000 4.000000 9.000000 132.108351 31.564517 313.777810 -200.705327 14.516146 0.000000 0.110725
511.000000 51.338000 -1.000000 5.000000 9.000000 76.577655 27.368187 417.859989 1230.225905 19.495411 0.000000 0.113725
512.000000 57.029000 0.000000 5.000000 9.000000 87.990911 26.540718 437.424105 983.203494 17.546282 0.000000 0.117085
513.000000 61.311000 1.000000 5.000000 9.000000 99.077376 25.567241 460.082616 750.375380 16.317309 0.000000 0.108145
514.000000 64.097000 2.000000 5.000000 9.000000 109.646447 24.406117 486.632714 519.060752 15.605100 0.000000 0.083762
515.000000 65.466000 3.000000 5.000000 9.000000 119.556209 22.998603 518.171147 277.965648 15.276265 0.000000 0.048064
516.000000 65.614000 4.000000 5.000000 9.000000 128.716614 21.259365 556.249517 15.212008 15.239686 0.000000 0.024307
517.000000 64.793000 5.000000 5.000000 9.000000 137.082900 19.060172 603.137358 -283.679246 15.431000 0.000000 0.053222
520.000000 47.998000 -1.000000 6.000000 9.000000 75.102243 21.514533 550.721006 1248.779312 20.853006 0.000000 0.113364
521.000000 57.220000 1.000000 6.000000 9.000000 96.332216 18.894049 606.626984 814.761562 17.485250 0.000000 0.139289
522.000000 59.960000 2.000000 6.000000 9.000000 106.331006 17.246018 640.883748 610.791165 16.682966 0.000000 0.127854
523.000000 61.891000 4.000000 6.000000 9.000000 124.434187 12.946211 727.581924 183.856294 16.157527 0.000000 0.067500
524.000000 61.422000 5.000000 6.000000 9.000000 132.390968 10.086041 783.553314 -56.902361 16.278963 0.000000 0.030466
527.000000 49.264000 0.000000 7.000000 9.000000 83.387874 14.880582 689.010785 1070.091659 20.314286 0.000000 0.140885
528.000000 53.006000 1.000000 7.000000 9.000000 93.217271 13.191592 722.724091 878.860640 18.876588 0.000000 0.155175
529.000000 55.675000 2.000000 7.000000 9.000000 102.626763 11.248339 760.944200 695.169644 17.968486 0.000000 0.152531
530.000000 57.289000 3.000000 7.000000 9.000000 111.494432 8.994401 804.639547 511.880616 17.459250 0.000000 0.135274
531.000000 57.949000 4.000000 7.000000 9.000000 119.730793 6.357771 855.077442 322.521949 17.257905 0.000000 0.106285
532.000000 57.804000 5.000000 7.000000 9.000000 127.276349 3.246528 913.949010 120.468499 17.299188 0.000000 0.069126
533.000000 57.021000 6.000000 7.000000 9.000000 134.094998 -0.455810 983.562509 -101.852522 17.535063 0.000000 0.029330
534.000000 55.762000 7.000000 7.000000 9.000000 140.165269 -4.893772 1067.153112 -353.937989 17.929392 0.000000 0.021318
537.000000 48.873000 1.000000 8.000000 9.000000 89.955357 8.352938 816.969912 941.847599 20.474247 0.000000 0.160558
538.000000 51.446000 2.000000 8.000000 9.000000 98.789727 6.254151 857.047693 773.582049 19.447179 0.000000 0.164609
539.000000 53.124000 3.000000 8.000000 9.000000 107.141025 3.866525 902.257341 608.287570 18.829610 0.000000 0.154061
540.000000 53.976000 4.000000 8.000000 9.000000 114.925646 1.136299 953.651967 440.716778 18.529988 0.000000 0.131163
541.000000 54.109000 5.000000 8.000000 9.000000 122.084902 -2.000476 1012.593983 265.825521 18.482160 0.000000 0.098342
542.000000 53.653000 6.000000 8.000000 9.000000 128.581081 -5.618247 1080.877656 78.242822 18.637134 0.000000 0.059100
543.000000 52.741000 7.000000 8.000000 9.000000 134.391874 -9.800343 1160.914944 -128.290539 18.957853 0.000000 0.027747
544.000000 51.494000 8.000000 8.000000 9.000000 139.504661 -14.633529 1256.026332 -361.642037 19.415772 0.000000 0.055876
547.000000 47.406000 2.000000 9.000000 9.000000 94.989183 2.090419 935.714302 846.978634 21.105878 0.000000 0.168348
548.000000 50.104000 4.000000 9.000000 9.000000 110.214996 -3.039152 1032.143699 544.122750 19.963785 0.000000 0.146208
549.000000 50.463000 5.000000 9.000000 9.000000 117.018325 -6.089665 1089.826319 389.052407 19.819054 0.000000 0.118359
550.000000 49.682000 7.000000 9.000000 9.000000 128.817660 -13.392386 1231.258322 50.885667 20.126701 0.000000 0.043043
551.000000 48.746000 8.000000 9.000000 9.000000 133.780984 -17.736939 1319.254046 -141.919933 20.511548 0.000000 0.040228
553.000000 46.419000 4.000000 10.000000 9.000000 105.709674 -6.420859 1096.122520 636.360302 21.550063 0.000000 0.154319
554.000000 46.955000 5.000000 10.000000 9.000000 112.185599 -9.335533 1151.935395 496.196689 21.301672 0.000000 0.131445
555.000000 47.010000 6.000000 10.000000 9.000000 118.132567 -12.558058 1214.753169 351.420975 21.274482 0.000000 0.099328
556.000000 46.666000 7.000000 10.000000 9.000000 123.529160 -16.116043 1285.982883 198.655304 21.429341 0.000000 0.060432
557.000000 46.004000 8.000000 10.000000 9.000000 128.365132 -20.032728 1367.435454 34.137815 21.735823 0.000000 0.030444
560.000000 52.764000 -1.000000 2.000000 10.000000 77.921382 50.474723 -329.476408 1302.896115 18.965898 0.000000 0.314870
563.000000 52.007000 -1.000000 3.000000 10.000000 78.841375 43.430656 -43.892302 1233.347013 19.242264 0.000000 0.182748
564.000000 57.384000 0.000000 3.000000 10.000000 90.143219 43.927194 -61.725478 937.264556 17.435820 0.000000 0.146671
565.000000 61.369000 1.000000 3.000000 10.000000 101.104692 44.513032 -83.152749 644.751603 16.300371 0.000000 0.138140
566.000000 63.903000 2.000000 3.000000 10.000000 111.549173 45.214476 -109.382404 337.652660 15.651271 0.000000 0.174085
569.000000 50.405000 -1.000000 4.000000 10.000000 78.923232 36.727142 171.961558 1203.893766 19.854292 0.000000 0.126466
570.000000 59.304000 1.000000 4.000000 10.000000 100.564812 36.602624 175.596850 690.948454 16.868455 0.000000 0.058578
571.000000 63.051000 3.000000 4.000000 10.000000 120.376840 36.425433 180.749741 156.946226 15.860724 0.000000 0.079179
573.000000 48.184000 -1.000000 5.000000 10.000000 78.308688 30.506676 340.845286 1199.504398 20.770286 0.000000 0.113975
574.000000 56.571000 1.000000 5.000000 10.000000 99.105104 29.359680 369.536829 743.087131 17.684469 0.000000 0.088445
575.000000 59.032000 2.000000 5.000000 10.000000 108.937360 28.632266 387.398777 520.267900 16.944129 0.000000 0.059423
576.000000 60.367000 3.000000 5.000000 10.000000 118.230260 27.762303 408.439065 287.995075 16.566693 0.000000 0.021653
577.000000 60.709000 4.000000 5.000000 10.000000 126.909636 26.703888 433.588864 36.096073 16.471115 0.000000 0.032768
580.000000 45.571000 -1.000000 6.000000 10.000000 77.163885 24.848085 476.585676 1211.260976 21.962418 0.000000 0.115137
581.000000 53.416000 1.000000 6.000000 10.000000 96.976475 22.902206 520.306667 798.025628 18.729960 0.000000 0.123738
582.000000 57.247000 3.000000 6.000000 10.000000 115.257639 20.266273 577.586758 399.701052 17.470597 0.000000 0.083431
583.000000 57.535000 5.000000 6.000000 10.000000 131.282689 16.514485 655.891111 -44.630962 17.378888 0.000000 0.025650
585.000000 46.820000 0.000000 7.000000 10.000000 85.149573 18.591333 612.968187 1037.361427 21.373575 0.000000 0.137113
586.000000 50.056000 1.000000 7.000000 10.000000 94.415331 17.246347 640.876976 853.981524 19.988260 0.000000 0.145375
587.000000 52.409000 2.000000 7.000000 10.000000 103.325690 15.704607 672.373934 676.179457 19.087903 0.000000 0.139863
588.000000 53.890000 3.000000 7.000000 10.000000 111.781745 13.922346 708.198585 497.893454 18.560277 0.000000 0.122281
589.000000 54.574000 4.000000 7.000000 10.000000 119.709794 11.842929 749.308664 313.491511 18.325303 0.000000 0.095143
590.000000 54.570000 5.000000 7.000000 10.000000 127.059954 9.392415 796.967016 117.142130 18.324309 0.000000 0.061838
591.000000 54.008000 6.000000 7.000000 10.000000 133.801720 6.473625 852.873609 -97.814768 18.513324 0.000000 0.027241
592.000000 53.015000 7.000000 7.000000 10.000000 139.917590 2.958655 919.372578 -339.644305 18.858746 0.000000 0.004217
595.000000 46.661000 1.000000 8.000000 10.000000 91.616773 12.342406 739.495303 909.902306 21.444278 0.000000 0.156179
596.000000 50.457000 3.000000 8.000000 10.000000 108.058752 8.606707 812.096916 586.073337 19.824549 0.000000 0.146100
597.000000 51.478000 5.000000 8.000000 10.000000 122.590583 3.714302 905.129388 251.481978 19.426423 0.000000 0.094864
598.000000 50.435000 7.000000 8.000000 10.000000 134.869524 -2.852548 1028.629080 -131.732654 19.824479 0.000000 0.025235
600.000000 45.531000 2.000000 9.000000 10.000000 96.685282 6.246242 857.198040 814.091365 21.974131 0.000000 0.165612
601.000000 47.069000 3.000000 9.000000 10.000000 104.272217 4.160025 896.716820 666.488516 21.253112 0.000000 0.159746
602.000000 47.994000 4.000000 9.000000 10.000000 111.423051 1.813615 940.920081 518.493641 20.840712 0.000000 0.143319
603.000000 48.368000 5.000000 9.000000 10.000000 118.089209 -0.835359 990.693236 366.511793 20.677177 0.000000 0.117972
604.000000 48.269000 6.000000 9.000000 10.000000 124.236921 -3.835639 1047.159836 206.892484 20.717244 0.000000 0.085633
605.000000 47.784000 7.000000 9.000000 10.000000 129.844361 -7.241905 1111.767403 35.630389 20.925999 0.000000 0.049748
606.000000 46.994000 8.000000 9.000000 10.000000 134.898336 -11.112955 1186.413271 -151.975800 21.276079 0.000000 0.028410
607.000000 45.976000 9.000000 9.000000 10.000000 139.391171 -15.507474 1273.634031 -361.769088 21.745735 0.000000 0.059431
614.000000 48.050000 -1.000000 3.000000 11.000000 79.720759 45.380995 -115.704183 1218.898645 20.826354 0.000000 0.206062
615.000000 52.505000 0.000000 3.000000 11.000000 90.045707 45.982408 -138.850747 939.764379 19.055781 0.000000 0.178152
616.000000 55.889000 1.000000 3.000000 11.000000 100.080168 46.681532 -166.398416 662.110616 17.898734 0.000000 0.178156
617.000000 58.157000 2.000000 3.000000 11.000000 109.686530 47.504014 -199.734306 370.960448 17.198067 0.000000 0.215897
620.000000 46.903000 -1.000000 4.000000 11.000000 80.000210 39.126567 99.490402 1185.633833 21.336244 0.000000 0.136426
621.000000 51.149000 0.000000 4.000000 11.000000 90.090214 39.251361 95.588059 938.811576 19.561489 0.000000 0.102241
622.000000 54.409000 1.000000 4.000000 11.000000 99.917197 39.396095 91.044759 697.493310 18.386188 0.000000 0.073787
623.000000 56.636000 2.000000 4.000000 11.000000 109.354023 39.565960 85.688460 450.590661 17.660200 0.000000 0.072133
624.000000 57.875000 3.000000 4.000000 11.000000 118.304041 39.768121 79.279494 186.910930 17.279663 0.000000 0.112871
625.000000 58.236000 4.000000 4.000000 11.000000 126.703548 40.012748 71.473726 -106.587468 17.170433 0.000000 0.175626
627.000000 49.234000 0.000000 5.000000 11.000000 89.410520 32.941050 277.619646 954.195075 20.322946 0.000000 0.096708
628.000000 52.357000 1.000000 5.000000 11.000000 98.932486 32.596322 286.778446 740.203477 19.107505 0.000000 0.072708
629.000000 54.545000 2.000000 5.000000 11.000000 108.096798 32.194544 297.364435 525.374400 18.338194 0.000000 0.039265
630.000000 55.828000 3.000000 5.000000 11.000000 116.812385 31.720331 309.739395 301.508256 17.913952 0.000000 0.006257
631.000000 56.298000 4.000000 5.000000 11.000000 125.016903 31.152238 324.398668 59.828716 17.762099 0.000000 0.053419
632.000000 56.081000 5.000000 5.000000 11.000000 132.675301 30.459480 342.039064 -210.196095 17.829026 0.000000 0.104265
635.000000 46.932000 0.000000 6.000000 11.000000 88.158501 27.149849 423.050249 979.889216 21.320772 0.000000 0.115056
636.000000 49.907000 1.000000 6.000000 11.000000 97.307146 26.404573 440.615799 786.912045 20.046505 0.000000 0.107504
637.000000 52.049000 2.000000 6.000000 11.000000 106.126523 25.544591 460.605381 596.088708 19.218307 0.000000 0.089531
638.000000 53.378000 3.000000 6.000000 11.000000 114.530504 24.541707 483.557957 401.031007 18.737115 0.000000 0.062516
639.000000 53.964000 4.000000 6.000000 11.000000 122.457034 23.357876 510.185051 195.350367 18.531180 0.000000 0.031961
640.000000 53.912000 5.000000 6.000000 11.000000 129.867086 21.940622 541.445833 -28.059088 18.547255 0.000000 0.028176
641.000000 53.338000 6.000000 6.000000 11.000000 136.741086 20.215738 578.665117 -277.862052 18.744998 0.000000 0.057457
644.000000 47.220000 1.000000 7.000000 11.000000 95.225504 20.867244 564.708062 835.656834 21.188465 0.000000 0.133420
645.000000 49.308000 2.000000 7.000000 11.000000 103.658175 19.667063 590.328743 663.257622 20.287939 0.000000 0.125130
646.000000 50.674000 3.000000 7.000000 11.000000 111.706788 18.286477 619.331483 489.754694 19.738234 0.000000 0.106839
647.000000 51.370000 4.000000 7.000000 11.000000 119.310232 16.683538 652.433280 310.205776 19.468115 0.000000 0.080809
648.000000 51.480000 5.000000 7.000000 11.000000 126.426538 14.803064 690.569212 119.450209 19.424408 0.000000 0.050704
649.000000 51.101000 6.000000 7.000000 11.000000 133.030034 12.571480 734.982182 -88.395464 19.566622 0.000000 0.024760
650.000000 50.334000 7.000000 7.000000 11.000000 139.107009 9.889442 787.360936 -320.560831 19.863375 0.000000 0.023526
653.000000 46.455000 2.000000 8.000000 11.000000 100.881074 14.537663 695.896438 727.263854 21.535516 0.000000 0.147326
654.000000 47.844000 3.000000 8.000000 11.000000 108.557173 12.908955 728.318659 570.313731 20.907215 0.000000 0.135387
655.000000 48.636000 4.000000 8.000000 11.000000 115.821219 11.048568 764.842614 410.372032 20.564016 0.000000 0.114723
656.000000 48.895000 5.000000 8.000000 11.000000 122.630297 8.908188 806.299226 243.465086 20.452596 0.000000 0.087354
657.000000 48.701000 6.000000 8.000000 11.000000 128.955427 6.427029 853.760111 65.316081 20.532147 0.000000 0.055870
658.000000 48.137000 7.000000 8.000000 11.000000 134.778326 3.528612 908.631527 -129.026654 20.770911 0.000000 0.023767
659.000000 47.285000 8.000000 8.000000 11.000000 140.087455 0.117325 972.796067 -345.663604 21.143801 0.000000 0.006406
661.000000 45.859000 4.000000 9.000000 11.000000 112.177420 6.313958 855.910599 499.589665 21.810612 0.000000 0.137225
662.000000 46.249000 5.000000 9.000000 11.000000 118.683831 4.053767 898.723165 350.663874 21.624440 0.000000 0.113773
663.000000 46.222000 6.000000 9.000000 11.000000 124.740133 1.486412 947.071671 194.371380 21.634950 0.000000 0.084491
664.000000 45.847000 7.000000 9.000000 11.000000 130.326170 -1.442562 1002.104083 27.100930 21.809907 0.000000 0.051832
666.000000 51.250000 1.000000 3.000000 12.000000 99.150318 48.481342 -240.731414 679.462140 19.519090 0.000000 0.216418
667.000000 53.283000 2.000000 3.000000 12.000000 108.034554 49.371173 -279.456215 402.838798 18.771775 0.000000 0.255274
669.000000 50.178000 1.000000 4.000000 12.000000 99.259119 41.750020 14.369938 705.814920 19.936506 0.000000 0.098732
670.000000 53.372000 3.000000 4.000000 12.000000 116.382077 42.492477 -10.982049 216.993850 18.738076 0.000000 0.146382
672.000000 45.915000 0.000000 5.000000 12.000000 89.772345 35.511530 206.959907 946.253688 21.791870 0.000000 0.093165
673.000000 48.622000 1.000000 5.000000 12.000000 98.639169 35.374285 210.844253 740.448911 20.575145 0.000000 0.065241
674.000000 50.577000 2.000000 5.000000 12.000000 107.201932 35.216022 215.307071 533.147901 19.777044 0.000000 0.034588
675.000000 51.798000 3.000000 5.000000 12.000000 115.385877 35.031517 220.487981 317.264901 19.308208 0.000000 0.034642
676.000000 52.348000 4.000000 5.000000 12.000000 123.137862 34.813657 226.575463 85.177748 19.103018 0.000000 0.078188
677.000000 52.317000 5.000000 5.000000 12.000000 130.425762 34.552507 233.830287 -172.192657 19.112208 0.000000 0.130190
680.000000 46.705000 1.000000 6.000000 12.000000 97.421312 29.469468 366.818903 779.972617 21.420706 0.000000 0.092106
681.000000 50.568000 5.000000 6.000000 12.000000 128.293367 26.504839 438.265970 -8.610965 19.773866 0.000000 0.040401
683.000000 46.411000 2.000000 7.000000 12.000000 103.729233 23.181401 514.113179 654.951222 21.554163 0.000000 0.109228
684.000000 47.674000 3.000000 7.000000 12.000000 111.383018 22.135749 537.179748 486.039379 20.980296 0.000000 0.089820
685.000000 48.373000 4.000000 7.000000 12.000000 118.657884 20.929186 563.374865 311.222927 20.674574 0.000000 0.064216
686.000000 48.570000 5.000000 7.000000 12.000000 125.518099 19.522838 593.381327 125.912986 20.588492 0.000000 0.037171
687.000000 48.340000 6.000000 7.000000 12.000000 131.941625 17.864813 628.096213 -75.109752 20.684580 0.000000 0.025911
688.000000 47.761000 7.000000 7.000000 12.000000 137.917277 15.884607 668.722097 -298.199793 20.933431 0.000000 0.042271
691.000000 46.408000 5.000000 8.000000 12.000000 122.326428 13.575553 715.103063 240.323937 21.548857 0.000000 0.076809
692.000000 45.893000 7.000000 8.000000 12.000000 134.259417 9.272209 799.286051 -121.709673 21.786852 0.000000 0.022634
695.000000 47.283000 1.000000 3.000000 13.000000 98.309610 49.996322 -307.510363 696.460902 21.157103 0.000000 0.252628
699.000000 46.501000 1.000000 4.000000 13.000000 98.615516 43.754217 -55.479443 715.235923 21.513121 0.000000 0.126910
700.000000 48.292000 2.000000 4.000000 13.000000 106.790889 44.214181 -72.168870 487.883729 20.712605 0.000000 0.139492
701.000000 49.439000 3.000000 4.000000 13.000000 114.617403 44.746034 -91.794899 246.635289 20.229389 0.000000 0.179095
704.000000 47.065000 2.000000 5.000000 13.000000 106.298946 37.797642 140.211524 542.725078 21.252824 0.000000 0.050105
705.000000 48.219000 3.000000 5.000000 13.000000 113.997550 37.824935 139.390108 334.405380 20.741772 0.000000 0.063123
706.000000 48.814000 4.000000 5.000000 13.000000 121.326591 37.856741 138.432070 111.307791 20.486218 0.000000 0.104373
707.000000 48.918000 5.000000 5.000000 13.000000 128.256579 37.894283 137.300231 -134.444929 20.440713 0.000000 0.156203
710.000000 45.516000 2.000000 6.000000 13.000000 105.199299 31.799482 307.682739 596.948450 21.977149 0.000000 0.054071
711.000000 46.678000 3.000000 6.000000 13.000000 112.709129 31.387085 318.360115 413.365085 21.427069 0.000000 0.021837
712.000000 47.322000 4.000000 6.000000 13.000000 119.872591 30.909914 330.598205 220.453382 21.133123 0.000000 0.016408
713.000000 47.503000 5.000000 6.000000 13.000000 126.659765 30.351491 344.766183 12.698793 21.050452 0.000000 0.058048
714.000000 47.288000 6.000000 6.000000 13.000000 133.053923 29.689273 361.359625 -216.508936 21.144098 0.000000 0.099969
717.000000 45.593000 4.000000 7.000000 13.000000 117.845374 24.644435 481.223974 315.466709 21.935240 0.000000 0.046083
718.000000 45.855000 5.000000 7.000000 13.000000 124.440176 23.623306 504.257139 135.429922 21.807616 0.000000 0.023247
719.000000 45.744000 6.000000 7.000000 13.000000 130.659027 22.429124 530.743347 -59.074259 21.858651 0.000000 0.033421
722.000000 45.987000 3.000000 4.000000 14.000000 113.004479 46.635654 -164.568916 275.495098 21.748409 0.000000 0.210697
724.000000 45.653000 4.000000 5.000000 14.000000 119.609967 40.412418 58.599464 137.651319 21.905534 0.000000 0.130931
725.000000 45.852000 5.000000 5.000000 14.000000 126.201446 40.656703 50.655015 -97.415653 21.808307 0.000000 0.182065
#UB matrix in q= (UB) B0 G* 
#[[-0.804525699 -0.21891684  -0.551332272]
# [-0.36091819  -0.557716372  0.748110548]
# [-0.471674103  0.801457205  0.369934563]]
#B0 matrix in q= UB (B0) G*
#[[ 0.19670273 -0.          0.03056101]
# [ 0.          0.19187965 -0.        ]
# [ 0.          0.          0.18806537]]
#UBB0 matrix in q= (UB B0) G* i.e. recip. basis vectors are columns in LT frame: astar = UBB0[:,0], bstar = UBB0[:,1], cstar = UBB0[:,2]. (abcstar as columns on xyzlab1, xlab1 = ui, ui = unit vector along incident beam)
#[[-0.1582524  -0.04200569 -0.12827362]
# [-0.07099359 -0.10701442  0.12966367]
# [-0.09277958  0.15378333  0.05515705]]
#Euler angles phi theta psi (deg)
#[210.503  68.319  36.44 ]
#deviatoric strain in direct crystal frame (10-3 unit)
#[[-5.15  0.3   0.91]
# [ 0.3  -5.65  0.14]
# [ 0.91  0.14 10.8 ]]
#deviatoric strain in sample2 frame (10-3 unit)
#[[-4.56 -2.5  -2.75]
# [-2.51  3.13  7.64]
# [-2.76  7.63  1.44]]
#new lattice parameters
#[ 5.1505     5.2090014  5.316821  89.9970557 99.1756383 89.9658531]
#CCDLabel
#sCMOS
#DetectorParameters
#[79.0, 975.0, 941.0, 0.0, 0.0]
#pixelsize
#0.0734
#Frame dimensions
#[2018, 2016]
#
