#Strain and Orientation Refinement from experimental file: /home/micha/LaueProjects/DepthEffects/testZrO2_77.cor
#File created at Wed Jun 28 14:23:05 2023 with indexingSpotsSet.py
#Number of indexed spots: 517
#Element
#ZrO2
#grainIndex
#G_0
#Mean Deviation(pixel): 0.117
##spot_index intensity h k l 2theta Chi Xexp Yexp Energy GrainIndex PixDev
5.000000 180.133000 -3.000000 1.000000 2.000000 98.184309 40.789024 46.327430 736.546983 5.555160 0.000000 0.089087
6.000000 184.133000 -2.000000 1.000000 2.000000 75.652843 31.243705 322.050370 1262.985489 5.436863 0.000000 0.117612
9.000000 128.221000 -3.000000 2.000000 2.000000 73.641015 50.415637 -326.739482 1436.804808 7.807234 0.000000 0.343675
19.000000 150.476000 -4.000000 -2.000000 3.000000 130.622572 -31.935388 1645.856854 -146.888751 6.646714 0.000000 0.097536
20.000000 158.832000 -3.000000 -2.000000 3.000000 112.600210 -37.378976 1797.263486 377.192311 6.298728 0.000000 0.042273
21.000000 150.992000 -2.000000 -2.000000 3.000000 88.580279 -41.523339 1928.006625 976.628758 6.628408 0.000000 0.117261
25.000000 141.255000 -5.000000 -1.000000 3.000000 139.838749 4.652662 887.407699 -338.587422 7.079867 0.000000 0.013527
26.000000 158.827000 -4.000000 -1.000000 3.000000 128.702288 -5.726315 1082.927720 74.330307 6.297495 0.000000 0.063895
27.000000 171.960000 -3.000000 -1.000000 3.000000 111.813061 -14.489712 1253.142460 496.076504 5.818136 0.000000 0.126828
28.000000 166.812000 -2.000000 -1.000000 3.000000 87.366928 -21.670423 1402.666050 994.261106 6.000373 0.000000 0.136771
29.000000 123.072000 -1.000000 -1.000000 3.000000 54.983853 -27.490440 1535.055116 1791.064053 8.137140 0.000000 0.156572
31.000000 112.099000 -6.000000 1.000000 3.000000 119.160908 45.819579 -132.534682 79.269614 8.923508 0.000000 0.226714
32.000000 124.532000 -5.000000 1.000000 3.000000 111.789212 39.332992 93.027930 384.741890 8.033566 0.000000 0.072954
33.000000 135.878000 -4.000000 1.000000 3.000000 100.922334 32.337941 293.597036 695.178213 7.364262 0.000000 0.068838
34.000000 140.085000 -3.000000 1.000000 3.000000 84.846281 25.000308 473.108683 1048.109502 7.145433 0.000000 0.122734
35.000000 123.692000 -2.000000 1.000000 3.000000 61.611611 17.545120 634.713661 1551.047820 8.095964 0.000000 0.079639
39.000000 105.995000 -5.000000 2.000000 3.000000 95.089065 47.277932 -190.467941 799.721065 9.440998 0.000000 0.192255
40.000000 109.922000 -4.000000 2.000000 3.000000 83.164235 41.990856 6.211268 1114.590979 9.105836 0.000000 0.149600
41.000000 104.942000 -3.000000 2.000000 3.000000 66.688032 36.312467 184.022641 1516.567650 9.540809 0.000000 0.172068
44.000000 83.569000 -4.000000 3.000000 3.000000 66.920352 48.309800 -233.422303 1630.557645 11.980187 0.000000 0.342353
57.000000 112.126000 -5.000000 -3.000000 4.000000 125.708679 -39.131466 1850.662545 -56.348466 8.920597 0.000000 0.145359
58.000000 115.331000 -4.000000 -3.000000 4.000000 111.632329 -42.361069 1956.451463 363.344044 8.674528 0.000000 0.109412
59.000000 112.041000 -3.000000 -3.000000 4.000000 94.402234 -44.988684 2050.869228 823.843454 8.931759 0.000000 0.139724
60.000000 98.573000 -2.000000 -3.000000 4.000000 74.030917 -47.159756 2135.655742 1393.961307 10.155522 0.000000 0.248817
63.000000 111.064000 -6.000000 -2.000000 4.000000 137.493431 -14.584119 1255.035115 -272.395599 9.004627 0.000000 0.035985
64.000000 119.701000 -5.000000 -2.000000 4.000000 127.024607 -21.020721 1388.597332 71.354901 8.356048 0.000000 0.031519
65.000000 125.386000 -4.000000 -2.000000 4.000000 113.282750 -26.362259 1508.393752 424.103628 7.978923 0.000000 0.063567
66.000000 123.850000 -3.000000 -2.000000 4.000000 95.662510 -30.794034 1616.448268 816.767640 8.080367 0.000000 0.095582
67.000000 109.412000 -2.000000 -2.000000 4.000000 73.959915 -34.488790 1714.406561 1316.422951 9.150074 0.000000 0.127733
70.000000 102.560000 -7.000000 -1.000000 4.000000 139.446267 13.748815 711.656049 -353.890762 9.751057 0.000000 0.043687
71.000000 112.602000 -6.000000 -1.000000 4.000000 132.687019 5.679452 867.961364 -56.621588 8.882228 0.000000 0.039105
72.000000 122.381000 -5.000000 -1.000000 4.000000 123.197523 -1.798381 1008.793461 236.412163 8.173682 0.000000 0.098689
73.000000 129.436000 -4.000000 -1.000000 4.000000 110.159399 -8.525427 1136.341601 541.451567 7.729855 0.000000 0.146411
74.000000 128.791000 -3.000000 -1.000000 4.000000 92.709946 -14.452688 1252.400644 888.391142 7.771085 0.000000 0.157665
75.000000 113.057000 -2.000000 -1.000000 4.000000 70.379849 -19.609679 1358.456036 1348.300875 8.856137 0.000000 0.101471
76.000000 77.421000 -1.000000 -1.000000 4.000000 43.959721 -24.068854 1455.747728 2163.383384 12.936968 0.000000 0.260555
78.000000 99.829000 -7.000000 0.000000 4.000000 129.726522 28.571106 388.889223 -77.417149 10.018916 0.000000 0.064953
79.000000 109.354000 -6.000000 0.000000 4.000000 123.279539 21.677567 547.178554 180.792950 9.147224 0.000000 0.041392
80.000000 118.470000 -5.000000 0.000000 4.000000 114.234481 14.777690 691.079081 439.941800 8.444681 0.000000 0.115051
81.000000 124.619000 -4.000000 0.000000 4.000000 101.679543 8.066248 822.467460 716.287714 8.029944 0.000000 0.164136
82.000000 122.576000 -3.000000 0.000000 4.000000 84.612619 1.707911 942.907599 1042.545720 8.166515 0.000000 0.158367
83.000000 104.523000 -2.000000 0.000000 4.000000 62.406774 -4.182796 1053.713195 1505.013322 9.580867 0.000000 0.037218
87.000000 93.722000 -7.000000 1.000000 4.000000 118.004322 38.483737 119.375560 209.790165 10.673482 0.000000 0.089905
88.000000 101.430000 -6.000000 1.000000 4.000000 111.191628 32.964267 277.000271 443.644687 9.863615 0.000000 0.021907
89.000000 108.071000 -5.000000 1.000000 4.000000 101.931838 27.220235 421.379281 685.240383 9.259079 0.000000 0.095405
90.000000 111.015000 -4.000000 1.000000 4.000000 89.374668 21.357994 554.114884 953.613506 9.015859 0.000000 0.135657
91.000000 105.375000 -3.000000 1.000000 4.000000 72.605769 15.497836 676.560957 1290.893095 9.501513 0.000000 0.107315
92.000000 84.608000 -2.000000 1.000000 4.000000 51.096425 9.759799 789.869308 1822.326246 11.837926 0.000000 0.115899
94.000000 84.991000 -7.000000 2.000000 4.000000 105.651448 45.205955 -109.059896 513.004363 11.772154 0.000000 0.153973
95.000000 93.255000 -5.000000 2.000000 4.000000 88.415928 36.120093 189.574424 977.846747 10.732436 0.000000 0.097693
96.000000 82.567000 -3.000000 2.000000 4.000000 59.221807 26.220202 444.926098 1655.572718 12.128333 0.000000 0.134986
99.000000 74.768000 -7.000000 3.000000 4.000000 93.541189 49.944200 -305.143586 837.500089 13.384282 0.000000 0.253939
100.000000 77.074000 -6.000000 3.000000 4.000000 85.444910 46.341558 -152.914371 1065.207374 12.985794 0.000000 0.200162
101.000000 76.913000 -5.000000 3.000000 4.000000 75.231747 42.516086 -11.798025 1325.935645 13.015582 0.000000 0.191356
102.000000 72.224000 -4.000000 3.000000 4.000000 62.399438 38.483609 119.379473 1659.825237 13.863716 0.000000 0.220103
118.000000 88.889000 -6.000000 -4.000000 5.000000 122.385025 -42.944904 1976.727430 8.439840 11.253095 0.000000 0.181916
119.000000 90.334000 -5.000000 -4.000000 5.000000 110.898057 -45.158774 2057.275977 358.204627 11.074977 0.000000 0.156548
120.000000 88.555000 -4.000000 -4.000000 5.000000 97.477809 -47.037089 2130.683245 733.710747 11.299898 0.000000 0.170674
121.000000 82.127000 -3.000000 -4.000000 5.000000 82.112169 -48.647505 2197.858620 1166.696235 12.187535 0.000000 0.238189
126.000000 90.099000 -7.000000 -3.000000 5.000000 133.886728 -25.423627 1486.606107 -205.267478 11.100371 0.000000 0.068839
127.000000 94.740000 -6.000000 -3.000000 5.000000 124.516844 -29.591163 1586.200682 89.795866 10.557917 0.000000 0.031854
128.000000 97.503000 -5.000000 -3.000000 5.000000 113.097029 -33.123896 1677.267221 392.919479 10.260543 0.000000 0.014296
129.000000 96.718000 -4.000000 -3.000000 5.000000 99.369680 -36.135045 1760.856103 721.104279 10.346227 0.000000 0.063166
130.000000 90.334000 -3.000000 -3.000000 5.000000 83.234738 -38.718726 1837.852016 1104.643026 11.080452 0.000000 0.118818
131.000000 76.736000 -2.000000 -3.000000 5.000000 64.928270 -40.951360 1909.005384 1607.686293 13.047724 0.000000 0.213624
135.000000 86.641000 -8.000000 -2.000000 5.000000 139.439975 -3.021388 1031.809081 -318.259098 11.542628 0.000000 0.007277
136.000000 92.853000 -7.000000 -2.000000 5.000000 132.557812 -9.111228 1147.610738 -59.869890 10.771438 0.000000 0.036457
137.000000 98.488000 -6.000000 -2.000000 5.000000 123.765756 -14.523734 1253.824328 197.660688 10.156447 0.000000 0.072367
138.000000 102.342000 -5.000000 -2.000000 5.000000 112.687943 -19.284844 1351.593313 464.293662 9.775740 0.000000 0.105538
139.000000 102.428000 -4.000000 -2.000000 5.000000 98.958666 -23.450744 1441.886283 756.051273 9.769858 0.000000 0.124740
140.000000 96.068000 -3.000000 -2.000000 5.000000 82.366161 -27.089939 1525.529153 1103.031349 10.419847 0.000000 0.119902
141.000000 80.874000 -2.000000 -2.000000 5.000000 63.097232 -30.272011 1603.230502 1573.322981 12.381350 0.000000 0.133470
145.000000 80.290000 -9.000000 -1.000000 5.000000 138.811065 18.797578 608.650315 -358.216695 12.455796 0.000000 0.064617
146.000000 86.625000 -8.000000 -1.000000 5.000000 134.053477 12.405255 738.257859 -125.201468 11.545629 0.000000 0.026753
147.000000 93.116000 -7.000000 -1.000000 5.000000 127.750916 6.231536 857.477591 102.662970 10.741750 0.000000 0.068270
148.000000 99.125000 -6.000000 -1.000000 5.000000 119.509233 0.398706 967.510238 331.818263 10.091940 0.000000 0.117567
149.000000 103.387000 -5.000000 -1.000000 5.000000 108.870029 -5.011347 1069.378339 571.719394 9.677669 0.000000 0.154648
150.000000 103.709000 -4.000000 -1.000000 5.000000 95.364311 -9.957576 1163.958114 838.390908 9.650134 0.000000 0.166296
151.000000 96.959000 -3.000000 -1.000000 5.000000 78.668694 -14.432923 1252.004730 1163.704998 10.325173 0.000000 0.132503
152.000000 80.172000 -2.000000 -1.000000 5.000000 58.902440 -18.454482 1334.172513 1625.394397 12.491182 0.000000 0.081226
156.000000 74.851000 -9.000000 1.000000 5.000000 121.541927 37.927595 136.294941 103.464827 13.363736 0.000000 0.104821
157.000000 80.080000 -8.000000 1.000000 5.000000 116.667299 33.369853 266.126934 293.741008 12.492130 0.000000 0.019095
158.000000 85.164000 -7.000000 1.000000 5.000000 110.401366 28.654191 386.864046 484.833789 11.747725 0.000000 0.056006
159.000000 89.391000 -6.000000 1.000000 5.000000 102.345012 23.838674 499.429597 683.473678 11.193928 0.000000 0.112735
160.000000 91.446000 -5.000000 1.000000 5.000000 92.024542 18.989346 604.626017 900.763698 10.944688 0.000000 0.143574
161.000000 89.167000 -4.000000 1.000000 5.000000 78.948435 14.175066 703.154004 1157.817491 11.227387 0.000000 0.131748
162.000000 79.662000 -3.000000 1.000000 5.000000 62.767184 9.461777 795.628149 1502.559369 12.570753 0.000000 0.052885
163.000000 60.519000 -2.000000 1.000000 5.000000 43.573596 4.907359 882.589769 2076.425877 16.551417 0.000000 0.223864
165.000000 65.817000 -10.000000 2.000000 5.000000 116.050042 47.332964 -192.716198 164.728181 15.199008 0.000000 0.241322
166.000000 69.948000 -9.000000 2.000000 5.000000 111.815312 43.739090 -54.934931 344.704803 14.302572 0.000000 0.144715
167.000000 74.027000 -8.000000 2.000000 5.000000 106.531620 39.950754 73.457160 524.276179 13.515759 0.000000 0.071175
168.000000 77.644000 -7.000000 2.000000 5.000000 99.909392 35.987393 193.388198 708.625186 12.887720 0.000000 0.060497
169.000000 80.051000 -6.000000 2.000000 5.000000 91.592037 31.876894 305.667879 905.773357 12.502160 0.000000 0.095911
170.000000 79.991000 -5.000000 2.000000 5.000000 81.170132 27.655207 411.005781 1129.758048 12.514161 0.000000 0.115461
171.000000 75.586000 -4.000000 2.000000 5.000000 68.242160 23.364995 510.026370 1408.941123 13.246891 0.000000 0.102411
172.000000 64.599000 -3.000000 2.000000 5.000000 52.561025 19.053322 603.281394 1812.811901 15.503950 0.000000 0.141394
176.000000 64.077000 -9.000000 3.000000 5.000000 102.070361 48.071497 -223.349719 596.560800 15.615303 0.000000 0.208565
177.000000 66.839000 -8.000000 3.000000 5.000000 96.338149 44.884501 -96.963743 772.271395 14.971606 0.000000 0.146780
178.000000 68.833000 -7.000000 3.000000 5.000000 89.323230 41.536289 21.559318 957.984676 14.539843 0.000000 0.122082
179.000000 69.327000 -6.000000 3.000000 5.000000 80.725700 38.038842 132.931097 1164.153616 14.438567 0.000000 0.127997
180.000000 67.216000 -5.000000 3.000000 5.000000 70.221689 34.409642 237.779865 1410.116324 14.895019 0.000000 0.142763
181.000000 61.036000 -4.000000 3.000000 5.000000 57.524835 30.671686 336.662395 1737.437421 16.406726 0.000000 0.179390
185.000000 57.687000 -9.000000 4.000000 5.000000 92.629464 51.390716 -372.802571 861.787852 17.347660 0.000000 0.292971
186.000000 59.151000 -8.000000 4.000000 5.000000 86.499620 48.668888 -248.779246 1040.689883 16.920053 0.000000 0.241349
187.000000 59.627000 -7.000000 4.000000 5.000000 79.160037 45.807383 -132.063069 1236.653849 16.787492 0.000000 0.218400
188.000000 58.458000 -6.000000 4.000000 5.000000 70.373331 42.810525 -22.026740 1464.191244 17.125758 0.000000 0.221958
189.000000 54.762000 -5.000000 4.000000 5.000000 59.904264 39.686006 81.887234 1751.596414 18.284873 0.000000 0.254029
194.000000 50.733000 -7.000000 5.000000 5.000000 69.715772 49.161971 -270.227035 1549.323322 19.733208 0.000000 0.340383
200.000000 73.460000 -7.000000 -5.000000 6.000000 120.038033 -45.287219 2062.139479 56.416271 13.617078 0.000000 0.210006
201.000000 74.178000 -6.000000 -5.000000 6.000000 110.355091 -46.942426 2126.861562 356.129660 13.487248 0.000000 0.190892
202.000000 73.069000 -5.000000 -5.000000 6.000000 99.368903 -48.386891 2186.700915 673.600546 13.694333 0.000000 0.198107
203.000000 69.477000 -4.000000 -5.000000 6.000000 87.067287 -49.656922 2242.189994 1026.174506 14.405315 0.000000 0.241996
208.000000 77.939000 -7.000000 -4.000000 6.000000 122.306391 -34.849994 1724.437637 111.691185 12.834275 0.000000 0.064777
209.000000 78.900000 -5.000000 -4.000000 6.000000 101.376049 -39.585971 1864.944269 660.009404 12.682148 0.000000 0.065504
210.000000 68.414000 -3.000000 -4.000000 6.000000 74.297736 -43.233930 1986.907686 1356.308645 14.632527 0.000000 0.190794
213.000000 78.000000 -8.000000 -3.000000 6.000000 130.845431 -19.005765 1345.718975 -43.174046 12.822748 0.000000 0.028974
214.000000 81.394000 -7.000000 -3.000000 6.000000 122.840254 -22.913807 1429.950170 186.791598 12.289493 0.000000 0.039667
215.000000 83.673000 -5.000000 -3.000000 6.000000 101.994075 -29.406697 1581.626418 678.524658 11.958899 0.000000 0.086481
216.000000 80.493000 -4.000000 -3.000000 6.000000 88.868696 -32.099717 1650.150710 966.089778 12.434234 0.000000 0.103459
217.000000 60.500000 -2.000000 -3.000000 6.000000 57.570756 -36.615576 1774.780752 1792.932225 16.551588 0.000000 0.214504
220.000000 75.061000 -9.000000 -2.000000 6.000000 134.877345 -0.727723 988.670924 -130.782438 13.324176 0.000000 0.028415
221.000000 83.280000 -7.000000 -2.000000 6.000000 121.094346 -10.314692 1170.880938 281.220023 12.011717 0.000000 0.098401
222.000000 86.480000 -5.000000 -2.000000 6.000000 100.625089 -18.266267 1330.247458 728.375020 11.571367 0.000000 0.142423
223.000000 75.342000 -3.000000 -2.000000 6.000000 72.049782 -24.733948 1470.812890 1324.893880 13.288727 0.000000 0.109526
226.000000 65.897000 -11.000000 -1.000000 6.000000 138.250000 21.962444 540.969320 -359.245743 15.176349 0.000000 0.079836
227.000000 70.222000 -10.000000 -1.000000 6.000000 134.603256 16.729838 651.485200 -167.406804 14.242240 0.000000 0.033187
228.000000 74.714000 -9.000000 -1.000000 6.000000 129.975364 11.574892 754.559987 19.938847 13.386931 0.000000 0.044974
229.000000 79.152000 -8.000000 -1.000000 6.000000 124.152216 6.576243 850.920722 206.026743 12.637462 0.000000 0.088473
230.000000 83.126000 -7.000000 -1.000000 6.000000 116.883584 1.798584 941.202722 395.083485 12.034841 0.000000 0.128914
231.000000 85.927000 -6.000000 -1.000000 6.000000 107.890161 -2.710987 1025.963597 593.181237 11.644407 0.000000 0.158756
232.000000 86.445000 -5.000000 -1.000000 6.000000 96.891521 -6.923549 1105.694779 809.960128 11.577007 0.000000 0.170015
233.000000 83.163000 -4.000000 -1.000000 6.000000 83.672699 -10.826551 1180.831062 1062.505878 12.036984 0.000000 0.150796
234.000000 74.463000 -3.000000 -1.000000 6.000000 68.203156 -14.420630 1251.758524 1385.420333 13.447071 0.000000 0.088098
235.000000 59.452000 -2.000000 -1.000000 6.000000 50.787942 -17.716032 1318.821172 1862.901338 16.846548 0.000000 0.137798
237.000000 64.512000 -11.000000 0.000000 6.000000 131.426847 30.833396 332.549268 -165.114494 15.503315 0.000000 0.098114
238.000000 68.643000 -10.000000 0.000000 6.000000 127.818121 26.286312 443.382124 9.244486 14.571103 0.000000 0.035951
239.000000 77.061000 -8.000000 0.000000 6.000000 117.590626 17.065982 644.588023 352.644320 12.981726 0.000000 0.091901
240.000000 80.695000 -7.000000 0.000000 6.000000 110.489456 12.510597 736.182453 529.034059 12.398748 0.000000 0.135386
241.000000 83.081000 -5.000000 0.000000 6.000000 90.858171 3.779908 903.891697 924.843006 12.047181 0.000000 0.169122
242.000000 79.158000 -4.000000 0.000000 6.000000 77.784982 -0.311665 980.854649 1174.001822 12.647513 0.000000 0.135265
243.000000 53.811000 -2.000000 0.000000 6.000000 45.019664 -7.818453 1122.787137 2026.647873 18.614142 0.000000 0.193789
247.000000 62.220000 -11.000000 1.000000 6.000000 123.820975 37.535219 148.078741 31.660708 16.076144 0.000000 0.115744
248.000000 65.939000 -10.000000 1.000000 6.000000 120.055548 33.653885 258.451830 192.813392 15.170325 0.000000 0.042089
249.000000 69.689000 -9.000000 1.000000 6.000000 115.398885 29.655656 362.196102 352.935821 14.355214 0.000000 0.023827
250.000000 73.220000 -8.000000 1.000000 6.000000 109.637693 25.575527 459.891322 515.232891 13.664457 0.000000 0.080232
251.000000 76.091000 -7.000000 1.000000 6.000000 102.517680 21.453203 552.051558 684.254644 13.150693 0.000000 0.123734
252.000000 77.576000 -6.000000 1.000000 6.000000 93.751281 17.330927 639.134234 867.075622 12.901148 0.000000 0.148483
253.000000 76.581000 -5.000000 1.000000 6.000000 83.046766 13.250939 721.547723 1075.851011 13.071629 0.000000 0.144585
254.000000 71.672000 -4.000000 1.000000 6.000000 70.176150 9.252935 799.657748 1334.111052 13.970422 0.000000 0.095161
255.000000 61.424000 -3.000000 1.000000 6.000000 55.095394 5.371899 873.792809 1695.274707 16.305222 0.000000 0.054305
257.000000 59.133000 -11.000000 2.000000 6.000000 115.826034 42.647347 -16.346024 232.804372 16.917294 0.000000 0.144001
258.000000 65.293000 -9.000000 2.000000 6.000000 106.887317 35.890331 196.169642 537.683602 15.323778 0.000000 0.036245
259.000000 69.755000 -7.000000 2.000000 6.000000 93.661323 28.698931 385.772193 862.483352 14.347095 0.000000 0.105069
260.000000 67.808000 -5.000000 2.000000 6.000000 74.224274 21.271928 555.977764 1267.299207 14.764800 0.000000 0.111607
261.000000 51.081000 -3.000000 2.000000 6.000000 46.999795 13.851133 709.618071 1974.727610 19.608408 0.000000 0.189159
264.000000 55.423000 -11.000000 3.000000 6.000000 107.732528 46.616954 -163.824098 439.942360 18.052043 0.000000 0.187905
265.000000 57.861000 -10.000000 3.000000 6.000000 103.379700 43.763709 -55.821252 586.517768 17.292533 0.000000 0.124992
266.000000 61.684000 -8.000000 3.000000 6.000000 91.968853 37.701996 143.085367 894.236703 16.224352 0.000000 0.089456
267.000000 62.341000 -7.000000 3.000000 6.000000 84.530367 34.515006 234.868321 1066.075752 16.055865 0.000000 0.106480
268.000000 57.963000 -5.000000 3.000000 6.000000 65.137546 27.906756 404.969009 1505.372837 17.274980 0.000000 0.122016
269.000000 51.177000 -4.000000 3.000000 6.000000 52.860262 24.525338 483.929508 1837.008940 19.569347 0.000000 0.172715
271.000000 51.290000 -11.000000 4.000000 6.000000 99.751339 49.760596 -296.847040 654.665647 19.508948 0.000000 0.247108
272.000000 54.316000 -9.000000 4.000000 6.000000 89.611200 44.686685 -89.587011 951.272938 18.425569 0.000000 0.159437
273.000000 54.526000 -7.000000 4.000000 6.000000 75.579637 39.196619 97.301574 1298.109270 18.359493 0.000000 0.155725
274.000000 48.150000 -5.000000 4.000000 6.000000 56.347922 33.349259 266.681469 1798.738680 20.797798 0.000000 0.213115
276.000000 46.938000 -11.000000 5.000000 6.000000 92.031170 52.297586 -417.440800 878.583816 21.320393 0.000000 0.319712
277.000000 47.941000 -10.000000 5.000000 6.000000 87.098406 50.113549 -312.852279 1026.070080 20.876290 0.000000 0.272448
278.000000 48.455000 -9.000000 5.000000 6.000000 81.385660 47.834616 -213.429313 1183.896359 20.656918 0.000000 0.244455
279.000000 48.216000 -8.000000 5.000000 6.000000 74.765056 45.462143 -118.798440 1358.929673 20.761759 0.000000 0.235787
280.000000 46.874000 -7.000000 5.000000 6.000000 67.103206 42.998881 -28.621353 1562.539570 21.359180 0.000000 0.245492
290.000000 62.898000 -7.000000 -6.000000 7.000000 109.944216 -48.176563 2177.779122 355.320768 15.906100 0.000000 0.216922
291.000000 62.142000 -6.000000 -6.000000 7.000000 100.646258 -49.342437 2228.183812 630.468725 16.102024 0.000000 0.220697
292.000000 59.911000 -5.000000 -6.000000 7.000000 90.401881 -50.386329 2275.384405 929.159777 16.704372 0.000000 0.250607
293.000000 55.913000 -4.000000 -6.000000 7.000000 79.259128 -51.325835 2319.677004 1267.718267 17.902186 0.000000 0.309270
298.000000 64.334000 -9.000000 -5.000000 7.000000 127.918225 -36.177878 1762.090365 -97.694720 15.547136 0.000000 0.123007
299.000000 66.008000 -8.000000 -5.000000 7.000000 120.503843 -38.351162 1826.567617 132.450221 15.154286 0.000000 0.096182
300.000000 66.855000 -7.000000 -5.000000 7.000000 112.089705 -40.273852 1886.919783 368.479092 14.964264 0.000000 0.078850
301.000000 66.476000 -6.000000 -5.000000 7.000000 102.604947 -41.983260 1943.530462 617.221181 15.051985 0.000000 0.088299
302.000000 64.423000 -5.000000 -5.000000 7.000000 92.018250 -43.510418 1996.737117 888.703126 15.534440 0.000000 0.125758
303.000000 60.281000 -4.000000 -5.000000 7.000000 80.364957 -44.881136 2046.837817 1198.868901 16.605058 0.000000 0.183920
304.000000 53.802000 -3.000000 -5.000000 7.000000 67.773716 -46.116928 2094.096814 1575.464328 18.608319 0.000000 0.267581
308.000000 64.182000 -10.000000 -4.000000 7.000000 135.081743 -22.443116 1419.564300 -226.821714 15.582624 0.000000 0.058499
309.000000 66.799000 -9.000000 -4.000000 7.000000 128.831138 -25.718443 1493.412215 -20.583229 14.973232 0.000000 0.036885
310.000000 68.946000 -8.000000 -4.000000 7.000000 121.582000 -28.634398 1562.653195 187.122721 14.508526 0.000000 0.013757
311.000000 70.266000 -7.000000 -4.000000 7.000000 113.222963 -31.234197 1627.705297 400.904878 14.237862 0.000000 0.026865
312.000000 70.287000 -6.000000 -4.000000 7.000000 103.656432 -33.557481 1688.937483 627.192937 14.235923 0.000000 0.055902
313.000000 68.447000 -5.000000 -4.000000 7.000000 92.824251 -35.639596 1746.676620 875.666749 14.621360 0.000000 0.085774
314.000000 64.188000 -4.000000 -4.000000 7.000000 80.742950 -37.511513 1801.213315 1162.148202 15.594726 0.000000 0.121576
315.000000 57.134000 -3.000000 -4.000000 7.000000 67.541999 -39.200084 1852.806809 1515.095554 17.523892 0.000000 0.181281
316.000000 47.315000 -2.000000 -4.000000 7.000000 53.489373 -40.728443 1901.689098 1992.350981 21.164516 0.000000 0.297520
320.000000 62.398000 -11.000000 -3.000000 7.000000 139.053596 -6.349373 1094.762860 -307.132621 16.027381 0.000000 0.015540
321.000000 65.529000 -10.000000 -3.000000 7.000000 134.068650 -10.627380 1176.955392 -119.042944 15.262532 0.000000 0.027783
322.000000 68.492000 -9.000000 -3.000000 7.000000 128.142825 -14.539730 1254.145007 67.812806 14.603371 0.000000 0.048452
323.000000 71.029000 -8.000000 -3.000000 7.000000 121.146486 -18.099413 1326.774993 256.685566 14.083389 0.000000 0.072310
324.000000 72.751000 -7.000000 -3.000000 7.000000 112.943498 -21.328098 1395.237767 451.894935 13.751900 0.000000 0.094799
325.000000 73.120000 -6.000000 -3.000000 7.000000 103.407008 -24.252069 1459.881975 659.618726 13.684635 0.000000 0.111457
326.000000 71.466000 -5.000000 -3.000000 7.000000 92.448136 -26.899288 1521.018425 889.401239 14.004166 0.000000 0.118252
327.000000 67.082000 -4.000000 -3.000000 7.000000 80.059032 -29.297445 1578.925084 1157.303704 14.922747 0.000000 0.115894
328.000000 59.448000 -3.000000 -3.000000 7.000000 66.363971 -31.472798 1633.851306 1493.273613 16.842697 0.000000 0.130955
329.000000 48.543000 -2.000000 -3.000000 7.000000 51.658501 -33.449545 1686.021423 1961.255927 20.630508 0.000000 0.233605
333.000000 59.462000 -12.000000 -2.000000 7.000000 139.725330 9.941924 786.344955 -348.626648 16.818575 0.000000 0.030077
334.000000 62.726000 -11.000000 -2.000000 7.000000 135.904996 5.256866 875.972380 -174.535344 15.944029 0.000000 0.021530
335.000000 66.022000 -10.000000 -2.000000 7.000000 131.259169 0.783893 960.273754 -3.277856 15.149096 0.000000 0.051109
336.000000 69.187000 -9.000000 -2.000000 7.000000 125.652941 -3.440657 1039.710123 167.549612 14.457331 0.000000 0.084139
337.000000 71.956000 -8.000000 -2.000000 7.000000 118.935223 -7.395005 1114.690814 340.999468 13.902601 0.000000 0.114625
338.000000 73.918000 -7.000000 -2.000000 7.000000 110.944557 -11.070263 1185.580486 521.233021 13.535411 0.000000 0.138940
339.000000 74.485000 -6.000000 -2.000000 7.000000 101.524621 -14.467883 1252.705061 714.356400 13.434569 0.000000 0.152534
340.000000 72.896000 -5.000000 -2.000000 7.000000 90.554971 -17.596908 1316.356740 930.062836 13.730225 0.000000 0.149482
341.000000 68.318000 -4.000000 -2.000000 7.000000 78.000627 -20.471425 1376.798246 1185.181987 14.653825 0.000000 0.124061
342.000000 60.103000 -3.000000 -2.000000 7.000000 63.975233 -23.108469 1434.266457 1512.364089 16.660471 0.000000 0.096719
343.000000 48.186000 -2.000000 -2.000000 7.000000 48.794391 -25.526425 1488.975503 1985.353402 20.785128 0.000000 0.202873
346.000000 55.853000 -13.000000 -1.000000 7.000000 137.790954 24.119907 493.101461 -359.121312 17.905608 0.000000 0.091337
347.000000 58.983000 -12.000000 -1.000000 7.000000 134.841762 19.713000 589.355328 -196.000680 16.955972 0.000000 0.045484
348.000000 62.243000 -11.000000 -1.000000 7.000000 131.218328 15.326607 680.021914 -36.601337 16.068701 0.000000 0.031266
349.000000 65.542000 -10.000000 -1.000000 7.000000 126.792849 11.011059 765.573988 120.941492 15.261101 0.000000 0.064389
350.000000 68.715000 -9.000000 -1.000000 7.000000 121.417480 6.811927 846.432443 278.902533 14.557533 0.000000 0.102637
351.000000 71.494000 -8.000000 -1.000000 7.000000 114.924769 2.767455 922.973224 440.251178 13.993415 0.000000 0.136299
352.000000 73.452000 -7.000000 -1.000000 7.000000 107.133187 -1.092937 995.533170 609.145729 13.622299 0.000000 0.161038
353.000000 73.970000 -6.000000 -1.000000 7.000000 97.862675 -4.749038 1064.414971 791.854385 13.529187 0.000000 0.171646
354.000000 72.233000 -5.000000 -1.000000 7.000000 86.966818 -8.189309 1129.891387 998.618802 13.857583 0.000000 0.160631
355.000000 67.329000 -4.000000 -1.000000 7.000000 74.387021 -11.409712 1192.208860 1247.833335 14.870285 0.000000 0.117630
356.000000 58.544000 -3.000000 -1.000000 7.000000 60.224574 -14.412246 1251.590613 1576.795140 17.105868 0.000000 0.060044
357.000000 45.801000 -2.000000 -1.000000 7.000000 44.805198 -17.203429 1308.239319 2075.389799 21.869079 0.000000 0.217969
361.000000 53.203000 -13.000000 1.000000 7.000000 125.410306 37.243582 156.757081 -20.189500 18.800255 0.000000 0.123795
362.000000 55.967000 -12.000000 1.000000 7.000000 122.355058 33.863877 252.744805 119.849674 17.872832 0.000000 0.059949
363.000000 58.790000 -11.000000 1.000000 7.000000 118.681914 30.394239 343.687371 258.370034 17.015420 0.000000 0.004874
364.000000 61.569000 -10.000000 1.000000 7.000000 114.264798 26.857324 429.972358 397.169697 16.248699 0.000000 0.051580
365.000000 64.126000 -9.000000 1.000000 7.000000 108.955220 23.278703 511.948636 538.583449 15.602382 0.000000 0.096404
366.000000 66.177000 -8.000000 1.000000 7.000000 102.582819 19.685833 589.931081 685.845786 15.120755 0.000000 0.131136
367.000000 67.290000 -7.000000 1.000000 7.000000 94.961236 16.106830 664.204618 843.752828 14.872853 0.000000 0.151712
368.000000 66.854000 -6.000000 1.000000 7.000000 85.904141 12.569171 735.027699 1019.964007 14.972570 0.000000 0.151806
369.000000 64.088000 -5.000000 1.000000 7.000000 75.257973 9.098457 802.635307 1227.813162 15.622142 0.000000 0.121216
370.000000 58.159000 -4.000000 1.000000 7.000000 62.956640 5.717393 867.241563 1493.172550 17.218429 0.000000 0.045483
371.000000 48.478000 -3.000000 1.000000 7.000000 49.094048 2.445058 929.041988 1874.360814 20.661192 0.000000 0.127246
374.000000 51.101000 -13.000000 2.000000 7.000000 118.634936 41.803708 12.556497 152.644194 19.575529 0.000000 0.145711
375.000000 53.531000 -12.000000 2.000000 7.000000 115.389558 38.858945 107.812597 285.001051 18.687860 0.000000 0.081067
376.000000 55.955000 -11.000000 2.000000 7.000000 111.541868 35.816250 198.287943 417.047011 17.879662 0.000000 0.029812
377.000000 58.255000 -10.000000 2.000000 7.000000 106.972515 32.688603 284.333633 550.690366 17.175193 0.000000 0.043125
378.000000 60.244000 -9.000000 2.000000 7.000000 101.541714 29.491724 366.267206 688.490892 16.609697 0.000000 0.083136
379.000000 61.637000 -8.000000 2.000000 7.000000 95.090523 26.243741 444.376560 834.104015 16.236428 0.000000 0.114217
380.000000 62.016000 -7.000000 2.000000 7.000000 87.447463 22.964665 518.923330 993.110865 16.139833 0.000000 0.129908
381.000000 60.812000 -6.000000 2.000000 7.000000 78.444848 19.675698 590.145816 1174.698507 16.462309 0.000000 0.123589
382.000000 57.335000 -5.000000 2.000000 7.000000 67.950250 16.398424 658.261529 1395.423761 17.464203 0.000000 0.089038
383.000000 50.895000 -4.000000 2.000000 7.000000 55.916695 13.153976 723.469411 1688.871362 19.677845 0.000000 0.079780
384.000000 46.551000 -14.000000 3.000000 7.000000 114.717024 47.937053 -217.708163 201.496982 21.490078 0.000000 0.248147
385.000000 48.582000 -13.000000 3.000000 7.000000 111.740231 45.455965 -118.562546 329.152051 20.592354 0.000000 0.177958
386.000000 50.612000 -12.000000 3.000000 7.000000 108.266536 42.875446 -24.295155 456.234303 19.767706 0.000000 0.117608
387.000000 52.559000 -11.000000 3.000000 7.000000 104.202064 40.200479 65.445397 584.376656 19.037011 0.000000 0.074080
388.000000 54.295000 -10.000000 3.000000 7.000000 99.436306 37.438056 150.977542 715.713292 18.429935 0.000000 0.063835
389.000000 55.629000 -9.000000 3.000000 7.000000 93.841749 34.597251 232.590529 853.198344 17.990099 0.000000 0.082715
390.000000 56.279000 -8.000000 3.000000 7.000000 87.276229 31.689186 310.547694 1001.175884 17.784390 0.000000 0.103918
391.000000 55.859000 -7.000000 3.000000 7.000000 79.590499 28.726894 385.089297 1166.472450 17.920843 0.000000 0.114091
392.000000 53.870000 -6.000000 3.000000 7.000000 70.644563 25.725045 456.434997 1360.677743 18.586046 0.000000 0.109202
393.000000 49.741000 -5.000000 3.000000 7.000000 60.336718 22.699562 524.786013 1605.462160 20.132393 0.000000 0.108263
394.000000 45.749000 -13.000000 4.000000 7.000000 104.870271 48.424474 -238.302900 510.350573 21.870231 0.000000 0.221505
395.000000 47.342000 -12.000000 4.000000 7.000000 101.160402 46.145350 -145.208509 634.519761 21.135662 0.000000 0.166989
396.000000 48.776000 -11.000000 4.000000 7.000000 96.871594 43.779762 -56.399578 761.354987 20.515781 0.000000 0.128700
397.000000 49.919000 -10.000000 4.000000 7.000000 91.903817 41.331209 28.413147 893.355941 20.048091 0.000000 0.111596
398.000000 50.579000 -9.000000 4.000000 7.000000 86.144221 38.804647 109.493462 1034.084910 19.788451 0.000000 0.113420
399.000000 50.496000 -8.000000 4.000000 7.000000 79.470600 36.206559 187.082443 1188.927199 19.823866 0.000000 0.123310
400.000000 49.324000 -7.000000 4.000000 7.000000 71.759675 33.544972 261.400845 1366.587776 20.297713 0.000000 0.133128
401.000000 46.651000 -6.000000 4.000000 7.000000 62.902837 30.829396 332.651193 1582.320864 21.464216 0.000000 0.147961
409.000000 54.584000 -8.000000 -7.000000 8.000000 109.624607 -49.080464 2216.652395 355.087073 18.328989 0.000000 0.237294
410.000000 54.035000 -7.000000 -7.000000 8.000000 101.565845 -50.054084 2260.139270 597.945619 18.517329 0.000000 0.239169
411.000000 52.542000 -6.000000 -7.000000 8.000000 92.794401 -50.937881 2301.170278 857.633995 19.046209 0.000000 0.260396
412.000000 49.930000 -5.000000 -7.000000 8.000000 83.334864 -51.743367 2339.947744 1144.124482 20.045829 0.000000 0.303441
416.000000 57.155000 -9.000000 -6.000000 8.000000 119.046324 -40.832647 1905.103034 150.992237 17.502070 0.000000 0.123270
417.000000 57.370000 -7.000000 -6.000000 8.000000 103.424170 -43.739897 2004.963987 585.436899 17.440807 0.000000 0.113613
418.000000 53.383000 -5.000000 -6.000000 8.000000 84.582764 -46.123963 2094.371876 1088.260683 18.749238 0.000000 0.184863
423.000000 56.396000 -11.000000 -5.000000 8.000000 132.738417 -27.941120 1545.857849 -184.740859 17.734301 0.000000 0.078770
424.000000 58.190000 -10.000000 -5.000000 8.000000 126.922666 -30.451639 1607.762734 2.813350 17.188802 0.000000 0.055496
425.000000 59.609000 -9.000000 -5.000000 8.000000 120.346810 -32.709835 1666.229556 192.126420 16.781350 0.000000 0.028910
426.000000 60.440000 -8.000000 -5.000000 8.000000 112.942721 -34.745870 1721.536989 386.543213 16.552582 0.000000 0.016760
427.000000 60.418000 -7.000000 -5.000000 8.000000 104.652593 -36.586538 1773.934384 590.534513 16.560818 0.000000 0.043412
428.000000 59.240000 -6.000000 -5.000000 8.000000 95.441684 -38.255368 1823.645523 810.431790 16.892860 0.000000 0.077582
429.000000 56.600000 -5.000000 -5.000000 8.000000 85.314761 -39.772879 1870.871819 1055.766985 17.683788 0.000000 0.117050
430.000000 52.260000 -4.000000 -5.000000 8.000000 74.333983 -41.156894 1915.795039 1341.903023 19.155954 0.000000 0.168646
431.000000 46.135000 -3.000000 -5.000000 8.000000 62.633193 -42.422864 1958.579641 1695.697318 21.703035 0.000000 0.246455
433.000000 53.214000 -13.000000 -4.000000 8.000000 141.699020 -10.903429 1182.328422 -446.830988 18.792938 0.000000 0.039398
434.000000 57.783000 -11.000000 -4.000000 8.000000 132.627202 -17.950482 1323.681103 -100.335631 17.308639 0.000000 0.029829
435.000000 61.565000 -9.000000 -4.000000 8.000000 120.604003 -23.816817 1450.079736 245.119485 16.248367 0.000000 0.045123
436.000000 62.933000 -7.000000 -4.000000 8.000000 104.986285 -28.680510 1563.778142 612.591287 15.899154 0.000000 0.081281
437.000000 59.288000 -5.000000 -4.000000 8.000000 85.301727 -32.723752 1666.598887 1046.142326 16.882574 0.000000 0.107541
438.000000 48.042000 -3.000000 -4.000000 8.000000 61.779195 -36.106410 1760.031728 1655.927678 20.842589 0.000000 0.182657
442.000000 53.729000 -13.000000 -3.000000 8.000000 139.670031 -0.119982 977.253848 -326.780559 18.613065 0.000000 0.000915
443.000000 56.196000 -12.000000 -3.000000 8.000000 135.758582 -4.091575 1051.990658 -167.002100 17.797038 0.000000 0.022628
444.000000 58.623000 -11.000000 -3.000000 8.000000 131.167065 -7.816668 1122.752980 -8.958854 17.061090 0.000000 0.046231
445.000000 60.895000 -10.000000 -3.000000 8.000000 125.808247 -11.288985 1189.849647 149.197004 16.426044 0.000000 0.070587
446.000000 62.834000 -9.000000 -3.000000 8.000000 119.587271 -14.510462 1253.558302 309.760651 15.920633 0.000000 0.093998
447.000000 64.192000 -8.000000 -3.000000 8.000000 112.406045 -17.489103 1314.129238 475.743775 15.585638 0.000000 0.114131
448.000000 64.636000 -7.000000 -3.000000 8.000000 104.172317 -20.237009 1371.788689 651.327375 15.480950 0.000000 0.128115
449.000000 63.752000 -6.000000 -3.000000 8.000000 94.815265 -22.768741 1426.741650 842.669830 15.698251 0.000000 0.132711
450.000000 61.090000 -5.000000 -3.000000 8.000000 84.308555 -25.100054 1479.174311 1059.451737 16.385329 0.000000 0.125533
451.000000 56.256000 -4.000000 -3.000000 8.000000 72.699009 -27.246979 1529.256168 1318.090201 17.796755 0.000000 0.112718
452.000000 49.059000 -3.000000 -3.000000 8.000000 60.133818 -29.225197 1577.141850 1649.200230 20.411577 0.000000 0.138241
454.000000 53.764000 -13.000000 -2.000000 8.000000 136.362714 9.654875 791.897977 -203.966031 18.601674 0.000000 0.022270
455.000000 58.816000 -11.000000 -2.000000 8.000000 128.331378 1.853806 940.164319 89.590907 17.005992 0.000000 0.068915
456.000000 63.245000 -9.000000 -2.000000 8.000000 117.177834 -5.261094 1074.107719 386.048238 15.817908 0.000000 0.125385
457.000000 65.253000 -7.000000 -2.000000 8.000000 102.033078 -11.588584 1195.708003 706.803036 15.335357 0.000000 0.158561
458.000000 61.640000 -5.000000 -2.000000 8.000000 82.146864 -17.123575 1306.596180 1096.336757 16.240172 0.000000 0.138750
459.000000 48.827000 -3.000000 -2.000000 8.000000 57.557607 -21.921101 1408.128021 1678.475034 20.510286 0.000000 0.105215
461.000000 48.453000 -15.000000 -1.000000 8.000000 137.418162 25.680857 457.457371 -358.575825 20.640172 0.000000 0.100308
462.000000 50.820000 -14.000000 -1.000000 8.000000 134.945059 21.884257 542.675961 -216.654204 19.679681 0.000000 0.057210
463.000000 53.283000 -13.000000 -1.000000 8.000000 131.981639 18.083914 623.547227 -77.801155 18.770696 0.000000 0.029239
464.000000 55.799000 -12.000000 -1.000000 8.000000 128.445981 14.313019 700.395554 59.159717 17.925213 0.000000 0.045917
465.000000 58.294000 -11.000000 -1.000000 8.000000 124.244461 10.603249 773.513839 195.601860 17.159266 0.000000 0.079778
466.000000 60.647000 -10.000000 -1.000000 8.000000 119.271289 6.983242 843.167218 333.212085 16.494784 0.000000 0.112896
467.000000 62.676000 -9.000000 -1.000000 8.000000 113.409540 3.477445 909.596283 474.173560 15.962573 0.000000 0.141400
468.000000 64.111000 -8.000000 -1.000000 8.000000 106.535123 0.105412 973.019851 621.468764 15.607316 0.000000 0.162401
469.000000 64.579000 -7.000000 -1.000000 8.000000 98.525922 -3.118437 1033.637383 779.409607 15.496372 0.000000 0.172309
470.000000 63.606000 -6.000000 -1.000000 8.000000 89.278866 -6.184641 1091.631066 954.626442 15.736259 0.000000 0.166130
471.000000 60.653000 -5.000000 -1.000000 8.000000 78.737216 -9.088230 1147.167654 1158.062858 16.505944 0.000000 0.136870
472.000000 55.228000 -4.000000 -1.000000 8.000000 66.927245 -11.828076 1200.400061 1409.419548 18.131059 0.000000 0.078650
473.000000 47.080000 -3.000000 -1.000000 8.000000 53.996411 -14.406161 1251.468773 1748.466211 21.272861 0.000000 0.089991
474.000000 47.636000 -15.000000 0.000000 8.000000 132.205777 31.954021 303.657047 -209.445230 20.995603 0.000000 0.115598
475.000000 52.277000 -13.000000 0.000000 8.000000 126.778558 25.137656 469.964083 52.286836 19.133212 0.000000 0.025829
476.000000 57.037000 -11.000000 0.000000 8.000000 119.134329 18.215876 620.801945 309.447410 17.538637 0.000000 0.079531
477.000000 61.083000 -9.000000 0.000000 8.000000 108.459241 11.387107 758.233029 574.514087 16.380079 0.000000 0.144242
478.000000 62.537000 -7.000000 0.000000 8.000000 93.767263 4.834481 883.968713 869.877232 16.003890 0.000000 0.170779
479.000000 58.024000 -5.000000 0.000000 8.000000 74.152167 -1.300875 999.440986 1246.610056 17.255368 0.000000 0.117945
480.000000 46.454000 -15.000000 1.000000 8.000000 126.581369 37.018312 163.414637 -59.426677 21.531297 0.000000 0.129898
481.000000 48.582000 -14.000000 1.000000 8.000000 124.016663 34.025438 248.334891 64.510360 20.589042 0.000000 0.073668
482.000000 50.768000 -13.000000 1.000000 8.000000 120.999006 30.961265 329.287082 186.870661 19.703602 0.000000 0.022182
483.000000 52.961000 -12.000000 1.000000 8.000000 117.448047 27.841282 406.542984 308.772842 18.888918 0.000000 0.028431
484.000000 55.079000 -11.000000 1.000000 8.000000 113.270505 24.682854 480.350104 431.587747 18.163900 0.000000 0.070991
485.000000 56.995000 -10.000000 1.000000 8.000000 108.359707 21.504704 550.934338 557.079331 17.554854 0.000000 0.107761
486.000000 58.519000 -9.000000 1.000000 8.000000 102.596690 18.326265 618.502271 687.634687 17.099491 0.000000 0.136389
487.000000 59.380000 -8.000000 1.000000 8.000000 95.854358 15.166984 683.243205 826.659487 16.853860 0.000000 0.153953
488.000000 59.210000 -7.000000 1.000000 8.000000 88.006849 12.045611 745.330922 979.299497 16.905040 0.000000 0.156167
489.000000 57.549000 -6.000000 1.000000 8.000000 78.946863 8.979563 804.925251 1153.855226 17.396055 0.000000 0.136506
490.000000 53.894000 -5.000000 1.000000 8.000000 68.613203 5.984387 862.173432 1364.818703 18.579408 0.000000 0.084890
491.000000 47.812000 -4.000000 1.000000 8.000000 57.027676 3.073388 917.211338 1640.220458 20.946613 0.000000 0.027946
492.000000 48.805000 -13.000000 2.000000 8.000000 114.857749 35.757853 199.954998 326.534735 20.497704 0.000000 0.037940
493.000000 52.502000 -11.000000 2.000000 8.000000 106.916834 30.114148 350.738899 562.574306 19.057230 0.000000 0.060264
494.000000 55.125000 -9.000000 2.000000 8.000000 96.124131 24.296543 489.112668 814.296464 18.154155 0.000000 0.121675
495.000000 54.834000 -7.000000 2.000000 8.000000 81.567334 18.419970 616.547856 1109.176745 18.255906 0.000000 0.132835
496.000000 48.628000 -5.000000 2.000000 8.000000 62.439266 12.606465 734.292203 1516.610925 20.593360 0.000000 0.061219
497.000000 46.463000 -13.000000 3.000000 8.000000 108.532653 39.725032 80.648655 471.885934 21.533009 0.000000 0.070412
498.000000 48.035000 -12.000000 3.000000 8.000000 104.715022 37.225674 157.287763 586.012265 20.830095 0.000000 0.047331
499.000000 49.430000 -11.000000 3.000000 8.000000 100.305898 34.663233 230.759878 703.057030 20.243552 0.000000 0.061267
500.000000 50.518000 -10.000000 3.000000 8.000000 95.211329 32.045895 301.257333 825.187906 19.809858 0.000000 0.087124
501.000000 51.110000 -9.000000 3.000000 8.000000 89.328668 29.383114 368.957195 955.473332 19.582516 0.000000 0.107969
502.000000 50.959000 -8.000000 3.000000 8.000000 82.551394 26.685451 434.022753 1098.489725 19.643298 0.000000 0.117635
503.000000 49.750000 -7.000000 3.000000 8.000000 74.778542 23.964363 496.604829 1261.481647 20.123757 0.000000 0.112322
504.000000 47.121000 -6.000000 3.000000 8.000000 65.930567 21.231922 556.842948 1456.770127 21.249910 0.000000 0.094517
505.000000 46.010000 -11.000000 4.000000 8.000000 93.629081 38.483665 119.377774 853.794556 21.750978 0.000000 0.086611
506.000000 46.711000 -9.000000 4.000000 8.000000 82.454287 33.704405 257.081395 1112.377038 21.429131 0.000000 0.110307
512.000000 48.205000 -9.000000 -8.000000 9.000000 109.369720 -49.770721 2247.302920 355.128590 20.754535 0.000000 0.253657
513.000000 47.789000 -8.000000 -8.000000 9.000000 102.259050 -50.604490 2285.511464 572.518045 20.937411 0.000000 0.254403
514.000000 46.733000 -7.000000 -8.000000 9.000000 94.592751 -51.369486 2321.778850 802.508706 21.413325 0.000000 0.269973
518.000000 49.607000 -11.000000 -7.000000 9.000000 123.893235 -41.295495 1920.397683 -21.385030 20.163451 0.000000 0.164873
519.000000 50.348000 -10.000000 -7.000000 9.000000 117.857514 -42.676928 1967.373610 167.255930 19.868617 0.000000 0.146400
520.000000 50.667000 -9.000000 -7.000000 9.000000 111.237036 -43.933412 2011.950671 360.191022 19.745510 0.000000 0.134962
521.000000 50.428000 -8.000000 -7.000000 9.000000 104.004653 -45.080106 2054.308043 560.832181 19.841327 0.000000 0.136758
522.000000 49.485000 -7.000000 -7.000000 9.000000 96.147374 -46.129988 2094.607488 773.729124 20.222304 0.000000 0.155330
523.000000 47.694000 -6.000000 -7.000000 9.000000 87.673154 -47.094199 2132.995428 1005.238965 20.984393 0.000000 0.190220
525.000000 48.698000 -13.000000 -6.000000 9.000000 135.470462 -29.740916 1589.926497 -319.099688 20.537031 0.000000 0.115235
526.000000 51.428000 -11.000000 -6.000000 9.000000 125.225468 -33.924805 1698.916302 25.134009 19.449388 0.000000 0.075963
527.000000 52.401000 -10.000000 -6.000000 9.000000 119.232676 -35.732442 1749.320356 198.993080 19.090061 0.000000 0.054347
528.000000 52.899000 -8.000000 -6.000000 9.000000 105.291602 -38.882637 1842.921624 562.969929 18.914639 0.000000 0.053007
529.000000 52.087000 -7.000000 -6.000000 9.000000 97.284733 -40.259425 1886.454325 760.708735 19.211859 0.000000 0.080735
530.000000 47.478000 -5.000000 -6.000000 9.000000 79.210856 -42.686624 1967.710657 1220.023715 21.083441 0.000000 0.162912
532.000000 48.080000 -14.000000 -5.000000 9.000000 139.826916 -17.816734 1320.907080 -398.057703 20.800144 0.000000 0.062362
533.000000 49.821000 -13.000000 -5.000000 9.000000 135.689823 -20.743217 1382.625716 -237.950827 20.073989 0.000000 0.053146
534.000000 51.473000 -12.000000 -5.000000 9.000000 131.017977 -23.421779 1441.239942 -79.267775 19.430835 0.000000 0.038761
535.000000 52.953000 -11.000000 -5.000000 9.000000 125.759684 -25.872330 1496.978238 79.559372 18.889458 0.000000 0.023164
536.000000 54.146000 -10.000000 -5.000000 9.000000 119.860899 -28.114893 1550.047197 240.414301 18.474763 0.000000 0.019521
537.000000 54.907000 -9.000000 -5.000000 9.000000 113.268579 -30.168809 1600.634090 405.661629 18.220499 0.000000 0.035237
538.000000 55.056000 -8.000000 -5.000000 9.000000 105.936048 -32.052259 1648.909068 578.404879 18.173573 0.000000 0.055504
539.000000 54.383000 -7.000000 -5.000000 9.000000 97.830759 -33.782015 1695.027080 762.908132 18.401154 0.000000 0.075838
540.000000 52.669000 -6.000000 -5.000000 9.000000 88.944431 -35.373357 1739.129529 965.320638 19.002936 0.000000 0.096788
541.000000 49.719000 -5.000000 -5.000000 9.000000 79.304675 -36.840075 1781.345723 1194.997091 20.133537 0.000000 0.123176
542.000000 46.848000 -15.000000 -4.000000 9.000000 142.184592 -4.675694 1063.027839 -450.410515 21.346506 0.000000 0.018464
543.000000 48.737000 -14.000000 -4.000000 9.000000 138.780788 -8.195992 1130.019519 -300.287830 20.519774 0.000000 0.020065
544.000000 50.617000 -13.000000 -4.000000 9.000000 134.872574 -11.486368 1193.707887 -152.416352 19.758834 0.000000 0.025347
545.000000 52.427000 -12.000000 -4.000000 9.000000 130.406168 -14.549026 1254.331390 -5.551045 19.077852 0.000000 0.037162
546.000000 54.082000 -11.000000 -4.000000 9.000000 125.322775 -17.391075 1312.106066 141.763088 18.495375 0.000000 0.053444
547.000000 55.464000 -10.000000 -4.000000 9.000000 119.560065 -20.022985 1367.228112 291.300772 18.036170 0.000000 0.071338
548.000000 56.414000 -9.000000 -4.000000 9.000000 113.055325 -22.457294 1419.876116 445.323273 17.734060 0.000000 0.088403
549.000000 56.734000 -8.000000 -4.000000 9.000000 105.750960 -24.707598 1470.212985 606.843010 17.636494 0.000000 0.102429
550.000000 56.182000 -7.000000 -4.000000 9.000000 97.602989 -26.787795 1518.387633 780.063084 17.812165 0.000000 0.111468
551.000000 54.502000 -6.000000 -4.000000 9.000000 88.592766 -28.711571 1564.536446 971.146592 18.364402 0.000000 0.114643
552.000000 51.452000 -5.000000 -4.000000 9.000000 78.741160 -30.492048 1608.784579 1189.649152 19.456153 0.000000 0.115380
553.000000 46.874000 -4.000000 -4.000000 9.000000 68.122705 -32.141581 1651.247084 1451.397744 21.360225 0.000000 0.130199
554.000000 49.052000 -14.000000 -3.000000 9.000000 136.656002 1.025574 955.732653 -199.562697 20.388587 0.000000 0.017567
555.000000 51.024000 -13.000000 -3.000000 9.000000 132.964087 -2.438340 1020.831591 -62.308521 19.601515 0.000000 0.040046
556.000000 54.720000 -11.000000 -3.000000 9.000000 123.804137 -8.831448 1142.224122 211.725157 18.280069 0.000000 0.087297
557.000000 56.235000 -10.000000 -3.000000 9.000000 118.198608 -11.751859 1198.905971 351.574720 17.789246 0.000000 0.108844
558.000000 57.758000 -8.000000 -3.000000 9.000000 104.578775 -17.050243 1305.088494 648.203058 17.324276 0.000000 0.139152
559.000000 57.284000 -7.000000 -3.000000 9.000000 96.439977 -19.440868 1354.886165 812.168528 17.470213 0.000000 0.143321
560.000000 52.437000 -5.000000 -3.000000 9.000000 77.372498 -23.748552 1448.548352 1204.429549 19.091838 0.000000 0.119204
561.000000 47.585000 -4.000000 -3.000000 9.000000 66.529567 -25.685236 1492.643916 1459.565962 21.041988 0.000000 0.106155
562.000000 46.991000 -15.000000 -2.000000 9.000000 136.550369 12.987194 726.771262 -225.002179 21.282701 0.000000 0.029051
563.000000 48.988000 -14.000000 -2.000000 9.000000 133.531671 9.444008 795.971183 -95.545315 20.416180 0.000000 0.030383
564.000000 50.997000 -13.000000 -2.000000 9.000000 130.010118 5.991579 862.036844 32.595538 19.612897 0.000000 0.054969
565.000000 52.960000 -12.000000 -2.000000 9.000000 125.919045 2.650429 925.176469 160.512591 18.887140 0.000000 0.082802
566.000000 54.789000 -11.000000 -2.000000 9.000000 121.185113 -0.563213 985.580236 289.523689 18.257852 0.000000 0.109425
567.000000 56.360000 -10.000000 -2.000000 9.000000 115.729391 -3.637513 1043.422194 421.287388 17.750694 0.000000 0.132894
568.000000 57.498000 -9.000000 -2.000000 9.000000 109.470178 -6.564825 1098.861933 557.983158 17.401316 0.000000 0.151300
569.000000 57.974000 -8.000000 -2.000000 9.000000 102.328576 -9.341269 1152.046058 702.606195 17.260737 0.000000 0.162305
570.000000 57.503000 -7.000000 -2.000000 9.000000 94.237925 -11.966180 1203.109480 859.474058 17.404630 0.000000 0.162899
571.000000 55.765000 -6.000000 -2.000000 9.000000 85.157957 -14.441502 1252.176566 1035.149209 17.950259 0.000000 0.149318
572.000000 52.446000 -5.000000 -2.000000 9.000000 75.093366 -16.771199 1299.362140 1240.241548 19.089606 0.000000 0.118258
573.000000 47.323000 -4.000000 -2.000000 9.000000 64.114063 -18.960706 1344.772390 1493.258645 21.160159 0.000000 0.082168
574.000000 46.551000 -15.000000 -1.000000 9.000000 132.484049 20.186937 579.279396 -109.203057 21.485046 0.000000 0.035331
575.000000 48.523000 -14.000000 -1.000000 9.000000 129.556290 16.851491 648.991888 12.106833 20.612991 0.000000 0.033598
576.000000 50.505000 -13.000000 -1.000000 9.000000 126.138413 13.547009 715.670468 132.554367 19.804867 0.000000 0.060859
577.000000 52.440000 -12.000000 -1.000000 9.000000 122.160065 10.294600 779.508973 253.196181 19.075481 0.000000 0.091757
578.000000 54.238000 -11.000000 -1.000000 9.000000 117.543277 7.113387 840.685072 375.329051 18.444602 0.000000 0.120566
579.000000 55.771000 -10.000000 -1.000000 9.000000 112.203502 4.019932 899.361918 500.612219 17.939217 0.000000 0.145090
580.000000 56.862000 -9.000000 -1.000000 9.000000 106.052420 1.027866 955.689599 631.261801 17.597162 0.000000 0.163261
581.000000 57.273000 -8.000000 -1.000000 9.000000 99.003564 -1.852250 1009.806422 770.373951 17.473186 0.000000 0.172496
582.000000 56.709000 -7.000000 -1.000000 9.000000 90.982059 -4.612877 1061.840047 922.490374 17.649581 0.000000 0.169313
583.000000 54.835000 -6.000000 -1.000000 9.000000 81.939503 -7.249296 1111.908489 1094.650559 18.256002 0.000000 0.148914
584.000000 51.322000 -5.000000 -1.000000 9.000000 71.873893 -9.759298 1160.121014 1298.503674 19.509264 0.000000 0.105440
585.000000 45.934000 -4.000000 -1.000000 9.000000 60.851884 -12.142818 1206.578938 1554.979115 21.801385 0.000000 0.051227
586.000000 46.396000 -14.000000 1.000000 9.000000 119.766856 28.619979 387.698343 239.744826 21.560806 0.000000 0.012435
587.000000 48.133000 -13.000000 1.000000 9.000000 116.351317 25.795207 454.810090 348.858412 20.783966 0.000000 0.049244
588.000000 49.786000 -12.000000 1.000000 9.000000 112.402935 22.949167 519.266695 459.183814 20.095151 0.000000 0.085187
589.000000 51.264000 -11.000000 1.000000 9.000000 107.842931 20.095754 581.222670 572.090608 19.517740 0.000000 0.116095
590.000000 52.433000 -10.000000 1.000000 9.000000 102.585325 17.249076 640.820767 689.393066 19.084198 0.000000 0.140279
591.000000 53.117000 -9.000000 1.000000 9.000000 96.539831 14.423047 698.193073 813.598449 18.840959 0.000000 0.155577
592.000000 53.079000 -8.000000 1.000000 9.000000 89.617613 11.630979 753.461992 948.333795 18.856849 0.000000 0.158952
593.000000 52.035000 -7.000000 1.000000 9.000000 81.741141 8.885227 806.741113 1099.122686 19.238436 0.000000 0.145994
594.000000 49.665000 -6.000000 1.000000 9.000000 72.859208 6.196898 858.135991 1274.901380 20.160000 0.000000 0.110140
595.000000 45.669000 -5.000000 1.000000 9.000000 62.966976 3.575632 907.744846 1491.252114 21.927487 0.000000 0.042252
596.000000 46.316000 -13.000000 2.000000 9.000000 110.800578 30.615683 338.083626 465.916342 21.601168 0.000000 0.039464
597.000000 47.732000 -12.000000 2.000000 9.000000 106.788683 28.006993 402.555664 573.207467 20.961683 0.000000 0.075090
598.000000 48.941000 -11.000000 2.000000 9.000000 102.182439 25.370763 464.610787 683.840190 20.445926 0.000000 0.105102
599.000000 49.810000 -10.000000 2.000000 9.000000 96.899689 22.717846 524.382402 799.805866 20.091138 0.000000 0.127553
600.000000 50.166000 -9.000000 2.000000 9.000000 90.854768 20.059519 581.994274 923.905061 19.951169 0.000000 0.140111
601.000000 49.784000 -8.000000 2.000000 9.000000 83.964286 17.407195 637.561385 1060.263357 20.106910 0.000000 0.139567
602.000000 48.399000 -7.000000 2.000000 9.000000 76.156769 14.772135 691.190695 1215.290465 20.685685 0.000000 0.121522
603.000000 45.722000 -6.000000 2.000000 9.000000 67.387000 12.165164 742.981833 1399.602901 21.900175 0.000000 0.081473
604.000000 46.186000 -11.000000 3.000000 9.000000 96.241288 29.919962 355.604268 805.192154 21.667345 0.000000 0.094502
605.000000 46.709000 -10.000000 3.000000 9.000000 90.908683 27.471253 415.402836 921.759568 21.427083 0.000000 0.113546
606.000000 45.937000 -8.000000 3.000000 9.000000 77.979471 22.516108 528.829775 1189.087746 21.792957 0.000000 0.119046
607.000000 46.005000 -12.000000 -7.000000 10.000000 123.746478 -36.564121 1773.281449 45.744167 21.742401 0.000000 0.095590
608.000000 46.693000 -11.000000 -7.000000 10.000000 118.254880 -38.051629 1817.456188 206.441935 21.423904 0.000000 0.077733
609.000000 47.059000 -10.000000 -7.000000 10.000000 112.255340 -39.418617 1859.663915 370.870354 21.259350 0.000000 0.067350
610.000000 47.002000 -9.000000 -7.000000 10.000000 105.723667 -40.677780 1900.033147 541.451530 21.287273 0.000000 0.071694
611.000000 46.412000 -8.000000 -7.000000 10.000000 98.645048 -41.840307 1938.681448 721.351195 21.560239 0.000000 0.091431
612.000000 46.286000 -13.000000 -6.000000 10.000000 129.439630 -27.594544 1537.542557 -57.959482 21.608758 0.000000 0.052022
613.000000 48.224000 -11.000000 -6.000000 10.000000 119.081176 -31.429357 1632.729999 239.481116 20.743732 0.000000 0.009507
614.000000 48.840000 -9.000000 -6.000000 10.000000 106.533669 -34.688344 1719.937599 552.435506 20.486361 0.000000 0.038504
615.000000 47.176000 -7.000000 -6.000000 10.000000 91.598508 -37.475157 1800.128449 903.153580 21.214178 0.000000 0.089089
616.000000 45.875000 -14.000000 -5.000000 10.000000 133.656828 -17.301553 1310.260341 -134.648862 21.801501 0.000000 0.030814
617.000000 47.244000 -13.000000 -5.000000 10.000000 129.359143 -19.826808 1363.058743 2.578942 21.170744 0.000000 0.029249
618.000000 48.472000 -12.000000 -5.000000 10.000000 124.559207 -22.170756 1413.586849 140.455077 20.635901 0.000000 0.035867
619.000000 49.477000 -11.000000 -5.000000 10.000000 119.214380 -24.345199 1461.988008 280.381633 20.218559 0.000000 0.048655
620.000000 50.378000 -9.000000 -5.000000 10.000000 106.726565 -28.233937 1552.924983 573.872666 19.860828 0.000000 0.077961
621.000000 50.002000 -8.000000 -5.000000 10.000000 99.517134 -29.971814 1595.693033 732.704074 20.012785 0.000000 0.090326
622.000000 48.869000 -7.000000 -5.000000 10.000000 91.641227 -31.586865 1636.800585 904.797868 20.479850 0.000000 0.100364
623.000000 46.828000 -6.000000 -5.000000 10.000000 83.108641 -33.089355 1676.342504 1096.261516 21.375509 0.000000 0.110311
624.000000 47.901000 -13.000000 -4.000000 10.000000 128.423263 -11.901492 1201.840043 68.471725 20.881027 0.000000 0.054151
625.000000 50.371000 -11.000000 -4.000000 10.000000 118.536825 -16.982667 1303.700176 329.038165 19.860101 0.000000 0.089942
626.000000 51.506000 -9.000000 -4.000000 10.000000 106.174023 -21.438040 1397.619662 605.633839 19.426340 0.000000 0.117664
627.000000 50.115000 -7.000000 -4.000000 10.000000 91.021333 -25.331765 1484.492202 919.771100 19.971093 0.000000 0.125420
628.000000 46.664000 -14.000000 -3.000000 10.000000 130.573121 -1.177449 997.121342 19.185087 21.433686 0.000000 0.055448
629.000000 48.206000 -13.000000 -3.000000 10.000000 126.594334 -4.114797 1052.429134 139.773124 20.749538 0.000000 0.078137
630.000000 49.624000 -12.000000 -3.000000 10.000000 122.079971 -6.914874 1105.529433 261.422895 20.158092 0.000000 0.099845
631.000000 50.830000 -11.000000 -3.000000 10.000000 116.975736 -9.574652 1156.551815 385.435517 19.681288 0.000000 0.119429
632.000000 51.709000 -10.000000 -3.000000 10.000000 111.226549 -12.093811 1205.615907 513.470454 19.348586 0.000000 0.135568
633.000000 52.114000 -9.000000 -3.000000 10.000000 104.780083 -14.474235 1252.832329 647.722405 19.200486 0.000000 0.146670
634.000000 51.868000 -8.000000 -3.000000 10.000000 97.592276 -16.719522 1298.303522 791.206785 19.294232 0.000000 0.150814
635.000000 50.772000 -7.000000 -3.000000 10.000000 89.635143 -18.834533 1342.124492 948.241634 19.713465 0.000000 0.145829
636.000000 48.629000 -6.000000 -3.000000 10.000000 80.906732 -20.825007 1384.383471 1125.305268 20.585418 0.000000 0.130026
637.000000 48.121000 -13.000000 -2.000000 10.000000 123.899891 3.266394 913.574625 216.586347 20.787118 0.000000 0.093749
638.000000 50.793000 -11.000000 -2.000000 10.000000 114.519559 -2.362635 1019.406988 449.642953 19.696417 0.000000 0.138348
639.000000 52.110000 -9.000000 -2.000000 10.000000 102.501911 -7.543567 1117.529490 700.270208 19.203085 0.000000 0.164707
640.000000 50.716000 -7.000000 -2.000000 10.000000 87.422483 -12.253488 1208.755016 990.580564 19.736534 0.000000 0.156603
641.000000 46.090000 -14.000000 -1.000000 10.000000 124.190298 12.947936 727.547808 190.741533 21.702721 0.000000 0.073500
642.000000 47.623000 -13.000000 -1.000000 10.000000 120.424732 10.052878 784.195920 299.061591 21.005618 0.000000 0.101184
643.000000 49.031000 -12.000000 -1.000000 10.000000 116.122695 7.215611 838.734465 408.986852 20.403892 0.000000 0.126463
644.000000 50.223000 -11.000000 -1.000000 10.000000 111.221251 4.447866 891.279130 521.811177 19.921347 0.000000 0.147856
645.000000 51.076000 -10.000000 -1.000000 10.000000 105.655432 1.759517 941.937294 639.228195 19.590432 0.000000 0.163823
646.000000 51.434000 -9.000000 -1.000000 10.000000 99.361855 -0.841508 990.808760 763.537597 19.456547 0.000000 0.172442
647.000000 51.103000 -8.000000 -1.000000 10.000000 92.284596 -3.349218 1037.986416 897.987918 19.585228 0.000000 0.171187
648.000000 49.865000 -7.000000 -1.000000 10.000000 84.383841 -5.759469 1083.556819 1047.375034 20.074703 0.000000 0.156664
649.000000 47.497000 -6.000000 -1.000000 10.000000 75.647364 -8.069806 1127.600726 1219.151550 21.079172 0.000000 0.124477
650.000000 46.709000 -13.000000 0.000000 10.000000 116.292457 16.148567 663.355042 387.395356 21.418025 0.000000 0.101447
651.000000 48.024000 -12.000000 0.000000 10.000000 112.036543 13.414452 718.303626 493.131142 20.833167 0.000000 0.127641
652.000000 49.111000 -11.000000 0.000000 10.000000 107.187854 10.716694 771.307276 602.171655 20.373715 0.000000 0.149072
653.000000 50.075000 -9.000000 0.000000 10.000000 95.446051 5.472885 871.878708 837.917466 19.986309 0.000000 0.170755
654.000000 49.599000 -8.000000 0.000000 10.000000 88.429064 2.945030 919.629194 970.556283 20.180654 0.000000 0.166102
655.000000 48.203000 -7.000000 0.000000 10.000000 80.586306 0.489676 965.801265 1119.450179 20.768233 0.000000 0.146205
656.000000 45.667000 -6.000000 0.000000 10.000000 71.903259 -1.887639 1010.471911 1292.910393 21.925341 0.000000 0.105393
657.000000 46.563000 -12.000000 1.000000 10.000000 107.393732 18.950973 605.432024 584.516585 21.488340 0.000000 0.122430
658.000000 47.485000 -11.000000 1.000000 10.000000 102.561575 16.375143 658.736689 691.038121 21.073192 0.000000 0.143262
659.000000 48.039000 -10.000000 1.000000 10.000000 97.082097 13.819735 710.243641 803.295722 20.832264 0.000000 0.156798
660.000000 48.070000 -9.000000 1.000000 10.000000 90.890339 11.294516 760.042313 923.943424 20.821372 0.000000 0.160807
661.000000 47.390000 -8.000000 1.000000 10.000000 83.928631 8.808554 808.216305 1056.845067 21.123027 0.000000 0.152180
662.000000 45.790000 -7.000000 1.000000 10.000000 76.155315 6.370053 854.843848 1207.901272 21.864552 0.000000 0.126458
663.000000 45.509000 -9.000000 2.000000 10.000000 85.858960 16.573569 654.683297 1022.302442 21.994942 0.000000 0.144495
665.000000 46.064000 -11.000000 -5.000000 11.000000 113.115464 -23.173156 1435.703533 441.259018 21.718908 0.000000 0.084171
666.000000 46.315000 -10.000000 -5.000000 11.000000 107.196761 -25.001404 1476.916371 573.458346 21.603310 0.000000 0.096143
667.000000 46.117000 -9.000000 -5.000000 11.000000 100.721237 -26.714638 1516.664196 712.867196 21.698676 0.000000 0.105219
668.000000 46.075000 -12.000000 -4.000000 11.000000 117.571679 -14.504639 1253.441596 360.502191 21.711927 0.000000 0.103532
669.000000 46.751000 -11.000000 -4.000000 11.000000 112.259676 -16.671419 1297.318625 481.134064 21.399992 0.000000 0.117793
670.000000 47.076000 -10.000000 -4.000000 11.000000 106.387339 -18.716822 1339.657760 606.814768 21.254738 0.000000 0.128654
671.000000 46.934000 -9.000000 -4.000000 11.000000 99.924679 -20.645979 1380.538464 739.754199 21.321333 0.000000 0.134838
672.000000 46.200000 -8.000000 -4.000000 11.000000 92.852046 -22.464509 1420.034816 882.977396 21.662881 0.000000 0.135046
673.000000 46.334000 -12.000000 -3.000000 11.000000 115.901135 -7.817273 1122.764545 413.450654 21.591291 0.000000 0.127238
674.000000 47.057000 -11.000000 -3.000000 11.000000 110.672271 -10.142257 1167.536305 528.450768 21.261777 0.000000 0.141813
675.000000 47.421000 -10.000000 -3.000000 11.000000 104.861282 -12.356734 1210.786757 648.625806 21.100600 0.000000 0.151942
676.000000 47.306000 -9.000000 -3.000000 11.000000 98.433050 -14.462247 1252.592146 776.210474 21.154767 0.000000 0.156131
677.000000 46.573000 -8.000000 -3.000000 11.000000 91.362851 -16.461369 1293.023703 914.299772 21.490582 0.000000 0.152628
678.000000 46.207000 -12.000000 -2.000000 11.000000 113.496184 -1.335958 1000.100360 472.971932 21.651983 0.000000 0.142441
679.000000 46.934000 -11.000000 -2.000000 11.000000 108.347265 -3.751831 1045.578594 583.297837 21.318566 0.000000 0.157023
680.000000 47.296000 -10.000000 -2.000000 11.000000 102.602252 -6.075506 1089.557330 699.016146 21.157635 0.000000 0.166284
681.000000 47.165000 -9.000000 -2.000000 11.000000 96.221578 -8.304961 1132.109528 822.423407 21.218867 0.000000 0.168532
682.000000 46.397000 -8.000000 -2.000000 11.000000 89.176051 -10.439471 1173.303488 956.739384 21.573045 0.000000 0.161640
683.000000 45.670000 -12.000000 -1.000000 11.000000 110.406037 4.794031 884.733965 539.194959 21.907620 0.000000 0.149992
684.000000 46.354000 -11.000000 -1.000000 11.000000 105.323592 2.353836 930.758578 645.833753 21.586216 0.000000 0.164200
685.000000 46.666000 -10.000000 -1.000000 11.000000 99.639416 -0.016469 975.309374 758.196752 21.444559 0.000000 0.172263
686.000000 46.473000 -9.000000 -1.000000 11.000000 93.310720 -2.312096 1018.456030 878.688494 21.536102 0.000000 0.172289
687.000000 45.628000 -8.000000 -1.000000 11.000000 86.305037 -4.529505 1060.263900 1010.723575 21.937821 0.000000 0.161799
#UB matrix in q= (UB) B0 G* 
#[[ 0.925184049  0.310713621 -0.217274371]
# [-0.353142446  0.916131064 -0.193661751]
# [ 0.139013985  0.256038057  0.9577567  ]]
#B0 matrix in q= UB (B0) G*
#[[ 0.19670273 -0.          0.03056101]
# [ 0.          0.19187965 -0.        ]
# [ 0.          0.          0.18806537]]
#UBB0 matrix in q= (UB B0) G* i.e. recip. basis vectors are columns in LT frame: astar = UBB0[:,0], bstar = UBB0[:,1], cstar = UBB0[:,2]. (abcstar as columns on xyzlab1, xlab1 = ui, ui = unit vector along incident beam)
#[[ 0.18198623  0.05961962 -0.01258723]
# [-0.06946408  0.17578691 -0.04721346]
# [ 0.02734443  0.04912849  0.18436928]]
#Euler angles phi theta psi (deg)
#[151.49   16.932 131.65 ]
#deviatoric strain in direct crystal frame (10-3 unit)
#[[ 1.57  0.25 -0.16]
# [ 0.25  0.82 -0.2 ]
# [-0.16 -0.2  -2.4 ]]
#deviatoric strain in sample2 frame (10-3 unit)
#[[ 0.63  0.2  -1.75]
# [ 0.2   0.68  0.43]
# [-1.75  0.43 -1.31]]
#new lattice parameters
#[ 5.1505     5.2076816  5.3116679 90.0167448 99.2495067 89.9710528]
#CCDLabel
#sCMOS
#DetectorParameters
#[79.0, 975.0, 941.0, 0.0, 0.0]
#pixelsize
#0.0734
#Frame dimensions
#[2018, 2016]
#
