#Strain and Orientation Refinement from experimental file: /home/micha/LaueProjects/DepthEffects/testZrO2_63.cor
#File created at Wed Jun 28 14:22:20 2023 with indexingSpotsSet.py
#Number of indexed spots: 520
#Element
#ZrO2
#grainIndex
#G_0
#Mean Deviation(pixel): 0.112
##spot_index intensity h k l 2theta Chi Xexp Yexp Energy GrainIndex PixDev
2.000000 45.846000 1.000000 2.000000 -17.000000 133.766718 -29.627206 1587.096417 -244.984974 21.794989 0.000000 0.129368
5.000000 46.518000 2.000000 3.000000 -17.000000 139.256231 -18.803323 1341.470120 -378.813434 21.478649 0.000000 0.083470
7.000000 45.604000 2.000000 4.000000 -17.000000 136.925414 -10.188486 1168.432620 -228.619716 21.909654 0.000000 0.031352
13.000000 47.287000 0.000000 1.000000 -16.000000 127.113327 -37.608843 1804.122843 -87.014679 21.132372 0.000000 0.172822
16.000000 46.956000 0.000000 1.000000 -8.000000 126.851027 -29.602565 1586.483985 13.234394 10.640817 0.000000 0.075367
17.000000 48.745000 1.000000 2.000000 -16.000000 134.099235 -28.486988 1559.063657 -245.646548 20.498518 0.000000 0.120932
20.000000 46.276000 0.000000 3.000000 -16.000000 125.733878 -21.907308 1407.826995 106.368866 21.594978 0.000000 0.021809
21.000000 48.019000 1.000000 3.000000 -16.000000 132.717539 -19.683120 1360.011441 -114.456486 20.808945 0.000000 0.048206
22.000000 49.409000 2.000000 3.000000 -16.000000 139.700690 -16.702054 1297.945807 -384.054781 20.221602 0.000000 0.073491
24.000000 46.963000 1.000000 4.000000 -16.000000 130.468201 -11.681899 1197.535248 3.369102 21.277843 0.000000 0.030639
25.000000 48.307000 1.000000 2.000000 -8.000000 136.982850 -7.685520 1120.243721 -222.947586 10.341819 0.000000 0.024227
28.000000 45.624000 1.000000 5.000000 -16.000000 127.544817 -4.642600 1062.402052 111.068943 21.903037 0.000000 0.056398
29.000000 46.914000 2.000000 5.000000 -16.000000 133.533682 -0.056567 976.062607 -81.568784 21.298898 0.000000 0.027420
30.000000 47.850000 3.000000 5.000000 -16.000000 139.204577 5.784158 865.974673 -312.482259 20.880644 0.000000 0.013020
33.000000 46.187000 3.000000 6.000000 -16.000000 134.701368 12.190028 742.493012 -148.702719 21.633841 0.000000 0.025878
34.000000 46.739000 2.000000 3.000000 -8.000000 139.245748 19.406122 595.847695 -383.141827 10.688622 0.000000 0.072163
37.000000 48.001000 -1.000000 1.000000 -15.000000 119.451384 -37.020446 1786.648246 179.831090 20.820394 0.000000 0.109015
38.000000 50.428000 0.000000 1.000000 -15.000000 127.123724 -37.071269 1788.146865 -80.067465 19.816098 0.000000 0.165051
41.000000 47.626000 -1.000000 2.000000 -15.000000 119.189024 -29.581391 1585.957948 249.634141 20.984867 0.000000 0.022114
42.000000 50.011000 0.000000 2.000000 -15.000000 126.749685 -28.552538 1560.658604 26.021797 19.981860 0.000000 0.065199
43.000000 52.027000 1.000000 2.000000 -15.000000 134.455681 -27.177829 1527.613740 -246.100139 19.205323 0.000000 0.111783
45.000000 46.861000 -1.000000 3.000000 -15.000000 118.121715 -22.412480 1418.890785 318.788029 21.328060 0.000000 0.039512
46.000000 49.174000 0.000000 1.000000 -5.000000 125.416349 -20.427949 1375.867995 124.294025 6.774104 0.000000 0.022960
47.000000 51.132000 1.000000 3.000000 -15.000000 132.792725 -17.825015 1321.078703 -105.649123 19.542042 0.000000 0.040435
48.000000 52.661000 2.000000 3.000000 -15.000000 140.141224 -14.279362 1248.931134 -389.214642 18.972700 0.000000 0.062607
50.000000 45.749000 -1.000000 4.000000 -15.000000 116.347126 -15.705796 1277.650168 387.287063 21.847229 0.000000 0.082165
51.000000 47.967000 0.000000 4.000000 -15.000000 123.260745 -12.964782 1222.785383 216.595494 20.834833 0.000000 0.059453
52.000000 49.846000 1.000000 4.000000 -15.000000 130.176137 -9.461257 1154.361811 19.696426 20.047102 0.000000 0.035302
53.000000 51.320000 2.000000 4.000000 -15.000000 136.958151 -4.866899 1066.644631 -215.665839 19.469609 0.000000 0.017753
56.000000 46.449000 0.000000 2.000000 -6.000000 120.459355 -6.303709 1093.894514 304.191976 8.606741 0.000000 0.090329
57.000000 48.235000 1.000000 5.000000 -15.000000 126.849622 -2.232611 1016.960574 133.761470 20.718045 0.000000 0.062683
58.000000 49.641000 2.000000 5.000000 -15.000000 133.019573 2.899703 920.482872 -64.635877 20.128944 0.000000 0.030153
59.000000 50.625000 3.000000 5.000000 -15.000000 138.776422 9.446104 795.930732 -304.306514 19.736430 0.000000 0.024462
61.000000 46.370000 1.000000 6.000000 -15.000000 123.048272 3.892480 901.767543 239.137347 21.552459 0.000000 0.083438
62.000000 47.703000 2.000000 6.000000 -15.000000 128.625553 9.200153 800.675423 69.812277 20.948396 0.000000 0.048201
63.000000 48.646000 1.000000 2.000000 -5.000000 133.748041 15.665587 673.164731 -129.003353 6.846875 0.000000 0.031416
64.000000 49.178000 4.000000 6.000000 -15.000000 138.203070 23.486167 507.322886 -371.643713 20.317174 0.000000 0.092793
66.000000 45.580000 2.000000 7.000000 -15.000000 124.005947 14.298609 700.683865 191.654368 21.925695 0.000000 0.059989
67.000000 46.480000 3.000000 7.000000 -15.000000 128.582772 20.475632 573.111724 24.427180 21.499550 0.000000 0.029801
68.000000 47.005000 4.000000 7.000000 -15.000000 132.530139 27.646479 411.214752 -173.533116 21.257631 0.000000 0.085585
73.000000 48.039000 -2.000000 0.000000 -14.000000 110.431418 -43.496360 1996.235195 388.295003 20.806822 0.000000 0.170329
74.000000 51.189000 -1.000000 0.000000 -14.000000 118.327703 -44.418181 2029.654462 128.685421 19.524171 0.000000 0.229178
75.000000 48.082000 -2.000000 1.000000 -14.000000 110.980065 -36.509475 1771.691352 427.511079 20.788319 0.000000 0.064156
76.000000 51.218000 -1.000000 1.000000 -14.000000 118.920954 -36.486848 1771.033589 201.366995 19.513202 0.000000 0.098421
77.000000 54.014000 0.000000 1.000000 -14.000000 127.130679 -36.457078 1770.168798 -72.177923 18.500615 0.000000 0.156415
79.000000 47.668000 -1.000000 1.000000 -7.000000 110.733386 -29.562999 1585.501228 472.607103 10.484722 0.000000 0.030211
80.000000 50.741000 -1.000000 2.000000 -14.000000 118.553286 -28.608324 1562.017542 273.876343 19.696830 0.000000 0.009612
81.000000 53.481000 0.000000 1.000000 -7.000000 126.615404 -27.360239 1531.950702 40.488100 9.342602 0.000000 0.054388
82.000000 55.771000 1.000000 2.000000 -14.000000 134.835914 -25.660906 1492.081290 -246.241636 17.916081 0.000000 0.101845
84.000000 46.827000 -2.000000 3.000000 -14.000000 109.734971 -22.853314 1428.611378 521.998866 21.346810 0.000000 0.075145
85.000000 49.795000 -1.000000 3.000000 -14.000000 117.286043 -21.066452 1389.583544 346.051173 20.071835 0.000000 0.051664
86.000000 52.441000 0.000000 3.000000 -14.000000 125.017990 -18.766266 1340.693468 144.525389 19.056558 0.000000 0.029159
87.000000 54.654000 1.000000 3.000000 -14.000000 132.824354 -15.706393 1277.662271 -95.199650 18.282680 0.000000 0.033452
88.000000 56.341000 2.000000 3.000000 -14.000000 140.560677 -11.466399 1193.317297 -394.117119 17.733579 0.000000 0.050656
90.000000 45.610000 -1.000000 2.000000 -7.000000 108.075163 -16.539000 1294.609945 574.568475 10.958555 0.000000 0.110547
91.000000 48.438000 -1.000000 4.000000 -14.000000 115.245092 -14.077668 1244.900504 417.785610 20.635070 0.000000 0.093129
92.000000 50.959000 0.000000 2.000000 -7.000000 122.518142 -10.976722 1183.756658 242.058322 9.805839 0.000000 0.069403
93.000000 53.072000 1.000000 4.000000 -14.000000 129.766638 -6.977347 1106.720385 38.644017 18.828800 0.000000 0.041311
94.000000 54.690000 1.000000 2.000000 -7.000000 136.816152 -1.685447 1006.670054 -206.281023 9.134982 0.000000 0.013187
97.000000 46.745000 -1.000000 5.000000 -14.000000 112.592201 -7.765204 1121.768128 489.009081 21.383456 0.000000 0.120600
98.000000 49.119000 0.000000 5.000000 -14.000000 119.337377 -4.127176 1052.662877 334.515498 20.347627 0.000000 0.098818
99.000000 51.113000 1.000000 5.000000 -14.000000 125.970629 0.412597 967.249278 159.848825 19.551641 0.000000 0.068769
100.000000 52.649000 2.000000 5.000000 -14.000000 132.309277 6.152380 858.982030 -44.346266 18.979153 0.000000 0.032619
101.000000 53.674000 3.000000 5.000000 -14.000000 138.114171 13.466388 717.272294 -293.075427 18.615270 0.000000 0.037517
103.000000 47.011000 0.000000 3.000000 -7.000000 115.694367 1.782013 941.514307 422.894286 10.630767 0.000000 0.117690
104.000000 48.875000 1.000000 6.000000 -14.000000 121.717225 6.556803 851.290752 271.440527 20.448460 0.000000 0.087703
105.000000 50.322000 1.000000 3.000000 -7.000000 127.391699 12.357004 739.207934 98.847928 9.929263 0.000000 0.048428
106.000000 51.303000 3.000000 6.000000 -14.000000 132.507256 19.388166 596.226814 -104.798718 19.476938 0.000000 0.038141
109.000000 46.452000 1.000000 7.000000 -14.000000 117.230767 11.636123 753.361261 375.507224 21.516572 0.000000 0.099252
110.000000 47.805000 2.000000 7.000000 -14.000000 122.315538 17.283230 640.117223 227.992548 20.905517 0.000000 0.057961
111.000000 48.740000 3.000000 7.000000 -14.000000 126.857124 23.871796 498.685733 58.674074 20.502710 0.000000 0.029816
112.000000 49.237000 4.000000 7.000000 -14.000000 130.668895 31.438012 317.046671 -142.846275 20.294708 0.000000 0.105451
114.000000 46.076000 3.000000 8.000000 -14.000000 121.317510 27.345139 418.408843 203.771020 21.690175 0.000000 0.017937
115.000000 46.572000 2.000000 4.000000 -7.000000 124.736099 34.160724 244.629218 39.131569 10.728836 0.000000 0.088976
120.000000 46.713000 -3.000000 -1.000000 -13.000000 99.906420 -49.063874 2215.926228 654.121583 21.401090 0.000000 0.269423
123.000000 47.314000 -3.000000 1.000000 -13.000000 101.674291 -36.061659 1758.744609 665.900259 21.129685 0.000000 0.066586
124.000000 51.221000 -2.000000 1.000000 -13.000000 109.795766 -35.983822 1756.509350 462.245536 19.514764 0.000000 0.056144
125.000000 54.889000 -1.000000 1.000000 -13.000000 118.305539 -35.883380 1753.631424 225.558620 18.208312 0.000000 0.086747
126.000000 58.145000 0.000000 1.000000 -13.000000 127.132181 -35.748812 1749.787135 -63.139522 17.186106 0.000000 0.146766
128.000000 46.873000 -3.000000 2.000000 -13.000000 101.461099 -29.546876 1585.100971 690.166018 21.328790 0.000000 0.070959
129.000000 50.694000 -2.000000 2.000000 -13.000000 109.454172 -28.656376 1563.189247 507.766688 19.718234 0.000000 0.041479
130.000000 54.277000 -1.000000 2.000000 -13.000000 117.806016 -27.513801 1535.612884 301.006441 18.414071 0.000000 0.004040
131.000000 57.457000 0.000000 2.000000 -13.000000 126.436411 -25.995930 1499.849153 56.991790 17.392380 0.000000 0.043093
132.000000 60.077000 1.000000 2.000000 -13.000000 135.237868 -23.885235 1451.616195 -245.917862 16.631670 0.000000 0.091050
134.000000 45.976000 -3.000000 3.000000 -13.000000 100.554944 -23.241320 1437.219381 722.741421 21.745497 0.000000 0.103354
135.000000 49.651000 -2.000000 3.000000 -13.000000 108.277253 -21.619751 1401.564291 558.623294 20.133316 0.000000 0.087314
136.000000 53.092000 -1.000000 3.000000 -13.000000 116.296432 -19.566204 1357.535959 376.551658 18.825794 0.000000 0.064560
137.000000 56.146000 0.000000 3.000000 -13.000000 124.513437 -16.889726 1301.792414 167.549481 17.799284 0.000000 0.038633
138.000000 58.666000 1.000000 3.000000 -13.000000 132.789826 -13.275550 1228.940270 -82.659810 17.032526 0.000000 0.028348
139.000000 60.530000 2.000000 3.000000 -13.000000 140.931424 -8.178043 1129.675372 -398.486387 16.506349 0.000000 0.037415
141.000000 48.163000 -2.000000 4.000000 -13.000000 106.380508 -15.051551 1264.430340 613.387662 20.756160 0.000000 0.120861
142.000000 51.417000 -1.000000 4.000000 -13.000000 113.940562 -12.283507 1209.345582 451.944137 19.439833 0.000000 0.104363
143.000000 54.306000 0.000000 4.000000 -13.000000 121.601438 -8.766866 1140.981875 270.994228 18.403355 0.000000 0.079749
144.000000 56.695000 1.000000 4.000000 -13.000000 129.199523 -4.191604 1053.879540 60.856532 17.625671 0.000000 0.048020
145.000000 58.473000 2.000000 4.000000 -13.000000 136.507670 1.909843 939.110538 -194.112174 17.087787 0.000000 0.012851
148.000000 46.321000 -2.000000 5.000000 -13.000000 103.911906 -9.059426 1146.612773 671.039117 21.583006 0.000000 0.142324
149.000000 49.357000 -1.000000 5.000000 -13.000000 110.940709 -5.788117 1084.100465 527.016084 20.252624 0.000000 0.129540
150.000000 52.053000 0.000000 5.000000 -13.000000 117.979774 -1.746283 1007.813878 368.945764 19.201208 0.000000 0.107166
151.000000 54.290000 1.000000 5.000000 -13.000000 124.856533 3.316160 912.636692 190.122661 18.407888 0.000000 0.074377
152.000000 55.969000 2.000000 5.000000 -13.000000 131.342998 9.724050 790.560649 -19.783585 17.853823 0.000000 0.034214
153.000000 57.024000 3.000000 5.000000 -13.000000 137.144498 17.854695 628.306021 -277.733685 17.521965 0.000000 0.052881
155.000000 47.020000 -1.000000 6.000000 -13.000000 107.499655 -0.098717 976.854394 601.652334 21.260686 0.000000 0.144194
156.000000 49.508000 0.000000 6.000000 -13.000000 113.910849 4.212538 895.725099 462.515527 20.189537 0.000000 0.123610
157.000000 51.581000 1.000000 6.000000 -13.000000 120.094131 9.428241 796.275554 308.699906 19.376030 0.000000 0.091068
158.000000 53.152000 2.000000 6.000000 -13.000000 125.842186 15.747198 671.510442 133.229963 18.801461 0.000000 0.046782
159.000000 54.163000 3.000000 6.000000 -13.000000 130.908534 23.350312 510.353630 -74.790570 18.448892 0.000000 0.046934
162.000000 46.788000 0.000000 7.000000 -13.000000 109.610602 9.231159 800.077647 552.492941 21.365109 0.000000 0.132157
163.000000 48.693000 1.000000 7.000000 -13.000000 115.162743 14.395059 698.753528 419.000561 20.527020 0.000000 0.100398
164.000000 50.152000 2.000000 7.000000 -13.000000 120.274509 20.435693 573.966352 270.509028 19.927766 0.000000 0.053830
165.000000 51.116000 3.000000 7.000000 -13.000000 124.748457 27.425292 416.499146 99.856736 19.550506 0.000000 0.032489
166.000000 51.562000 4.000000 7.000000 -13.000000 128.384937 35.348238 211.579957 -104.299920 19.379947 0.000000 0.130761
168.000000 45.732000 1.000000 8.000000 -13.000000 110.236282 18.453974 615.838100 522.718024 21.857848 0.000000 0.104668
169.000000 47.080000 2.000000 8.000000 -13.000000 114.808902 24.142867 492.583601 395.788798 21.229868 0.000000 0.058129
170.000000 47.994000 3.000000 8.000000 -13.000000 118.804229 30.538402 340.042150 253.888716 20.824065 0.000000 0.014996
171.000000 48.454000 4.000000 8.000000 -13.000000 122.074120 37.592444 146.367912 89.780511 20.625210 0.000000 0.111745
175.000000 49.465000 -3.000000 -1.000000 -12.000000 97.860109 -49.246370 2223.940970 713.391683 20.211216 0.000000 0.272997
178.000000 50.117000 -1.000000 0.000000 -4.000000 99.196374 -42.461637 1959.917059 704.799959 6.649373 0.000000 0.137441
179.000000 54.759000 -1.000000 0.000000 -6.000000 107.867044 -43.235797 1986.973765 464.774040 9.127143 0.000000 0.157417
180.000000 59.131000 -1.000000 0.000000 -12.000000 116.992196 -44.247721 2023.396018 175.689431 16.902043 0.000000 0.217303
181.000000 45.482000 -4.000000 1.000000 -12.000000 91.547451 -35.666016 1747.428297 905.211357 21.984937 0.000000 0.098900
182.000000 50.159000 -3.000000 1.000000 -12.000000 99.721956 -35.546359 1744.027929 714.367027 19.931736 0.000000 0.070424
183.000000 54.774000 -2.000000 1.000000 -12.000000 108.419780 -35.394525 1739.727761 501.285101 18.249687 0.000000 0.049758
184.000000 59.117000 -1.000000 1.000000 -12.000000 117.583341 -35.195524 1734.116173 252.941303 16.906311 0.000000 0.073855
185.000000 62.956000 0.000000 1.000000 -12.000000 127.125124 -34.923341 1726.485317 -52.680322 15.872813 0.000000 0.135924
187.000000 49.600000 -3.000000 2.000000 -12.000000 99.429075 -28.698198 1564.209921 737.228396 20.156978 0.000000 0.081670
188.000000 54.094000 -1.000000 1.000000 -6.000000 107.961140 -27.644856 1538.746401 547.134177 9.239672 0.000000 0.054361
189.000000 58.319000 -1.000000 2.000000 -12.000000 116.917094 -26.274542 1506.342853 331.599647 17.137930 0.000000 0.018655
190.000000 62.053000 0.000000 1.000000 -6.000000 126.195730 -24.421438 1463.714394 76.002695 8.052166 0.000000 0.031934
191.000000 65.080000 1.000000 2.000000 -12.000000 135.655887 -21.782913 1405.114714 -244.899597 15.353252 0.000000 0.079329
193.000000 48.491000 -1.000000 1.000000 -4.000000 98.372554 -22.103748 1412.119798 770.027680 6.872963 0.000000 0.113154
194.000000 52.785000 -2.000000 3.000000 -12.000000 106.570848 -20.254179 1372.155118 599.630741 18.938593 0.000000 0.099772
195.000000 56.815000 -1.000000 3.000000 -12.000000 115.111393 -17.886080 1322.344832 410.947996 17.592507 0.000000 0.078157
196.000000 60.375000 0.000000 1.000000 -4.000000 123.867408 -14.758705 1258.539504 194.003134 5.517523 0.000000 0.050043
197.000000 63.268000 1.000000 3.000000 -12.000000 132.655469 -10.468990 1173.876888 -67.414759 15.793777 0.000000 0.026668
198.000000 65.329000 2.000000 3.000000 -12.000000 141.209364 -4.310842 1056.131799 -401.887318 15.293772 0.000000 0.022583
199.000000 46.915000 -3.000000 4.000000 -12.000000 96.657141 -15.910473 1281.803193 810.376592 21.312648 0.000000 0.136871
200.000000 50.947000 -1.000000 2.000000 -6.000000 104.397892 -13.420820 1231.822803 656.939576 9.811450 0.000000 0.130915
201.000000 54.724000 -1.000000 4.000000 -12.000000 112.381562 -10.300671 1170.608837 490.528385 18.265762 0.000000 0.115730
202.000000 60.780000 1.000000 4.000000 -12.000000 128.419402 -1.061316 994.938978 87.199617 16.441313 0.000000 0.054863
203.000000 62.735000 1.000000 2.000000 -6.000000 135.963875 5.970874 862.430058 -178.201765 7.963556 0.000000 0.016970
205.000000 48.704000 -2.000000 5.000000 -12.000000 101.626241 -7.253797 1111.994416 717.768140 20.527842 0.000000 0.149451
206.000000 52.191000 -1.000000 5.000000 -12.000000 108.981903 -3.632817 1043.333614 570.036960 19.153521 0.000000 0.138069
207.000000 55.273000 0.000000 5.000000 -12.000000 116.325141 0.859689 958.849637 408.414519 18.083124 0.000000 0.115155
208.000000 57.794000 1.000000 5.000000 -12.000000 123.440082 6.500599 852.360360 225.634581 17.292126 0.000000 0.079146
209.000000 59.627000 2.000000 5.000000 -12.000000 130.042558 13.631983 713.980961 10.300518 16.758571 0.000000 0.034292
210.000000 60.694000 3.000000 5.000000 -12.000000 135.773762 22.605367 526.863649 -256.784839 16.462746 0.000000 0.071666
212.000000 46.185000 -1.000000 3.000000 -6.000000 98.442079 -1.781825 1008.482158 781.181637 10.824559 0.000000 0.158515
213.000000 49.365000 -1.000000 6.000000 -12.000000 105.155879 2.125973 935.045515 649.266313 20.251720 0.000000 0.149662
214.000000 52.177000 0.000000 2.000000 -4.000000 111.778245 6.830377 846.080904 507.913169 6.385882 0.000000 0.128711
215.000000 54.489000 1.000000 6.000000 -12.000000 118.108270 12.515741 736.081063 352.118854 18.342566 0.000000 0.093189
216.000000 56.192000 1.000000 3.000000 -6.000000 123.898893 19.371187 596.585227 174.392471 8.892342 0.000000 0.042516
217.000000 57.218000 1.000000 2.000000 -4.000000 128.865834 27.534502 413.892660 -37.198861 5.821472 0.000000 0.059224
219.000000 46.381000 -1.000000 7.000000 -12.000000 101.107960 7.055427 841.790669 728.071836 21.556394 0.000000 0.153641
220.000000 48.924000 0.000000 7.000000 -12.000000 107.062151 11.782347 750.496478 603.556953 20.433295 0.000000 0.134438
221.000000 51.027000 1.000000 7.000000 -12.000000 112.697571 17.316144 639.438959 469.458256 19.589074 0.000000 0.100119
222.000000 52.597000 2.000000 7.000000 -12.000000 117.809846 23.749891 501.421632 320.772314 19.002070 0.000000 0.047082
223.000000 53.578000 3.000000 7.000000 -12.000000 122.180182 31.118201 325.271372 149.904871 18.652810 0.000000 0.041011
224.000000 53.948000 4.000000 7.000000 -12.000000 125.601097 39.344983 92.651355 -55.430409 18.523737 0.000000 0.163627
226.000000 45.638000 0.000000 2.000000 -3.000000 102.350001 15.898179 668.446494 695.973544 5.476602 0.000000 0.134861
227.000000 47.539000 1.000000 8.000000 -12.000000 107.385191 21.185471 557.846907 579.589531 21.028173 0.000000 0.102514
228.000000 48.980000 1.000000 4.000000 -6.000000 111.935471 27.163723 422.721042 453.825679 10.203712 0.000000 0.051011
229.000000 49.912000 3.000000 8.000000 -12.000000 115.833474 33.821705 253.893182 313.781098 20.024780 0.000000 0.026543
230.000000 50.316000 2.000000 4.000000 -6.000000 118.929175 41.073697 36.958436 151.917682 9.931376 0.000000 0.142171
232.000000 46.325000 1.000000 3.000000 -4.000000 109.879445 35.925181 195.171771 460.407044 7.192418 0.000000 0.029438
233.000000 46.754000 4.000000 9.000000 -12.000000 112.718883 42.394224 -7.592765 330.808718 21.378234 0.000000 0.128644
237.000000 47.010000 -4.000000 -1.000000 -11.000000 86.974195 -48.060047 2172.868136 1026.123303 21.271066 0.000000 0.261192
238.000000 52.488000 -3.000000 -1.000000 -11.000000 95.481173 -49.449295 2232.922781 782.139615 19.048012 0.000000 0.278512
241.000000 47.762000 -4.000000 1.000000 -11.000000 88.725670 -35.162466 1733.186665 970.286142 20.936439 0.000000 0.106975
242.000000 53.299000 -3.000000 1.000000 -11.000000 97.447446 -34.973046 1727.875053 769.302569 18.758443 0.000000 0.076788
243.000000 58.817000 -2.000000 1.000000 -11.000000 106.802592 -34.729431 1721.079726 545.544699 16.995536 0.000000 0.046704
244.000000 64.035000 -1.000000 1.000000 -11.000000 116.724559 -34.404494 1712.078082 284.209275 15.608009 0.000000 0.059633
245.000000 68.628000 0.000000 1.000000 -11.000000 127.104595 -33.949394 1699.587347 -40.434704 14.561063 0.000000 0.123663
247.000000 47.203000 -4.000000 2.000000 -11.000000 88.506048 -28.734929 1565.106996 973.012281 21.184826 0.000000 0.108622
248.000000 52.582000 -3.000000 2.000000 -11.000000 97.059030 -27.758013 1541.458022 790.390145 19.014798 0.000000 0.092642
249.000000 57.930000 -2.000000 2.000000 -11.000000 106.198636 -26.509873 1511.852127 591.598431 17.256301 0.000000 0.068368
250.000000 62.979000 -1.000000 2.000000 -11.000000 115.845126 -24.861232 1473.714271 366.404308 15.870246 0.000000 0.034543
251.000000 67.420000 0.000000 2.000000 -11.000000 125.868326 -22.587173 1422.735383 98.149475 14.822344 0.000000 0.023196
252.000000 70.952000 1.000000 2.000000 -11.000000 136.077682 -19.262263 1351.117262 -242.836684 14.082390 0.000000 0.066643
254.000000 46.081000 -4.000000 3.000000 -11.000000 87.603817 -22.530638 1421.490107 989.759885 21.701739 0.000000 0.124224
255.000000 51.196000 -3.000000 3.000000 -11.000000 95.827479 -20.851997 1384.963931 823.453543 19.530551 0.000000 0.122240
256.000000 56.265000 -2.000000 3.000000 -11.000000 104.552055 -18.736043 1340.060302 645.973985 17.767980 0.000000 0.112301
257.000000 61.039000 -1.000000 3.000000 -11.000000 113.674550 -15.995148 1283.523783 450.104938 16.375489 0.000000 0.092375
258.000000 65.237000 0.000000 3.000000 -11.000000 123.029976 -12.324955 1210.161210 224.737571 15.319237 0.000000 0.062716
259.000000 68.585000 1.000000 3.000000 -11.000000 132.370565 -7.209448 1111.147908 -48.602026 14.569390 0.000000 0.029173
260.000000 70.862000 2.000000 3.000000 -11.000000 141.324471 0.256542 970.180848 -403.624858 14.099538 0.000000 0.006131
262.000000 49.258000 -3.000000 4.000000 -11.000000 93.886299 -14.418875 1251.723379 865.506220 20.299906 0.000000 0.142762
263.000000 53.969000 -2.000000 4.000000 -11.000000 102.056857 -11.628122 1196.482064 706.293017 18.525148 0.000000 0.140347
264.000000 58.393000 -1.000000 4.000000 -11.000000 110.499042 -8.103328 1128.243149 534.552391 17.118646 0.000000 0.127009
265.000000 62.283000 0.000000 4.000000 -11.000000 119.022191 -3.551908 1041.807758 342.706007 16.046956 0.000000 0.100925
266.000000 65.398000 1.000000 4.000000 -11.000000 127.349348 2.459095 928.777817 118.860456 15.280562 0.000000 0.061261
267.000000 67.544000 2.000000 4.000000 -11.000000 135.088595 10.544914 774.647825 -157.174153 14.793322 0.000000 0.023401
269.000000 46.910000 -3.000000 5.000000 -11.000000 91.400181 -8.555118 1136.911919 914.396518 21.317237 0.000000 0.153368
270.000000 51.215000 -2.000000 5.000000 -11.000000 98.942811 -5.292067 1074.694506 770.907770 19.522534 0.000000 0.155300
271.000000 55.248000 -1.000000 5.000000 -11.000000 106.639620 -1.281066 999.068675 619.251761 18.094769 0.000000 0.145838
272.000000 58.794000 0.000000 5.000000 -11.000000 114.293170 3.711804 905.176510 454.167717 17.000841 0.000000 0.122482
273.000000 61.648000 1.000000 5.000000 -11.000000 121.632825 9.986020 785.491040 267.810293 16.211516 0.000000 0.082606
274.000000 63.646000 2.000000 5.000000 -11.000000 128.306028 17.884337 627.691309 47.641602 15.700873 0.000000 0.032169
275.000000 64.691000 3.000000 5.000000 -11.000000 133.883805 27.692068 410.122930 -228.062093 15.445853 0.000000 0.095631
277.000000 48.177000 -2.000000 6.000000 -11.000000 95.432502 0.261549 970.086802 838.643143 20.755016 0.000000 0.160673
278.000000 51.804000 -1.000000 6.000000 -11.000000 102.387539 4.519389 889.927320 703.869427 19.299042 0.000000 0.153790
279.000000 54.997000 0.000000 6.000000 -11.000000 109.214229 9.645793 792.073504 560.515817 18.176361 0.000000 0.132628
280.000000 57.582000 1.000000 6.000000 -11.000000 115.670569 15.824624 669.939757 403.317593 17.357973 0.000000 0.093638
281.000000 59.424000 2.000000 6.000000 -11.000000 121.464655 23.222041 513.209512 224.294114 16.818149 0.000000 0.034607
282.000000 60.440000 3.000000 6.000000 -11.000000 126.275063 31.911843 304.757118 10.465519 16.533980 0.000000 0.077090
284.000000 48.240000 -1.000000 7.000000 -11.000000 97.974024 9.416915 796.494174 788.174777 20.726786 0.000000 0.154297
285.000000 51.087000 0.000000 7.000000 -11.000000 104.054719 14.487439 696.903098 662.708683 19.569101 0.000000 0.135188
286.000000 53.410000 1.000000 7.000000 -11.000000 109.752188 20.397575 574.781599 528.670028 18.715767 0.000000 0.098136
287.000000 55.096000 2.000000 7.000000 -11.000000 114.834098 27.214774 421.508989 380.900910 18.141208 0.000000 0.037459
288.000000 56.076000 3.000000 7.000000 -11.000000 119.062610 34.926598 223.423668 211.462035 17.822639 0.000000 0.058066
289.000000 56.334000 4.000000 7.000000 -11.000000 122.229831 43.391325 -42.492277 7.215168 17.739692 0.000000 0.207008
291.000000 47.218000 0.000000 8.000000 -11.000000 98.992864 18.459932 615.713707 761.429401 21.174766 0.000000 0.132964
292.000000 49.293000 1.000000 8.000000 -11.000000 104.049559 24.033189 495.055693 646.095282 20.280835 0.000000 0.098993
293.000000 50.829000 2.000000 8.000000 -11.000000 108.554094 30.286479 346.405066 522.647720 19.666205 0.000000 0.043785
294.000000 51.767000 3.000000 8.000000 -11.000000 112.329552 37.176554 158.742134 386.178561 19.308184 0.000000 0.049672
295.000000 52.092000 4.000000 8.000000 -11.000000 115.228751 44.579487 -85.610518 229.022503 19.186476 0.000000 0.182788
297.000000 46.739000 2.000000 9.000000 -11.000000 102.688375 32.710002 283.765990 653.004752 21.389392 0.000000 0.053990
298.000000 47.631000 3.000000 9.000000 -11.000000 106.101756 38.915037 106.073521 541.692997 20.987060 0.000000 0.057639
299.000000 48.005000 4.000000 9.000000 -11.000000 108.788312 45.484136 -119.638606 418.746447 20.821977 0.000000 0.169772
304.000000 49.245000 -4.000000 -1.000000 -10.000000 83.591723 -48.188313 2178.275575 1122.319930 20.306829 0.000000 0.275154
305.000000 55.793000 -3.000000 -1.000000 -10.000000 92.684109 -49.676277 2243.057928 863.025742 17.920472 0.000000 0.286790
308.000000 50.072000 -4.000000 0.000000 -10.000000 84.915166 -41.447036 1925.452500 1068.766333 19.971602 0.000000 0.162355
309.000000 56.750000 -3.000000 0.000000 -10.000000 94.239501 -42.078800 1946.783379 833.506587 17.618276 0.000000 0.140349
310.000000 63.507000 -2.000000 0.000000 -10.000000 104.340002 -42.902630 1975.246419 565.382276 15.740892 0.000000 0.144945
311.000000 69.947000 -1.000000 0.000000 -10.000000 115.134933 -44.021242 2015.136720 238.752728 14.288848 0.000000 0.202057
312.000000 50.125000 -4.000000 1.000000 -10.000000 85.435319 -34.605950 1717.650663 1045.399484 19.950725 0.000000 0.115894
313.000000 56.752000 -3.000000 1.000000 -10.000000 94.767081 -34.331478 1710.064958 832.308448 17.617982 0.000000 0.085361
314.000000 63.448000 -2.000000 1.000000 -10.000000 104.876469 -33.973131 1700.235533 596.243465 15.755800 0.000000 0.048808
315.000000 69.823000 -1.000000 1.000000 -10.000000 115.687415 -33.485579 1686.994132 320.281811 14.314543 0.000000 0.044115
316.000000 75.411000 0.000000 1.000000 -10.000000 127.062628 -32.783703 1668.191128 -25.898971 13.251318 0.000000 0.109708
318.000000 49.420000 -2.000000 1.000000 -5.000000 85.148812 -27.856704 1543.827579 1044.320229 10.117990 0.000000 0.115110
319.000000 55.823000 -3.000000 2.000000 -10.000000 94.264276 -26.711276 1516.585058 851.160447 17.911992 0.000000 0.103366
320.000000 62.271000 -1.000000 1.000000 -5.000000 104.090846 -25.228433 1482.118165 642.349802 8.027064 0.000000 0.083162
321.000000 68.396000 -1.000000 2.000000 -10.000000 114.531913 -23.236579 1437.113900 406.416834 14.613603 0.000000 0.051736
322.000000 77.931000 1.000000 2.000000 -10.000000 136.478646 -16.198038 1287.652436 -239.180636 12.821243 0.000000 0.053019
323.000000 48.037000 -4.000000 3.000000 -10.000000 84.119993 -21.376182 1396.279062 1060.033240 20.819429 0.000000 0.126647
324.000000 54.072000 -3.000000 3.000000 -10.000000 92.829643 -19.469366 1355.488296 884.575904 18.492961 0.000000 0.129953
325.000000 60.122000 -2.000000 3.000000 -10.000000 102.135236 -17.040797 1304.894361 698.942898 16.629055 0.000000 0.124531
326.000000 65.850000 -1.000000 3.000000 -10.000000 111.907899 -13.856086 1240.480638 495.187083 15.179675 0.000000 0.107057
327.000000 70.864000 0.000000 3.000000 -10.000000 121.929196 -9.529993 1155.689133 260.918896 14.103210 0.000000 0.076266
328.000000 74.775000 1.000000 3.000000 -10.000000 131.857839 -3.404730 1039.032835 -24.980024 13.363440 0.000000 0.034706
329.000000 77.279000 2.000000 3.000000 -10.000000 141.166218 5.656676 868.393431 -402.567708 12.928689 0.000000 0.015222
331.000000 46.104000 -2.000000 2.000000 -5.000000 82.464800 -15.301266 1269.466348 1088.601826 10.846704 0.000000 0.134624
332.000000 51.670000 -3.000000 4.000000 -10.000000 90.634534 -12.787060 1219.272451 928.776715 19.353785 0.000000 0.146393
333.000000 57.218000 -1.000000 2.000000 -5.000000 99.264722 -9.652154 1158.049441 762.909375 8.736989 0.000000 0.148589
334.000000 62.453000 -1.000000 4.000000 -10.000000 108.200128 -5.662313 1081.713507 585.394679 16.006604 0.000000 0.137841
335.000000 67.032000 0.000000 2.000000 -5.000000 117.194097 -0.472751 983.880770 387.981221 7.455285 0.000000 0.111222
336.000000 70.624000 1.000000 4.000000 -10.000000 125.881806 6.415331 853.982624 157.507418 14.150068 0.000000 0.066512
338.000000 48.813000 -3.000000 5.000000 -10.000000 87.882147 -6.760434 1102.586568 981.080417 20.487593 0.000000 0.152640
339.000000 53.809000 -2.000000 5.000000 -10.000000 95.767203 -3.158325 1034.388917 832.131069 18.582502 0.000000 0.159148
340.000000 58.504000 -1.000000 5.000000 -10.000000 103.814828 1.286179 950.835224 676.274713 17.088422 0.000000 0.152328
341.000000 65.858000 1.000000 5.000000 -10.000000 119.318214 13.787565 710.884443 318.628861 15.175892 0.000000 0.084125
342.000000 68.023000 2.000000 5.000000 -10.000000 126.001195 22.475659 529.719918 94.709648 14.690910 0.000000 0.027542
343.000000 68.996000 3.000000 5.000000 -10.000000 131.327641 33.063808 274.340959 -188.351159 14.482416 0.000000 0.127547
345.000000 45.694000 -3.000000 6.000000 -10.000000 84.770808 -1.411033 1001.511440 1039.533269 21.887738 0.000000 0.151006
346.000000 50.129000 -1.000000 3.000000 -5.000000 91.907559 2.456648 928.823866 905.120514 9.974217 0.000000 0.160161
347.000000 54.282000 -1.000000 6.000000 -10.000000 99.097753 7.092124 841.090702 767.320038 18.419344 0.000000 0.155968
348.000000 57.919000 0.000000 3.000000 -5.000000 106.114984 12.666831 733.101237 622.281591 8.630098 0.000000 0.134878
349.000000 60.816000 1.000000 6.000000 -10.000000 112.669127 19.355107 596.924585 464.528716 16.435825 0.000000 0.091941
350.000000 62.797000 1.000000 3.000000 -5.000000 118.419433 27.283809 419.868215 285.670494 7.957691 0.000000 0.021638
351.000000 63.768000 3.000000 6.000000 -10.000000 123.011728 36.441851 180.273264 71.762458 15.671697 0.000000 0.103408
353.000000 46.373000 -2.000000 7.000000 -10.000000 87.898967 7.272258 837.653168 980.805550 21.565769 0.000000 0.154718
354.000000 50.012000 -1.000000 7.000000 -10.000000 94.305391 11.922719 747.743450 858.184613 19.993754 0.000000 0.152556
355.000000 53.204000 0.000000 7.000000 -10.000000 100.493588 17.347627 638.789957 732.145108 18.791782 0.000000 0.133995
356.000000 55.770000 1.000000 7.000000 -10.000000 106.226539 23.633655 504.025521 599.090046 17.924925 0.000000 0.094331
357.000000 57.570000 2.000000 7.000000 -10.000000 111.243544 30.813900 333.045897 453.819081 17.362513 0.000000 0.026944
358.000000 58.526000 3.000000 7.000000 -10.000000 115.292089 38.821016 108.987008 288.227711 17.077512 0.000000 0.085627
360.000000 45.859000 -1.000000 8.000000 -10.000000 89.609612 15.950976 667.373975 948.627177 21.806208 0.000000 0.144953
361.000000 48.646000 0.000000 4.000000 -5.000000 95.088479 21.137961 558.873116 838.247723 10.277176 0.000000 0.129235
362.000000 50.909000 1.000000 8.000000 -10.000000 100.144116 26.989767 426.842771 724.890671 19.638385 0.000000 0.094609
363.000000 52.538000 1.000000 4.000000 -5.000000 104.578313 33.496971 262.698194 605.331900 9.513889 0.000000 0.042132
364.000000 53.467000 3.000000 8.000000 -10.000000 108.207929 40.581705 53.100220 474.848104 18.695589 0.000000 0.082739
365.000000 53.686000 2.000000 4.000000 -5.000000 110.894131 48.083742 -223.865046 325.964647 9.308980 0.000000 0.237067
367.000000 46.352000 1.000000 9.000000 -10.000000 94.490573 29.675631 361.699142 843.711880 21.571535 0.000000 0.095454
368.000000 47.821000 2.000000 9.000000 -10.000000 98.454640 35.596714 204.542327 744.252343 20.906767 0.000000 0.061034
369.000000 48.714000 3.000000 9.000000 -10.000000 101.750316 41.934988 8.109375 640.052763 20.521765 0.000000 0.094436
370.000000 49.019000 4.000000 9.000000 -10.000000 104.276636 48.567612 -244.425946 527.123910 20.392703 0.000000 0.223699
374.000000 51.451000 -4.000000 -1.000000 -9.000000 79.611557 -48.330836 2184.315948 1237.787201 19.437270 0.000000 0.294329
375.000000 59.369000 -3.000000 -1.000000 -9.000000 89.352644 -49.931856 2254.583799 959.892428 16.842146 0.000000 0.299048
378.000000 52.493000 -4.000000 1.000000 -9.000000 81.557399 -33.987769 1700.635430 1133.666911 19.052235 0.000000 0.125381
379.000000 60.518000 -3.000000 1.000000 -9.000000 91.566862 -33.608885 1690.328818 905.650088 16.522586 0.000000 0.095597
380.000000 68.777000 -2.000000 1.000000 -9.000000 102.546472 -33.105810 1676.782948 655.056078 14.535634 0.000000 0.056632
381.000000 76.722000 -1.000000 1.000000 -9.000000 114.411601 -32.405650 1658.186002 362.407139 13.027577 0.000000 0.028161
382.000000 83.664000 0.000000 1.000000 -9.000000 126.985870 -31.364790 1631.065308 -8.358857 11.944239 0.000000 0.093731
384.000000 51.599000 -4.000000 2.000000 -9.000000 81.197259 -26.885590 1520.694943 1127.870462 19.382971 0.000000 0.119637
385.000000 59.299000 -3.000000 2.000000 -9.000000 90.927790 -25.539620 1489.279918 921.682481 16.863095 0.000000 0.113072
386.000000 67.187000 -2.000000 2.000000 -9.000000 101.532268 -23.771800 1449.069697 701.035082 14.880219 0.000000 0.098326
387.000000 74.751000 -1.000000 2.000000 -9.000000 112.893493 -21.352657 1395.769525 453.001884 13.371760 0.000000 0.070252
388.000000 81.350000 0.000000 2.000000 -9.000000 124.780915 -17.857146 1321.744814 155.652683 12.284497 0.000000 0.033592
389.000000 86.338000 1.000000 2.000000 -9.000000 136.811027 -12.417897 1211.991114 -233.045754 11.572881 0.000000 0.038647
391.000000 49.887000 -4.000000 3.000000 -9.000000 80.032378 -20.108320 1369.044993 1142.431017 20.048952 0.000000 0.125370
392.000000 57.063000 -1.000000 1.000000 -3.000000 89.259485 -17.936089 1323.382384 955.621878 5.841559 0.000000 0.135241
393.000000 64.368000 -2.000000 3.000000 -9.000000 99.203341 -15.139087 1266.194335 760.344236 15.532943 0.000000 0.135822
394.000000 71.340000 -1.000000 3.000000 -9.000000 109.701398 -11.423939 1192.487009 547.811580 14.012222 0.000000 0.121895
395.000000 82.030000 1.000000 3.000000 -9.000000 130.998201 1.051011 955.254663 5.293555 12.181706 0.000000 0.041231
396.000000 84.756000 2.000000 3.000000 -9.000000 140.561822 12.014157 745.948614 -396.826929 11.788300 0.000000 0.039830
397.000000 47.539000 -4.000000 4.000000 -9.000000 78.208084 -13.806867 1239.500007 1172.376586 21.040474 0.000000 0.127615
398.000000 54.063000 -3.000000 4.000000 -9.000000 86.783227 -10.997339 1184.158541 1002.621876 18.498425 0.000000 0.146465
399.000000 60.653000 -2.000000 4.000000 -9.000000 95.898275 -7.468800 1116.100619 828.857116 16.485598 0.000000 0.154743
400.000000 66.909000 -1.000000 4.000000 -9.000000 105.358370 -2.945215 1030.374294 644.989346 14.941371 0.000000 0.147643
401.000000 72.356000 0.000000 4.000000 -9.000000 114.841810 2.974562 919.072957 442.056578 13.814041 0.000000 0.120733
402.000000 76.526000 1.000000 4.000000 -9.000000 123.865661 10.848305 768.745312 205.552984 13.059238 0.000000 0.069653
403.000000 79.062000 2.000000 4.000000 -9.000000 131.757621 21.340133 554.501670 -90.617873 12.638676 0.000000 0.042204
405.000000 50.575000 -3.000000 5.000000 -9.000000 83.749703 -4.814540 1065.654016 1059.296435 19.775756 0.000000 0.147402
406.000000 56.400000 -2.000000 5.000000 -9.000000 91.978123 -0.835671 990.699096 903.822482 17.730262 0.000000 0.159914
407.000000 61.901000 -1.000000 5.000000 -9.000000 100.378123 4.088122 898.074528 743.384995 16.151873 0.000000 0.156766
408.000000 66.690000 0.000000 5.000000 -9.000000 108.640956 10.233345 780.697371 572.061333 14.989469 0.000000 0.133229
409.000000 70.391000 1.000000 5.000000 -9.000000 116.342769 17.912109 627.115217 380.914547 14.199130 0.000000 0.082905
410.000000 72.719000 2.000000 5.000000 -9.000000 122.957933 27.382360 417.522380 155.116563 13.742906 0.000000 0.023191
411.000000 73.542000 3.000000 5.000000 -9.000000 127.925384 38.644197 114.445421 -132.747040 13.587839 0.000000 0.171796
412.000000 46.852000 -1.000000 2.000000 -3.000000 80.391637 0.608767 963.563954 1123.213423 7.116134 0.000000 0.140779
413.000000 51.927000 -2.000000 6.000000 -9.000000 87.755107 4.813818 884.359640 983.340978 19.259291 0.000000 0.155814
414.000000 56.695000 -1.000000 6.000000 -9.000000 95.165248 9.853517 788.056224 842.251027 17.636637 0.000000 0.155347
415.000000 64.098000 1.000000 6.000000 -9.000000 108.964209 23.100736 515.905243 538.913310 15.595235 0.000000 0.087743
416.000000 66.213000 2.000000 6.000000 -9.000000 114.616489 31.530370 314.661043 362.442917 15.095242 0.000000 0.003074
418.000000 47.479000 -2.000000 7.000000 -9.000000 83.463973 9.595631 793.042873 1066.063644 21.065307 0.000000 0.145973
419.000000 51.577000 -1.000000 7.000000 -9.000000 89.995586 14.576000 695.127715 941.085666 19.388813 0.000000 0.147672
420.000000 55.154000 0.000000 7.000000 -9.000000 96.265121 20.361156 575.560128 814.964195 18.128668 0.000000 0.130489
421.000000 57.984000 1.000000 7.000000 -9.000000 102.001553 27.014179 426.265134 684.174993 17.241593 0.000000 0.089211
422.000000 59.894000 2.000000 7.000000 -9.000000 106.917056 34.525336 234.582476 543.666726 16.690106 0.000000 0.028980
423.000000 60.794000 3.000000 7.000000 -9.000000 110.751093 42.767513 -20.526463 385.508135 16.441584 0.000000 0.126329
425.000000 46.730000 -1.000000 8.000000 -9.000000 85.036635 18.465666 615.593995 1039.543794 21.401774 0.000000 0.137098
426.000000 49.800000 0.000000 8.000000 -9.000000 90.542815 23.927882 497.425281 929.844215 20.079880 0.000000 0.123859
427.000000 52.260000 1.000000 8.000000 -9.000000 95.571967 30.044974 352.474253 819.701498 19.132431 0.000000 0.091158
428.000000 53.976000 2.000000 8.000000 -9.000000 99.911558 36.778043 170.472120 706.198074 18.522089 0.000000 0.055758
429.000000 54.878000 3.000000 8.000000 -9.000000 103.376583 44.013866 -64.868788 585.111861 18.216319 0.000000 0.127838
431.000000 47.030000 1.000000 9.000000 -9.000000 89.706659 32.449017 290.670577 947.529956 21.262151 0.000000 0.096368
432.000000 48.570000 2.000000 9.000000 -9.000000 93.586325 38.529010 117.986753 854.770393 20.585941 0.000000 0.082372
433.000000 49.454000 1.000000 3.000000 -3.000000 96.754816 44.968548 -100.113283 760.815567 6.738778 0.000000 0.142500
434.000000 49.676000 4.000000 9.000000 -9.000000 99.121021 51.626968 -384.259194 662.640887 20.124861 0.000000 0.294459
438.000000 53.468000 -4.000000 -1.000000 -8.000000 74.872739 -48.490132 2191.107288 1380.013759 18.705722 0.000000 0.320837
439.000000 63.151000 -3.000000 -1.000000 -8.000000 85.325374 -50.221785 2267.807730 1078.551168 15.834439 0.000000 0.317132
442.000000 45.754000 -5.000000 0.000000 -8.000000 66.842620 -40.452594 1892.703148 1545.976871 21.863023 0.000000 0.232588
443.000000 54.690000 -2.000000 0.000000 -4.000000 76.393018 -40.947295 1908.871527 1285.919129 9.143933 0.000000 0.191781
444.000000 64.646000 -3.000000 0.000000 -8.000000 87.171242 -41.590745 1930.267922 1012.106706 15.468468 0.000000 0.155734
445.000000 85.490000 -1.000000 0.000000 -8.000000 112.378019 -43.705713 2003.734481 328.004323 11.691583 0.000000 0.182230
446.000000 45.863000 -5.000000 1.000000 -8.000000 67.391651 -33.687944 1692.471894 1479.658550 21.811874 0.000000 0.165915
447.000000 54.715000 -4.000000 1.000000 -8.000000 76.932701 -33.297246 1681.919142 1239.880082 18.279980 0.000000 0.135318
448.000000 64.552000 -3.000000 1.000000 -8.000000 87.688246 -32.789167 1668.336341 992.684560 15.491434 0.000000 0.106737
449.000000 74.929000 -2.000000 1.000000 -8.000000 99.675774 -32.101587 1650.199679 724.373337 13.342978 0.000000 0.069130
450.000000 85.069000 -1.000000 1.000000 -8.000000 112.807018 -31.119339 1624.757800 412.333433 11.749631 0.000000 0.018356
451.000000 53.580000 -2.000000 1.000000 -4.000000 76.495298 -25.806687 1495.455972 1228.124306 9.334091 0.000000 0.121203
452.000000 62.932000 -3.000000 2.000000 -8.000000 86.888865 -24.220445 1459.167523 1005.146360 15.890801 0.000000 0.120523
453.000000 82.268000 -1.000000 2.000000 -8.000000 110.805120 -19.147263 1348.694878 508.095227 12.150403 0.000000 0.089985
454.000000 51.457000 -4.000000 3.000000 -8.000000 75.190977 -18.710923 1339.534221 1241.428456 19.439210 0.000000 0.118618
455.000000 60.050000 -3.000000 3.000000 -8.000000 84.956425 -16.228728 1288.277681 1039.930425 16.654566 0.000000 0.136405
456.000000 68.975000 -2.000000 3.000000 -8.000000 95.593639 -12.995814 1223.399290 832.818154 14.496667 0.000000 0.145070
457.000000 77.592000 -1.000000 3.000000 -8.000000 106.896559 -8.644884 1138.636737 610.310406 12.883920 0.000000 0.136310
458.000000 85.073000 0.000000 3.000000 -8.000000 118.461942 -2.563885 1023.194435 356.960576 11.748303 0.000000 0.104410
459.000000 90.575000 1.000000 3.000000 -8.000000 129.606296 6.270595 856.735072 45.052368 11.032663 0.000000 0.046658
460.000000 48.607000 -1.000000 1.000000 -2.000000 73.201683 -12.175338 1207.218181 1273.394532 5.145097 0.000000 0.113257
461.000000 56.281000 -3.000000 4.000000 -8.000000 82.177888 -9.029680 1146.039832 1090.712516 17.771230 0.000000 0.140931
462.000000 64.165000 -1.000000 2.000000 -4.000000 91.792234 -5.051049 1070.129921 907.190823 7.792361 0.000000 0.157362
463.000000 71.718000 -1.000000 4.000000 -8.000000 101.799672 0.083091 973.439152 716.156606 13.940583 0.000000 0.155462
464.000000 83.133000 1.000000 4.000000 -8.000000 121.088111 15.786414 670.715050 266.605916 12.021832 0.000000 0.069310
466.000000 52.016000 -3.000000 5.000000 -8.000000 78.861262 -2.702589 1025.805489 1153.152304 19.229774 0.000000 0.135416
467.000000 58.828000 -2.000000 5.000000 -8.000000 87.419650 1.693415 943.180132 989.525553 17.000025 0.000000 0.155948
468.000000 65.305000 -1.000000 5.000000 -8.000000 96.160104 7.143121 840.117802 823.926611 15.311161 0.000000 0.157986
469.000000 70.918000 0.000000 5.000000 -8.000000 104.697212 13.934013 707.965940 650.136428 14.096929 0.000000 0.135180
470.000000 75.146000 1.000000 5.000000 -8.000000 112.505288 22.354413 532.385003 458.832535 13.301470 0.000000 0.078108
471.000000 77.611000 2.000000 5.000000 -8.000000 118.960015 32.559313 287.757503 234.315666 12.877361 0.000000 0.032527
473.000000 47.590000 -3.000000 6.000000 -8.000000 75.275729 2.774772 922.835463 1224.179894 21.019630 0.000000 0.123142
474.000000 53.391000 -1.000000 3.000000 -4.000000 82.837502 7.342785 836.306541 1077.370274 9.366453 0.000000 0.146009
475.000000 58.870000 -1.000000 6.000000 -8.000000 90.439318 12.810813 730.258324 932.536629 16.986771 0.000000 0.150792
476.000000 63.621000 0.000000 3.000000 -4.000000 97.756606 19.339857 597.246369 785.628914 7.857803 0.000000 0.131928
477.000000 67.256000 1.000000 6.000000 -8.000000 104.383390 27.046952 425.489240 631.094043 14.863999 0.000000 0.081460
478.000000 70.199000 3.000000 6.000000 -8.000000 113.858379 45.749039 -129.809911 258.840047 14.237801 0.000000 0.199156
479.000000 48.149000 -2.000000 7.000000 -8.000000 78.295315 12.057584 745.095763 1169.011980 20.774077 0.000000 0.131775
480.000000 52.751000 -1.000000 7.000000 -8.000000 84.919030 17.377770 638.168362 1041.273229 18.958862 0.000000 0.138913
481.000000 56.752000 0.000000 7.000000 -8.000000 91.235333 23.522703 506.506728 915.687401 17.619897 0.000000 0.124698
482.000000 59.862000 1.000000 7.000000 -8.000000 96.938369 30.524023 340.406221 788.951218 16.702099 0.000000 0.085212
483.000000 61.869000 2.000000 7.000000 -8.000000 101.716596 38.322045 124.321403 656.482224 16.158566 0.000000 0.056627
484.000000 62.676000 3.000000 7.000000 -8.000000 105.310274 46.729295 -168.306372 511.136571 15.949111 0.000000 0.184496
486.000000 47.136000 -1.000000 8.000000 -8.000000 79.747482 21.092279 559.859230 1149.653941 21.219199 0.000000 0.126593
487.000000 50.503000 0.000000 3.000000 -3.000000 85.250909 26.822824 430.786378 1041.196482 7.425819 0.000000 0.118176
488.000000 53.164000 1.000000 8.000000 -8.000000 90.226208 33.185656 271.077535 935.922575 18.808702 0.000000 0.093218
489.000000 54.960000 1.000000 4.000000 -4.000000 94.449572 40.109950 68.356561 831.491533 9.095987 0.000000 0.088257
490.000000 55.815000 3.000000 8.000000 -8.000000 97.739288 47.448612 -197.456203 724.701266 17.911869 0.000000 0.188916
492.000000 47.223000 1.000000 9.000000 -8.000000 84.224676 35.280242 213.498257 1074.348981 21.176977 0.000000 0.106905
493.000000 48.829000 2.000000 9.000000 -8.000000 88.007182 41.492331 23.032068 990.996963 20.478697 0.000000 0.119777
494.000000 49.695000 3.000000 9.000000 -8.000000 91.045782 47.998783 -220.294842 911.638613 20.120131 0.000000 0.205578
498.000000 54.999000 -4.000000 -1.000000 -7.000000 69.157616 -48.669345 2198.798925 1561.464837 18.186729 0.000000 0.358194
499.000000 66.968000 -3.000000 -1.000000 -7.000000 80.373251 -50.553472 2283.134812 1228.331702 14.933282 0.000000 0.343975
501.000000 45.952000 -5.000000 1.000000 -7.000000 61.305509 -33.027600 1674.691008 1643.664258 21.771482 0.000000 0.185772
502.000000 56.513000 -4.000000 1.000000 -7.000000 71.345744 -32.521132 1661.233291 1371.919060 17.700311 0.000000 0.146347
503.000000 68.705000 -3.000000 1.000000 -7.000000 82.905835 -31.851743 1643.677133 1098.694411 14.556384 0.000000 0.117784
504.000000 82.017000 -2.000000 1.000000 -7.000000 96.060754 -30.926065 1619.814024 807.783731 12.190745 0.000000 0.084604
505.000000 55.075000 -4.000000 2.000000 -7.000000 70.835006 -24.601904 1467.809255 1352.415510 18.163299 0.000000 0.119179
506.000000 66.532000 -3.000000 2.000000 -7.000000 81.923004 -22.725722 1425.791490 1106.594470 15.032623 0.000000 0.123700
507.000000 78.922000 -2.000000 2.000000 -7.000000 94.391822 -20.178198 1370.534274 852.933038 12.669621 0.000000 0.126322
508.000000 52.452000 -4.000000 3.000000 -7.000000 69.401113 -17.165020 1307.448800 1364.386754 19.072482 0.000000 0.104424
509.000000 62.788000 -3.000000 3.000000 -7.000000 79.702715 -14.319468 1249.733460 1142.813108 15.930110 0.000000 0.130635
510.000000 73.813000 -2.000000 3.000000 -7.000000 91.076073 -10.569134 1175.822947 920.434822 13.547653 0.000000 0.150330
511.000000 84.640000 -1.000000 3.000000 -7.000000 103.260196 -5.455310 1077.788138 686.210144 11.811819 0.000000 0.149209
512.000000 49.016000 -4.000000 4.000000 -7.000000 67.270273 -10.389944 1172.341711 1399.396174 20.410597 0.000000 0.088478
513.000000 58.043000 -3.000000 4.000000 -7.000000 76.617189 -6.861564 1104.513387 1198.915531 17.233433 0.000000 0.126476
514.000000 67.524000 -2.000000 4.000000 -7.000000 86.723580 -2.369163 1019.529823 1002.667041 14.810995 0.000000 0.154055
515.000000 76.725000 -1.000000 4.000000 -7.000000 97.282273 3.459193 909.940418 803.210918 13.031999 0.000000 0.159719
516.000000 84.674000 0.000000 4.000000 -7.000000 107.738977 11.130223 763.249807 590.103739 11.806017 0.000000 0.133996
517.000000 90.378000 1.000000 4.000000 -7.000000 117.250123 21.234921 556.778107 346.290214 11.058803 0.000000 0.063598
518.000000 52.851000 -3.000000 5.000000 -7.000000 73.040742 -0.408910 982.681450 1269.227847 18.927927 0.000000 0.113206
519.000000 60.815000 -2.000000 5.000000 -7.000000 81.892436 4.446468 891.305551 1094.787189 16.446432 0.000000 0.144728
520.000000 68.460000 -1.000000 5.000000 -7.000000 90.939872 10.467209 776.157711 923.044242 14.607125 0.000000 0.154261
521.000000 75.057000 0.000000 5.000000 -7.000000 99.705272 17.938180 626.574215 747.518456 13.320688 0.000000 0.133487
522.000000 79.884000 1.000000 5.000000 -7.000000 107.544907 27.093272 424.391874 558.775094 12.513631 0.000000 0.069757
523.000000 82.434000 2.000000 5.000000 -7.000000 113.737852 37.939053 135.948935 340.861364 12.124939 0.000000 0.065575
525.000000 47.640000 -3.000000 6.000000 -7.000000 69.277090 5.096549 879.008629 1349.805858 20.999622 0.000000 0.095148
526.000000 54.241000 -2.000000 6.000000 -7.000000 76.988598 10.052059 784.211790 1193.585004 18.441350 0.000000 0.128637
527.000000 60.518000 -1.000000 6.000000 -7.000000 84.735645 15.968145 667.025068 1044.149543 16.525741 0.000000 0.140975
528.000000 65.941000 0.000000 6.000000 -7.000000 92.135570 22.985847 518.453926 897.403481 15.164328 0.000000 0.125789
529.000000 69.993000 1.000000 6.000000 -7.000000 98.718479 31.170071 323.941196 748.100590 14.284170 0.000000 0.076591
530.000000 72.311000 2.000000 6.000000 -7.000000 104.002117 40.422264 58.280385 588.448670 13.824589 0.000000 0.074817
532.000000 48.131000 -2.000000 7.000000 -7.000000 72.262161 14.660974 693.422903 1296.859336 20.783696 0.000000 0.111499
533.000000 53.268000 -1.000000 7.000000 -7.000000 78.931715 20.326326 576.304363 1165.523096 18.776878 0.000000 0.126282
534.000000 61.116000 1.000000 7.000000 -7.000000 90.880455 34.143046 245.114121 921.014786 16.361217 0.000000 0.089342
535.000000 63.202000 2.000000 7.000000 -7.000000 95.491037 42.172782 0.007205 801.393834 15.819304 0.000000 0.104849
536.000000 63.879000 3.000000 7.000000 -7.000000 98.834036 50.668707 -338.510328 677.079194 15.650353 0.000000 0.267027
537.000000 46.852000 -1.000000 8.000000 -7.000000 73.635137 23.826691 499.698613 1286.499964 21.350031 0.000000 0.116110
538.000000 50.516000 0.000000 8.000000 -7.000000 79.100579 29.813261 358.269588 1179.863863 19.798812 0.000000 0.116542
539.000000 53.376000 1.000000 8.000000 -7.000000 83.994427 36.395879 181.606904 1081.668160 18.735919 0.000000 0.108948
540.000000 55.243000 2.000000 8.000000 -7.000000 88.085866 43.470972 -45.329285 990.564593 18.100915 0.000000 0.139800
541.000000 56.037000 3.000000 8.000000 -7.000000 91.201899 50.861408 -347.558709 905.225454 17.842945 0.000000 0.271989
543.000000 46.736000 1.000000 9.000000 -7.000000 77.967104 38.156936 129.349025 1232.762798 21.399763 0.000000 0.133833
544.000000 48.401000 2.000000 9.000000 -7.000000 81.645063 44.471148 -81.606611 1162.507452 20.661553 0.000000 0.175028
545.000000 49.247000 3.000000 9.000000 -7.000000 84.560521 51.008868 -354.533467 1103.886268 20.305169 0.000000 0.289020
552.000000 57.383000 -4.000000 0.000000 -6.000000 63.918434 -40.312177 1888.157246 1631.912106 17.433308 0.000000 0.247413
553.000000 90.831000 -2.000000 0.000000 -6.000000 91.042852 -41.850458 1939.025070 914.698070 11.008267 0.000000 0.146072
554.000000 57.376000 -4.000000 1.000000 -6.000000 64.502610 -31.642810 1638.249714 1543.942146 17.435963 0.000000 0.161804
555.000000 72.613000 -3.000000 1.000000 -6.000000 76.891984 -30.769932 1615.834851 1232.680575 13.774528 0.000000 0.127667
556.000000 90.073000 -2.000000 1.000000 -6.000000 91.387048 -29.532626 1584.747317 911.047844 11.101424 0.000000 0.100997
557.000000 55.581000 -2.000000 1.000000 -3.000000 63.938778 -23.249123 1437.392994 1513.888251 8.999978 0.000000 0.116240
558.000000 69.679000 -3.000000 2.000000 -6.000000 75.711810 -21.020420 1388.590839 1234.649302 14.355343 0.000000 0.119424
559.000000 52.386000 -4.000000 3.000000 -6.000000 62.411597 -15.448261 1272.436429 1524.475880 19.098760 0.000000 0.084352
560.000000 78.545000 -2.000000 3.000000 -6.000000 85.320746 -7.809543 1122.616608 1029.919872 12.733111 0.000000 0.148056
561.000000 48.319000 -2.000000 2.000000 -3.000000 60.197487 -8.431849 1134.544682 1564.198399 10.353746 0.000000 0.053687
562.000000 58.873000 -3.000000 4.000000 -6.000000 69.840766 -4.467972 1059.100859 1337.334417 16.992655 0.000000 0.097570
563.000000 81.552000 -1.000000 4.000000 -6.000000 91.469503 7.218797 838.673672 913.168916 12.262002 0.000000 0.157770
564.000000 52.638000 -3.000000 5.000000 -6.000000 66.073720 2.082634 935.860725 1418.854345 19.006960 0.000000 0.075426
565.000000 61.891000 -2.000000 5.000000 -6.000000 75.145729 7.440100 834.447734 1228.883890 16.162484 0.000000 0.122546
566.000000 70.892000 -1.000000 5.000000 -6.000000 84.433463 14.072107 705.210530 1049.142271 14.107644 0.000000 0.143211
567.000000 78.639000 0.000000 5.000000 -6.000000 93.352825 22.240829 534.877476 872.877358 12.715406 0.000000 0.127246
568.000000 84.121000 1.000000 5.000000 -6.000000 101.131054 32.088579 300.140812 691.047868 11.884601 0.000000 0.063363
569.000000 86.669000 2.000000 5.000000 -6.000000 106.966012 43.434849 -44.041676 488.813567 11.533657 0.000000 0.125047
571.000000 46.626000 -1.000000 2.000000 -2.000000 62.229195 7.583041 831.715919 1512.765202 7.152962 0.000000 0.055355
572.000000 54.056000 -1.000000 3.000000 -3.000000 70.014159 12.948175 727.543098 1342.650604 9.253307 0.000000 0.102174
573.000000 61.191000 -1.000000 6.000000 -6.000000 77.835714 19.325374 597.551909 1186.853665 16.346154 0.000000 0.125308
574.000000 71.819000 1.000000 6.000000 -6.000000 91.727753 35.437019 209.070381 901.153012 13.922528 0.000000 0.084893
575.000000 47.084000 -2.000000 7.000000 -6.000000 65.222767 17.406657 637.572475 1461.641352 21.248406 0.000000 0.089606
576.000000 52.751000 -1.000000 7.000000 -6.000000 71.876362 23.416684 508.873724 1324.896898 18.962965 0.000000 0.113461
577.000000 57.651000 0.000000 7.000000 -6.000000 78.145287 30.247582 347.384586 1202.527668 17.348755 0.000000 0.117141
578.000000 61.331000 1.000000 7.000000 -6.000000 83.661367 37.846393 138.743856 1092.405479 16.305570 0.000000 0.113807
579.000000 63.479000 2.000000 7.000000 -6.000000 88.086000 46.043489 -141.229657 992.818202 15.752205 0.000000 0.176210
581.000000 45.588000 -1.000000 8.000000 -6.000000 66.592345 26.662481 434.563164 1462.363870 21.944217 0.000000 0.115281
582.000000 49.533000 0.000000 4.000000 -3.000000 71.980467 32.886963 279.061344 1357.930807 10.097111 0.000000 0.128937
583.000000 52.578000 1.000000 8.000000 -6.000000 76.767808 39.657270 82.798370 1269.729189 19.022330 0.000000 0.147182
584.000000 54.507000 1.000000 4.000000 -3.000000 80.721776 46.838215 -172.669988 1198.038479 9.173596 0.000000 0.214186
586.000000 47.060000 2.000000 9.000000 -6.000000 74.440667 47.449443 -197.490323 1384.161027 21.252538 0.000000 0.252360
593.000000 56.394000 -4.000000 1.000000 -5.000000 56.002633 -30.641174 1612.563064 1784.698202 17.742085 0.000000 0.193095
594.000000 75.445000 -3.000000 1.000000 -5.000000 69.160830 -29.508575 1584.150654 1411.753214 13.259353 0.000000 0.136898
595.000000 54.236000 -4.000000 2.000000 -5.000000 55.439072 -21.721117 1403.769082 1739.068833 18.448925 0.000000 0.129348
596.000000 71.507000 -3.000000 2.000000 -5.000000 67.799436 -19.060437 1346.868210 1405.718279 13.990482 0.000000 0.104309
597.000000 50.478000 -4.000000 3.000000 -5.000000 53.904762 -13.534325 1234.077453 1748.124203 19.823441 0.000000 0.087154
598.000000 65.246000 -3.000000 3.000000 -5.000000 65.051423 -9.757428 1160.084832 1449.058256 15.334027 0.000000 0.077518
599.000000 82.382000 -2.000000 3.000000 -5.000000 77.851022 -4.659313 1062.718077 1173.468241 12.141798 0.000000 0.131477
600.000000 45.847000 -4.000000 4.000000 -5.000000 51.725368 -6.280025 1093.444212 1795.359413 21.826678 0.000000 0.065406
601.000000 57.979000 -3.000000 4.000000 -5.000000 61.519675 -1.821595 1009.229977 1525.196887 17.257117 0.000000 0.044963
602.000000 71.582000 -2.000000 4.000000 -5.000000 72.396736 3.915610 901.331024 1283.287144 13.975120 0.000000 0.110640
603.000000 85.377000 -1.000000 4.000000 -5.000000 83.896812 11.392858 758.120615 1058.396445 11.714346 0.000000 0.145294
604.000000 50.717000 -3.000000 5.000000 -5.000000 57.709971 4.788072 884.846695 1623.524690 19.729190 0.000000 0.020082
605.000000 61.301000 -2.000000 5.000000 -5.000000 66.875359 10.688676 771.852391 1408.741161 16.320357 0.000000 0.085901
606.000000 71.784000 -1.000000 5.000000 -5.000000 76.287983 17.962704 626.065192 1217.067666 13.934461 0.000000 0.122903
607.000000 86.964000 1.000000 5.000000 -5.000000 92.863477 37.280520 155.661619 873.340969 11.497599 0.000000 0.081528
608.000000 89.397000 2.000000 5.000000 -5.000000 98.274319 48.947934 -260.864944 702.670359 11.183193 0.000000 0.222701
609.000000 52.239000 -2.000000 6.000000 -5.000000 61.700269 16.034779 665.670415 1543.977574 19.152883 0.000000 0.075731
610.000000 60.216000 -1.000000 6.000000 -5.000000 69.495325 22.876877 520.867273 1377.873465 16.613014 0.000000 0.109228
611.000000 67.089000 0.000000 6.000000 -5.000000 76.840201 30.829258 332.654708 1234.055154 14.908643 0.000000 0.118442
612.000000 71.988000 1.000000 6.000000 -5.000000 83.150267 39.806112 78.070874 1109.296494 13.891895 0.000000 0.124911
613.000000 74.355000 2.000000 6.000000 -5.000000 87.903614 49.507376 -285.507258 1001.672865 13.447849 0.000000 0.244336
615.000000 50.707000 -1.000000 7.000000 -5.000000 63.595746 26.640090 435.089703 1538.843353 19.729731 0.000000 0.116601
616.000000 56.021000 0.000000 7.000000 -5.000000 69.753870 33.778444 255.070032 1418.606267 17.856040 0.000000 0.137042
617.000000 59.960000 1.000000 7.000000 -5.000000 75.122266 41.605264 19.244367 1323.396350 16.680733 0.000000 0.169842
618.000000 62.160000 2.000000 7.000000 -5.000000 79.363327 49.899039 -303.097030 1254.809453 16.088528 0.000000 0.280135
620.000000 47.184000 0.000000 8.000000 -5.000000 63.794503 36.029109 192.190669 1596.025032 21.201566 0.000000 0.169390
621.000000 50.394000 1.000000 8.000000 -5.000000 68.456774 42.949554 -26.890428 1521.503576 19.848894 0.000000 0.215027
622.000000 52.388000 2.000000 8.000000 -5.000000 72.282720 50.188532 -316.282868 1478.039869 19.091516 0.000000 0.319705
627.000000 76.009000 -3.000000 0.000000 -4.000000 58.434718 -40.060461 1880.055265 1804.955573 13.162222 0.000000 0.279529
628.000000 51.980000 -4.000000 1.000000 -4.000000 45.309725 -29.489058 1583.666689 2164.184296 19.250790 0.000000 0.268532
629.000000 75.378000 -3.000000 1.000000 -4.000000 58.983836 -28.020522 1547.770401 1674.044065 13.273188 0.000000 0.157043
630.000000 49.614000 -2.000000 1.000000 -2.000000 44.863791 -19.984147 1366.401863 2091.711357 10.085011 0.000000 0.200471
631.000000 70.276000 -3.000000 2.000000 -4.000000 57.536456 -16.789917 1299.745735 1656.201505 14.237837 0.000000 0.092122
632.000000 45.532000 -4.000000 3.000000 -4.000000 43.497641 -11.392274 1191.867972 2098.067816 21.978964 0.000000 0.172356
633.000000 62.560000 -3.000000 3.000000 -4.000000 54.722282 -7.020213 1107.537767 1708.182084 15.994945 0.000000 0.048303
634.000000 83.631000 -2.000000 3.000000 -4.000000 67.984400 -1.052857 994.780025 1376.265522 11.962616 0.000000 0.086914
635.000000 54.124000 -3.000000 4.000000 -4.000000 51.260266 1.106588 954.210302 1804.661533 18.489006 0.000000 0.050528
636.000000 86.553000 -1.000000 4.000000 -4.000000 73.945128 16.001864 666.339692 1263.223516 11.557302 0.000000 0.117127
637.000000 46.181000 -3.000000 5.000000 -4.000000 47.681347 7.722462 829.049618 1929.962447 21.669581 0.000000 0.094798
638.000000 57.910000 -2.000000 5.000000 -4.000000 56.739365 14.202540 702.604915 1669.192719 17.278450 0.000000 0.062197
639.000000 69.814000 -1.000000 5.000000 -4.000000 66.095755 22.134204 537.213581 1455.996646 14.329845 0.000000 0.102492
640.000000 80.109000 0.000000 5.000000 -4.000000 74.951599 31.648384 311.605817 1280.918090 12.485803 0.000000 0.121407
641.000000 86.913000 1.000000 5.000000 -4.000000 82.300935 42.591918 -14.423156 1138.642324 11.506288 0.000000 0.150659
643.000000 48.011000 -1.000000 3.000000 -2.000000 51.837464 19.311603 597.842405 1837.249481 10.420953 0.000000 0.107618
644.000000 56.680000 -1.000000 6.000000 -4.000000 59.471788 26.610432 435.786839 1650.897346 17.651629 0.000000 0.122705
645.000000 64.191000 0.000000 3.000000 -2.000000 66.646265 34.975136 222.066486 1508.149340 7.792025 0.000000 0.151986
646.000000 69.463000 1.000000 6.000000 -4.000000 72.743147 44.228994 -72.710679 1407.591018 14.399079 0.000000 0.210408
647.000000 46.553000 -1.000000 7.000000 -4.000000 53.958907 29.983677 354.009973 1845.159185 21.492571 0.000000 0.166021
648.000000 52.188000 0.000000 7.000000 -4.000000 59.943476 37.392525 152.333369 1724.914599 19.169824 0.000000 0.198302
649.000000 56.350000 1.000000 7.000000 -4.000000 65.143865 45.388107 -115.975028 1650.949300 17.751641 0.000000 0.267399
655.000000 68.585000 -3.000000 1.000000 -3.000000 45.283390 -26.241302 1505.566494 2129.150661 14.590296 0.000000 0.240585
656.000000 62.699000 -3.000000 2.000000 -3.000000 44.033406 -14.137858 1246.102591 2089.007891 15.961182 0.000000 0.177900
657.000000 54.225000 -1.000000 1.000000 -1.000000 41.567301 -3.911289 1048.587432 2157.487189 6.152009 0.000000 0.174412
658.000000 78.907000 -2.000000 3.000000 -3.000000 54.789815 3.081027 917.067431 1701.628140 12.681351 0.000000 0.015929
659.000000 45.570000 -3.000000 4.000000 -3.000000 38.645683 4.346154 893.201074 2290.929839 21.961570 0.000000 0.203803
660.000000 62.947000 -2.000000 4.000000 -3.000000 49.302108 11.638113 753.322293 1886.120697 15.897470 0.000000 0.089398
661.000000 82.102000 -1.000000 4.000000 -3.000000 60.862585 21.048320 560.807555 1583.872426 12.186227 0.000000 0.093828
662.000000 50.220000 -2.000000 5.000000 -3.000000 44.412962 17.985813 625.585395 2096.020633 19.926464 0.000000 0.160820
663.000000 63.109000 -1.000000 5.000000 -3.000000 53.457270 26.569282 436.753511 1832.842514 15.854780 0.000000 0.144145
664.000000 74.427000 0.000000 5.000000 -3.000000 62.023295 36.664281 173.798242 1653.729563 13.441447 0.000000 0.181931
665.000000 81.790000 1.000000 5.000000 -3.000000 69.052388 47.934047 -217.582341 1555.971360 12.229337 0.000000 0.289519
667.000000 49.524000 -1.000000 6.000000 -3.000000 47.582669 30.506413 340.851938 2082.388671 20.204757 0.000000 0.211174
668.000000 57.453000 0.000000 2.000000 -1.000000 54.484393 39.222583 96.489181 1932.558419 5.804712 0.000000 0.249373
679.000000 67.605000 -1.000000 4.000000 -2.000000 43.939783 26.508355 438.183497 2189.095168 14.801690 0.000000 0.211325
#UB matrix in q= (UB) B0 G* 
#[[-0.295723389 -0.067815801  0.951723343]
# [ 0.570397294  0.787348403  0.233330148]
# [-0.766286242  0.612752387 -0.194392244]]
#B0 matrix in q= UB (B0) G*
#[[ 0.19670273 -0.          0.03056101]
# [ 0.          0.19187965 -0.        ]
# [ 0.          0.          0.18806537]]
#UBB0 matrix in q= (UB B0) G* i.e. recip. basis vectors are columns in LT frame: astar = UBB0[:,0], bstar = UBB0[:,1], cstar = UBB0[:,2]. (abcstar as columns on xyzlab1, xlab1 = ui, ui = unit vector along incident beam)
#[[-0.0581696  -0.01301247  0.1699486 ]
# [ 0.11219871  0.15107614  0.06131324]
# [-0.1507306   0.11757472 -0.05997693]]
#Euler angles phi theta psi (deg)
#[231.366 101.195  76.249]
#deviatoric strain in direct crystal frame (10-3 unit)
#[[ 4.78  0.2  -0.84]
# [ 0.2   4.67  0.01]
# [-0.84  0.01 -9.45]]
#deviatoric strain in sample2 frame (10-3 unit)
#[[ 0.2  -2.26  6.17]
# [-2.26  3.89  2.92]
# [ 6.18  2.92 -4.09]]
#new lattice parameters
#[ 5.1505     5.2110129  5.3219553 90.003221  99.2728    89.9775628]
#CCDLabel
#sCMOS
#DetectorParameters
#[79.0, 975.0, 941.0, 0.0, 0.0]
#pixelsize
#0.0734
#Frame dimensions
#[2018, 2016]
#
