#Strain and Orientation Refinement from experimental file: /home/micha/LaueProjects/DepthEffects/testZrO2_94.cor
#File created at Wed Jun 28 14:24:06 2023 with indexingSpotsSet.py
#Number of indexed spots: 542
#Element
#ZrO2
#grainIndex
#G_0
#Mean Deviation(pixel): 0.116
##spot_index intensity h k l 2theta Chi Xexp Yexp Energy GrainIndex PixDev
6.000000 168.437000 1.000000 2.000000 1.000000 60.710786 -22.534528 1421.575768 1594.627029 5.942331 0.000000 0.102209
7.000000 156.853000 2.000000 2.000000 1.000000 71.647625 -41.497443 1927.139116 1417.701077 6.379483 0.000000 0.190909
9.000000 87.348000 1.000000 3.000000 1.000000 41.000123 -18.798115 1341.360954 2248.892764 11.461693 0.000000 0.255153
10.000000 98.674000 2.000000 3.000000 1.000000 53.762863 -32.943411 1672.443315 1880.933903 10.144056 0.000000 0.209089
11.000000 94.821000 3.000000 3.000000 1.000000 61.284813 -44.390122 2028.621772 1766.119332 10.554464 0.000000 0.292364
28.000000 170.973000 0.000000 2.000000 2.000000 69.939412 9.987458 785.463186 1340.076199 5.853580 0.000000 0.100635
29.000000 189.699000 1.000000 2.000000 2.000000 88.986079 -11.736706 1198.609016 960.455116 5.273815 0.000000 0.158665
30.000000 171.121000 2.000000 2.000000 2.000000 96.584271 -32.243193 1653.912352 794.117307 5.845203 0.000000 0.083149
31.000000 143.287000 3.000000 2.000000 2.000000 97.165772 -47.708216 2158.172754 739.910513 6.980224 0.000000 0.197212
34.000000 98.805000 0.000000 3.000000 2.000000 50.022395 3.821719 903.102816 1845.412644 10.132167 0.000000 0.087138
35.000000 119.535000 1.000000 3.000000 2.000000 65.930002 -11.386332 1191.751826 1431.425922 8.373019 0.000000 0.080924
36.000000 120.461000 2.000000 3.000000 2.000000 75.972730 -26.018825 1500.381618 1240.220480 8.306785 0.000000 0.118487
37.000000 110.625000 3.000000 3.000000 2.000000 80.996601 -38.500590 1831.141227 1158.906125 9.044064 0.000000 0.129038
38.000000 97.835000 4.000000 3.000000 2.000000 82.914868 -48.382158 2186.499335 1142.421505 10.225627 0.000000 0.242053
40.000000 77.221000 1.000000 4.000000 2.000000 50.595955 -11.201789 1188.146925 1842.377413 12.964009 0.000000 0.098966
41.000000 83.405000 3.000000 4.000000 2.000000 67.495108 -32.759932 1667.559535 1471.264439 11.998721 0.000000 0.139831
42.000000 71.940000 5.000000 4.000000 2.000000 74.011560 -48.731371 2201.473731 1408.543958 13.908383 0.000000 0.290221
44.000000 51.958000 1.000000 5.000000 2.000000 40.011473 -11.087877 1185.924049 2247.544841 19.269224 0.000000 0.247409
45.000000 59.918000 2.000000 5.000000 2.000000 49.455642 -20.322709 1373.618365 1922.799889 16.707235 0.000000 0.153484
46.000000 62.843000 3.000000 5.000000 2.000000 56.699466 -28.909916 1569.389413 1748.657074 15.927596 0.000000 0.155957
47.000000 62.195000 4.000000 5.000000 2.000000 61.925881 -36.580895 1773.769987 1655.883435 16.091530 0.000000 0.190764
48.000000 59.513000 5.000000 5.000000 2.000000 65.546269 -43.246166 1987.340794 1612.931605 16.815202 0.000000 0.246106
49.000000 55.909000 6.000000 5.000000 2.000000 67.989230 -48.944972 2210.735967 1603.450302 17.898104 0.000000 0.331103
52.000000 47.840000 3.000000 6.000000 2.000000 48.131813 -26.171340 1503.933869 2015.816596 20.924839 0.000000 0.204130
53.000000 48.950000 5.000000 6.000000 2.000000 58.065102 -39.021039 1847.220508 1804.471846 20.446337 0.000000 0.241000
55.000000 173.333000 -1.000000 1.000000 3.000000 81.107430 49.374863 -279.619668 1199.636631 5.771809 0.000000 0.273762
58.000000 127.040000 -1.000000 2.000000 3.000000 65.864798 32.788622 281.678144 1514.639023 7.877650 0.000000 0.145336
59.000000 164.407000 0.000000 2.000000 3.000000 89.114525 17.860280 628.190207 958.477127 6.085021 0.000000 0.145655
60.000000 173.678000 1.000000 2.000000 3.000000 105.786096 -1.652469 1006.050042 636.594902 5.758463 0.000000 0.160127
61.000000 160.772000 2.000000 2.000000 3.000000 113.095685 -22.449881 1419.713073 444.380543 6.219740 0.000000 0.082033
62.000000 139.789000 3.000000 2.000000 3.000000 113.407419 -39.887445 1874.521039 333.784896 7.153078 0.000000 0.089317
65.000000 87.226000 -1.000000 3.000000 3.000000 52.141645 22.433434 530.648592 1846.112289 11.476230 0.000000 0.144266
66.000000 126.068000 1.000000 3.000000 3.000000 83.973954 -4.330751 1056.507925 1054.943129 7.936579 0.000000 0.157092
67.000000 124.032000 2.000000 3.000000 3.000000 92.649513 -18.989844 1345.384460 888.327049 8.065301 0.000000 0.143981
68.000000 101.675000 4.000000 3.000000 3.000000 97.426270 -43.156400 1984.167438 748.690055 9.837123 0.000000 0.117686
69.000000 89.660000 5.000000 3.000000 3.000000 96.636366 -51.714384 2338.528591 738.889823 11.155146 0.000000 0.296320
70.000000 59.571000 -1.000000 4.000000 3.000000 41.449276 15.760705 671.236522 2207.309251 16.806066 0.000000 0.240514
71.000000 78.718000 0.000000 4.000000 3.000000 55.672071 5.433276 872.629525 1679.284207 12.716708 0.000000 0.031913
72.000000 90.321000 1.000000 4.000000 3.000000 67.726047 -5.778648 1083.920762 1384.100662 11.080986 0.000000 0.087289
73.000000 93.504000 2.000000 4.000000 3.000000 76.568783 -17.087695 1305.858346 1209.899486 10.701872 0.000000 0.126182
74.000000 90.528000 3.000000 4.000000 3.000000 82.195186 -27.666630 1539.267731 1107.571156 11.052067 0.000000 0.119341
75.000000 84.331000 4.000000 4.000000 3.000000 85.278058 -36.966577 1785.061969 1052.269056 11.863091 0.000000 0.109480
76.000000 77.047000 5.000000 4.000000 3.000000 86.636405 -44.811984 2044.253646 1030.167365 12.983842 0.000000 0.167607
77.000000 69.843000 6.000000 4.000000 3.000000 86.938412 -51.290299 2317.968827 1033.050976 14.322768 0.000000 0.296516
79.000000 55.463000 0.000000 5.000000 3.000000 45.155169 2.499252 928.022056 2012.499577 18.050879 0.000000 0.153777
80.000000 65.473000 1.000000 5.000000 3.000000 55.628693 -6.684544 1101.141183 1682.201279 15.289295 0.000000 0.036791
81.000000 70.505000 2.000000 5.000000 3.000000 64.091632 -15.887100 1281.328521 1484.577760 14.196000 0.000000 0.080956
82.000000 71.207000 3.000000 5.000000 3.000000 70.352697 -24.655426 1469.025969 1363.797920 14.054127 0.000000 0.111804
83.000000 68.980000 4.000000 5.000000 3.000000 74.641901 -32.652642 1664.713045 1292.103635 14.506068 0.000000 0.124636
84.000000 65.168000 5.000000 5.000000 3.000000 77.382383 -39.711162 1868.910979 1254.188046 15.353480 0.000000 0.149820
85.000000 60.719000 6.000000 5.000000 3.000000 79.006366 -45.810597 2082.187347 1240.966387 16.477502 0.000000 0.212389
86.000000 56.197000 7.000000 5.000000 3.000000 79.868688 -51.022097 2305.161340 1246.751707 17.802569 0.000000 0.314177
89.000000 48.428000 1.000000 6.000000 3.000000 46.466910 -7.304509 1112.962563 1971.913595 20.672720 0.000000 0.139838
90.000000 53.756000 2.000000 6.000000 3.000000 54.355654 -15.061035 1264.621390 1740.266894 18.621910 0.000000 0.084235
91.000000 56.207000 4.000000 6.000000 3.000000 65.568792 -29.506854 1584.107985 1502.803516 17.805788 0.000000 0.127811
92.000000 54.699000 5.000000 6.000000 3.000000 69.128303 -35.844549 1752.520760 1447.271035 18.294945 0.000000 0.153195
93.000000 49.441000 7.000000 6.000000 3.000000 73.376324 -46.478171 2108.312482 1407.638388 20.238000 0.000000 0.250899
94.000000 46.475000 8.000000 6.000000 3.000000 74.524077 -50.837181 2296.417022 1412.866050 21.528574 0.000000 0.335630
95.000000 45.903000 4.000000 7.000000 3.000000 57.900061 -27.124540 1526.349431 1699.587831 21.805474 0.000000 0.137343
96.000000 45.823000 5.000000 7.000000 3.000000 61.899796 -32.837840 1669.630812 1624.987900 21.841518 0.000000 0.159677
98.000000 150.249000 -1.000000 1.000000 4.000000 93.166771 52.026367 -403.901358 844.220894 6.657167 0.000000 0.310121
99.000000 176.098000 0.000000 1.000000 4.000000 118.165392 39.936177 73.922990 189.438640 5.677763 0.000000 0.117456
100.000000 179.074000 1.000000 1.000000 4.000000 137.400022 18.327778 618.470734 -292.008795 5.582005 0.000000 0.056918
103.000000 123.097000 -1.000000 2.000000 4.000000 80.613238 36.812951 169.449514 1163.239293 8.127805 0.000000 0.122616
104.000000 145.376000 0.000000 2.000000 4.000000 100.517881 24.249287 490.180887 721.835705 6.880005 0.000000 0.112535
105.000000 151.220000 1.000000 2.000000 4.000000 115.599353 7.250135 838.075503 421.185024 6.612446 0.000000 0.124203
106.000000 143.614000 2.000000 2.000000 4.000000 123.495732 -12.658618 1216.736698 210.987297 6.961698 0.000000 0.074271
107.000000 129.431000 3.000000 2.000000 4.000000 124.854532 -31.340304 1630.434620 63.385885 7.724227 0.000000 0.056262
110.000000 70.226000 -2.000000 3.000000 4.000000 50.795090 35.396633 210.212665 2018.034959 14.253596 0.000000 0.264089
111.000000 94.764000 -1.000000 3.000000 4.000000 67.851926 26.535618 437.543817 1430.673917 10.560787 0.000000 0.113688
112.000000 112.838000 0.000000 3.000000 4.000000 83.830112 15.412634 678.283807 1061.691124 8.866937 0.000000 0.144663
113.000000 120.432000 1.000000 3.000000 4.000000 96.513878 2.199889 933.655041 818.017030 8.305921 0.000000 0.170933
114.000000 118.375000 2.000000 3.000000 4.000000 104.627970 -12.064148 1205.033169 653.740868 8.448843 0.000000 0.149005
115.000000 110.391000 3.000000 3.000000 4.000000 108.391638 -25.742621 1493.971872 543.709585 9.059053 0.000000 0.081491
116.000000 100.047000 4.000000 3.000000 4.000000 109.018521 -37.545640 1802.232630 473.094910 9.995288 0.000000 0.045892
117.000000 89.541000 5.000000 3.000000 4.000000 107.832751 -47.065198 2131.820661 432.696283 11.168012 0.000000 0.198972
119.000000 71.204000 -1.000000 4.000000 4.000000 56.779477 19.545077 592.910988 1688.956292 14.057933 0.000000 0.097492
120.000000 93.412000 1.000000 4.000000 4.000000 80.946771 -0.646292 987.141033 1112.504314 10.711816 0.000000 0.149528
121.000000 91.522000 3.000000 4.000000 4.000000 94.018628 -22.490096 1420.597738 859.162436 10.929831 0.000000 0.131463
122.000000 78.608000 5.000000 4.000000 4.000000 97.416605 -40.659685 1899.442323 756.311476 12.723819 0.000000 0.088982
124.000000 53.433000 -1.000000 5.000000 4.000000 47.724812 14.617334 694.298592 1952.231456 18.735953 0.000000 0.147534
125.000000 64.674000 0.000000 5.000000 4.000000 58.837207 6.377847 854.695606 1595.925443 15.477510 0.000000 0.031481
126.000000 72.083000 1.000000 5.000000 4.000000 68.535041 -2.464425 1021.322504 1364.595177 13.884544 0.000000 0.091549
127.000000 75.247000 2.000000 5.000000 4.000000 76.254984 -11.529384 1194.549431 1209.689848 13.298619 0.000000 0.129085
128.000000 74.847000 3.000000 5.000000 4.000000 81.854440 -20.376903 1374.776449 1105.336416 13.367965 0.000000 0.133467
129.000000 72.040000 4.000000 5.000000 4.000000 85.545682 -28.625515 1562.436616 1036.517988 13.887560 0.000000 0.116022
130.000000 67.916000 5.000000 5.000000 4.000000 87.721704 -36.035729 1757.999466 993.952538 14.729835 0.000000 0.100769
131.000000 63.268000 6.000000 5.000000 4.000000 88.798631 -42.521202 1961.974929 971.624222 15.811254 0.000000 0.131919
132.000000 58.584000 7.000000 5.000000 4.000000 89.129478 -48.108740 2174.917771 965.492201 17.074826 0.000000 0.217021
135.000000 55.971000 1.000000 6.000000 4.000000 58.653474 -3.723970 1045.052990 1597.982029 17.884206 0.000000 0.020898
136.000000 60.994000 3.000000 6.000000 4.000000 71.684814 -18.897321 1343.441664 1317.563370 16.407359 0.000000 0.110597
137.000000 58.146000 5.000000 6.000000 4.000000 78.991974 -32.582245 1662.849054 1189.471492 17.207802 0.000000 0.117911
138.000000 52.146000 7.000000 6.000000 4.000000 82.234177 -43.756929 2005.577094 1144.217449 19.185447 0.000000 0.169959
140.000000 47.807000 2.000000 7.000000 4.000000 57.515549 -11.281677 1189.706905 1639.766606 20.938206 0.000000 0.052128
141.000000 49.834000 3.000000 7.000000 4.000000 63.198676 -17.804870 1320.661207 1512.058317 20.084674 0.000000 0.083913
142.000000 50.298000 4.000000 7.000000 4.000000 67.752690 -24.058749 1455.520054 1423.149991 19.897196 0.000000 0.107880
143.000000 49.587000 5.000000 7.000000 4.000000 71.266512 -29.922561 1594.460716 1362.145284 20.180882 0.000000 0.121943
144.000000 48.084000 6.000000 7.000000 4.000000 73.887850 -35.321714 1737.671358 1322.047400 20.810122 0.000000 0.135587
145.000000 46.109000 7.000000 7.000000 4.000000 75.782054 -40.225230 1885.351893 1298.169424 21.700309 0.000000 0.160275
148.000000 144.741000 0.000000 1.000000 5.000000 121.365899 44.380789 -78.278526 23.010275 6.907445 0.000000 0.218003
152.000000 90.892000 -2.000000 2.000000 5.000000 72.036796 47.691650 -207.485745 1459.399445 11.008751 0.000000 0.284281
153.000000 112.630000 -1.000000 2.000000 5.000000 90.425640 40.068204 69.696405 930.551857 8.881476 0.000000 0.105951
154.000000 126.818000 0.000000 2.000000 5.000000 107.681592 29.417741 368.100193 547.103318 7.885669 0.000000 0.058666
155.000000 131.020000 1.000000 2.000000 5.000000 121.462889 14.818459 690.259789 259.746780 7.631093 0.000000 0.077422
156.000000 126.729000 2.000000 2.000000 5.000000 129.895105 -3.409862 1039.129577 39.638752 7.888460 0.000000 0.054429
157.000000 117.410000 3.000000 2.000000 5.000000 132.648516 -22.379909 1418.175023 -131.140676 8.514213 0.000000 0.048338
161.000000 75.461000 -2.000000 3.000000 5.000000 63.719952 37.928808 136.258308 1614.793434 13.262355 0.000000 0.196212
162.000000 93.203000 -1.000000 3.000000 5.000000 79.206481 30.058000 352.147651 1178.069298 10.735352 0.000000 0.116115
163.000000 105.618000 0.000000 3.000000 5.000000 93.558036 20.142397 580.228913 869.716990 9.471180 0.000000 0.139013
164.000000 110.808000 1.000000 3.000000 5.000000 105.204068 8.113345 821.564874 645.537927 9.025732 0.000000 0.155120
165.000000 109.392000 2.000000 3.000000 5.000000 113.093860 -5.431961 1077.345536 479.987636 9.141293 0.000000 0.136558
166.000000 103.530000 3.000000 3.000000 5.000000 117.124347 -19.157375 1348.907747 357.332054 9.658039 0.000000 0.081112
167.000000 95.483000 4.000000 3.000000 5.000000 118.053640 -31.623857 1637.758571 267.408570 10.471592 0.000000 0.012326
168.000000 86.862000 5.000000 3.000000 5.000000 116.972478 -42.044173 1945.603270 203.419771 11.510890 0.000000 0.142768
171.000000 60.853000 -2.000000 4.000000 5.000000 55.647556 30.412519 343.225745 1794.014874 16.448502 0.000000 0.176347
172.000000 74.942000 -1.000000 4.000000 5.000000 68.695196 22.927257 519.751999 1396.736687 13.354133 0.000000 0.105926
173.000000 85.481000 0.000000 4.000000 5.000000 80.814251 14.123954 704.175158 1120.472357 11.705482 0.000000 0.140082
174.000000 91.079000 1.000000 4.000000 5.000000 90.977123 4.143057 897.037246 922.594986 10.983925 0.000000 0.168291
175.000000 91.831000 2.000000 4.000000 5.000000 98.516899 -6.568456 1098.931057 778.757211 10.892408 0.000000 0.167002
176.000000 88.914000 3.000000 4.000000 5.000000 103.320324 -17.313484 1310.506233 674.077613 11.248535 0.000000 0.136600
177.000000 83.800000 4.000000 4.000000 5.000000 105.757429 -27.382302 1532.476255 598.982461 11.934121 0.000000 0.080982
178.000000 77.709000 5.000000 4.000000 5.000000 106.434772 -36.300336 1765.626473 547.066813 12.869218 0.000000 0.038691
179.000000 71.442000 6.000000 4.000000 5.000000 105.955759 -43.902274 2010.823399 513.917212 13.997810 0.000000 0.130994
180.000000 65.450000 7.000000 4.000000 5.000000 104.795914 -50.248308 2269.025458 496.427485 15.279481 0.000000 0.267720
182.000000 48.460000 -2.000000 5.000000 5.000000 48.402841 24.632041 481.505769 1992.133111 20.657521 0.000000 0.194353
183.000000 59.580000 -1.000000 5.000000 5.000000 59.522592 17.738132 630.721241 1606.030550 16.799952 0.000000 0.080952
184.000000 73.901000 1.000000 5.000000 5.000000 78.967709 1.541059 946.044419 1150.915903 13.540277 0.000000 0.142733
185.000000 75.974000 2.000000 5.000000 5.000000 86.145817 -7.296090 1112.801821 1014.101668 13.169074 0.000000 0.159825
186.000000 75.173000 3.000000 5.000000 5.000000 91.338517 -16.121733 1286.098695 914.822068 13.307748 0.000000 0.151636
187.000000 72.382000 4.000000 5.000000 5.000000 94.706097 -24.536657 1466.327407 843.601720 13.819665 0.000000 0.122609
188.000000 64.018000 6.000000 5.000000 5.000000 97.355165 -39.088221 1849.313293 762.007257 15.623788 0.000000 0.077364
189.000000 59.513000 7.000000 5.000000 5.000000 97.361823 -45.046139 2053.029120 744.185099 16.806057 0.000000 0.146645
190.000000 55.179000 8.000000 5.000000 5.000000 96.873562 -50.173671 2265.602105 738.424513 18.125956 0.000000 0.254650
192.000000 47.350000 -1.000000 6.000000 5.000000 51.758442 13.851406 709.612626 1814.630155 21.141857 0.000000 0.100256
193.000000 54.678000 0.000000 6.000000 5.000000 60.856872 6.998198 842.882042 1545.623760 18.306292 0.000000 0.043272
194.000000 59.814000 1.000000 6.000000 5.000000 68.965601 -0.289074 980.430262 1354.897508 16.732284 0.000000 0.094054
195.000000 62.541000 2.000000 6.000000 5.000000 75.748803 -7.801711 1122.466714 1216.921860 16.000588 0.000000 0.128786
196.000000 63.092000 3.000000 6.000000 5.000000 81.067167 -15.288802 1269.214721 1116.382087 15.859200 0.000000 0.140046
197.000000 61.959000 4.000000 6.000000 5.000000 84.969588 -22.504407 1420.912669 1043.548264 16.147526 0.000000 0.132263
198.000000 59.696000 5.000000 6.000000 5.000000 87.634686 -29.252494 1577.815303 991.955516 16.758382 0.000000 0.112455
199.000000 56.782000 6.000000 6.000000 5.000000 89.299207 -35.411056 1740.195155 957.153024 17.617494 0.000000 0.096079
200.000000 53.574000 7.000000 6.000000 5.000000 90.201556 -40.931274 1908.344120 935.988418 18.671769 0.000000 0.112469
201.000000 50.311000 8.000000 6.000000 5.000000 90.549864 -45.820627 2082.575211 926.178160 19.882244 0.000000 0.171430
202.000000 47.139000 9.000000 6.000000 5.000000 90.510629 -50.121696 2263.224502 926.039028 21.219682 0.000000 0.258998
203.000000 48.589000 1.000000 7.000000 5.000000 60.650480 -1.643892 1005.888796 1546.461136 20.600644 0.000000 0.032272
204.000000 51.541000 2.000000 7.000000 5.000000 67.025303 -8.173425 1129.586843 1401.981495 19.418463 0.000000 0.084210
205.000000 52.871000 3.000000 7.000000 5.000000 72.302983 -14.674081 1256.840179 1296.007043 18.928013 0.000000 0.112599
206.000000 52.838000 4.000000 7.000000 5.000000 76.475812 -20.983929 1387.804315 1218.263895 18.938201 0.000000 0.122570
207.000000 51.783000 5.000000 7.000000 5.000000 79.630956 -26.968068 1522.643967 1161.963642 19.322385 0.000000 0.120016
208.000000 50.042000 6.000000 7.000000 5.000000 81.910534 -32.532503 1661.533748 1122.449334 19.993317 0.000000 0.113560
209.000000 47.894000 7.000000 7.000000 5.000000 83.475232 -37.626748 1804.658916 1096.427814 20.888928 0.000000 0.117046
210.000000 45.548000 8.000000 7.000000 5.000000 84.479190 -42.237727 1952.216207 1081.512192 21.963859 0.000000 0.144291
216.000000 101.579000 -1.000000 2.000000 6.000000 97.270932 42.739540 -19.551853 754.027194 9.846422 0.000000 0.113980
217.000000 111.194000 0.000000 2.000000 6.000000 112.440336 33.621078 259.340931 407.201785 8.992877 0.000000 0.015192
218.000000 114.424000 1.000000 2.000000 6.000000 125.079116 21.123776 559.179400 130.705135 8.737381 0.000000 0.033236
219.000000 112.052000 2.000000 2.000000 6.000000 133.768622 4.916582 882.415246 -93.805765 8.921230 0.000000 0.030512
220.000000 105.919000 3.000000 2.000000 6.000000 137.784377 -13.424624 1231.898322 -278.662826 9.437311 0.000000 0.036281
222.000000 75.220000 -2.000000 3.000000 6.000000 73.552626 40.120038 68.032540 1356.508689 13.302586 0.000000 0.169920
223.000000 88.108000 -1.000000 3.000000 6.000000 87.556776 33.093715 273.540800 995.815802 11.354241 0.000000 0.101708
224.000000 100.712000 1.000000 3.000000 6.000000 111.307415 13.385294 718.882449 509.488054 9.929365 0.000000 0.126321
225.000000 99.898000 2.000000 3.000000 6.000000 119.064526 0.762184 960.681617 342.761869 10.008954 0.000000 0.114907
226.000000 89.670000 4.000000 3.000000 6.000000 124.975060 -25.499163 1488.346728 106.811638 11.149304 0.000000 0.022116
227.000000 82.821000 5.000000 3.000000 6.000000 124.310470 -36.690707 1776.973518 25.035992 12.071259 0.000000 0.111897
229.000000 51.150000 -3.000000 4.000000 6.000000 53.678663 38.496532 118.983240 1951.973238 19.568445 0.000000 0.273850
230.000000 74.349000 -1.000000 4.000000 6.000000 77.946414 25.948007 451.264679 1196.591515 13.458186 0.000000 0.118865
231.000000 86.324000 1.000000 4.000000 6.000000 98.580112 8.562740 812.941665 776.777393 11.587257 0.000000 0.164066
232.000000 84.528000 3.000000 4.000000 6.000000 110.554966 -12.219956 1208.095476 528.056378 11.830609 0.000000 0.132581
233.000000 75.295000 5.000000 4.000000 6.000000 113.870032 -31.771877 1641.599579 380.776584 13.280147 0.000000 0.012331
234.000000 64.584000 7.000000 4.000000 6.000000 112.170015 -46.754676 2119.321639 300.866347 15.482690 0.000000 0.209735
235.000000 52.810000 -2.000000 5.000000 6.000000 58.640619 27.013607 426.278670 1677.252031 18.953087 0.000000 0.134655
236.000000 61.789000 -1.000000 5.000000 6.000000 69.123859 20.595872 570.536083 1379.510838 16.196705 0.000000 0.103424
237.000000 68.664000 0.000000 5.000000 6.000000 78.869913 13.329419 719.991235 1158.609819 14.572881 0.000000 0.135642
238.000000 72.842000 1.000000 5.000000 6.000000 87.326170 5.311875 874.930197 991.480854 13.734978 0.000000 0.163002
239.000000 74.294000 2.000000 5.000000 6.000000 94.105172 -3.225803 1035.660430 863.630017 13.464723 0.000000 0.170664
240.000000 73.451000 3.000000 5.000000 6.000000 99.063882 -11.935779 1202.512813 765.507247 13.617820 0.000000 0.158094
241.000000 70.958000 4.000000 5.000000 6.000000 102.300257 -20.426824 1375.843924 690.577966 14.095061 0.000000 0.126992
242.000000 67.457000 5.000000 5.000000 6.000000 104.079765 -28.362438 1556.038578 634.233412 14.825990 0.000000 0.080756
243.000000 63.460000 6.000000 5.000000 6.000000 104.736641 -35.528196 1743.512682 593.143031 15.759188 0.000000 0.042509
244.000000 59.329000 7.000000 5.000000 6.000000 104.593710 -41.841341 1938.716439 564.853144 16.856256 0.000000 0.095937
245.000000 55.289000 8.000000 5.000000 6.000000 103.919313 -47.318821 2142.137959 547.529319 18.087934 0.000000 0.194235
248.000000 51.037000 -1.000000 6.000000 6.000000 61.327574 16.503303 656.119617 1554.870252 19.611629 0.000000 0.075894
249.000000 61.024000 1.000000 6.000000 6.000000 77.582843 2.985794 918.861391 1178.298678 16.398112 0.000000 0.137271
250.000000 59.821000 5.000000 6.000000 6.000000 95.112212 -25.876231 1497.068755 833.982346 16.721222 0.000000 0.116258
251.000000 53.975000 7.000000 6.000000 6.000000 97.288182 -38.009578 1816.183033 766.295750 18.530819 0.000000 0.072609
252.000000 47.284000 0.000000 7.000000 6.000000 62.256345 7.436712 834.512456 1511.915933 21.168390 0.000000 0.052785
253.000000 51.052000 1.000000 7.000000 6.000000 69.221647 1.244299 951.622327 1349.476922 19.604057 0.000000 0.095608
254.000000 53.330000 2.000000 7.000000 6.000000 75.242328 -5.148815 1071.981060 1225.667396 18.764378 0.000000 0.127325
255.000000 54.205000 3.000000 7.000000 6.000000 80.205391 -11.589490 1195.725750 1130.670995 18.459758 0.000000 0.141977
256.000000 53.903000 4.000000 7.000000 6.000000 84.102844 -17.917725 1323.001318 1057.836878 18.561438 0.000000 0.141518
257.000000 52.714000 5.000000 7.000000 6.000000 87.011350 -23.989514 1453.961073 1002.505238 18.978902 0.000000 0.129005
258.000000 50.919000 6.000000 7.000000 6.000000 89.060410 -29.694373 1588.767332 961.320098 19.646664 0.000000 0.109330
259.000000 48.759000 7.000000 7.000000 6.000000 90.400975 -34.962931 1727.592087 931.808811 20.516174 0.000000 0.093227
260.000000 46.417000 8.000000 7.000000 6.000000 91.181808 -39.764889 1870.617742 912.114898 21.550676 0.000000 0.101033
261.000000 46.434000 3.000000 8.000000 6.000000 72.571710 -11.476205 1193.509095 1285.766656 21.552120 0.000000 0.114076
262.000000 46.296000 5.000000 8.000000 6.000000 79.750953 -22.511745 1421.074182 1151.659237 21.612743 0.000000 0.126654
269.000000 80.970000 -2.000000 2.000000 7.000000 87.913938 50.802165 -344.769002 1003.031245 12.354274 0.000000 0.285226
270.000000 91.585000 -1.000000 2.000000 7.000000 102.254503 44.962108 -99.871631 610.610697 10.919896 0.000000 0.147128
271.000000 98.446000 0.000000 2.000000 7.000000 115.757791 37.071867 161.835461 290.121235 10.156772 0.000000 0.062823
272.000000 101.025000 1.000000 2.000000 7.000000 127.380082 26.339251 442.144508 23.445561 9.895845 0.000000 0.037869
273.000000 99.757000 2.000000 2.000000 7.000000 136.070498 12.158546 743.111915 -201.920619 10.020432 0.000000 0.027714
274.000000 95.675000 3.000000 2.000000 7.000000 141.040194 -4.891430 1067.108792 -394.886079 10.447399 0.000000 0.017062
278.000000 61.000000 -3.000000 3.000000 7.000000 68.332161 47.062002 -181.691305 1568.724246 16.404380 0.000000 0.294883
279.000000 72.469000 -2.000000 3.000000 7.000000 81.149963 42.029554 4.894564 1166.608300 13.805678 0.000000 0.156388
280.000000 82.006000 -1.000000 3.000000 7.000000 93.843817 35.723148 200.944555 851.926454 12.197654 0.000000 0.081092
281.000000 88.474000 0.000000 3.000000 7.000000 105.627553 27.814033 407.197474 600.608707 11.303686 0.000000 0.077441
282.000000 91.389000 1.000000 3.000000 7.000000 115.676075 18.039461 624.471077 396.817842 10.941371 0.000000 0.092113
283.000000 91.011000 2.000000 3.000000 7.000000 123.292816 6.431612 853.672912 229.723382 10.985555 0.000000 0.088917
284.000000 88.101000 3.000000 3.000000 7.000000 128.103040 -6.404586 1095.812984 91.684670 11.347510 0.000000 0.061980
285.000000 83.568000 4.000000 3.000000 7.000000 130.202879 -19.305014 1352.018641 -22.825862 11.962579 0.000000 0.028798
286.000000 78.207000 5.000000 3.000000 7.000000 130.119671 -31.072276 1623.552119 -117.888199 12.782530 0.000000 0.093831
289.000000 53.434000 -3.000000 4.000000 7.000000 62.648071 40.147723 67.142833 1669.367359 18.729463 0.000000 0.226974
290.000000 63.296000 -2.000000 4.000000 7.000000 74.028404 34.910890 223.862551 1316.644960 15.808827 0.000000 0.133336
291.000000 71.649000 -1.000000 4.000000 7.000000 85.191898 28.647986 387.015399 1044.161026 13.963457 0.000000 0.114803
292.000000 77.612000 0.000000 4.000000 7.000000 95.514603 21.224390 557.005782 829.526504 12.888350 0.000000 0.133701
293.000000 80.761000 1.000000 4.000000 7.000000 104.385781 12.607453 734.272730 658.118571 12.383895 0.000000 0.147690
294.000000 81.210000 2.000000 4.000000 7.000000 111.337513 2.962844 919.293678 519.995626 12.313965 0.000000 0.144575
295.000000 79.469000 3.000000 4.000000 7.000000 116.153710 -7.284931 1112.588766 408.176170 12.582543 0.000000 0.122100
296.000000 76.210000 4.000000 4.000000 7.000000 118.912913 -17.517983 1314.725718 317.626615 13.119959 0.000000 0.080010
297.000000 72.063000 5.000000 4.000000 7.000000 119.935277 -27.123527 1526.325411 244.639441 13.874434 0.000000 0.019703
298.000000 67.526000 6.000000 4.000000 7.000000 119.657776 -35.688496 1748.068248 186.436933 14.806687 0.000000 0.066437
299.000000 62.937000 7.000000 4.000000 7.000000 118.508837 -43.058055 1980.701463 140.910717 15.886372 0.000000 0.170438
302.000000 46.055000 -3.000000 5.000000 7.000000 57.013841 34.368319 238.919721 1787.331817 21.732816 0.000000 0.201993
303.000000 54.400000 -2.000000 5.000000 7.000000 67.092447 29.184033 373.873034 1461.941015 18.396739 0.000000 0.123728
304.000000 61.603000 -1.000000 5.000000 7.000000 76.931813 23.209938 513.478685 1212.831813 16.243408 0.000000 0.120206
305.000000 67.003000 0.000000 5.000000 7.000000 86.056210 16.412144 657.981470 1018.352648 14.931929 0.000000 0.146200
306.000000 70.244000 1.000000 5.000000 7.000000 94.019236 8.838321 807.643662 864.466284 14.240928 0.000000 0.165244
307.000000 71.340000 2.000000 5.000000 7.000000 100.490974 0.652273 962.746605 741.683109 14.020394 0.000000 0.168718
308.000000 70.605000 3.000000 5.000000 7.000000 105.319590 -7.860527 1123.592479 643.367049 14.165065 0.000000 0.155587
309.000000 68.502000 4.000000 5.000000 7.000000 108.544809 -16.338038 1290.506262 564.747204 14.598904 0.000000 0.126337
310.000000 65.507000 5.000000 5.000000 7.000000 110.360158 -24.426889 1463.837921 502.314588 15.265609 0.000000 0.081839
311.000000 62.023000 6.000000 5.000000 7.000000 111.043668 -31.862793 1643.964868 453.439714 16.122607 0.000000 0.026868
312.000000 58.351000 7.000000 5.000000 7.000000 110.888148 -38.505593 1831.294693 416.122226 17.137103 0.000000 0.060715
313.000000 54.692000 8.000000 5.000000 7.000000 110.153791 -44.326074 2026.268253 388.822412 18.283431 0.000000 0.150919
314.000000 51.173000 9.000000 5.000000 7.000000 109.047744 -49.369072 2229.363130 370.345081 19.541214 0.000000 0.258931
316.000000 46.327000 -2.000000 6.000000 7.000000 60.641448 24.563249 483.068832 1606.677102 21.605123 0.000000 0.113144
317.000000 52.492000 -1.000000 6.000000 7.000000 69.369198 18.970458 605.022779 1369.485556 19.065507 0.000000 0.102431
318.000000 57.321000 0.000000 6.000000 7.000000 77.513690 12.790726 730.655144 1185.403745 17.456971 0.000000 0.131864
319.000000 60.524000 1.000000 6.000000 7.000000 84.745805 6.091706 860.134901 1040.539092 16.531026 0.000000 0.157585
320.000000 62.059000 2.000000 6.000000 7.000000 90.821992 -0.992270 993.641532 925.555604 16.120381 0.000000 0.169381
321.000000 62.099000 3.000000 6.000000 7.000000 95.621202 -8.266194 1131.365860 833.954178 16.108284 0.000000 0.166337
322.000000 60.950000 4.000000 6.000000 7.000000 99.151017 -15.501391 1273.510961 761.077647 16.410777 0.000000 0.149330
323.000000 58.952000 5.000000 6.000000 7.000000 101.524402 -22.476253 1420.293157 703.507675 16.965936 0.000000 0.119793
324.000000 56.418000 6.000000 6.000000 7.000000 102.919265 -29.013985 1571.943120 658.684599 17.727089 0.000000 0.080697
325.000000 53.601000 7.000000 6.000000 7.000000 103.536567 -35.002776 1728.707079 624.659703 18.658391 0.000000 0.047635
326.000000 50.684000 8.000000 6.000000 7.000000 103.568485 -40.395366 1890.848153 599.929120 19.731859 0.000000 0.076745
327.000000 47.793000 9.000000 6.000000 7.000000 103.180477 -45.195064 2058.647830 583.319665 20.925326 0.000000 0.150006
328.000000 51.919000 1.000000 7.000000 7.000000 76.562561 4.010019 899.549051 1198.783882 19.273869 0.000000 0.132925
329.000000 53.707000 2.000000 7.000000 7.000000 82.286224 -2.220624 1016.735061 1086.893773 18.630331 0.000000 0.153342
330.000000 54.297000 3.000000 7.000000 7.000000 87.008208 -8.567476 1137.149318 997.886374 18.426084 0.000000 0.160123
331.000000 53.879000 4.000000 7.000000 7.000000 90.714737 -14.877493 1260.927085 927.107340 18.567483 0.000000 0.154210
332.000000 52.689000 5.000000 7.000000 7.000000 93.467162 -21.002813 1388.211285 871.149492 18.985735 0.000000 0.137200
333.000000 50.959000 6.000000 7.000000 7.000000 95.377909 -26.820257 1519.153057 827.465594 19.629166 0.000000 0.111552
334.000000 46.647000 8.000000 7.000000 7.000000 97.226640 -37.223863 1792.658587 769.607558 21.442053 0.000000 0.070807
335.000000 46.399000 2.000000 8.000000 7.000000 74.785014 -3.172228 1034.650876 1234.174216 21.567572 0.000000 0.125541
336.000000 47.349000 3.000000 8.000000 7.000000 79.390787 -8.800057 1141.620255 1145.003617 21.133070 0.000000 0.141684
337.000000 47.461000 4.000000 8.000000 7.000000 83.177555 -14.394454 1251.234348 1073.941368 21.081501 0.000000 0.145864
338.000000 46.892000 5.000000 8.000000 7.000000 86.173918 -19.851948 1363.592466 1017.527281 21.335793 0.000000 0.139718
339.000000 45.810000 6.000000 8.000000 7.000000 88.448847 -25.083665 1478.798954 973.180270 21.838256 0.000000 0.125442
341.000000 82.945000 -1.000000 2.000000 8.000000 106.015191 46.834950 -172.538924 489.413655 12.056483 0.000000 0.191193
342.000000 90.161000 1.000000 2.000000 8.000000 128.885483 30.657900 337.012410 -68.047226 11.087881 0.000000 0.081674
346.000000 59.860000 -3.000000 3.000000 8.000000 75.370501 48.285115 -232.374568 1363.205015 16.714850 0.000000 0.277655
347.000000 68.725000 -2.000000 3.000000 8.000000 87.129134 43.704872 -53.704279 1015.662367 14.556083 0.000000 0.152869
348.000000 75.942000 -1.000000 3.000000 8.000000 98.691314 38.013611 133.694909 732.170692 13.170243 0.000000 0.068051
349.000000 80.844000 0.000000 3.000000 8.000000 109.475125 30.914597 330.478687 497.364502 12.369588 0.000000 0.039948
350.000000 83.165000 1.000000 3.000000 8.000000 118.866561 22.127054 537.370102 300.500732 12.022622 0.000000 0.056395
351.000000 83.074000 2.000000 3.000000 8.000000 126.307117 11.543803 755.168437 133.850372 12.034505 0.000000 0.061762
352.000000 81.043000 3.000000 3.000000 8.000000 131.410806 -0.519528 984.759529 -8.280884 12.335106 0.000000 0.046338
353.000000 77.663000 4.000000 3.000000 8.000000 134.098262 -13.184118 1227.127813 -130.172194 12.871452 0.000000 0.026796
354.000000 73.487000 5.000000 3.000000 8.000000 134.655644 -25.282961 1483.370433 -235.092423 13.602782 0.000000 0.080045
357.000000 53.687000 -3.000000 4.000000 8.000000 70.019806 41.633511 18.294918 1464.565356 18.638883 0.000000 0.202605
358.000000 68.065000 -1.000000 4.000000 8.000000 90.940317 31.065453 326.622586 920.376873 14.697009 0.000000 0.100179
359.000000 75.174000 1.000000 4.000000 8.000000 108.868430 16.287638 660.521589 557.784495 13.303157 0.000000 0.124853
360.000000 74.336000 3.000000 4.000000 8.000000 120.480317 -2.570062 1023.310713 306.874301 13.450410 0.000000 0.107493
361.000000 68.474000 5.000000 4.000000 8.000000 124.841381 -22.413310 1418.909014 130.581536 14.600644 0.000000 0.028945
362.000000 60.812000 7.000000 4.000000 8.000000 123.912597 -39.173576 1851.977968 7.628247 16.440151 0.000000 0.143765
364.000000 47.418000 -3.000000 5.000000 8.000000 64.582956 35.992528 193.240861 1573.132662 21.105381 0.000000 0.173938
365.000000 54.277000 -2.000000 5.000000 8.000000 74.088315 31.164738 324.078028 1299.576529 18.435918 0.000000 0.121333
366.000000 60.070000 -1.000000 5.000000 8.000000 83.312141 25.600640 459.311403 1080.942824 16.655647 0.000000 0.122523
367.000000 64.363000 0.000000 5.000000 8.000000 91.870789 19.248808 599.166342 903.763274 15.542553 0.000000 0.142391
368.000000 66.937000 1.000000 5.000000 8.000000 99.401714 12.119269 743.883876 758.725132 14.942854 0.000000 0.156808
369.000000 67.820000 2.000000 5.000000 8.000000 105.622048 4.318576 893.722093 639.189822 14.746657 0.000000 0.158839
370.000000 67.236000 3.000000 5.000000 8.000000 110.375836 -3.930906 1048.957672 540.303712 14.873345 0.000000 0.147034
371.000000 65.518000 4.000000 5.000000 8.000000 113.655395 -12.311052 1209.887591 458.442194 15.262435 0.000000 0.121276
372.000000 63.016000 5.000000 5.000000 8.000000 115.588192 -20.472957 1376.831024 390.849969 15.867662 0.000000 0.081683
373.000000 60.043000 6.000000 5.000000 8.000000 116.393432 -28.118382 1550.131451 335.401297 16.653034 0.000000 0.028281
374.000000 56.843000 7.000000 5.000000 8.000000 116.326398 -35.054604 1730.159019 290.436074 17.590131 0.000000 0.039151
375.000000 53.595000 8.000000 5.000000 8.000000 115.631538 -41.202675 1917.313180 254.645237 18.656210 0.000000 0.120953
376.000000 50.416000 9.000000 5.000000 8.000000 114.515346 -46.571747 2112.025651 226.989087 19.832860 0.000000 0.217812
378.000000 52.483000 -1.000000 6.000000 8.000000 76.123212 21.263289 556.164637 1226.316488 19.066191 0.000000 0.120373
379.000000 59.001000 1.000000 6.000000 8.000000 90.697359 9.024579 804.058401 927.735355 16.955780 0.000000 0.163501
380.000000 60.201000 3.000000 6.000000 8.000000 101.162089 -4.898925 1067.250633 727.849312 16.614338 0.000000 0.166008
381.000000 57.437000 5.000000 6.000000 8.000000 106.989941 -19.076339 1347.202614 593.041954 17.411876 0.000000 0.120515
382.000000 52.672000 7.000000 6.000000 8.000000 109.008545 -31.924307 1645.567850 504.147553 18.985808 0.000000 0.036662
383.000000 47.365000 9.000000 6.000000 8.000000 108.582042 -42.586193 1964.224756 449.546650 21.112686 0.000000 0.114684
384.000000 45.594000 -1.000000 7.000000 8.000000 69.521790 17.774286 629.972455 1363.091361 21.949935 0.000000 0.101968
385.000000 49.169000 0.000000 7.000000 8.000000 76.514321 12.401501 738.331790 1205.277361 20.351583 0.000000 0.128725
386.000000 51.691000 1.000000 7.000000 8.000000 82.828168 6.648842 849.538644 1077.347055 19.356749 0.000000 0.152664
387.000000 53.123000 2.000000 7.000000 8.000000 88.300786 0.601166 963.706756 972.930642 18.833081 0.000000 0.166345
388.000000 53.541000 3.000000 7.000000 8.000000 92.837125 -5.622378 1080.956000 887.403500 18.684291 0.000000 0.168729
389.000000 53.098000 4.000000 7.000000 8.000000 96.415523 -11.879714 1201.412813 817.330206 18.838655 0.000000 0.160242
390.000000 51.983000 5.000000 7.000000 8.000000 99.080273 -18.024141 1325.210643 760.108624 19.241649 0.000000 0.141715
391.000000 50.384000 6.000000 7.000000 8.000000 100.924517 -23.924134 1452.490446 713.734839 19.851083 0.000000 0.114339
392.000000 48.471000 7.000000 7.000000 8.000000 102.069242 -29.478349 1583.401218 676.643647 20.633803 0.000000 0.080724
393.000000 46.380000 8.000000 7.000000 8.000000 102.643864 -34.622173 1718.100583 647.597745 21.563393 0.000000 0.052091
394.000000 47.430000 3.000000 8.000000 8.000000 85.357568 -6.183387 1091.607237 1028.910316 21.094611 0.000000 0.159138
395.000000 46.821000 5.000000 8.000000 8.000000 91.853502 -17.203453 1308.239817 904.538793 21.365682 0.000000 0.149030
399.000000 75.567000 -1.000000 2.000000 9.000000 108.938660 48.431383 -238.597641 384.405804 13.233003 0.000000 0.237757
400.000000 79.494000 0.000000 2.000000 9.000000 119.971983 42.340552 -5.745805 101.260542 12.577244 0.000000 0.169303
401.000000 81.256000 1.000000 2.000000 9.000000 129.893829 34.254443 242.055150 -147.535488 12.302789 0.000000 0.127463
402.000000 81.012000 2.000000 2.000000 9.000000 138.128344 23.532287 506.292573 -368.661779 12.338700 0.000000 0.093291
407.000000 64.726000 -2.000000 3.000000 9.000000 91.921504 45.184187 -108.236498 889.769557 15.454105 0.000000 0.160041
408.000000 70.311000 -1.000000 3.000000 9.000000 102.511825 40.020602 71.222187 629.120118 14.223955 0.000000 0.074582
409.000000 76.027000 1.000000 3.000000 9.000000 121.242301 25.710911 456.762090 216.341187 13.150804 0.000000 0.023492
410.000000 76.117000 2.000000 3.000000 9.000000 128.471718 16.107393 664.193160 50.797613 13.133949 0.000000 0.037600
411.000000 72.172000 4.000000 3.000000 9.000000 136.958797 -7.269433 1112.292896 -220.860457 13.850262 0.000000 0.018208
412.000000 68.916000 5.000000 3.000000 9.000000 138.144564 -19.436104 1354.785541 -333.031205 14.504305 0.000000 0.066187
414.000000 45.779000 -4.000000 4.000000 9.000000 66.323949 46.732609 -168.438891 1629.533565 21.859215 0.000000 0.301996
415.000000 52.765000 -3.000000 4.000000 9.000000 76.126992 42.975836 -27.812349 1304.317234 18.962365 0.000000 0.188628
416.000000 59.074000 -2.000000 4.000000 9.000000 85.986877 38.523781 118.147248 1037.516355 16.934868 0.000000 0.112452
417.000000 64.231000 -1.000000 4.000000 9.000000 95.566043 33.235158 269.749138 815.600574 15.572806 0.000000 0.080947
418.000000 67.889000 0.000000 4.000000 9.000000 104.487099 26.969298 427.326935 628.977337 14.731414 0.000000 0.086638
419.000000 69.904000 1.000000 4.000000 9.000000 112.372835 19.623985 591.241086 470.661696 14.305079 0.000000 0.098682
420.000000 70.340000 2.000000 4.000000 9.000000 118.894640 11.200327 761.881616 335.451761 14.214940 0.000000 0.101316
421.000000 69.426000 3.000000 4.000000 9.000000 123.825591 1.880027 939.671236 219.398982 14.400927 0.000000 0.090421
422.000000 67.475000 4.000000 4.000000 9.000000 127.089044 -7.937636 1125.068832 119.457268 14.816475 0.000000 0.065454
423.000000 64.811000 5.000000 4.000000 9.000000 128.780643 -17.704063 1318.573420 33.244328 15.424933 0.000000 0.032322
424.000000 61.721000 6.000000 4.000000 9.000000 129.140891 -26.887017 1520.728637 -41.124431 16.197056 0.000000 0.051890
425.000000 58.430000 7.000000 4.000000 9.000000 128.484579 -35.124777 1732.127834 -105.153846 17.109228 0.000000 0.124845
428.000000 47.513000 -3.000000 5.000000 9.000000 70.967066 37.479333 149.747006 1408.871319 21.060960 0.000000 0.158682
429.000000 53.153000 -2.000000 5.000000 9.000000 79.913923 32.975393 276.703319 1169.211206 18.823629 0.000000 0.115865
430.000000 57.847000 -1.000000 5.000000 9.000000 88.566169 27.788099 407.820071 971.451719 17.293825 0.000000 0.114906
431.000000 61.307000 0.000000 5.000000 9.000000 96.613617 21.855409 543.305178 806.545525 16.315731 0.000000 0.130022
432.000000 63.396000 1.000000 5.000000 9.000000 103.759909 15.160168 683.380647 667.932006 15.776152 0.000000 0.141951
433.000000 64.143000 2.000000 5.000000 9.000000 109.761907 7.762491 828.283786 550.742201 15.590877 0.000000 0.144065
434.000000 63.708000 3.000000 5.000000 9.000000 114.465226 -0.173998 978.268548 451.290859 15.695962 0.000000 0.134529
435.000000 62.330000 4.000000 5.000000 9.000000 117.827371 -8.383000 1133.607017 366.741552 16.041975 0.000000 0.112899
436.000000 60.268000 5.000000 5.000000 9.000000 119.919761 -16.538076 1294.591052 294.879800 16.590103 0.000000 0.079146
437.000000 57.762000 6.000000 5.000000 9.000000 120.904936 -24.325139 1461.534121 233.955683 17.309445 0.000000 0.034038
438.000000 55.010000 7.000000 5.000000 9.000000 120.996256 -31.508488 1634.773333 182.572374 18.175093 0.000000 0.030519
439.000000 52.164000 8.000000 5.000000 9.000000 120.415718 -37.959598 1814.671718 139.605730 19.166748 0.000000 0.101093
440.000000 49.331000 9.000000 5.000000 9.000000 119.363371 -43.646853 2001.620758 104.145353 20.267700 0.000000 0.187162
442.000000 47.339000 -2.000000 6.000000 9.000000 73.979129 28.363186 393.943257 1292.207849 21.138312 0.000000 0.117159
443.000000 51.569000 -1.000000 6.000000 9.000000 81.812076 23.393034 509.401220 1109.734300 19.402049 0.000000 0.126324
444.000000 56.916000 1.000000 6.000000 9.000000 95.655360 11.784387 750.456480 832.123623 17.575052 0.000000 0.160197
445.000000 57.911000 2.000000 6.000000 9.000000 101.250510 5.236668 876.354993 726.004457 17.271365 0.000000 0.165382
446.000000 57.034000 4.000000 6.000000 9.000000 109.230184 -8.701031 1139.715988 561.187593 17.534237 0.000000 0.144356
447.000000 55.535000 5.000000 6.000000 9.000000 111.630038 -15.700264 1277.538031 497.671745 18.006483 0.000000 0.118250
448.000000 51.369000 7.000000 6.000000 9.000000 113.775044 -28.789896 1566.450651 399.983359 19.465976 0.000000 0.036221
449.000000 49.003000 8.000000 6.000000 9.000000 113.828233 -34.617608 1717.973971 363.408190 20.405214 0.000000 0.023726
450.000000 45.665000 -1.000000 7.000000 9.000000 75.472012 19.811336 587.269645 1237.455730 21.913337 0.000000 0.119940
451.000000 48.659000 0.000000 7.000000 9.000000 82.139984 14.681647 693.007938 1094.597812 20.562861 0.000000 0.142445
452.000000 50.750000 1.000000 7.000000 9.000000 88.173957 9.158883 801.470906 975.756731 19.713328 0.000000 0.160688
453.000000 51.922000 2.000000 7.000000 9.000000 93.430929 3.309339 912.765238 876.365480 19.266427 0.000000 0.170269
454.000000 52.239000 3.000000 7.000000 9.000000 97.821287 -2.766206 1027.003265 792.986148 19.147994 0.000000 0.170304
455.000000 51.821000 4.000000 7.000000 9.000000 101.315519 -8.939494 1144.303343 722.983759 19.301025 0.000000 0.160907
456.000000 50.818000 5.000000 7.000000 9.000000 103.941220 -15.069417 1264.790257 664.307181 19.680985 0.000000 0.142484
457.000000 49.381000 6.000000 7.000000 9.000000 105.771843 -21.020644 1388.595668 615.338227 20.252576 0.000000 0.115584
458.000000 47.651000 7.000000 7.000000 9.000000 106.910655 -26.680408 1515.858589 574.785441 20.987459 0.000000 0.081196
459.000000 45.742000 8.000000 7.000000 9.000000 107.474094 -31.968695 1646.725906 541.607855 21.862622 0.000000 0.043638
460.000000 46.348000 2.000000 8.000000 9.000000 86.310889 1.793486 941.298577 1010.429442 21.586535 0.000000 0.162781
461.000000 46.917000 3.000000 8.000000 9.000000 90.562039 -3.634753 1043.370130 930.420541 21.322931 0.000000 0.168372
462.000000 46.854000 4.000000 8.000000 9.000000 94.072316 -9.124923 1147.874625 863.390813 21.350411 0.000000 0.165282
463.000000 46.265000 5.000000 8.000000 9.000000 96.854637 -14.577387 1254.900097 807.315103 21.620780 0.000000 0.154028
470.000000 55.284000 -3.000000 3.000000 10.000000 85.846360 50.351255 -323.764974 1063.496689 18.094813 0.000000 0.279542
471.000000 60.813000 -2.000000 3.000000 10.000000 95.828300 46.498328 -159.111217 781.402421 16.447286 0.000000 0.176479
472.000000 65.226000 -1.000000 3.000000 10.000000 105.582439 41.789555 13.034868 538.435357 15.331941 0.000000 0.097954
473.000000 68.271000 0.000000 3.000000 10.000000 114.773347 35.994071 193.196577 327.078407 14.646201 0.000000 0.044426
474.000000 69.855000 1.000000 3.000000 10.000000 123.043610 28.855367 381.947100 141.632129 14.312260 0.000000 0.025213
475.000000 70.055000 2.000000 3.000000 10.000000 130.036947 20.157096 579.915615 -22.302475 14.270030 0.000000 0.029744
476.000000 69.071000 3.000000 3.000000 10.000000 135.435121 9.867052 787.794291 -168.173952 14.472370 0.000000 0.023611
477.000000 67.168000 4.000000 3.000000 10.000000 139.024336 -1.668231 1006.346373 -298.723006 14.881779 0.000000 0.004808
478.000000 64.620000 5.000000 3.000000 10.000000 140.781793 -13.651917 1236.415553 -416.154276 15.468048 0.000000 0.050684
481.000000 51.204000 -3.000000 4.000000 10.000000 81.234177 44.193238 -71.403324 1172.469266 19.538906 0.000000 0.181589
482.000000 60.458000 -1.000000 4.000000 10.000000 99.340744 35.187976 216.096132 724.380229 16.543223 0.000000 0.062559
483.000000 65.077000 1.000000 4.000000 10.000000 115.147165 22.642875 526.036675 393.549954 15.365360 0.000000 0.070992
484.000000 64.867000 3.000000 4.000000 10.000000 126.416014 6.038139 861.152512 142.593512 15.412438 0.000000 0.072128
485.000000 61.239000 5.000000 4.000000 10.000000 131.921199 -13.058548 1224.640829 -51.078133 16.324123 0.000000 0.030773
486.000000 55.944000 7.000000 4.000000 10.000000 132.324139 -30.943694 1620.264124 -201.838385 17.868786 0.000000 0.110052
488.000000 46.822000 -3.000000 5.000000 10.000000 76.382220 38.843692 108.285042 1275.766964 21.369747 0.000000 0.147973
489.000000 51.482000 -2.000000 5.000000 10.000000 84.802353 34.633807 231.576634 1059.990930 19.432875 0.000000 0.106918
490.000000 55.323000 -1.000000 5.000000 10.000000 92.931634 29.791552 358.811175 877.487635 18.081404 0.000000 0.101274
491.000000 59.878000 1.000000 5.000000 10.000000 107.317208 17.971110 625.890690 588.204938 16.701801 0.000000 0.123236
492.000000 60.531000 2.000000 5.000000 10.000000 113.120516 10.981035 766.159276 472.895144 16.520052 0.000000 0.126309
493.000000 60.225000 3.000000 5.000000 10.000000 117.779707 3.391303 911.220276 373.026843 16.602681 0.000000 0.119505
494.000000 59.132000 4.000000 5.000000 10.000000 121.229159 -4.585559 1061.323565 286.328564 16.908443 0.000000 0.102157
495.000000 55.348000 6.000000 5.000000 10.000000 124.690863 -20.515717 1377.746497 145.541300 18.063232 0.000000 0.037771
496.000000 53.000000 7.000000 5.000000 10.000000 124.984783 -27.891365 1544.660822 88.801927 18.863380 0.000000 0.030561
497.000000 50.527000 8.000000 5.000000 10.000000 124.571989 -34.611715 1717.810536 39.795736 19.786459 0.000000 0.088258
498.000000 48.026000 9.000000 5.000000 10.000000 123.640534 -40.601716 1897.551690 -2.278967 20.817247 0.000000 0.164087
499.000000 50.127000 -1.000000 6.000000 10.000000 86.627214 25.371204 464.600642 1011.201545 19.958181 0.000000 0.123568
500.000000 54.566000 1.000000 6.000000 10.000000 99.804009 14.374313 699.168876 749.003619 18.330463 0.000000 0.150897
501.000000 55.404000 3.000000 6.000000 10.000000 109.649119 1.459914 947.569760 556.584050 18.050069 0.000000 0.150444
502.000000 53.432000 5.000000 6.000000 10.000000 115.559260 -12.370819 1211.064049 414.031433 18.714035 0.000000 0.113440
503.000000 49.830000 7.000000 6.000000 10.000000 117.909138 -25.617173 1491.070513 308.764885 20.065520 0.000000 0.039605
504.000000 45.587000 9.000000 6.000000 10.000000 117.698695 -37.106654 1789.191488 232.503410 21.933082 0.000000 0.072318
505.000000 47.621000 0.000000 7.000000 10.000000 86.963063 16.832096 649.389606 1000.657867 21.008984 0.000000 0.146365
506.000000 49.375000 1.000000 7.000000 10.000000 92.742619 11.540411 755.234799 888.377017 20.260596 0.000000 0.160770
507.000000 50.355000 2.000000 7.000000 10.000000 97.810590 5.899268 863.789703 792.577322 19.864572 0.000000 0.167885
508.000000 50.612000 3.000000 7.000000 10.000000 102.082198 -0.008503 975.159723 710.612254 19.761834 0.000000 0.166832
509.000000 50.243000 4.000000 7.000000 10.000000 105.521268 -6.070162 1089.455803 640.401482 19.905812 0.000000 0.157520
510.000000 49.363000 5.000000 7.000000 10.000000 108.140339 -12.153800 1206.794793 580.288912 20.259301 0.000000 0.140104
511.000000 48.096000 6.000000 7.000000 10.000000 109.994070 -18.124653 1327.299850 528.941536 20.792218 0.000000 0.114811
512.000000 46.555000 7.000000 7.000000 10.000000 111.167686 -23.862296 1451.100868 485.276028 21.479976 0.000000 0.081942
513.000000 46.002000 3.000000 8.000000 10.000000 95.095404 -1.161200 996.815993 845.010613 21.745481 0.000000 0.171435
525.000000 52.669000 -3.000000 3.000000 11.000000 89.810916 51.230616 -365.105869 946.672316 18.992187 0.000000 0.292384
526.000000 57.133000 -2.000000 3.000000 11.000000 99.062239 47.672316 -206.684462 686.062886 17.505392 0.000000 0.199292
527.000000 60.687000 -1.000000 3.000000 11.000000 108.093240 43.357604 -41.293369 457.359618 16.478023 0.000000 0.128688
528.000000 63.164000 0.000000 3.000000 11.000000 116.642869 38.084825 131.537697 254.966831 15.829812 0.000000 0.081258
529.000000 64.508000 1.000000 3.000000 11.000000 124.432130 31.620735 312.322308 74.518898 15.498162 0.000000 0.057179
530.000000 64.773000 2.000000 3.000000 11.000000 131.175422 23.740935 501.622418 -87.440787 15.433536 0.000000 0.047458
531.000000 64.093000 3.000000 3.000000 11.000000 136.599669 14.330079 700.054198 -233.685373 15.596219 0.000000 0.035704
532.000000 62.652000 4.000000 3.000000 11.000000 140.485198 3.546472 908.294733 -366.466214 15.954002 0.000000 0.012222
537.000000 49.325000 -3.000000 4.000000 11.000000 85.546738 45.301419 -112.678524 1060.171984 20.281396 0.000000 0.180746
538.000000 53.512000 -2.000000 4.000000 11.000000 94.135617 41.467422 23.865685 837.144523 18.692049 0.000000 0.106116
539.000000 56.890000 -1.000000 4.000000 11.000000 102.461833 36.950957 165.397564 643.363143 17.579760 0.000000 0.052331
540.000000 59.310000 0.000000 4.000000 11.000000 110.287618 31.625630 312.195483 473.739321 16.860358 0.000000 0.030972
541.000000 60.715000 1.000000 4.000000 11.000000 117.370411 25.373017 464.558915 324.320359 16.468374 0.000000 0.042989
542.000000 61.141000 2.000000 4.000000 11.000000 123.480843 18.119348 622.810484 191.990986 16.352121 0.000000 0.053866
543.000000 60.699000 3.000000 4.000000 11.000000 128.425751 9.892682 787.298237 74.264518 16.470246 0.000000 0.053854
544.000000 59.542000 4.000000 4.000000 11.000000 132.077841 0.883715 958.398205 -30.866254 16.789270 0.000000 0.042212
545.000000 57.843000 5.000000 4.000000 11.000000 134.406724 -8.534573 1136.517273 -125.037456 17.281804 0.000000 0.025411
546.000000 55.766000 6.000000 4.000000 11.000000 135.495127 -17.874101 1322.096404 -209.594174 17.925219 0.000000 0.043345
547.000000 53.453000 7.000000 4.000000 11.000000 135.523464 -26.670025 1515.614293 -285.650421 18.700657 0.000000 0.096972
551.000000 45.666000 -3.000000 5.000000 11.000000 81.006455 40.098761 68.715834 1163.690694 21.908685 0.000000 0.139763
552.000000 49.543000 -2.000000 5.000000 11.000000 88.938572 36.155950 188.541672 965.697451 20.191678 0.000000 0.096559
553.000000 52.719000 -1.000000 5.000000 11.000000 96.592669 31.628952 312.109421 794.907816 18.972905 0.000000 0.084485
554.000000 55.062000 0.000000 5.000000 11.000000 103.762314 26.448060 439.597141 646.572002 18.163584 0.000000 0.092053
555.000000 56.515000 1.000000 5.000000 11.000000 110.245462 20.565158 571.194369 517.011540 17.694844 0.000000 0.102250
556.000000 57.098000 2.000000 5.000000 11.000000 115.862289 13.977276 707.103062 403.335334 17.512440 0.000000 0.106814
557.000000 56.897000 3.000000 5.000000 11.000000 120.474180 6.753861 847.538632 303.241650 17.573065 0.000000 0.102952
558.000000 56.037000 4.000000 5.000000 11.000000 124.001999 -0.943816 992.731080 214.877178 17.841727 0.000000 0.089798
559.000000 54.662000 5.000000 5.000000 11.000000 126.439247 -8.867942 1142.926263 136.734885 18.289844 0.000000 0.067423
560.000000 52.913000 6.000000 5.000000 11.000000 127.853791 -16.723611 1298.387271 67.578745 18.893841 0.000000 0.038529
561.000000 50.917000 7.000000 5.000000 11.000000 128.374295 -24.230559 1459.395977 6.387490 19.634097 0.000000 0.032673
562.000000 48.780000 8.000000 5.000000 11.000000 128.164724 -31.177706 1626.254731 -47.687989 20.494154 0.000000 0.079632
563.000000 46.585000 9.000000 5.000000 11.000000 127.396368 -37.446976 1799.288265 -95.357288 21.460100 0.000000 0.146208
564.000000 48.404000 -1.000000 6.000000 11.000000 90.727132 27.209180 421.641863 925.640543 20.666819 0.000000 0.114966
565.000000 50.652000 0.000000 6.000000 11.000000 97.317131 22.268684 534.266614 791.658061 19.747724 0.000000 0.127393
566.000000 52.132000 1.000000 6.000000 11.000000 103.294310 16.799938 650.048870 675.349673 19.184870 0.000000 0.137670
567.000000 52.855000 2.000000 6.000000 11.000000 108.517488 10.828894 769.123304 573.975922 18.921008 0.000000 0.141742
568.000000 52.880000 3.000000 6.000000 11.000000 112.883494 4.429175 891.632356 485.360092 18.910531 0.000000 0.138182
569.000000 52.306000 4.000000 6.000000 11.000000 116.338070 -2.273338 1017.726804 407.752437 19.116660 0.000000 0.126517
570.000000 51.251000 5.000000 6.000000 11.000000 118.881191 -9.108926 1147.566383 339.732048 19.509405 0.000000 0.106610
571.000000 49.832000 6.000000 6.000000 11.000000 120.564679 -15.886703 1281.320459 280.134728 20.064069 0.000000 0.078487
572.000000 48.161000 7.000000 6.000000 11.000000 121.481763 -22.425126 1419.168768 227.999198 20.760126 0.000000 0.042672
573.000000 46.329000 8.000000 6.000000 11.000000 121.751118 -28.578966 1561.302218 182.526414 21.580382 0.000000 0.015594
574.000000 46.268000 0.000000 7.000000 11.000000 91.111974 18.858049 607.382304 918.924094 21.621345 0.000000 0.143562
575.000000 47.755000 1.000000 7.000000 11.000000 96.658841 13.795440 710.727589 811.615935 20.946031 0.000000 0.155389
576.000000 48.590000 2.000000 7.000000 11.000000 101.557736 8.368644 816.668498 718.526903 20.584578 0.000000 0.161097
577.000000 48.813000 3.000000 7.000000 11.000000 105.728633 2.643651 925.304064 637.563935 20.488699 0.000000 0.159758
578.000000 48.500000 4.000000 7.000000 11.000000 109.130365 -3.283004 1036.738421 567.047054 20.619530 0.000000 0.151138
579.000000 47.743000 5.000000 7.000000 11.000000 111.762694 -9.291248 1151.081138 505.613581 20.945438 0.000000 0.135236
580.000000 46.639000 6.000000 7.000000 11.000000 113.663227 -15.250797 1268.447580 452.147917 21.440411 0.000000 0.112119
587.000000 53.740000 -2.000000 3.000000 12.000000 101.775947 48.726594 -251.267503 600.854323 18.609770 0.000000 0.225765
588.000000 56.649000 -1.000000 3.000000 12.000000 110.177568 44.755142 -92.134114 384.024249 17.651871 0.000000 0.161666
589.000000 59.856000 1.000000 3.000000 12.000000 125.518611 34.060862 247.365723 13.669171 16.702554 0.000000 0.090662
590.000000 60.155000 2.000000 3.000000 12.000000 132.007002 26.911291 428.698021 -146.057114 16.618105 0.000000 0.073912
591.000000 58.596000 4.000000 3.000000 12.000000 141.490291 8.336402 817.287213 -426.061369 17.058316 0.000000 0.031771
595.000000 47.322000 -3.000000 4.000000 12.000000 89.222978 46.313720 -151.817712 962.133587 21.138593 0.000000 0.185684
596.000000 53.582000 -1.000000 4.000000 12.000000 105.074001 38.547602 117.415941 570.349129 18.664317 0.000000 0.057293
597.000000 56.798000 1.000000 4.000000 12.000000 119.172653 27.843188 406.497196 261.485483 17.603619 0.000000 0.016721
598.000000 56.917000 3.000000 4.000000 12.000000 129.987967 13.444613 717.704760 12.830619 17.564022 0.000000 0.037760
599.000000 54.665000 5.000000 4.000000 12.000000 136.358293 -4.181040 1053.680045 -190.585739 18.286036 0.000000 0.017301
600.000000 51.022000 7.000000 4.000000 12.000000 138.166496 -22.349283 1417.502325 -359.006540 19.591229 0.000000 0.084187
602.000000 47.506000 -2.000000 5.000000 12.000000 92.467708 37.556049 147.456292 882.489943 21.056193 0.000000 0.087379
603.000000 50.160000 -1.000000 5.000000 12.000000 99.691121 33.316775 267.555639 721.047328 19.939610 0.000000 0.066969
604.000000 52.126000 0.000000 5.000000 12.000000 106.483496 28.468906 391.375954 578.715378 19.185724 0.000000 0.069972
605.000000 53.364000 1.000000 5.000000 12.000000 112.676373 22.957013 519.092885 452.616688 18.738571 0.000000 0.080006
606.000000 53.893000 2.000000 5.000000 12.000000 118.115068 16.758731 650.893312 340.441296 18.553136 0.000000 0.086429
607.000000 53.774000 3.000000 5.000000 12.000000 122.672223 9.909315 786.976258 240.314684 18.592802 0.000000 0.085597
608.000000 53.101000 4.000000 5.000000 12.000000 126.262479 2.524126 927.553896 150.701114 18.827478 0.000000 0.076432
609.000000 51.981000 5.000000 5.000000 12.000000 128.855867 -5.194836 1072.852648 70.331738 19.232208 0.000000 0.059046
610.000000 50.525000 6.000000 5.000000 12.000000 130.484946 -12.981414 1223.114404 -1.849608 19.786122 0.000000 0.036555
611.000000 48.832000 7.000000 5.000000 12.000000 131.240483 -20.555462 1378.597866 -66.727783 20.471626 0.000000 0.033512
612.000000 46.991000 8.000000 5.000000 12.000000 131.254916 -27.679669 1539.580034 -125.048292 21.273793 0.000000 0.073000
613.000000 46.557000 -1.000000 6.000000 12.000000 94.240546 28.917951 380.413591 849.828148 21.485407 0.000000 0.102596
614.000000 49.722000 1.000000 6.000000 12.000000 106.248128 19.068517 602.961892 609.116039 20.113516 0.000000 0.121879
615.000000 49.073000 5.000000 6.000000 12.000000 121.687004 -5.932935 1086.849516 273.026348 20.374408 0.000000 0.098231
616.000000 46.433000 7.000000 6.000000 12.000000 124.559345 -19.233453 1350.510082 155.815171 21.531666 0.000000 0.044096
617.000000 46.019000 1.000000 7.000000 12.000000 100.028580 15.927345 667.854081 743.068153 21.734776 0.000000 0.146219
618.000000 46.741000 2.000000 7.000000 12.000000 104.773392 10.717157 771.298264 652.126672 21.397230 0.000000 0.151225
619.000000 46.945000 3.000000 7.000000 12.000000 108.855136 5.185504 877.324103 571.932923 21.302777 0.000000 0.150123
620.000000 46.689000 4.000000 7.000000 12.000000 112.229384 -0.587125 986.029464 501.105320 21.418427 0.000000 0.142565
621.000000 46.045000 5.000000 7.000000 12.000000 114.885601 -6.494166 1097.517225 438.505242 21.716902 0.000000 0.128451
631.000000 50.640000 -2.000000 3.000000 13.000000 104.080844 49.677966 -293.133673 523.798630 19.748288 0.000000 0.253990
632.000000 53.056000 -1.000000 3.000000 13.000000 111.931006 46.007125 -139.812733 317.096117 18.846582 0.000000 0.194833
633.000000 54.779000 0.000000 3.000000 13.000000 119.423168 41.583743 19.967208 129.442287 18.251934 0.000000 0.152370
634.000000 55.784000 1.000000 3.000000 13.000000 126.380336 36.222477 186.623083 -41.911218 17.921266 0.000000 0.123451
635.000000 56.099000 2.000000 3.000000 13.000000 132.615656 29.719440 360.608499 -199.227980 17.819201 0.000000 0.102102
636.000000 55.791000 3.000000 3.000000 13.000000 137.936028 21.896087 542.417857 -344.391155 17.916410 0.000000 0.080869
642.000000 48.208000 -2.000000 4.000000 13.000000 99.947744 43.900022 -60.741915 679.023008 20.746366 0.000000 0.128348
643.000000 50.545000 -1.000000 4.000000 13.000000 107.284559 39.998229 71.938559 503.817174 19.784850 0.000000 0.074761
644.000000 52.245000 0.000000 4.000000 13.000000 114.239069 35.429132 209.293541 346.291465 19.138857 0.000000 0.035440
645.000000 53.285000 1.000000 4.000000 13.000000 120.649393 30.080852 351.574493 203.963502 18.763771 0.000000 0.017962
646.000000 53.683000 2.000000 4.000000 13.000000 126.354697 23.855523 499.051244 74.799114 18.623012 0.000000 0.025012
647.000000 53.498000 3.000000 4.000000 13.000000 131.204279 16.704031 652.013698 -42.884085 18.686300 0.000000 0.029394
648.000000 52.811000 4.000000 4.000000 13.000000 135.071948 8.675556 810.773733 -150.489218 18.928359 0.000000 0.023590
649.000000 51.717000 5.000000 4.000000 13.000000 137.876940 -0.035525 975.667326 -249.195394 19.327920 0.000000 0.008583
650.000000 50.313000 6.000000 4.000000 13.000000 139.606658 -9.082483 1147.056926 -340.000298 19.866961 0.000000 0.027270
653.000000 45.469000 -2.000000 5.000000 13.000000 95.503364 38.846730 108.190949 807.852115 21.998188 0.000000 0.082050
654.000000 47.710000 -1.000000 5.000000 13.000000 102.336422 34.869973 225.004972 654.100788 20.962489 0.000000 0.051736
655.000000 49.378000 0.000000 5.000000 13.000000 108.786095 30.328120 345.355585 516.844364 20.252352 0.000000 0.047372
656.000000 50.447000 1.000000 5.000000 13.000000 114.711052 25.162005 469.405865 393.782485 19.821376 0.000000 0.057172
657.000000 50.931000 2.000000 5.000000 13.000000 119.978136 19.335937 597.329071 283.035174 19.631579 0.000000 0.065817
658.000000 50.875000 3.000000 5.000000 13.000000 124.471907 12.858833 729.309452 183.051858 19.651570 0.000000 0.068077
659.000000 50.351000 4.000000 5.000000 13.000000 128.105951 5.806896 865.543132 92.543124 19.855178 0.000000 0.062634
660.000000 49.439000 5.000000 5.000000 13.000000 130.834976 -1.662524 1006.239083 10.428834 20.220414 0.000000 0.049616
661.000000 48.226000 6.000000 5.000000 13.000000 132.664295 -9.319194 1151.620196 -64.201771 20.728662 0.000000 0.032305
662.000000 46.791000 7.000000 5.000000 13.000000 133.651786 -16.896162 1301.924455 -132.121103 21.364062 0.000000 0.032210
663.000000 46.306000 0.000000 6.000000 13.000000 103.261157 26.094409 447.859104 658.555727 21.598153 0.000000 0.095609
664.000000 47.397000 1.000000 6.000000 13.000000 108.763133 21.188370 557.784282 548.862583 21.099265 0.000000 0.104442
665.000000 47.961000 2.000000 6.000000 13.000000 113.668236 15.786829 670.706624 450.759745 20.849611 0.000000 0.109601
666.000000 48.034000 3.000000 6.000000 13.000000 117.887346 9.920982 786.750403 362.789440 20.816514 0.000000 0.109121
667.000000 47.673000 4.000000 6.000000 13.000000 121.358913 3.665663 906.046858 283.741413 20.972772 0.000000 0.102238
668.000000 46.948000 5.000000 6.000000 13.000000 124.055608 -2.858156 1028.734692 212.603413 21.295551 0.000000 0.088705
669.000000 45.933000 6.000000 6.000000 13.000000 125.987893 -9.492269 1154.960604 148.523172 21.765552 0.000000 0.068682
673.000000 47.819000 -2.000000 3.000000 14.000000 106.059677 50.540342 -332.523976 453.479894 20.912714 0.000000 0.282784
674.000000 49.852000 -1.000000 3.000000 14.000000 113.423463 47.134137 -184.615339 255.584357 20.057364 0.000000 0.227347
675.000000 51.318000 0.000000 3.000000 14.000000 120.475486 43.057089 -30.667471 74.175893 19.482422 0.000000 0.185883
676.000000 52.201000 1.000000 3.000000 14.000000 127.072196 38.145474 129.697213 -92.987347 19.151297 0.000000 0.155232
677.000000 52.520000 2.000000 3.000000 14.000000 133.060795 32.212687 296.888452 -247.780786 19.033503 0.000000 0.130494
684.000000 47.771000 -1.000000 4.000000 14.000000 109.174129 41.320365 28.774354 442.670057 20.933031 0.000000 0.097919
685.000000 50.131000 1.000000 4.000000 14.000000 121.871541 32.111418 299.542947 150.940926 19.943570 0.000000 0.043594
686.000000 50.408000 3.000000 4.000000 14.000000 132.152259 19.687027 589.905765 -93.777122 19.831546 0.000000 0.035415
687.000000 48.997000 5.000000 4.000000 14.000000 139.046279 3.876475 902.069567 -302.000436 20.400690 0.000000 0.010986
689.000000 46.830000 0.000000 5.000000 14.000000 110.750810 32.040869 301.388726 459.929676 21.353563 0.000000 0.025913
690.000000 47.762000 1.000000 5.000000 14.000000 116.427503 27.195393 421.969274 339.595366 20.934944 0.000000 0.034250
691.000000 48.207000 2.000000 5.000000 14.000000 121.528754 21.721257 546.227868 230.235182 20.740077 0.000000 0.045739
692.000000 48.200000 3.000000 5.000000 14.000000 125.950928 15.607795 674.335399 130.549384 20.741739 0.000000 0.051183
693.000000 47.794000 4.000000 5.000000 14.000000 129.609990 8.899132 806.473513 39.443047 20.916947 0.000000 0.049126
694.000000 47.051000 5.000000 5.000000 14.000000 132.451657 1.711747 942.835469 -44.012198 21.246171 0.000000 0.039750
695.000000 46.039000 6.000000 5.000000 14.000000 134.461267 -5.763172 1083.627082 -120.608100 21.712703 0.000000 0.026290
696.000000 45.786000 3.000000 6.000000 14.000000 119.821664 12.442696 737.520404 309.220665 21.837751 0.000000 0.093400
708.000000 46.494000 0.000000 4.000000 15.000000 117.052337 38.568602 116.770813 238.013893 21.505376 0.000000 0.090410
709.000000 47.295000 1.000000 4.000000 15.000000 122.892353 33.957911 250.180124 101.788705 21.139140 0.000000 0.070045
710.000000 47.658000 2.000000 4.000000 15.000000 128.209864 28.599107 388.207059 -23.999314 20.976923 0.000000 0.058927
711.000000 47.612000 3.000000 4.000000 15.000000 132.891235 22.413101 531.095580 -140.549017 20.995569 0.000000 0.051048
712.000000 47.206000 4.000000 4.000000 15.000000 136.829443 15.371892 679.107145 -248.885395 21.175297 0.000000 0.040553
713.000000 46.493000 5.000000 4.000000 15.000000 139.934992 7.540857 832.522299 -349.890243 21.499110 0.000000 0.023864
714.000000 45.532000 6.000000 4.000000 15.000000 142.152170 -0.885879 991.642456 -444.326586 21.952320 0.000000 0.009626
715.000000 45.709000 2.000000 5.000000 15.000000 122.827286 23.927955 497.423634 181.363966 21.872897 0.000000 0.028025
716.000000 45.739000 3.000000 5.000000 15.000000 127.170876 18.164570 621.869795 82.107214 21.857545 0.000000 0.036504
#UB matrix in q= (UB) B0 G* 
#[[-0.54730973   0.094112191 -0.830842368]
# [-0.830582432 -0.183292959  0.526374359]
# [-0.102882858  0.979149557  0.178613836]]
#B0 matrix in q= UB (B0) G*
#[[ 0.19670273 -0.          0.03056101]
# [ 0.          0.19187965 -0.        ]
# [ 0.          0.          0.18806537]]
#UBB0 matrix in q= (UB B0) G* i.e. recip. basis vectors are columns in LT frame: astar = UBB0[:,0], bstar = UBB0[:,1], cstar = UBB0[:,2]. (abcstar as columns on xyzlab1, xlab1 = ui, ui = unit vector along incident beam)
#[[-0.10765732  0.01805821 -0.17297901]
# [-0.16337783 -0.03517019  0.07360935]
# [-0.02023734  0.18787888  0.03044687]]
#Euler angles phi theta psi (deg)
#[186.002  79.725  57.692]
#deviatoric strain in direct crystal frame (10-3 unit)
#[[-3.85  0.02  0.65]
# [ 0.02 -4.32 -0.2 ]
# [ 0.65 -0.2   8.17]]
#deviatoric strain in sample2 frame (10-3 unit)
#[[-0.34 -3.23 -4.77]
# [-3.23 -1.06  3.98]
# [-4.77  3.97  1.4 ]]
#new lattice parameters
#[ 5.1505     5.2091562  5.3198997 90.0124042 99.1860885 89.997663 ]
#CCDLabel
#sCMOS
#DetectorParameters
#[79.0, 975.0, 941.0, 0.0, 0.0]
#pixelsize
#0.0734
#Frame dimensions
#[2018, 2016]
#
