#Strain and Orientation Refinement from experimental file: /home/micha/LaueProjects/DepthEffects/testZrO2_173.cor
#File created at Wed Jun 28 14:28:37 2023 with indexingSpotsSet.py
#Number of indexed spots: 512
#Element
#ZrO2
#grainIndex
#G_0
#Mean Deviation(pixel): 0.118
##spot_index intensity h k l 2theta Chi Xexp Yexp Energy GrainIndex PixDev
7.000000 45.735000 -10.000000 3.000000 -11.000000 126.437908 37.420989 151.485974 -59.529083 21.860048 0.000000 0.130592
10.000000 45.500000 -9.000000 4.000000 -11.000000 118.727436 43.193656 -35.483373 131.825769 21.974943 0.000000 0.167503
20.000000 45.837000 -12.000000 1.000000 -10.000000 136.448405 16.744705 651.180667 -241.264375 21.808702 0.000000 0.039903
21.000000 48.401000 -11.000000 1.000000 -10.000000 137.838335 22.162207 536.600385 -342.402650 20.652927 0.000000 0.074288
24.000000 46.980000 -11.000000 2.000000 -10.000000 131.237819 25.270850 466.907785 -102.326519 21.279707 0.000000 0.051007
25.000000 49.502000 -5.000000 1.000000 -5.000000 131.793948 30.896998 330.927745 -180.224547 10.097646 0.000000 0.098214
28.000000 47.545000 -10.000000 3.000000 -10.000000 124.700940 32.675820 284.672596 55.585547 21.028408 0.000000 0.062598
29.000000 49.889000 -9.000000 3.000000 -10.000000 124.347131 38.207865 127.800673 4.982646 20.040507 0.000000 0.125777
32.000000 47.350000 -9.000000 4.000000 -10.000000 116.963844 38.967596 104.441484 236.764828 21.117506 0.000000 0.089216
33.000000 49.352000 -4.000000 2.000000 -5.000000 115.679805 44.232195 -72.827800 218.732371 10.130423 0.000000 0.169415
36.000000 46.234000 -8.000000 5.000000 -10.000000 108.200009 44.259257 -73.818427 446.901865 21.630118 0.000000 0.140320
37.000000 47.728000 -7.000000 5.000000 -10.000000 106.013906 49.179640 -271.003493 468.443670 20.953564 0.000000 0.239047
41.000000 46.161000 -13.000000 -1.000000 -9.000000 142.074181 -4.856177 1066.441756 -445.252500 21.654070 0.000000 0.018837
45.000000 47.281000 -12.000000 1.000000 -9.000000 133.773926 11.240844 761.090543 -110.358089 21.143595 0.000000 0.030404
46.000000 50.184000 -11.000000 1.000000 -9.000000 135.459777 16.107338 664.194281 -197.397457 19.920045 0.000000 0.034283
47.000000 53.299000 -10.000000 1.000000 -9.000000 136.971679 21.915547 541.993183 -301.856092 18.755187 0.000000 0.067453
50.000000 45.897000 -12.000000 2.000000 -9.000000 127.739868 15.411307 678.310635 76.877026 21.783066 0.000000 0.046776
51.000000 48.610000 -11.000000 2.000000 -9.000000 128.832000 19.994123 583.385937 19.080857 20.566941 0.000000 0.029928
52.000000 51.502000 -10.000000 2.000000 -9.000000 129.698634 25.281417 466.665047 -47.158075 19.411492 0.000000 0.041547
53.000000 54.550000 -9.000000 2.000000 -9.000000 130.209419 31.336351 319.667189 -124.228394 18.326693 0.000000 0.090321
56.000000 46.695000 -11.000000 3.000000 -9.000000 122.154836 22.989451 518.374042 206.032071 21.412465 0.000000 0.038934
57.000000 49.308000 -10.000000 3.000000 -9.000000 122.444425 27.798497 407.570489 167.527746 20.277358 0.000000 0.015545
58.000000 52.029000 -3.000000 1.000000 -3.000000 122.363774 33.170819 271.475384 126.128026 6.405584 0.000000 0.051294
59.000000 54.804000 -8.000000 3.000000 -9.000000 121.775794 39.100181 100.313710 81.897898 18.243913 0.000000 0.120418
62.000000 46.800000 -10.000000 4.000000 -9.000000 115.310799 29.744976 359.972331 354.746405 21.366339 0.000000 0.022587
63.000000 49.153000 -9.000000 4.000000 -9.000000 114.711851 34.560308 233.614235 339.552484 20.343813 0.000000 0.024089
64.000000 51.502000 -8.000000 4.000000 -9.000000 113.624179 39.789989 78.583972 328.343517 19.415800 0.000000 0.085416
65.000000 53.760000 -7.000000 4.000000 -9.000000 111.919585 45.392083 -116.126473 324.276538 18.600645 0.000000 0.174410
68.000000 46.035000 -9.000000 5.000000 -9.000000 107.325212 35.648029 203.083512 527.828953 21.724457 0.000000 0.035848
69.000000 47.945000 -8.000000 5.000000 -9.000000 105.807936 40.323161 61.487838 541.316254 20.859285 0.000000 0.076242
70.000000 49.711000 -7.000000 5.000000 -9.000000 103.718938 45.284849 -112.049544 567.555347 20.118299 0.000000 0.151207
71.000000 51.216000 -6.000000 5.000000 -9.000000 100.950675 50.479781 -329.711014 613.744790 19.527997 0.000000 0.263045
73.000000 45.565000 -7.000000 6.000000 -9.000000 95.967646 45.200075 -108.837423 781.330215 21.952217 0.000000 0.152608
74.000000 46.571000 -2.000000 2.000000 -3.000000 92.945367 49.840824 -300.464577 855.132407 7.159601 0.000000 0.249427
81.000000 47.313000 -13.000000 -1.000000 -8.000000 138.255282 -10.153973 1167.763431 -284.300882 21.127854 0.000000 0.027768
82.000000 50.484000 -12.000000 -1.000000 -8.000000 141.235689 -7.320176 1113.261721 -410.363031 19.800008 0.000000 0.025754
86.000000 46.639000 -13.000000 0.000000 -8.000000 133.672832 -3.249637 1036.109585 -88.208121 21.434613 0.000000 0.037851
87.000000 49.744000 -3.000000 0.000000 -2.000000 136.127314 0.088663 973.334474 -178.504244 5.024018 0.000000 0.024910
88.000000 53.160000 -11.000000 0.000000 -8.000000 138.697362 4.259761 894.833136 -287.399701 18.803860 0.000000 0.014224
89.000000 56.907000 -5.000000 0.000000 -4.000000 141.316939 9.553861 793.849830 -422.156052 8.782656 0.000000 0.030210
91.000000 45.626000 -13.000000 1.000000 -8.000000 128.594399 2.417841 929.554162 81.212381 21.911940 0.000000 0.067158
92.000000 48.600000 -12.000000 1.000000 -8.000000 130.490804 5.954497 862.741046 17.071595 20.570599 0.000000 0.053165
93.000000 51.862000 -11.000000 1.000000 -8.000000 132.401607 10.210590 781.138716 -57.663058 19.276241 0.000000 0.037028
94.000000 55.425000 -10.000000 1.000000 -8.000000 134.248463 15.366028 679.225635 -146.290909 18.036470 0.000000 0.030239
95.000000 59.289000 -9.000000 1.000000 -8.000000 135.901994 21.624109 548.340975 -253.816258 16.860626 0.000000 0.059322
98.000000 47.086000 -6.000000 1.000000 -4.000000 124.536662 10.622864 773.132420 187.352879 10.617082 0.000000 0.077158
99.000000 50.122000 -11.000000 2.000000 -8.000000 125.813281 14.773854 691.156157 137.819516 19.947452 0.000000 0.058394
100.000000 53.414000 -5.000000 1.000000 -4.000000 126.942759 19.628858 591.137900 81.703569 9.358683 0.000000 0.035558
101.000000 56.954000 -9.000000 2.000000 -8.000000 127.806105 25.293608 466.384914 17.412787 17.553823 0.000000 0.031217
102.000000 60.704000 -4.000000 1.000000 -4.000000 128.234573 31.847738 306.427137 -57.303434 8.234597 0.000000 0.080351
103.000000 64.586000 -7.000000 2.000000 -8.000000 128.002022 39.304743 93.914538 -145.802398 15.479116 0.000000 0.169552
104.000000 48.003000 -11.000000 3.000000 -8.000000 119.112989 18.342298 618.168007 309.540358 20.830159 0.000000 0.077160
105.000000 50.957000 -10.000000 3.000000 -8.000000 119.592253 22.856075 521.327532 277.691547 19.622117 0.000000 0.051452
106.000000 54.092000 -9.000000 3.000000 -8.000000 119.757437 27.976320 403.294641 244.239415 18.484833 0.000000 0.016541
107.000000 57.359000 -8.000000 3.000000 -8.000000 119.467303 33.734728 256.258057 209.741545 17.431795 0.000000 0.038415
108.000000 60.672000 -7.000000 3.000000 -8.000000 118.543263 40.120120 68.029927 175.423286 16.480150 0.000000 0.115103
109.000000 63.883000 -6.000000 3.000000 -8.000000 116.773566 47.057737 -181.518656 143.872001 15.652040 0.000000 0.234460
111.000000 45.583000 -11.000000 4.000000 -8.000000 112.433297 21.188788 557.775242 464.433065 21.938130 0.000000 0.091897
112.000000 48.156000 -5.000000 2.000000 -4.000000 112.333522 25.369465 464.640652 451.652945 10.383067 0.000000 0.068371
113.000000 50.837000 -9.000000 4.000000 -8.000000 111.889239 30.014885 353.228345 441.594770 19.671032 0.000000 0.037647
114.000000 53.569000 -4.000000 2.000000 -4.000000 110.981688 35.135451 217.572395 436.281023 9.333929 0.000000 0.025566
115.000000 56.258000 -7.000000 4.000000 -8.000000 109.467414 40.713686 48.793487 439.076756 17.775847 0.000000 0.085861
116.000000 58.757000 -3.000000 2.000000 -4.000000 107.182510 46.694767 -166.926782 455.774605 8.509998 0.000000 0.185329
118.000000 47.329000 -9.000000 5.000000 -8.000000 104.296752 31.612699 312.530456 618.929167 21.131526 0.000000 0.060061
119.000000 49.514000 -8.000000 5.000000 -8.000000 102.867151 36.215227 186.832312 636.272761 20.199232 0.000000 0.051729
120.000000 51.578000 -7.000000 5.000000 -8.000000 100.860533 41.165026 33.935439 666.706398 19.391439 0.000000 0.089705
121.000000 53.381000 -6.000000 5.000000 -8.000000 98.149309 46.421226 -156.059075 717.420947 18.737007 0.000000 0.171534
122.000000 54.735000 -5.000000 5.000000 -8.000000 94.603218 51.917585 -398.516935 800.503519 18.274460 0.000000 0.301303
124.000000 46.842000 -7.000000 6.000000 -8.000000 92.777780 41.519749 22.113679 871.253392 21.355121 0.000000 0.112774
125.000000 48.010000 -3.000000 3.000000 -4.000000 89.729180 46.207697 -147.651149 948.351194 10.418145 0.000000 0.183418
126.000000 48.706000 -5.000000 6.000000 -8.000000 85.941181 51.089134 -358.348647 1062.590385 20.539453 0.000000 0.296846
132.000000 45.496000 -14.000000 -2.000000 -7.000000 134.442683 -23.817166 1450.087572 -212.817659 21.972813 0.000000 0.064060
133.000000 48.619000 -13.000000 -2.000000 -7.000000 137.439742 -23.002954 1431.925303 -332.342092 20.560583 0.000000 0.079599
137.000000 48.281000 -13.000000 -1.000000 -7.000000 133.846733 -14.874987 1260.876693 -128.661849 20.705418 0.000000 0.030772
138.000000 51.766000 -12.000000 -1.000000 -7.000000 136.833256 -12.826679 1220.055140 -235.837665 19.310832 0.000000 0.031425
139.000000 55.662000 -11.000000 -1.000000 -7.000000 140.133602 -10.169417 1168.062861 -368.338367 17.958469 0.000000 0.032673
143.000000 46.469000 -13.000000 1.000000 -7.000000 124.613126 -2.041906 1013.373201 197.678368 21.515839 0.000000 0.089686
144.000000 49.727000 -12.000000 1.000000 -7.000000 126.569180 0.956560 957.029461 142.459944 20.105602 0.000000 0.079194
145.000000 53.356000 -11.000000 1.000000 -7.000000 128.613676 4.583596 888.713545 78.626819 18.737715 0.000000 0.065343
146.000000 57.391000 -10.000000 1.000000 -7.000000 130.698271 9.019511 804.155999 3.707776 17.419471 0.000000 0.047501
147.000000 61.863000 -9.000000 1.000000 -7.000000 132.731015 14.493410 696.783437 -85.935800 16.159942 0.000000 0.030626
148.000000 66.776000 -8.000000 1.000000 -7.000000 134.548867 21.274502 555.922078 -195.957909 14.970553 0.000000 0.049682
151.000000 48.075000 -12.000000 2.000000 -7.000000 120.739748 6.008430 861.716806 297.397290 20.798351 0.000000 0.105179
152.000000 51.437000 -11.000000 2.000000 -7.000000 122.127759 9.693063 791.159770 255.326231 19.438578 0.000000 0.091667
153.000000 55.147000 -10.000000 2.000000 -7.000000 123.446065 14.047956 705.692647 208.155210 18.130563 0.000000 0.072895
154.000000 59.217000 -9.000000 2.000000 -7.000000 124.595726 19.207776 600.030882 154.870312 16.883999 0.000000 0.047033
155.000000 63.636000 -8.000000 2.000000 -7.000000 125.424283 25.307832 466.058024 94.153951 15.711158 0.000000 0.022580
156.000000 68.348000 -7.000000 2.000000 -7.000000 125.707402 32.450353 290.635326 24.248677 14.627818 0.000000 0.067605
157.000000 73.219000 -6.000000 2.000000 -7.000000 125.135901 40.645941 51.006223 -57.274760 13.654600 0.000000 0.168134
159.000000 46.072000 -12.000000 3.000000 -7.000000 114.698783 10.144269 782.424702 438.126422 21.704842 0.000000 0.123347
160.000000 49.101000 -11.000000 3.000000 -7.000000 115.462264 13.760315 711.427081 413.360182 20.365679 0.000000 0.110550
161.000000 52.403000 -10.000000 3.000000 -7.000000 116.071440 17.921181 626.926970 387.540517 19.081993 0.000000 0.092561
162.000000 55.974000 -9.000000 3.000000 -7.000000 116.428739 22.704923 524.667696 361.111316 17.864438 0.000000 0.066943
163.000000 59.781000 -8.000000 3.000000 -7.000000 116.396962 28.179439 398.393261 334.962150 16.726581 0.000000 0.029827
164.000000 63.747000 -7.000000 3.000000 -7.000000 115.790188 34.382875 238.518339 310.823405 15.685975 0.000000 0.026086
165.000000 67.720000 -6.000000 3.000000 -7.000000 114.369500 41.296357 29.573629 292.079306 14.765735 0.000000 0.111597
166.000000 71.442000 -5.000000 3.000000 -7.000000 111.850599 48.815849 -255.127474 285.567656 13.996932 0.000000 0.250686
168.000000 46.441000 -11.000000 4.000000 -7.000000 108.776637 17.043949 645.040865 558.280235 21.534697 0.000000 0.122442
169.000000 49.286000 -10.000000 4.000000 -7.000000 108.748727 20.970471 562.485635 549.760215 20.291445 0.000000 0.105944
170.000000 52.302000 -9.000000 4.000000 -7.000000 108.411994 25.383966 464.306952 544.427291 19.121364 0.000000 0.083461
171.000000 55.437000 -8.000000 4.000000 -7.000000 107.645433 30.318179 345.606219 544.398775 18.039886 0.000000 0.054617
172.000000 58.598000 -7.000000 4.000000 -7.000000 106.294895 35.784384 199.197941 553.158083 17.067113 0.000000 0.039376
173.000000 61.622000 -6.000000 4.000000 -7.000000 104.173026 41.758052 14.098853 576.632134 16.229723 0.000000 0.094755
174.000000 64.261000 -5.000000 4.000000 -7.000000 101.067188 48.166715 -227.363150 625.360682 15.563902 0.000000 0.207283
176.000000 45.927000 -10.000000 5.000000 -7.000000 101.602638 23.420581 508.786796 700.175837 21.778382 0.000000 0.113346
177.000000 48.373000 -9.000000 5.000000 -7.000000 100.671188 27.493393 414.874405 712.372313 20.677040 0.000000 0.094948
178.000000 50.833000 -8.000000 5.000000 -7.000000 99.290155 31.968619 303.276074 733.464775 19.676796 0.000000 0.075714
179.000000 53.201000 -7.000000 5.000000 -7.000000 97.332547 36.846138 168.476442 767.931368 18.801295 0.000000 0.071933
180.000000 55.318000 -6.000000 5.000000 -7.000000 94.651513 42.102716 2.400816 822.971439 18.082184 0.000000 0.113268
181.000000 56.957000 -5.000000 5.000000 -7.000000 91.088335 47.686306 -207.264177 910.627115 17.562799 0.000000 0.206622
184.000000 46.172000 -8.000000 6.000000 -7.000000 91.407099 33.278841 268.575649 909.376572 21.666079 0.000000 0.093007
185.000000 47.815000 -7.000000 6.000000 -7.000000 88.968012 37.677801 143.811155 965.496326 20.922434 0.000000 0.101756
186.000000 49.128000 -6.000000 6.000000 -7.000000 85.858917 42.369824 -6.752725 1046.474263 20.363699 0.000000 0.144829
187.000000 49.916000 -5.000000 6.000000 -7.000000 81.963081 47.316453 -192.041163 1165.162378 20.043071 0.000000 0.230487
192.000000 46.014000 -14.000000 -3.000000 -6.000000 131.675563 -34.921731 1726.440312 -227.532012 21.726000 0.000000 0.140621
196.000000 46.005000 -7.000000 -1.000000 -3.000000 129.369029 -27.236533 1529.007944 -52.228694 10.865530 0.000000 0.050153
197.000000 49.350000 -13.000000 -2.000000 -6.000000 132.190860 -26.889179 1520.779690 -152.878097 20.257224 0.000000 0.068209
198.000000 53.125000 -6.000000 -1.000000 -3.000000 135.372937 -26.447755 1510.395703 -276.857329 9.408436 0.000000 0.088819
202.000000 45.655000 -14.000000 -1.000000 -6.000000 126.286850 -20.174038 1370.445568 99.113227 21.898840 0.000000 0.037334
203.000000 48.998000 -13.000000 -1.000000 -6.000000 128.859609 -19.054349 1346.740198 23.522829 20.404060 0.000000 0.032758
204.000000 52.779000 -12.000000 -1.000000 -6.000000 131.744483 -17.655881 1317.576365 -66.921001 18.941269 0.000000 0.031181
205.000000 57.072000 -11.000000 -1.000000 -6.000000 134.990727 -15.862225 1280.823446 -177.537952 17.515770 0.000000 0.033881
206.000000 61.957000 -10.000000 -1.000000 -6.000000 138.651574 -13.483927 1233.076090 -316.701849 16.134105 0.000000 0.039255
209.000000 48.228000 -13.000000 0.000000 -6.000000 124.758784 -12.154044 1206.799583 176.978162 20.730893 0.000000 0.073379
210.000000 51.925000 -4.000000 0.000000 -2.000000 127.204780 -10.084406 1166.414992 111.085177 6.418111 0.000000 0.065194
211.000000 56.120000 -11.000000 0.000000 -6.000000 129.909087 -7.504695 1116.786559 33.010548 17.814347 0.000000 0.054888
212.000000 60.892000 -10.000000 0.000000 -6.000000 132.886117 -4.215471 1054.330298 -61.380269 16.417506 0.000000 0.041705
213.000000 72.496000 -8.000000 0.000000 -6.000000 139.569831 5.882639 864.105402 -328.980993 13.788481 0.000000 0.015817
215.000000 47.057000 -13.000000 1.000000 -6.000000 120.066112 -6.195144 1091.830679 314.284286 21.248855 0.000000 0.109126
216.000000 50.579000 -12.000000 1.000000 -6.000000 121.990682 -3.706723 1044.727641 267.290680 19.768371 0.000000 0.102308
217.000000 54.562000 -11.000000 1.000000 -6.000000 124.060842 -0.692089 988.001437 213.313162 18.324849 0.000000 0.092939
218.000000 59.072000 -10.000000 1.000000 -6.000000 126.258030 3.012013 918.367527 150.504376 16.925091 0.000000 0.079911
219.000000 64.179000 -9.000000 1.000000 -6.000000 128.532512 7.628083 830.854723 76.226540 15.577678 0.000000 0.061729
220.000000 69.942000 -8.000000 1.000000 -6.000000 130.777120 13.451747 717.563092 -13.467200 14.293590 0.000000 0.038358
221.000000 76.388000 -7.000000 1.000000 -6.000000 132.783257 20.847416 565.134596 -124.855337 13.087110 0.000000 0.038814
222.000000 83.464000 -6.000000 1.000000 -6.000000 134.176424 30.181174 349.055123 -268.787929 11.977164 0.000000 0.109706
223.000000 45.516000 -13.000000 2.000000 -6.000000 114.954587 -1.101649 995.696893 440.061336 21.970016 0.000000 0.134341
224.000000 48.786000 -6.000000 1.000000 -3.000000 116.323993 1.614720 944.659642 408.289796 10.248392 0.000000 0.128595
225.000000 52.457000 -11.000000 2.000000 -6.000000 117.733055 4.821879 884.207141 373.130763 19.062241 0.000000 0.120259
226.000000 56.576000 -5.000000 1.000000 -3.000000 119.140222 8.639367 811.469294 334.065638 8.836844 0.000000 0.108118
227.000000 61.191000 -9.000000 2.000000 -6.000000 120.472160 13.214124 722.277526 290.494758 16.340380 0.000000 0.090250
228.000000 66.329000 -4.000000 1.000000 -3.000000 121.605066 18.717081 610.336817 241.747973 7.537119 0.000000 0.063588
229.000000 71.978000 -7.000000 2.000000 -6.000000 122.338404 25.324641 465.671605 187.137676 13.890880 0.000000 0.024877
230.000000 84.277000 -5.000000 2.000000 -6.000000 121.241811 42.258957 -2.944006 58.836159 11.863623 0.000000 0.167133
231.000000 46.614000 -4.000000 1.000000 -2.000000 110.395218 6.050401 860.919597 538.590388 7.151397 0.000000 0.145087
232.000000 49.896000 -11.000000 3.000000 -6.000000 111.159748 9.298820 798.772807 518.855226 20.042936 0.000000 0.137366
233.000000 53.530000 -10.000000 3.000000 -6.000000 111.817101 13.065785 725.215912 498.689401 18.681853 0.000000 0.126043
234.000000 57.534000 -3.000000 1.000000 -2.000000 112.283010 17.444627 636.788960 478.689352 5.793773 0.000000 0.109406
235.000000 61.902000 -8.000000 3.000000 -6.000000 112.432012 22.532187 528.475788 459.959320 16.154784 0.000000 0.084810
236.000000 66.578000 -7.000000 3.000000 -6.000000 112.082424 28.413658 392.718249 444.540917 15.020001 0.000000 0.048596
237.000000 76.161000 -5.000000 3.000000 -6.000000 108.799916 42.666537 -17.012538 442.708888 13.130496 0.000000 0.114364
238.000000 80.290000 -4.000000 3.000000 -6.000000 105.145469 50.859690 -347.477725 479.477478 12.455742 0.000000 0.280710
239.000000 46.990000 -11.000000 4.000000 -6.000000 104.523476 12.964369 727.222795 654.887759 21.284965 0.000000 0.145644
240.000000 50.083000 -5.000000 2.000000 -3.000000 104.498939 16.599477 654.153439 650.568981 9.985049 0.000000 0.134884
241.000000 53.416000 -9.000000 4.000000 -6.000000 104.199569 20.726551 567.732204 649.819105 18.724041 0.000000 0.119699
242.000000 56.949000 -4.000000 2.000000 -3.000000 103.506409 25.400280 463.931448 654.812439 8.781271 0.000000 0.098766
243.000000 60.593000 -7.000000 4.000000 -6.000000 102.260262 30.661442 336.922492 669.098766 16.506553 0.000000 0.072776
244.000000 64.179000 -3.000000 2.000000 -3.000000 100.255914 36.522075 177.942213 698.673288 7.792286 0.000000 0.061302
245.000000 67.417000 -5.000000 4.000000 -6.000000 97.243592 42.947532 -26.819540 754.109661 14.836373 0.000000 0.117384
247.000000 46.394000 -10.000000 5.000000 -6.000000 97.337226 19.465493 594.593543 794.011161 21.561156 0.000000 0.136056
248.000000 49.047000 -9.000000 5.000000 -6.000000 96.382257 23.330949 510.785090 809.891314 20.394825 0.000000 0.122468
249.000000 51.754000 -8.000000 5.000000 -6.000000 94.989386 27.624756 411.734677 834.947757 19.328246 0.000000 0.106045
250.000000 54.405000 -7.000000 5.000000 -6.000000 93.023004 32.365623 292.868375 873.706371 18.386976 0.000000 0.091414
251.000000 56.820000 -6.000000 5.000000 -6.000000 90.319033 37.551953 147.578735 933.440660 17.606117 0.000000 0.096952
252.000000 58.726000 -5.000000 5.000000 -6.000000 86.690361 43.152977 -34.046625 1026.315741 17.035232 0.000000 0.150365
253.000000 59.742000 -4.000000 5.000000 -6.000000 81.942924 49.101793 -267.586677 1173.706278 16.746649 0.000000 0.265634
256.000000 46.562000 -4.000000 3.000000 -3.000000 86.977999 29.395464 368.651599 1006.217159 10.743304 0.000000 0.109563
257.000000 48.327000 -7.000000 6.000000 -6.000000 84.451661 33.699947 257.202392 1066.670168 20.702841 0.000000 0.107893
258.000000 49.738000 -2.000000 2.000000 -2.000000 81.228333 38.346593 123.571942 1152.755861 6.705408 0.000000 0.130291
259.000000 50.559000 -5.000000 6.000000 -6.000000 77.170918 43.309728 -39.593495 1277.838456 19.790278 0.000000 0.191824
260.000000 50.489000 -2.000000 3.000000 -3.000000 72.148122 48.541402 -243.302169 1464.556488 9.909544 0.000000 0.304603
265.000000 46.232000 -14.000000 -3.000000 -5.000000 125.977692 -37.459925 1799.674241 -43.321265 21.625180 0.000000 0.125462
266.000000 49.687000 -13.000000 -3.000000 -5.000000 128.609074 -38.291798 1824.755849 -154.058951 20.120660 0.000000 0.158814
269.000000 46.227000 -14.000000 -2.000000 -5.000000 123.839478 -30.222461 1601.983202 105.900604 21.628510 0.000000 0.031829
270.000000 49.757000 -13.000000 -2.000000 -5.000000 126.409098 -30.230990 1602.197812 22.280078 20.093154 0.000000 0.050482
271.000000 53.788000 -12.000000 -2.000000 -5.000000 129.327909 -30.241646 1602.466000 -79.723899 18.586621 0.000000 0.072800
272.000000 58.414000 -11.000000 -2.000000 -5.000000 132.667587 -30.255340 1602.810695 -207.485943 17.113887 0.000000 0.099443
276.000000 45.858000 -14.000000 -1.000000 -5.000000 120.948626 -23.450754 1441.886505 237.502785 21.803585 0.000000 0.044730
277.000000 49.386000 -13.000000 -1.000000 -5.000000 123.309955 -22.742813 1426.168913 174.113223 20.245147 0.000000 0.037713
278.000000 53.426000 -12.000000 -1.000000 -5.000000 125.987116 -21.868610 1406.982724 98.791189 18.713603 0.000000 0.031675
279.000000 58.079000 -11.000000 -1.000000 -5.000000 129.041979 -20.762378 1383.037344 7.505221 17.213705 0.000000 0.029476
280.000000 63.467000 -10.000000 -1.000000 -5.000000 132.550581 -19.318888 1352.311253 -105.942676 15.751394 0.000000 0.034270
281.000000 69.738000 -9.000000 -1.000000 -5.000000 136.604699 -17.359226 1311.449209 -251.658405 14.334196 0.000000 0.044924
284.000000 47.315000 -13.000000 1.000000 -5.000000 114.954732 -10.033316 1165.425090 432.371970 21.134770 0.000000 0.124806
285.000000 51.060000 -12.000000 1.000000 -5.000000 116.749528 -8.012523 1126.503186 393.165994 19.583808 0.000000 0.121249
286.000000 55.355000 -11.000000 1.000000 -5.000000 118.724672 -5.567986 1079.924444 348.347294 18.063649 0.000000 0.116054
287.000000 60.305000 -10.000000 1.000000 -5.000000 120.886956 -2.563275 1023.182964 296.539092 16.580378 0.000000 0.108418
288.000000 66.032000 -9.000000 1.000000 -5.000000 123.226212 1.195179 952.545452 235.835899 15.141797 0.000000 0.097053
289.000000 72.670000 -8.000000 1.000000 -5.000000 125.695471 5.983257 862.194889 163.497572 13.758074 0.000000 0.079875
290.000000 80.349000 -7.000000 1.000000 -5.000000 128.171999 12.187587 742.540997 75.381713 12.442716 0.000000 0.053965
291.000000 89.149000 -6.000000 1.000000 -5.000000 130.384524 20.313954 576.568632 -35.213220 11.214061 0.000000 0.029955
292.000000 45.669000 -13.000000 2.000000 -5.000000 110.021504 -4.842190 1066.177121 547.398615 21.898605 0.000000 0.148914
293.000000 49.128000 -12.000000 2.000000 -5.000000 111.276494 -2.526099 1022.483226 521.471309 20.356248 0.000000 0.146560
294.000000 53.062000 -11.000000 2.000000 -5.000000 112.601747 0.212953 970.999689 492.940336 18.846561 0.000000 0.142622
295.000000 57.550000 -10.000000 2.000000 -5.000000 113.974445 3.485756 909.439582 461.490896 17.376171 0.000000 0.136286
296.000000 62.680000 -9.000000 2.000000 -5.000000 115.347732 7.436126 834.523646 426.816185 15.953629 0.000000 0.126240
297.000000 68.536000 -8.000000 2.000000 -5.000000 116.633072 12.246798 741.376580 388.685677 14.590161 0.000000 0.110302
298.000000 75.178000 -7.000000 2.000000 -5.000000 117.671404 18.138050 622.421509 347.106906 13.300804 0.000000 0.084647
299.000000 82.595000 -6.000000 2.000000 -5.000000 118.189499 25.344812 465.207767 302.713705 12.106168 0.000000 0.042173
300.000000 90.610000 -5.000000 2.000000 -5.000000 117.744330 34.047144 247.741134 257.744603 11.035290 0.000000 0.031826
301.000000 46.790000 -12.000000 3.000000 -5.000000 105.499497 2.130849 934.953791 642.320820 21.375422 0.000000 0.160510
302.000000 50.277000 -11.000000 3.000000 -5.000000 106.175420 5.004550 880.750331 627.613541 19.892781 0.000000 0.156848
303.000000 54.195000 -10.000000 3.000000 -5.000000 106.778285 8.355117 816.928103 613.011527 18.454284 0.000000 0.150870
304.000000 58.590000 -9.000000 3.000000 -5.000000 107.238615 12.282337 740.677436 599.213127 17.069821 0.000000 0.141424
305.000000 63.489000 -8.000000 3.000000 -5.000000 107.447635 16.900997 647.976334 587.456812 15.752477 0.000000 0.126718
306.000000 68.878000 -7.000000 3.000000 -5.000000 107.238149 22.332893 532.857544 579.965222 14.519934 0.000000 0.104016
307.000000 74.654000 -6.000000 3.000000 -5.000000 106.360247 28.686701 386.070748 580.832877 13.396677 0.000000 0.070321
308.000000 80.541000 -5.000000 3.000000 -5.000000 104.457099 36.019569 192.464645 597.919569 12.417629 0.000000 0.045930
309.000000 85.966000 -4.000000 3.000000 -5.000000 101.056398 44.280900 -74.611338 647.240276 11.634360 0.000000 0.132781
311.000000 47.131000 -11.000000 4.000000 -5.000000 99.645351 8.988525 804.752685 755.807819 21.223279 0.000000 0.160846
312.000000 50.420000 -10.000000 4.000000 -5.000000 99.538369 12.306035 740.211133 755.895973 19.838808 0.000000 0.154466
313.000000 54.015000 -9.000000 4.000000 -5.000000 99.182062 16.103680 664.268739 759.918762 18.518344 0.000000 0.144974
314.000000 57.893000 -8.000000 4.000000 -5.000000 98.462418 20.452254 573.612024 770.095212 17.277901 0.000000 0.131231
315.000000 61.978000 -7.000000 4.000000 -5.000000 97.220321 25.418769 463.505759 790.029878 16.139322 0.000000 0.112309
316.000000 66.100000 -6.000000 4.000000 -5.000000 95.239610 31.053101 326.938777 825.788224 15.133194 0.000000 0.090827
317.000000 69.936000 -5.000000 4.000000 -5.000000 92.239614 37.367769 153.069841 888.037451 14.303710 0.000000 0.090139
318.000000 72.930000 -4.000000 4.000000 -5.000000 87.882381 44.313352 -75.801389 996.619399 13.717191 0.000000 0.160673
319.000000 74.230000 -3.000000 4.000000 -5.000000 81.810877 51.758270 -390.678173 1191.230478 13.477899 0.000000 0.329560
321.000000 46.408000 -4.000000 2.000000 -2.000000 92.430699 15.547211 675.561907 893.576981 8.622662 0.000000 0.149154
322.000000 49.207000 -9.000000 5.000000 -5.000000 91.373472 19.168852 600.850615 913.679785 20.330702 0.000000 0.139354
323.000000 52.096000 -8.000000 5.000000 -5.000000 89.884750 23.231357 513.002269 943.355987 19.203824 0.000000 0.126857
324.000000 54.958000 -7.000000 5.000000 -5.000000 87.822608 27.771522 408.217887 987.249043 18.204078 0.000000 0.113275
325.000000 57.595000 -6.000000 5.000000 -5.000000 85.008392 32.811216 281.077435 1052.849029 17.371222 0.000000 0.106875
326.000000 60.753000 -4.000000 5.000000 -5.000000 76.247452 44.336525 -76.651928 1309.289737 16.469935 0.000000 0.209799
329.000000 46.381000 -8.000000 6.000000 -5.000000 81.836205 25.455746 462.654009 1112.003663 21.572956 0.000000 0.118199
330.000000 48.184000 -7.000000 6.000000 -5.000000 79.148192 29.618914 363.109716 1178.335056 20.766354 0.000000 0.113993
331.000000 49.596000 -6.000000 6.000000 -5.000000 75.733439 34.166524 244.470070 1271.761656 20.175875 0.000000 0.127032
332.000000 50.335000 -5.000000 6.000000 -5.000000 71.435028 39.089153 100.657634 1406.726099 19.880638 0.000000 0.173670
333.000000 50.028000 -4.000000 6.000000 -5.000000 66.096206 44.353900 -77.290108 1608.146312 20.003745 0.000000 0.268343
338.000000 46.109000 -14.000000 -3.000000 -4.000000 119.877648 -39.650676 1866.992659 137.910528 21.684661 0.000000 0.111505
339.000000 49.685000 -13.000000 -3.000000 -4.000000 122.157368 -40.646601 1899.015310 49.180393 20.123098 0.000000 0.142936
340.000000 53.785000 -12.000000 -3.000000 -4.000000 124.735974 -41.872399 1939.768145 -61.187026 18.588565 0.000000 0.183285
343.000000 46.101000 -7.000000 -1.000000 -2.000000 117.875250 -32.838965 1669.660736 263.453335 10.844686 0.000000 0.014563
344.000000 49.760000 -13.000000 -2.000000 -4.000000 120.118439 -33.116744 1677.075692 195.537579 20.093920 0.000000 0.031385
345.000000 53.980000 -6.000000 -1.000000 -2.000000 122.681039 -33.458336 1686.258645 113.388151 9.261097 0.000000 0.052717
346.000000 58.885000 -11.000000 -2.000000 -4.000000 125.632940 -33.888548 1697.927521 11.635732 16.978569 0.000000 0.079377
347.000000 64.630000 -5.000000 -1.000000 -2.000000 129.064511 -34.446934 1713.249789 -118.326727 7.734286 0.000000 0.113042
349.000000 45.710000 -14.000000 -1.000000 -4.000000 115.152075 -26.371842 1508.617984 376.930967 21.876052 0.000000 0.054518
350.000000 49.366000 -13.000000 -1.000000 -4.000000 117.220387 -25.996399 1499.860068 325.055373 20.255387 0.000000 0.046789
351.000000 53.596000 -12.000000 -1.000000 -4.000000 119.586279 -25.538177 1489.246632 263.752325 18.656017 0.000000 0.038101
352.000000 58.532000 -11.000000 -1.000000 -4.000000 122.315834 -24.966490 1476.118122 190.001420 17.081969 0.000000 0.029370
353.000000 64.344000 -10.000000 -1.000000 -4.000000 125.494851 -24.233409 1459.460374 99.259280 15.538354 0.000000 0.024562
354.000000 71.248000 -9.000000 -1.000000 -4.000000 129.235837 -23.259741 1437.629297 -15.680852 14.031757 0.000000 0.031188
355.000000 79.524000 -8.000000 -1.000000 -4.000000 133.687154 -21.904782 1407.771878 -167.064141 12.570811 0.000000 0.048804
356.000000 89.514000 -7.000000 -1.000000 -4.000000 139.043278 -19.893017 1364.464737 -377.713556 11.167060 0.000000 0.071154
357.000000 48.495000 -13.000000 0.000000 -4.000000 113.565219 -19.450378 1355.087089 443.143922 20.620529 0.000000 0.100319
358.000000 52.617000 -6.000000 0.000000 -2.000000 115.583217 -18.337838 1331.738994 398.146530 9.502274 0.000000 0.096556
359.000000 57.426000 -11.000000 0.000000 -4.000000 117.891100 -16.971518 1303.471238 345.407471 17.412394 0.000000 0.091708
360.000000 63.088000 -5.000000 0.000000 -2.000000 120.548110 -15.255663 1268.545780 282.594987 7.924503 0.000000 0.085352
361.000000 69.817000 -9.000000 0.000000 -4.000000 123.625610 -13.041158 1224.296606 206.268110 14.320794 0.000000 0.076849
362.000000 87.643000 -7.000000 0.000000 -4.000000 131.363255 -5.964763 1087.453887 -11.813526 11.406709 0.000000 0.048713
363.000000 47.166000 -13.000000 1.000000 -4.000000 109.291378 -13.560364 1234.594985 553.465805 21.203592 0.000000 0.136170
364.000000 51.066000 -12.000000 1.000000 -4.000000 110.854226 -11.957365 1202.936470 521.894379 19.583741 0.000000 0.135271
365.000000 55.595000 -11.000000 1.000000 -4.000000 112.605661 -10.025451 1165.272718 485.908149 17.987831 0.000000 0.133543
366.000000 60.897000 -10.000000 1.000000 -4.000000 114.569876 -7.657928 1119.716011 444.490126 16.420968 0.000000 0.130507
367.000000 67.157000 -9.000000 1.000000 -4.000000 116.766852 -4.700388 1063.494826 396.273961 14.889820 0.000000 0.125371
368.000000 74.602000 -8.000000 1.000000 -4.000000 119.201188 -0.924496 992.368050 339.371855 13.403264 0.000000 0.116766
369.000000 83.508000 -7.000000 1.000000 -4.000000 121.836334 4.012508 899.502054 271.081881 11.973389 0.000000 0.102231
370.000000 49.001000 -6.000000 1.000000 -2.000000 105.599058 -6.395876 1095.647310 638.630337 10.205583 0.000000 0.158357
371.000000 53.119000 -11.000000 2.000000 -4.000000 106.725130 -4.099887 1052.147598 616.751854 18.828219 0.000000 0.157823
372.000000 57.887000 -5.000000 1.000000 -2.000000 107.921490 -1.353865 1000.436927 592.823359 8.638530 0.000000 0.156046
373.000000 63.437000 -9.000000 2.000000 -4.000000 109.163219 1.971649 937.948177 566.747662 15.765216 0.000000 0.152242
374.000000 77.501000 -7.000000 2.000000 -4.000000 111.506284 11.111844 763.608400 508.797475 12.903690 0.000000 0.132245
375.000000 46.511000 -12.000000 3.000000 -4.000000 100.009582 -1.591138 1004.897015 750.961409 21.506229 0.000000 0.168898
376.000000 50.124000 -11.000000 3.000000 -4.000000 100.496523 0.913435 957.839786 741.562869 19.955719 0.000000 0.168138
377.000000 54.235000 -10.000000 3.000000 -4.000000 100.924640 3.842946 902.702272 732.790175 18.442838 0.000000 0.166044
378.000000 58.918000 -9.000000 3.000000 -4.000000 101.237089 7.295587 837.207782 725.418573 16.976786 0.000000 0.161877
379.000000 64.241000 -8.000000 3.000000 -4.000000 101.341827 11.392088 758.135670 720.779295 15.570025 0.000000 0.154483
380.000000 70.242000 -7.000000 3.000000 -4.000000 101.090942 16.275182 660.775525 721.208390 14.239871 0.000000 0.142039
381.000000 76.876000 -6.000000 3.000000 -4.000000 100.249973 22.100414 537.953150 730.940916 13.011110 0.000000 0.121908
382.000000 83.910000 -5.000000 3.000000 -4.000000 98.457256 29.009080 378.177357 758.010142 11.920513 0.000000 0.092553
383.000000 90.728000 -4.000000 3.000000 -4.000000 95.183734 37.072463 161.817888 818.621780 11.025077 0.000000 0.079657
384.000000 46.758000 -11.000000 4.000000 -4.000000 94.129361 5.149040 878.014670 862.981042 21.395037 0.000000 0.167115
385.000000 50.152000 -5.000000 2.000000 -2.000000 93.839285 8.134549 821.158438 868.037242 9.973510 0.000000 0.163578
386.000000 53.906000 -9.000000 4.000000 -4.000000 93.309365 11.573736 754.582615 877.473075 18.558327 0.000000 0.157879
387.000000 62.405000 -7.000000 4.000000 -4.000000 91.046688 20.141543 580.247105 920.055011 16.031003 0.000000 0.136469
388.000000 66.925000 -3.000000 2.000000 -2.000000 88.935640 25.439899 463.019106 963.143275 7.474364 0.000000 0.119940
389.000000 71.215000 -5.000000 4.000000 -4.000000 85.793616 31.504121 315.339533 1033.843594 14.048806 0.000000 0.106829
390.000000 75.985000 -3.000000 4.000000 -4.000000 74.787584 45.895905 -135.490713 1361.529075 13.168527 0.000000 0.240806
391.000000 45.849000 -10.000000 5.000000 -4.000000 86.860855 11.701035 752.089902 1001.280210 21.821987 0.000000 0.151203
392.000000 48.692000 -9.000000 5.000000 -4.000000 85.605976 15.050565 685.589516 1026.641148 20.548326 0.000000 0.143469
393.000000 51.641000 -8.000000 5.000000 -4.000000 83.914184 18.839514 607.771067 1062.248883 19.375190 0.000000 0.133428
394.000000 54.575000 -7.000000 5.000000 -4.000000 81.638247 23.120049 515.476379 1113.014765 18.334401 0.000000 0.121967
395.000000 57.268000 -6.000000 5.000000 -4.000000 78.586996 27.936566 404.251769 1186.932520 17.472801 0.000000 0.114196
396.000000 59.344000 -5.000000 5.000000 -4.000000 74.522511 33.314833 267.607867 1297.635018 16.862292 0.000000 0.126469
397.000000 60.216000 -4.000000 5.000000 -4.000000 69.170325 39.247581 95.706464 1469.762422 16.619184 0.000000 0.185834
398.000000 59.063000 -3.000000 5.000000 -4.000000 62.256042 45.679217 -127.119662 1751.278077 16.944743 0.000000 0.318613
401.000000 45.459000 -4.000000 3.000000 -2.000000 75.938636 21.496171 551.119495 1230.727889 11.006735 0.000000 0.113673
402.000000 47.166000 -7.000000 6.000000 -4.000000 72.994325 25.473262 462.250375 1305.618773 21.217428 0.000000 0.109779
403.000000 48.417000 -3.000000 3.000000 -2.000000 69.286185 29.866969 356.928712 1410.328680 10.334997 0.000000 0.122245
404.000000 48.877000 -5.000000 6.000000 -4.000000 64.638708 34.686285 230.119599 1561.434821 20.476532 0.000000 0.166749
405.000000 48.092000 -2.000000 3.000000 -2.000000 58.870950 39.918103 74.500336 1788.507906 10.405874 0.000000 0.257565
409.000000 45.591000 -14.000000 -3.000000 -3.000000 113.400615 -41.555486 1929.084487 318.576731 21.933397 0.000000 0.104962
410.000000 49.213000 -13.000000 -3.000000 -3.000000 115.267577 -42.661788 1966.847577 250.165055 20.318319 0.000000 0.132523
411.000000 53.397000 -4.000000 -1.000000 -1.000000 117.381649 -44.001026 2014.402553 166.025026 6.241875 0.000000 0.169120
414.000000 45.571000 -14.000000 -2.000000 -3.000000 111.503976 -35.141490 1732.597230 422.432441 21.943811 0.000000 0.024271
415.000000 49.280000 -13.000000 -2.000000 -3.000000 113.350084 -35.621813 1746.170957 369.400491 20.291727 0.000000 0.027088
416.000000 53.593000 -12.000000 -2.000000 -3.000000 115.467690 -36.203938 1762.841930 305.718450 18.657993 0.000000 0.039973
417.000000 58.658000 -11.000000 -2.000000 -3.000000 117.918750 -36.923896 1783.806761 227.596029 17.046246 0.000000 0.061485
418.000000 64.668000 -10.000000 -2.000000 -3.000000 120.784312 -37.836880 1810.969594 129.107097 15.461147 0.000000 0.091753
419.000000 71.882000 -9.000000 -2.000000 -3.000000 124.171518 -39.031809 1847.555736 0.384261 13.908779 0.000000 0.133383
421.000000 48.857000 -13.000000 -1.000000 -3.000000 110.622557 -28.870097 1568.413672 478.480426 20.468612 0.000000 0.058925
422.000000 53.178000 -12.000000 -1.000000 -3.000000 112.577772 -28.738371 1565.191103 430.603310 18.804687 0.000000 0.050434
423.000000 58.275000 -11.000000 -1.000000 -3.000000 114.853014 -28.576311 1561.237537 373.318754 17.159247 0.000000 0.040056
424.000000 64.360000 -10.000000 -1.000000 -3.000000 117.531457 -28.372076 1556.272430 303.373928 15.536326 0.000000 0.027580
425.000000 71.720000 -9.000000 -1.000000 -3.000000 120.726672 -28.106752 1549.850622 215.735977 13.941223 0.000000 0.015467
426.000000 80.753000 -8.000000 -1.000000 -3.000000 124.597117 -27.748125 1541.220839 102.126154 12.381042 0.000000 0.022623
427.000000 46.534000 -13.000000 1.000000 -3.000000 103.101171 -16.789038 1299.727726 679.362950 21.493726 0.000000 0.142702
428.000000 50.490000 -12.000000 1.000000 -3.000000 104.329931 -15.551971 1274.534436 655.608304 19.809499 0.000000 0.143687
429.000000 55.129000 -11.000000 1.000000 -3.000000 105.726465 -14.068992 1244.727285 628.558763 18.141901 0.000000 0.144482
430.000000 60.633000 -10.000000 1.000000 -3.000000 107.321768 -12.261421 1208.911053 597.487079 16.494783 0.000000 0.144883
431.000000 67.241000 -9.000000 1.000000 -3.000000 109.151145 -10.014723 1165.064905 561.440073 14.873287 0.000000 0.144528
432.000000 75.280000 -8.000000 1.000000 -3.000000 111.250815 -7.157024 1110.147476 519.147518 13.284430 0.000000 0.142752
433.000000 85.194000 -7.000000 1.000000 -3.000000 113.646885 -3.422062 1039.359564 468.887564 11.738053 0.000000 0.138292
434.000000 48.307000 -12.000000 2.000000 -3.000000 99.310922 -9.988563 1164.558197 761.823488 20.706522 0.000000 0.163215
435.000000 52.491000 -11.000000 2.000000 -3.000000 100.117383 -8.100252 1128.184180 747.010456 19.055984 0.000000 0.164883
436.000000 57.389000 -10.000000 2.000000 -3.000000 100.984288 -5.845005 1085.180185 731.004096 17.429293 0.000000 0.166149
437.000000 63.175000 -9.000000 2.000000 -3.000000 101.898879 -3.113892 1033.551752 713.875868 15.832643 0.000000 0.166626
438.000000 70.070000 -8.000000 2.000000 -3.000000 102.828309 0.244063 970.415284 695.910413 14.274571 0.000000 0.165633
439.000000 78.341000 -7.000000 2.000000 -3.000000 103.699608 4.439331 891.440433 677.846046 12.767193 0.000000 0.161930
440.000000 88.291000 -6.000000 2.000000 -3.000000 104.359930 9.762729 789.812636 661.407849 11.328287 0.000000 0.153185
441.000000 45.688000 -4.000000 1.000000 -1.000000 93.940475 -5.101190 1071.079240 866.566920 7.298735 0.000000 0.169400
442.000000 49.314000 -11.000000 3.000000 -3.000000 94.132176 -2.950069 1030.465707 863.139522 20.286005 0.000000 0.170176
443.000000 53.476000 -10.000000 3.000000 -3.000000 94.253739 -0.431032 983.097032 860.944625 18.707070 0.000000 0.170238
444.000000 58.271000 -3.000000 1.000000 -1.000000 94.254873 2.546383 927.134995 860.846337 5.722603 0.000000 0.169134
445.000000 63.800000 -8.000000 3.000000 -3.000000 94.054108 6.098392 860.007882 864.282575 15.679938 0.000000 0.166132
446.000000 70.152000 -7.000000 3.000000 -3.000000 93.518547 10.372133 778.004098 873.721920 14.260300 0.000000 0.160068
447.000000 85.214000 -5.000000 3.000000 -3.000000 90.436965 21.825717 543.952521 932.157685 11.740142 0.000000 0.131289
448.000000 45.766000 -11.000000 4.000000 -3.000000 87.982710 1.471513 947.351721 978.922718 21.861528 0.000000 0.163228
449.000000 49.134000 -10.000000 4.000000 -3.000000 87.399013 4.121864 897.437435 990.019614 20.362966 0.000000 0.160673
450.000000 52.881000 -9.000000 4.000000 -3.000000 86.561919 7.188247 839.256710 1006.173810 18.920487 0.000000 0.156420
451.000000 57.007000 -8.000000 4.000000 -3.000000 85.364175 10.754549 770.570607 1029.834264 17.551333 0.000000 0.149783
452.000000 61.458000 -7.000000 4.000000 -3.000000 83.649433 14.918335 688.251398 1064.963927 16.280621 0.000000 0.139981
453.000000 66.063000 -6.000000 4.000000 -3.000000 81.190813 19.786675 587.792954 1118.261476 15.146421 0.000000 0.126854
454.000000 70.422000 -5.000000 4.000000 -3.000000 77.665269 25.464280 462.457381 1201.677533 14.209335 0.000000 0.114565
455.000000 73.733000 -4.000000 4.000000 -3.000000 72.633238 32.029033 301.698115 1338.042672 13.572063 0.000000 0.125302
456.000000 74.554000 -3.000000 4.000000 -3.000000 65.551864 39.491934 88.025917 1575.068280 13.423653 0.000000 0.207638
459.000000 47.338000 -9.000000 5.000000 -3.000000 79.067699 11.016867 765.460760 1152.794104 21.138791 0.000000 0.132303
460.000000 50.165000 -8.000000 5.000000 -3.000000 77.046989 14.500208 696.647209 1196.697353 19.948194 0.000000 0.122076
461.000000 52.940000 -7.000000 5.000000 -3.000000 74.411850 18.471781 615.466305 1257.576927 18.903444 0.000000 0.110714
462.000000 55.402000 -6.000000 5.000000 -3.000000 70.958687 22.994829 518.254828 1344.530613 18.063989 0.000000 0.103918
463.000000 57.104000 -5.000000 5.000000 -3.000000 66.427143 28.123525 399.744335 1473.482765 17.526670 0.000000 0.118989
464.000000 57.323000 -4.000000 5.000000 -3.000000 60.506414 33.888502 252.073726 1674.358908 17.460597 0.000000 0.181565
467.000000 45.898000 -2.000000 2.000000 -1.000000 61.834144 25.492723 461.801761 1579.436619 7.269204 0.000000 0.115090
468.000000 45.786000 -5.000000 6.000000 -3.000000 56.703862 30.143921 349.991260 1758.433564 21.861983 0.000000 0.173662
472.000000 48.205000 -13.000000 -3.000000 -2.000000 107.977521 -44.401827 2029.052455 452.173287 20.745633 0.000000 0.134574
473.000000 52.353000 -12.000000 -3.000000 -2.000000 109.556675 -45.807819 2082.079931 392.510092 19.101403 0.000000 0.166222
474.000000 57.211000 -11.000000 -3.000000 -2.000000 111.349816 -47.512055 2150.065362 318.130335 17.478798 0.000000 0.210075
477.000000 48.249000 -13.000000 -2.000000 -2.000000 106.145727 -37.808944 1810.128567 546.615520 20.727748 0.000000 0.048995
478.000000 52.528000 -6.000000 -1.000000 -1.000000 107.736059 -38.564655 1833.107897 500.747372 9.519323 0.000000 0.052381
479.000000 57.587000 -11.000000 -2.000000 -2.000000 109.580716 -39.484252 1861.731803 444.960443 17.365386 0.000000 0.063357
480.000000 63.646000 -5.000000 -1.000000 -1.000000 111.742712 -40.626857 1898.371260 375.442263 7.855808 0.000000 0.084261
481.000000 71.008000 -9.000000 -2.000000 -2.000000 114.305755 -42.083432 1946.941325 286.034335 14.082195 0.000000 0.117775
482.000000 47.789000 -13.000000 -1.000000 -2.000000 103.559778 -31.414583 1632.348894 636.831013 20.928318 0.000000 0.073115
483.000000 52.071000 -12.000000 -1.000000 -2.000000 105.012083 -31.537270 1635.517382 602.345270 19.206834 0.000000 0.066454
484.000000 57.158000 -11.000000 -1.000000 -2.000000 106.712602 -31.686211 1639.375123 561.228513 17.496903 0.000000 0.058106
485.000000 63.290000 -10.000000 -1.000000 -2.000000 108.729886 -31.870841 1644.174467 511.285034 15.801269 0.000000 0.047431
486.000000 70.805000 -9.000000 -1.000000 -2.000000 111.159758 -32.105728 1650.308076 449.189165 14.123620 0.000000 0.033487
487.000000 80.196000 -8.000000 -1.000000 -2.000000 114.139997 -32.414611 1658.422192 369.622777 12.469031 0.000000 0.015171
488.000000 46.817000 -13.000000 0.000000 -2.000000 100.284621 -25.358665 1485.110881 724.878062 21.364464 0.000000 0.115852
489.000000 50.965000 -12.000000 0.000000 -2.000000 101.462844 -24.912753 1474.890377 700.360821 19.625338 0.000000 0.115013
490.000000 55.890000 -11.000000 0.000000 -2.000000 102.839604 -24.375540 1462.674824 671.682482 17.895446 0.000000 0.113922
491.000000 61.826000 -10.000000 0.000000 -2.000000 104.468667 -23.715920 1447.816892 637.662656 16.177053 0.000000 0.112464
492.000000 69.101000 -9.000000 0.000000 -2.000000 106.424557 -22.886931 1429.355235 596.616138 14.473231 0.000000 0.110453
493.000000 78.203000 -8.000000 0.000000 -2.000000 108.813151 -21.814262 1405.797806 546.042243 12.788250 0.000000 0.107577
494.000000 89.864000 -7.000000 0.000000 -2.000000 111.788934 -20.373187 1374.697020 482.044127 11.128232 0.000000 0.103285
495.000000 49.238000 -12.000000 1.000000 -2.000000 97.221075 -18.816285 1341.741852 796.930794 20.315758 0.000000 0.145938
496.000000 53.820000 -11.000000 1.000000 -2.000000 98.135880 -17.718789 1318.878253 779.470236 18.585853 0.000000 0.148048
497.000000 59.300000 -10.000000 1.000000 -2.000000 99.193808 -16.390374 1291.574156 759.418517 16.867832 0.000000 0.150360
498.000000 65.958000 -9.000000 1.000000 -2.000000 100.427148 -14.751601 1258.396798 736.184891 15.164984 0.000000 0.152825
499.000000 74.190000 -8.000000 1.000000 -2.000000 101.875667 -12.683248 1217.222740 709.005629 13.481939 0.000000 0.155295
500.000000 84.580000 -7.000000 1.000000 -2.000000 103.585308 -9.999223 1164.764662 676.897441 11.825420 0.000000 0.157421
501.000000 46.963000 -6.000000 1.000000 -1.000000 92.451391 -13.307618 1229.576283 893.651399 10.651125 0.000000 0.160398
502.000000 51.051000 -11.000000 2.000000 -2.000000 92.819810 -11.786127 1199.577619 886.845658 19.596138 0.000000 0.162780
503.000000 55.868000 -5.000000 1.000000 -1.000000 93.202946 -9.974853 1164.292686 879.845889 8.953241 0.000000 0.165199
504.000000 61.608000 -9.000000 2.000000 -2.000000 93.586463 -7.787208 1122.189179 872.912713 16.238015 0.000000 0.167503
505.000000 76.984000 -7.000000 2.000000 -2.000000 94.204310 -1.741657 1007.726892 861.843920 12.994777 0.000000 0.170320
506.000000 47.739000 -11.000000 3.000000 -2.000000 87.117762 -6.572333 1099.004849 995.546679 20.958021 0.000000 0.161736
507.000000 51.759000 -10.000000 3.000000 -2.000000 86.798393 -4.441632 1058.603060 1001.385828 19.330626 0.000000 0.161807
508.000000 56.408000 -9.000000 3.000000 -2.000000 86.315749 -1.921793 1011.114197 1010.342764 17.737662 0.000000 0.160974
509.000000 61.799000 -8.000000 3.000000 -2.000000 85.586932 1.091479 954.494215 1024.078337 16.190557 0.000000 0.158670
510.000000 68.037000 -7.000000 3.000000 -2.000000 84.479560 4.736118 885.829406 1045.379287 14.706423 0.000000 0.153987
511.000000 75.165000 -6.000000 3.000000 -2.000000 82.778020 9.192713 800.818835 1079.161561 13.312097 0.000000 0.145530
512.000000 83.026000 -5.000000 3.000000 -2.000000 80.126411 14.690151 692.837224 1134.662787 12.052193 0.000000 0.131599
514.000000 47.238000 -5.000000 2.000000 -1.000000 80.246774 0.295946 969.440644 1126.006048 10.591755 0.000000 0.143753
515.000000 50.753000 -9.000000 4.000000 -2.000000 78.961965 2.988878 918.803302 1151.237982 19.716752 0.000000 0.137865
516.000000 54.603000 -4.000000 2.000000 -1.000000 77.269928 6.134402 859.323662 1185.547345 9.163587 0.000000 0.129305
517.000000 58.712000 -7.000000 4.000000 -2.000000 75.006980 9.832439 788.464097 1233.548784 17.045078 0.000000 0.117277
518.000000 62.868000 -3.000000 2.000000 -1.000000 71.934051 14.202123 702.613245 1303.147952 7.959507 0.000000 0.102014
519.000000 66.582000 -5.000000 4.000000 -2.000000 67.704838 19.377550 596.450916 1408.814721 15.031961 0.000000 0.090746
520.000000 67.807000 -3.000000 4.000000 -2.000000 53.697925 32.647503 285.423139 1880.039983 14.762554 0.000000 0.219659
522.000000 47.465000 -8.000000 5.000000 -2.000000 69.298537 10.260854 780.163723 1354.339672 21.086038 0.000000 0.088421
523.000000 49.761000 -7.000000 5.000000 -2.000000 66.143176 13.887047 708.902302 1431.309344 20.114085 0.000000 0.075101
524.000000 51.576000 -6.000000 5.000000 -2.000000 62.098129 18.058563 624.074155 1540.441900 19.407462 0.000000 0.077218
525.000000 52.360000 -5.000000 5.000000 -2.000000 56.880442 22.852915 521.397452 1702.961310 19.117977 0.000000 0.119788
526.000000 51.230000 -4.000000 5.000000 -2.000000 50.146935 28.337072 394.576644 1961.739437 19.540545 0.000000 0.216271
531.000000 46.615000 -13.000000 -3.000000 -1.000000 100.337651 -45.916825 2086.302327 658.800775 21.455816 0.000000 0.152874
532.000000 50.584000 -12.000000 -3.000000 -1.000000 101.320224 -47.357734 2143.729706 622.939840 19.771776 0.000000 0.180749
533.000000 55.239000 -11.000000 -3.000000 -1.000000 102.421416 -49.077856 2216.538182 579.093852 18.105194 0.000000 0.219874
534.000000 60.758000 -10.000000 -3.000000 -1.000000 103.655938 -51.162819 2311.862654 524.014496 16.460324 0.000000 0.275846
537.000000 46.618000 -13.000000 -2.000000 -1.000000 98.559988 -39.729745 1869.501005 730.348258 21.455492 0.000000 0.081067
538.000000 50.712000 -12.000000 -2.000000 -1.000000 99.551287 -40.609558 1897.807254 702.447146 19.723101 0.000000 0.084136
539.000000 55.561000 -11.000000 -2.000000 -1.000000 100.696941 -41.664832 1932.758821 668.850356 18.001219 0.000000 0.091463
540.000000 61.387000 -10.000000 -2.000000 -1.000000 102.033629 -42.952880 1977.007059 627.529236 16.292489 0.000000 0.105608
541.000000 68.498000 -9.000000 -2.000000 -1.000000 103.609137 -44.558402 2034.830131 575.313474 14.600528 0.000000 0.130239
542.000000 77.343000 -8.000000 -2.000000 -1.000000 105.485468 -46.611495 2113.606793 506.918246 12.930411 0.000000 0.171118
543.000000 88.581000 -7.000000 -2.000000 -1.000000 107.740863 -49.321255 2227.246889 412.730197 11.289492 0.000000 0.239003
544.000000 46.114000 -13.000000 -1.000000 -1.000000 96.089098 -33.674870 1692.117228 803.033269 21.691390 0.000000 0.089472
545.000000 50.201000 -12.000000 -1.000000 -1.000000 96.957856 -33.994768 1700.826663 782.574499 19.925281 0.000000 0.085457
546.000000 55.065000 -11.000000 -1.000000 -1.000000 97.977935 -34.378321 1711.356053 758.235341 18.164626 0.000000 0.080553
547.000000 60.949000 -10.000000 -1.000000 -1.000000 99.192236 -34.846580 1724.342411 728.772442 16.410843 0.000000 0.074517
548.000000 68.198000 -9.000000 -1.000000 -1.000000 100.661336 -35.431000 1740.759299 692.335010 14.665895 0.000000 0.067106
549.000000 77.336000 -8.000000 -1.000000 -1.000000 102.473453 -36.180742 1762.172922 646.032554 12.932566 0.000000 0.058407
550.000000 89.177000 -7.000000 -1.000000 -1.000000 104.761781 -37.177100 1791.274014 585.061962 11.214951 0.000000 0.050362
551.000000 47.243000 -12.000000 1.000000 -1.000000 89.593506 -21.775377 1404.950563 949.222806 21.176389 0.000000 0.142000
552.000000 51.562000 -11.000000 1.000000 -1.000000 89.912451 -21.004121 1388.239495 942.761657 19.402545 0.000000 0.143957
553.000000 56.734000 -10.000000 1.000000 -1.000000 90.279509 -20.077919 1368.397497 935.409663 17.633624 0.000000 0.146256
554.000000 63.034000 -9.000000 1.000000 -1.000000 90.704898 -18.945532 1344.453721 926.999476 15.871144 0.000000 0.148973
555.000000 70.865000 -8.000000 1.000000 -1.000000 91.200733 -17.530760 1314.989656 917.342295 14.117324 0.000000 0.152193
556.000000 80.838000 -7.000000 1.000000 -1.000000 91.779927 -15.715530 1277.847484 906.254687 12.375528 0.000000 0.155994
557.000000 48.710000 -11.000000 2.000000 -1.000000 84.904208 -15.166181 1266.740612 1040.440436 20.541111 0.000000 0.150822
558.000000 53.181000 -10.000000 2.000000 -1.000000 84.660797 -13.747491 1238.317586 1044.554174 18.814091 0.000000 0.152020
559.000000 58.503000 -9.000000 2.000000 -1.000000 84.320388 -12.041844 1204.595077 1050.450049 17.102779 0.000000 0.152986
560.000000 64.919000 -8.000000 2.000000 -1.000000 83.832624 -9.956566 1163.938572 1059.081363 15.412839 0.000000 0.153446
561.000000 72.755000 -7.000000 2.000000 -1.000000 83.112637 -7.356970 1113.964356 1072.084202 13.753030 0.000000 0.152886
562.000000 82.440000 -6.000000 2.000000 -1.000000 82.010497 -4.042001 1051.054708 1092.438905 12.137651 0.000000 0.150313
563.000000 48.970000 -10.000000 3.000000 -1.000000 78.632531 -8.176882 1129.653116 1159.605536 20.434802 0.000000 0.139150
564.000000 53.149000 -9.000000 3.000000 -1.000000 77.501749 -6.083891 1089.716620 1180.925548 18.828562 0.000000 0.134916
565.000000 57.943000 -8.000000 3.000000 -1.000000 76.026250 -3.581712 1042.369798 1209.350765 17.271290 0.000000 0.128253
566.000000 63.404000 -7.000000 3.000000 -1.000000 74.052708 -0.550384 985.339220 1248.565372 15.784210 0.000000 0.117789
567.000000 69.488000 -6.000000 3.000000 -1.000000 71.338216 3.174009 915.315559 1305.064052 14.402874 0.000000 0.101391
568.000000 75.873000 -5.000000 3.000000 -1.000000 67.488236 7.814541 827.287732 1391.255974 13.191724 0.000000 0.076955
569.000000 81.506000 -4.000000 3.000000 -1.000000 61.853321 13.666835 713.287657 1533.593647 12.280917 0.000000 0.059012
570.000000 83.571000 -3.000000 3.000000 -1.000000 53.384645 21.093556 559.831675 1798.212673 11.978737 0.000000 0.133833
572.000000 47.394000 -9.000000 4.000000 -1.000000 70.583069 -0.994022 993.674456 1320.437667 21.117693 0.000000 0.098910
573.000000 50.596000 -8.000000 4.000000 -1.000000 68.226375 1.733886 942.419217 1371.109328 19.781989 0.000000 0.082499
574.000000 53.847000 -7.000000 4.000000 -1.000000 65.197002 4.954429 881.698993 1440.251473 18.588672 0.000000 0.060373
575.000000 56.826000 -6.000000 4.000000 -1.000000 61.231207 8.787289 808.625329 1538.953221 17.615060 0.000000 0.039764
576.000000 58.863000 -5.000000 4.000000 -1.000000 55.947680 13.379302 719.001369 1688.693256 17.006821 0.000000 0.070523
577.000000 58.632000 -4.000000 4.000000 -1.000000 48.810375 18.900748 606.486406 1936.559654 17.074933 0.000000 0.169054
579.000000 45.516000 -6.000000 5.000000 -1.000000 52.087679 13.199850 722.560424 1801.991834 21.994716 0.000000 0.103764
582.000000 48.064000 -4.000000 -1.000000 0.000000 92.749920 -48.700064 2200.122809 862.671894 6.937178 0.000000 0.213688
583.000000 52.307000 -11.000000 -3.000000 0.000000 93.098416 -50.413066 2276.620536 849.575406 19.123213 0.000000 0.251576
584.000000 57.306000 -10.000000 -3.000000 0.000000 93.444859 -52.456908 2375.471868 834.676047 17.454886 0.000000 0.305203
586.000000 48.114000 -6.000000 -1.000000 0.000000 90.997479 -42.393745 1957.576293 915.626032 10.395443 0.000000 0.125218
587.000000 52.528000 -11.000000 -2.000000 0.000000 91.371852 -43.539183 1997.764925 905.443553 19.043673 0.000000 0.135426
588.000000 57.801000 -5.000000 -1.000000 0.000000 91.788407 -44.915726 2048.132764 893.543793 8.653140 0.000000 0.151123
589.000000 64.197000 -9.000000 -2.000000 0.000000 92.249012 -46.598962 2113.107979 879.481887 15.581716 0.000000 0.175427
590.000000 82.051000 -7.000000 -2.000000 0.000000 93.273063 -51.388202 2322.681316 842.366869 12.190820 0.000000 0.275970
591.000000 47.536000 -12.000000 -1.000000 0.000000 88.503608 -36.162161 1761.637317 975.824957 21.045485 0.000000 0.108852
592.000000 51.943000 -11.000000 -1.000000 0.000000 88.760037 -36.721737 1777.880396 970.063966 19.259415 0.000000 0.108279
593.000000 57.244000 -10.000000 -1.000000 0.000000 89.060079 -37.395460 1797.753980 963.226186 17.476068 0.000000 0.107963
594.000000 63.734000 -9.000000 -1.000000 0.000000 89.415310 -38.221965 1822.628396 954.980962 15.696313 0.000000 0.108237
595.000000 71.858000 -8.000000 -1.000000 0.000000 89.841367 -39.259370 1854.662865 944.848565 13.921433 0.000000 0.109817
596.000000 82.311000 -7.000000 -1.000000 0.000000 90.359429 -40.599168 1897.468644 932.107486 12.153406 0.000000 0.114279
597.000000 46.313000 -3.000000 0.000000 0.000000 85.317454 -30.145538 1600.049380 1042.945259 5.400677 0.000000 0.123073
598.000000 48.315000 -11.000000 1.000000 0.000000 81.165987 -23.958380 1453.260574 1124.044441 20.709739 0.000000 0.133957
599.000000 52.860000 -10.000000 1.000000 0.000000 80.718075 -23.365227 1439.978791 1132.614587 18.929163 0.000000 0.134277
600.000000 58.334000 -9.000000 1.000000 0.000000 80.163535 -22.647003 1424.054364 1143.204886 17.153156 0.000000 0.134459
601.000000 65.046000 -8.000000 1.000000 0.000000 79.459884 -21.759808 1404.611461 1156.622895 15.383520 0.000000 0.134360
602.000000 73.452000 -7.000000 1.000000 0.000000 78.539103 -20.636688 1380.339157 1174.171365 13.623152 0.000000 0.133701
603.000000 84.254000 -6.000000 1.000000 0.000000 77.285573 -19.170446 1349.182939 1198.095165 11.877012 0.000000 0.131895
604.000000 98.551000 -5.000000 1.000000 0.000000 75.487093 -17.178702 1307.730361 1232.616867 10.154378 0.000000 0.127618
605.000000 118.089000 -4.000000 1.000000 0.000000 72.712789 -14.326144 1249.867061 1286.715546 8.474827 0.000000 0.117515
606.000000 145.307000 -3.000000 1.000000 0.000000 67.958713 -9.930952 1163.442621 1383.382074 6.888027 0.000000 0.091565
607.000000 179.796000 -2.000000 1.000000 0.000000 58.393122 -2.414423 1020.381511 1603.907264 5.567668 0.000000 0.018110
609.000000 53.762000 -9.000000 2.000000 0.000000 74.264000 -15.890831 1281.404279 1256.312100 18.614496 0.000000 0.123662
610.000000 65.292000 -7.000000 2.000000 0.000000 70.689666 -12.387956 1211.401465 1327.120744 15.328453 0.000000 0.107726
611.000000 81.104000 -5.000000 2.000000 0.000000 64.111084 -6.728664 1101.981432 1466.986048 12.341553 0.000000 0.063581
612.000000 95.640000 -3.000000 2.000000 0.000000 49.328325 3.625450 906.805322 1867.688320 10.468117 0.000000 0.110436
613.000000 52.124000 -8.000000 3.000000 0.000000 65.554243 -7.897743 1124.304966 1434.950700 19.202714 0.000000 0.074744
614.000000 56.052000 -7.000000 3.000000 0.000000 62.465623 -5.437987 1077.459762 1504.641109 17.858068 0.000000 0.050013
615.000000 63.016000 -5.000000 3.000000 0.000000 52.862694 1.367539 949.306065 1756.329353 15.886948 0.000000 0.061593
616.000000 63.479000 -4.000000 3.000000 0.000000 45.113719 6.184841 858.365128 2019.306605 15.772320 0.000000 0.177673
617.000000 46.794000 -7.000000 4.000000 0.000000 54.417330 0.337482 968.660362 1711.072074 21.393957 0.000000 0.042650
618.000000 47.081000 -5.000000 4.000000 0.000000 42.701179 7.593572 831.514574 2117.639474 21.266310 0.000000 0.220511
621.000000 48.444000 -11.000000 -3.000000 1.000000 83.500474 -51.563951 2331.191695 1138.250958 20.651275 0.000000 0.304102
625.000000 48.520000 -11.000000 -2.000000 1.000000 81.735525 -45.164295 2057.484570 1162.724796 20.620286 0.000000 0.190718
626.000000 52.928000 -10.000000 -2.000000 1.000000 81.175833 -46.590597 2112.775216 1184.135039 18.902803 0.000000 0.213449
627.000000 58.153000 -9.000000 -2.000000 1.000000 80.449422 -48.306205 2183.269628 1213.249687 17.204387 0.000000 0.245664
628.000000 64.413000 -8.000000 -2.000000 1.000000 79.480377 -50.404806 2276.238525 1254.576108 15.532486 0.000000 0.292930
632.000000 47.827000 -11.000000 -1.000000 1.000000 79.196679 -38.773579 1839.545955 1204.432151 20.920403 0.000000 0.145139
633.000000 52.218000 -10.000000 -1.000000 1.000000 78.514167 -39.594965 1865.228756 1224.812811 19.161382 0.000000 0.152178
634.000000 57.464000 -9.000000 -1.000000 1.000000 77.665106 -40.587283 1897.081471 1250.918302 17.412313 0.000000 0.162121
635.000000 63.824000 -8.000000 -1.000000 1.000000 76.582070 -41.809253 1937.630968 1285.481243 15.677294 0.000000 0.176607
636.000000 71.661000 -7.000000 -1.000000 1.000000 75.156891 -43.349406 1991.002088 1333.248508 13.963038 0.000000 0.198534
637.000000 81.475000 -6.000000 -1.000000 1.000000 73.205763 -45.347196 2064.418046 1403.194276 12.281337 0.000000 0.233428
638.000000 93.914000 -5.000000 -1.000000 1.000000 70.393105 -48.034212 2171.782219 1514.358315 10.655003 0.000000 0.293014
641.000000 47.739000 -10.000000 1.000000 1.000000 70.691508 -26.295683 1506.836873 1361.617573 20.963561 0.000000 0.125041
642.000000 51.939000 -9.000000 1.000000 1.000000 69.048143 -25.912000 1497.899015 1399.175473 19.268695 0.000000 0.123446
643.000000 56.845000 -8.000000 1.000000 1.000000 66.993586 -25.443564 1487.065324 1447.088060 17.606320 0.000000 0.121504
644.000000 62.578000 -7.000000 1.000000 1.000000 64.354068 -24.858899 1473.661043 1510.501853 15.994205 0.000000 0.119667
645.000000 69.193000 -6.000000 1.000000 1.000000 60.844142 -24.108800 1456.648103 1598.812882 14.465964 0.000000 0.120010
646.000000 76.450000 -5.000000 1.000000 1.000000 55.962928 -23.111896 1434.342563 1731.422629 13.093787 0.000000 0.130568
647.000000 82.969000 -4.000000 1.000000 1.000000 48.755041 -21.723446 1403.819770 1956.862589 12.066042 0.000000 0.177974
649.000000 47.484000 -9.000000 2.000000 1.000000 63.645443 -19.359504 1353.168218 1506.169832 21.078912 0.000000 0.098423
650.000000 51.057000 -8.000000 2.000000 1.000000 60.892275 -18.235793 1329.612750 1571.935424 19.604870 0.000000 0.091868
651.000000 54.823000 -7.000000 2.000000 1.000000 57.373554 -16.855397 1301.088217 1660.948355 18.259056 0.000000 0.089952
652.000000 58.422000 -6.000000 2.000000 1.000000 52.739041 -15.121354 1265.836867 1789.124037 17.135578 0.000000 0.106868
653.000000 60.860000 -5.000000 2.000000 1.000000 46.405981 -12.882639 1221.161086 1992.186595 16.450465 0.000000 0.168363
655.000000 46.265000 -7.000000 3.000000 1.000000 50.093545 -9.907294 1162.984623 1854.754164 21.639436 0.000000 0.112512
656.000000 46.982000 -6.000000 3.000000 1.000000 44.470737 -7.522968 1117.135783 2046.883458 21.310370 0.000000 0.185443
663.000000 46.072000 -10.000000 -1.000000 2.000000 67.764818 -41.506992 1927.458915 1528.546379 21.721172 0.000000 0.214859
664.000000 49.704000 -9.000000 -1.000000 2.000000 65.698511 -42.610936 1965.082522 1601.353793 20.134401 0.000000 0.238925
665.000000 53.757000 -8.000000 -1.000000 2.000000 63.103433 -43.947902 2012.475656 1699.300080 18.616879 0.000000 0.272809
671.000000 47.507000 -9.000000 0.000000 2.000000 62.042736 -35.557692 1744.349566 1643.182103 21.067762 0.000000 0.188302
672.000000 51.048000 -8.000000 0.000000 2.000000 59.098177 -36.134251 1760.833242 1738.629284 19.606992 0.000000 0.208853
673.000000 54.730000 -7.000000 0.000000 2.000000 55.325279 -36.847671 1781.568505 1871.428309 18.288642 0.000000 0.240634
674.000000 58.109000 -6.000000 0.000000 2.000000 50.333140 -37.752920 1808.443797 2069.813214 17.226135 0.000000 0.292768
677.000000 46.814000 -8.000000 1.000000 2.000000 54.217492 -28.655920 1563.178115 1825.028424 21.382520 0.000000 0.177498
678.000000 49.192000 -7.000000 1.000000 2.000000 49.841821 -28.484002 1558.991061 1974.270438 20.349980 0.000000 0.211165
679.000000 50.630000 -6.000000 1.000000 2.000000 44.095550 -28.267242 1553.731232 2202.225462 19.773173 0.000000 0.273273
#UB matrix in q= (UB) B0 G* 
#[[ 0.677337381  0.276314562  0.680926176]
# [ 0.369407701  0.673486533 -0.640745732]
# [-0.636201244  0.686219616  0.354483542]]
#B0 matrix in q= UB (B0) G*
#[[ 0.19670273 -0.          0.03056101]
# [ 0.          0.19187965 -0.        ]
# [ 0.          0.          0.18806537]]
#UBB0 matrix in q= (UB B0) G* i.e. recip. basis vectors are columns in LT frame: astar = UBB0[:,0], bstar = UBB0[:,1], cstar = UBB0[:,2]. (abcstar as columns on xyzlab1, xlab1 = ui, ui = unit vector along incident beam)
#[[ 0.13323411  0.05301914  0.14875875]
# [ 0.0726635   0.12922836 -0.10921261]
# [-0.12514252  0.13167158  0.04722313]]
#Euler angles phi theta psi (deg)
#[222.862  69.27  133.208]
#deviatoric strain in direct crystal frame (10-3 unit)
#[[-5.17  0.3   0.88]
# [ 0.3  -5.43  0.22]
# [ 0.88  0.22 10.6 ]]
#deviatoric strain in sample2 frame (10-3 unit)
#[[ 3.98 -7.39 -2.79]
# [-7.39  0.73  1.87]
# [-2.78  1.86 -4.71]]
#new lattice parameters
#[ 5.1505     5.2102516  5.3184695 89.9925044 99.1745944 89.9658875]
#CCDLabel
#sCMOS
#DetectorParameters
#[79.0, 975.0, 941.0, 0.0, 0.0]
#pixelsize
#0.0734
#Frame dimensions
#[2018, 2016]
#
