#Strain and Orientation Refinement from experimental file: /home/micha/LaueProjects/DepthEffects/testZrO2_41.cor
#File created at Wed Jun 28 14:20:47 2023 with indexingSpotsSet.py
#Number of indexed spots: 517
#Element
#ZrO2
#grainIndex
#G_0
#Mean Deviation(pixel): 0.117
##spot_index intensity h k l 2theta Chi Xexp Yexp Energy GrainIndex PixDev
13.000000 50.867000 -8.000000 -1.000000 0.000000 59.979956 44.788820 -93.389400 1817.276919 19.671085 0.000000 0.331649
17.000000 50.270000 -3.000000 0.000000 0.000000 58.726110 36.818010 169.301244 1757.602653 7.464822 0.000000 0.230462
18.000000 48.199000 -8.000000 1.000000 0.000000 56.539856 28.980281 378.884486 1754.121207 20.762866 0.000000 0.173374
19.000000 54.622000 -7.000000 1.000000 0.000000 56.159336 27.888198 405.415342 1757.442987 18.321630 0.000000 0.167387
20.000000 62.955000 -6.000000 1.000000 0.000000 55.628304 26.446370 439.636743 1763.217075 15.896658 0.000000 0.160083
21.000000 74.144000 -5.000000 1.000000 0.000000 54.842269 24.457892 485.459399 1773.782678 13.498145 0.000000 0.151121
22.000000 89.784000 -4.000000 1.000000 0.000000 53.579529 21.548359 549.986694 1794.778682 11.147064 0.000000 0.140526
23.000000 112.528000 -3.000000 1.000000 0.000000 51.292986 16.918933 647.608274 1842.510312 8.894514 0.000000 0.131672
24.000000 144.939000 -2.000000 1.000000 0.000000 46.312053 8.582383 812.564289 1980.738745 6.906115 0.000000 0.154148
26.000000 50.028000 -7.000000 2.000000 0.000000 52.624148 19.529034 593.250303 1813.355227 20.005697 0.000000 0.135260
27.000000 63.788000 -5.000000 2.000000 0.000000 49.344766 13.431973 717.955748 1891.290930 15.691237 0.000000 0.134089
28.000000 80.678000 -3.000000 2.000000 0.000000 41.221930 1.511526 946.599571 2169.919598 12.407442 0.000000 0.218618
29.000000 52.165000 -5.000000 3.000000 0.000000 43.243769 4.191742 896.117854 2088.453291 19.189142 0.000000 0.189623
30.000000 54.906000 -4.000000 3.000000 0.000000 38.755296 -1.576254 1004.617210 2282.288536 18.231780 0.000000 0.257997
34.000000 47.329000 -10.000000 -2.000000 1.000000 71.153098 49.621170 -290.588620 1508.091808 21.137331 0.000000 0.347168
39.000000 47.820000 -10.000000 -1.000000 1.000000 70.831275 42.835483 -22.898253 1451.217023 20.921292 0.000000 0.227520
40.000000 53.957000 -9.000000 -1.000000 1.000000 72.141524 43.559166 -48.479516 1419.529063 18.541126 0.000000 0.230076
41.000000 61.817000 -8.000000 -1.000000 1.000000 73.764561 44.479531 -81.915874 1380.262893 16.183145 0.000000 0.234420
42.000000 72.202000 -7.000000 -1.000000 1.000000 75.824460 45.688621 -127.481594 1330.166968 13.854961 0.000000 0.242249
43.000000 86.471000 -6.000000 -1.000000 1.000000 78.517905 47.345747 -193.239103 1263.658090 11.568115 0.000000 0.257601
44.000000 107.080000 -5.000000 -1.000000 1.000000 82.171697 49.751334 -296.430170 1170.026842 9.340991 0.000000 0.291409
46.000000 46.066000 -10.000000 1.000000 1.000000 67.868161 29.244911 372.371816 1442.678959 21.720646 0.000000 0.132739
47.000000 51.794000 -9.000000 1.000000 1.000000 68.827892 28.353507 394.178055 1414.691105 19.318263 0.000000 0.127684
48.000000 59.084000 -8.000000 1.000000 1.000000 70.007453 27.226481 421.230908 1381.371498 16.934320 0.000000 0.122948
49.000000 68.645000 -7.000000 1.000000 1.000000 71.488965 25.757533 455.682833 1341.107812 14.575473 0.000000 0.119263
50.000000 81.661000 -6.000000 1.000000 1.000000 73.398136 23.766453 501.050222 1291.630309 12.252011 0.000000 0.117954
51.000000 100.241000 -5.000000 1.000000 1.000000 75.932577 20.923509 563.497102 1229.735778 9.980746 0.000000 0.121143
52.000000 128.406000 -4.000000 1.000000 1.000000 79.401885 16.562733 654.904862 1151.103939 7.791139 0.000000 0.131399
53.000000 174.278000 -3.000000 1.000000 1.000000 84.217128 9.157258 801.502231 1051.408054 5.739960 0.000000 0.149289
54.000000 48.967000 -9.000000 2.000000 1.000000 65.879316 21.223963 557.015024 1457.981642 20.435282 0.000000 0.104291
55.000000 55.231000 -8.000000 2.000000 1.000000 66.481119 19.251839 599.102462 1437.153556 18.117489 0.000000 0.099390
56.000000 63.165000 -7.000000 2.000000 1.000000 67.154169 16.732044 651.440000 1414.492764 15.841790 0.000000 0.095184
57.000000 73.437000 -6.000000 2.000000 1.000000 67.877830 13.415071 718.291347 1390.795725 13.625972 0.000000 0.092129
58.000000 87.016000 -5.000000 2.000000 1.000000 68.571024 8.889149 806.665633 1368.558492 11.499487 0.000000 0.090419
59.000000 105.166000 -4.000000 2.000000 1.000000 68.978435 2.449887 928.951105 1354.993922 9.514883 0.000000 0.089113
60.000000 128.685000 -3.000000 2.000000 1.000000 68.335255 -7.112628 1109.300443 1371.858157 7.775981 0.000000 0.085413
61.000000 153.464000 -2.000000 2.000000 1.000000 64.456433 -21.637192 1401.943427 1494.362395 6.520565 0.000000 0.096108
63.000000 50.311000 -8.000000 3.000000 1.000000 62.254098 12.045924 745.324783 1519.914851 19.891211 0.000000 0.067560
64.000000 56.291000 -7.000000 3.000000 1.000000 62.009344 8.791582 808.542753 1519.851694 17.778100 0.000000 0.056115
65.000000 63.444000 -6.000000 3.000000 1.000000 61.461079 4.655841 887.347573 1528.264967 15.773974 0.000000 0.041588
66.000000 71.822000 -5.000000 3.000000 1.000000 60.351668 -0.708746 988.314395 1553.668611 13.934395 0.000000 0.023830
67.000000 80.969000 -4.000000 3.000000 1.000000 58.188517 -7.794132 1122.321690 1614.854639 12.360422 0.000000 0.030770
68.000000 88.907000 -3.000000 3.000000 1.000000 54.050617 -17.228744 1308.760521 1758.189116 11.257174 0.000000 0.095087
69.000000 90.053000 -2.000000 3.000000 1.000000 46.415767 -29.578502 1585.886208 2118.877293 11.114204 0.000000 0.238812
71.000000 48.963000 -7.000000 4.000000 1.000000 56.562516 2.000190 937.411401 1652.129300 20.440810 0.000000 0.020980
72.000000 53.320000 -6.000000 4.000000 1.000000 54.912329 -2.534952 1022.649865 1697.826962 18.770953 0.000000 0.030382
73.000000 57.556000 -5.000000 4.000000 1.000000 52.420038 -8.151571 1129.167864 1777.712457 17.389809 0.000000 0.068463
74.000000 60.725000 -4.000000 4.000000 1.000000 48.623979 -15.132944 1266.070488 1923.138731 16.482871 0.000000 0.133087
75.000000 60.892000 -3.000000 4.000000 1.000000 42.872482 -23.747353 1448.521467 2207.588679 16.437832 0.000000 0.241052
77.000000 45.526000 -5.000000 5.000000 1.000000 45.320615 -13.911318 1241.581538 2037.476492 21.986537 0.000000 0.169029
81.000000 47.880000 -11.000000 -2.000000 2.000000 80.196743 48.426904 -238.406556 1221.256653 20.891084 0.000000 0.270962
82.000000 60.553000 -9.000000 -2.000000 2.000000 84.521966 51.409511 -373.709674 1106.481272 16.517577 0.000000 0.324008
84.000000 48.301000 -11.000000 -1.000000 2.000000 79.896685 41.830739 11.642316 1198.383907 20.709743 0.000000 0.171729
85.000000 54.212000 -10.000000 -1.000000 2.000000 81.990414 42.413259 -8.248575 1146.129455 18.451016 0.000000 0.169069
86.000000 61.629000 -9.000000 -1.000000 2.000000 84.532688 43.148345 -33.883143 1082.197511 16.229688 0.000000 0.167127
87.000000 71.157000 -8.000000 -1.000000 2.000000 87.679526 44.104592 -68.168995 1001.737312 14.055709 0.000000 0.167517
88.000000 83.739000 -7.000000 -1.000000 2.000000 91.664566 45.398598 -116.374680 896.456005 11.942901 0.000000 0.174553
89.000000 100.896000 -6.000000 -1.000000 2.000000 96.849046 47.245284 -189.136344 750.571019 9.911048 0.000000 0.199598
90.000000 125.147000 -5.000000 -1.000000 2.000000 103.806124 50.086764 -311.629384 528.789669 7.989498 0.000000 0.271556
92.000000 47.956000 -11.000000 0.000000 2.000000 78.832539 35.194786 215.904577 1201.006797 20.859788 0.000000 0.131549
93.000000 53.853000 -10.000000 0.000000 2.000000 80.855256 35.006633 221.184935 1152.524396 18.575177 0.000000 0.125470
94.000000 61.275000 -9.000000 0.000000 2.000000 83.323196 34.769162 227.814769 1094.378588 16.324338 0.000000 0.118415
95.000000 70.855000 -8.000000 0.000000 2.000000 86.398075 34.460074 236.387186 1023.170175 14.116433 0.000000 0.109954
96.000000 83.595000 -7.000000 0.000000 2.000000 90.328142 34.041245 247.902522 933.561046 11.964264 0.000000 0.099268
97.000000 101.156000 -6.000000 0.000000 2.000000 95.512111 33.441699 264.190273 816.528383 9.886285 0.000000 0.084661
98.000000 126.412000 -5.000000 0.000000 2.000000 102.624742 32.512577 288.992735 655.127960 7.910109 0.000000 0.062366
99.000000 164.461000 -4.000000 0.000000 2.000000 112.874091 30.880462 331.349547 411.927621 6.078990 0.000000 0.023572
100.000000 46.844000 -11.000000 1.000000 2.000000 77.028661 28.693638 385.901426 1223.621112 21.356676 0.000000 0.122582
101.000000 52.453000 -10.000000 1.000000 2.000000 78.795170 27.773391 408.173035 1181.966209 19.072313 0.000000 0.121748
102.000000 59.466000 -9.000000 1.000000 2.000000 80.926881 26.620525 435.549654 1133.256974 16.822379 0.000000 0.122286
103.000000 68.438000 -8.000000 1.000000 2.000000 83.543869 25.135490 470.013708 1075.533031 14.616397 0.000000 0.124708
104.000000 80.228000 -7.000000 1.000000 2.000000 86.820204 23.153796 514.726695 1006.031598 12.467759 0.000000 0.129493
105.000000 96.210000 -6.000000 1.000000 2.000000 91.011472 20.384607 575.058864 920.728124 10.395916 0.000000 0.136773
106.000000 118.632000 -5.000000 1.000000 2.000000 96.486883 16.267785 660.926327 813.517322 8.430232 0.000000 0.145524
107.000000 151.115000 -4.000000 1.000000 2.000000 103.712368 9.603426 792.892247 674.648950 6.617231 0.000000 0.151079
108.000000 198.558000 -3.000000 1.000000 2.000000 112.831562 -2.484477 1021.699878 487.443399 5.035275 0.000000 0.135573
109.000000 56.376000 -9.000000 2.000000 2.000000 77.525694 18.997603 604.452526 1192.818350 17.746205 0.000000 0.125248
110.000000 74.182000 -7.000000 2.000000 2.000000 81.617731 13.399997 718.590601 1104.031368 13.485710 0.000000 0.139609
111.000000 104.191000 -5.000000 2.000000 2.000000 87.170347 3.249470 913.893563 994.283611 9.600597 0.000000 0.158405
112.000000 126.533000 -4.000000 2.000000 2.000000 90.182467 -5.302205 1074.886577 937.557641 7.904964 0.000000 0.161192
113.000000 154.089000 -3.000000 2.000000 2.000000 92.144469 -17.999719 1324.703379 898.623613 6.490901 0.000000 0.141951
114.000000 180.507000 -2.000000 2.000000 2.000000 89.968446 -36.273720 1764.856958 941.735231 5.540842 0.000000 0.095031
116.000000 47.056000 -10.000000 3.000000 2.000000 72.454268 14.603698 694.572162 1292.660101 21.263103 0.000000 0.111133
117.000000 52.330000 -9.000000 3.000000 2.000000 73.396542 12.088877 744.481029 1269.206317 19.119899 0.000000 0.114232
118.000000 58.707000 -8.000000 3.000000 2.000000 74.400632 8.982438 804.869887 1245.224902 17.042960 0.000000 0.118298
119.000000 66.465000 -7.000000 3.000000 2.000000 75.417934 5.074459 879.426882 1222.095677 15.053399 0.000000 0.122843
120.000000 75.898000 -6.000000 3.000000 2.000000 76.330023 0.063842 973.800740 1202.775015 13.182369 0.000000 0.126736
121.000000 87.168000 -5.000000 3.000000 2.000000 76.870326 -6.472407 1097.103219 1193.659592 11.477825 0.000000 0.127718
122.000000 99.873000 -4.000000 3.000000 2.000000 76.471572 -15.081977 1265.043301 1209.198474 10.017627 0.000000 0.122393
123.000000 111.948000 -3.000000 3.000000 2.000000 74.028436 -26.311971 1507.217589 1284.648508 8.937145 0.000000 0.115735
124.000000 117.786000 -2.000000 3.000000 2.000000 67.778604 -40.270489 1886.811276 1517.272208 8.494402 0.000000 0.196382
126.000000 47.719000 -9.000000 4.000000 2.000000 68.839652 5.969490 862.456335 1359.881769 20.969399 0.000000 0.089855
127.000000 58.145000 -7.000000 4.000000 2.000000 68.874682 -1.839005 1009.557363 1357.068206 17.209408 0.000000 0.087722
128.000000 70.842000 -5.000000 4.000000 2.000000 67.035556 -13.626663 1235.913226 1410.281333 14.125309 0.000000 0.084129
129.000000 80.075000 -3.000000 4.000000 2.000000 59.856962 -31.292021 1629.191895 1672.379488 12.497016 0.000000 0.156431
131.000000 46.381000 -8.000000 5.000000 2.000000 63.492570 -3.101455 1033.317420 1478.582200 21.576721 0.000000 0.050368
132.000000 50.048000 -7.000000 5.000000 2.000000 62.459309 -7.516336 1117.009035 1507.119538 19.996017 0.000000 0.048415
133.000000 53.681000 -6.000000 5.000000 2.000000 60.821831 -12.755690 1218.652890 1557.189788 18.642646 0.000000 0.056955
134.000000 56.817000 -5.000000 5.000000 2.000000 58.295985 -18.958173 1344.719186 1643.968940 17.614252 0.000000 0.086404
135.000000 58.616000 -4.000000 5.000000 2.000000 54.508173 -26.226115 1505.211916 1796.554996 17.073745 0.000000 0.147071
136.000000 57.801000 -3.000000 5.000000 2.000000 49.040302 -34.563093 1716.462901 2075.520634 17.314768 0.000000 0.257639
140.000000 47.192000 -12.000000 -2.000000 3.000000 87.743163 47.299057 -191.330431 1003.545147 21.193134 0.000000 0.219310
141.000000 52.389000 -11.000000 -2.000000 3.000000 90.216431 48.459683 -239.805822 934.869158 19.089701 0.000000 0.235900
142.000000 58.697000 -10.000000 -2.000000 3.000000 93.120734 49.904336 -303.336900 849.890276 17.037507 0.000000 0.263707
143.000000 66.455000 -9.000000 -2.000000 3.000000 96.566264 51.749071 -390.227228 740.890189 15.047515 0.000000 0.310900
146.000000 47.530000 -12.000000 -1.000000 3.000000 87.435013 40.886492 43.128700 1004.776032 21.043063 0.000000 0.133010
147.000000 52.913000 -11.000000 -1.000000 3.000000 90.009608 41.343655 27.998434 940.759597 18.901367 0.000000 0.127852
148.000000 59.505000 -10.000000 -1.000000 3.000000 93.073853 41.916258 8.744964 863.328038 16.806488 0.000000 0.123632
149.000000 67.712000 -9.000000 -1.000000 3.000000 96.774883 42.654172 -16.583034 767.146390 14.768596 0.000000 0.122936
150.000000 78.112000 -8.000000 -1.000000 3.000000 101.320744 43.640665 -51.398804 643.258703 12.801043 0.000000 0.131889
151.000000 91.544000 -7.000000 -1.000000 3.000000 107.011134 45.025749 -102.262099 475.111410 10.921702 0.000000 0.162582
152.000000 109.196000 -6.000000 -1.000000 3.000000 114.282245 47.108885 -183.590823 227.572376 9.155062 0.000000 0.235606
154.000000 46.312000 -12.000000 1.000000 3.000000 84.656710 28.178004 398.427952 1055.199431 21.599001 0.000000 0.118810
155.000000 51.471000 -11.000000 1.000000 3.000000 86.925332 27.235017 421.028087 1006.021223 19.433246 0.000000 0.119200
156.000000 57.774000 -10.000000 1.000000 3.000000 89.608702 26.063686 448.574471 949.182737 17.312361 0.000000 0.120384
157.000000 65.598000 -9.000000 1.000000 3.000000 92.823062 24.571104 482.890432 882.641569 15.246410 0.000000 0.122330
158.000000 75.485000 -8.000000 1.000000 3.000000 96.726269 22.607301 526.821010 803.498756 13.248709 0.000000 0.124743
159.000000 88.204000 -7.000000 1.000000 3.000000 101.531200 19.915140 585.065209 707.448211 11.337257 0.000000 0.126758
160.000000 104.842000 -6.000000 1.000000 3.000000 107.511656 16.019552 665.980064 587.684906 9.536993 0.000000 0.126227
161.000000 126.816000 -5.000000 1.000000 3.000000 114.956310 9.959719 786.000376 432.450508 7.883493 0.000000 0.117920
162.000000 155.475000 -4.000000 1.000000 3.000000 123.875147 -0.399698 982.508409 218.420154 6.429324 0.000000 0.088132
163.000000 190.172000 -3.000000 1.000000 3.000000 132.652852 -19.815358 1362.815706 -112.941095 5.255565 0.000000 0.041108
164.000000 49.572000 -11.000000 2.000000 3.000000 84.183981 20.644455 569.494229 1058.152836 20.179255 0.000000 0.133555
165.000000 55.330000 -10.000000 2.000000 3.000000 86.381610 18.763597 609.362454 1012.881773 18.078676 0.000000 0.139175
166.000000 62.371000 -9.000000 2.000000 3.000000 88.942414 16.408633 658.053139 961.712478 16.037016 0.000000 0.145829
167.000000 71.093000 -8.000000 2.000000 3.000000 91.936841 13.386470 718.859110 903.586295 14.068809 0.000000 0.153054
168.000000 82.019000 -7.000000 2.000000 3.000000 95.429503 9.393573 796.944676 837.310618 12.193799 0.000000 0.159724
169.000000 95.795000 -6.000000 2.000000 3.000000 99.435279 3.938690 900.895412 761.716251 10.439506 0.000000 0.163276
170.000000 113.049000 -5.000000 2.000000 3.000000 103.792364 -3.780193 1046.113691 676.212760 8.845462 0.000000 0.157759
171.000000 133.843000 -4.000000 2.000000 3.000000 107.828130 -14.993420 1263.259718 582.657147 7.470578 0.000000 0.128335
172.000000 156.059000 -3.000000 2.000000 3.000000 109.656040 -31.064931 1623.364050 492.196179 6.406677 0.000000 0.036762
174.000000 47.047000 -11.000000 3.000000 3.000000 80.838033 14.553260 695.583710 1120.342833 21.263745 0.000000 0.136662
175.000000 52.080000 -10.000000 3.000000 3.000000 82.440536 12.128576 743.700980 1087.094413 19.208371 0.000000 0.142730
176.000000 65.316000 -8.000000 3.000000 3.000000 86.155647 5.453930 872.238033 1013.653180 15.315068 0.000000 0.155665
177.000000 74.002000 -7.000000 3.000000 3.000000 88.197487 0.756041 960.797037 974.874119 13.516870 0.000000 0.160515
178.000000 96.327000 -5.000000 3.000000 3.000000 91.741076 -13.198171 1227.406301 907.396432 10.383339 0.000000 0.152522
179.000000 109.134000 -4.000000 3.000000 3.000000 92.114125 -23.442676 1441.706208 897.693829 9.164521 0.000000 0.125498
180.000000 124.901000 -2.000000 3.000000 3.000000 83.569810 -51.082347 2308.025496 1134.090569 8.008029 0.000000 0.296552
181.000000 48.289000 -10.000000 4.000000 3.000000 78.040169 6.224023 857.620416 1170.336666 20.718535 0.000000 0.133090
182.000000 53.174000 -9.000000 4.000000 3.000000 79.011718 2.865050 921.135487 1150.243542 18.814899 0.000000 0.137172
183.000000 58.812000 -8.000000 4.000000 3.000000 79.914937 -1.200999 997.563930 1132.469801 17.010944 0.000000 0.140256
184.000000 65.240000 -7.000000 4.000000 3.000000 80.621654 -6.166671 1091.289551 1119.796058 15.334541 0.000000 0.141051
185.000000 72.362000 -6.000000 4.000000 3.000000 80.903723 -12.262568 1208.933617 1117.346093 13.825018 0.000000 0.137591
186.000000 79.779000 -5.000000 4.000000 3.000000 80.375022 -19.729343 1360.991123 1134.906984 12.539720 0.000000 0.127871
187.000000 86.498000 -4.000000 4.000000 3.000000 78.434853 -28.736648 1565.148989 1192.185580 11.565670 0.000000 0.117455
188.000000 90.605000 -3.000000 4.000000 3.000000 74.285200 -39.229271 1853.720187 1331.942794 11.041611 0.000000 0.159326
190.000000 48.004000 -9.000000 5.000000 3.000000 73.639888 -2.523232 1022.429268 1257.263235 20.843335 0.000000 0.114152
191.000000 52.162000 -8.000000 5.000000 3.000000 73.631258 -6.723774 1101.888296 1259.322069 19.181648 0.000000 0.113627
192.000000 56.602000 -7.000000 5.000000 3.000000 73.239368 -11.688721 1197.668871 1272.009874 17.677185 0.000000 0.111355
193.000000 61.086000 -6.000000 5.000000 3.000000 72.239859 -17.549433 1315.375467 1302.562708 16.379517 0.000000 0.108062
194.000000 65.135000 -5.000000 5.000000 3.000000 70.314868 -24.412424 1463.510165 1363.860288 15.361504 0.000000 0.109999
195.000000 67.906000 -4.000000 5.000000 3.000000 67.056297 -32.308300 1655.623256 1480.068471 14.734789 0.000000 0.139346
196.000000 68.163000 -3.000000 5.000000 3.000000 62.029743 -41.124230 1914.713171 1699.755448 14.679558 0.000000 0.236672
199.000000 45.788000 -8.000000 6.000000 3.000000 67.580650 -11.300880 1190.082018 1393.821244 21.854314 0.000000 0.084059
200.000000 48.629000 -7.000000 6.000000 3.000000 66.350299 -16.119506 1286.053373 1431.622653 20.577711 0.000000 0.085449
201.000000 52.945000 -5.000000 6.000000 3.000000 61.667105 -27.891803 1544.671354 1597.597324 18.900457 0.000000 0.127908
202.000000 53.400000 -4.000000 6.000000 3.000000 57.728789 -34.862291 1724.780684 1769.305804 18.739805 0.000000 0.196381
206.000000 45.809000 -13.000000 -2.000000 4.000000 94.077304 46.233044 -148.645786 830.087400 21.830604 0.000000 0.183622
207.000000 55.961000 -11.000000 -2.000000 4.000000 100.058722 48.498025 -241.444865 652.886367 17.868257 0.000000 0.226671
209.000000 46.070000 -13.000000 -1.000000 4.000000 93.746144 39.997908 71.948839 849.009049 21.707353 0.000000 0.104129
210.000000 50.844000 -12.000000 -1.000000 4.000000 96.599007 40.343654 60.825365 777.635235 19.668440 0.000000 0.098257
211.000000 56.554000 -11.000000 -1.000000 4.000000 99.934538 40.773622 46.832049 692.072105 17.681366 0.000000 0.094657
212.000000 63.462000 -10.000000 -1.000000 4.000000 103.878397 41.322784 28.693781 586.905842 15.755652 0.000000 0.097395
213.000000 71.911000 -9.000000 -1.000000 4.000000 108.599706 42.048518 4.248719 453.230461 13.903301 0.000000 0.113477
214.000000 82.350000 -8.000000 -1.000000 4.000000 114.328287 43.051894 -30.484716 275.088466 12.139664 0.000000 0.151753
215.000000 95.338000 -7.000000 -1.000000 4.000000 121.376870 44.528731 -83.732882 20.285133 10.484697 0.000000 0.223410
217.000000 45.815000 -13.000000 0.000000 4.000000 92.729810 33.770654 255.281828 879.265519 21.829092 0.000000 0.092619
218.000000 56.286000 -11.000000 0.000000 4.000000 98.768744 33.033246 275.158098 742.971587 17.766484 0.000000 0.074853
219.000000 71.696000 -9.000000 0.000000 4.000000 107.249306 31.826221 306.987175 547.681103 13.945640 0.000000 0.045923
220.000000 95.412000 -7.000000 0.000000 4.000000 119.817761 29.494967 366.186795 232.310379 10.477111 0.000000 0.007580
221.000000 111.934000 -6.000000 0.000000 4.000000 128.512417 27.273865 420.104678 -22.634838 8.929463 0.000000 0.049903
223.000000 49.649000 -12.000000 1.000000 4.000000 93.618873 26.734121 432.877035 864.781940 20.143785 0.000000 0.113233
224.000000 55.149000 -11.000000 1.000000 4.000000 96.600350 25.550320 460.473170 802.962746 18.134000 0.000000 0.112991
225.000000 61.788000 -10.000000 1.000000 4.000000 100.096034 24.056810 494.523646 731.130773 16.184379 0.000000 0.112490
226.000000 69.891000 -9.000000 1.000000 4.000000 104.232580 22.116884 537.592701 646.321248 14.307031 0.000000 0.111134
227.000000 79.875000 -8.000000 1.000000 4.000000 109.168081 19.502553 593.810233 544.095075 12.517548 0.000000 0.107809
228.000000 92.258000 -7.000000 1.000000 4.000000 115.085118 15.807758 670.282010 417.364456 10.836354 0.000000 0.100407
229.000000 107.594000 -6.000000 1.000000 4.000000 122.142297 10.250788 780.359002 253.764675 9.290736 0.000000 0.084802
230.000000 126.232000 -5.000000 1.000000 4.000000 130.276821 1.201295 952.430506 28.783882 7.917986 0.000000 0.052551
231.000000 147.610000 -4.000000 1.000000 4.000000 138.488931 -14.801401 1259.397360 -316.793089 6.770458 0.000000 0.047831
232.000000 53.214000 -11.000000 2.000000 4.000000 93.560623 18.547505 613.884414 870.358797 18.794837 0.000000 0.141120
233.000000 66.662000 -9.000000 2.000000 4.000000 99.852646 13.374263 719.101382 748.862284 15.001497 0.000000 0.149290
234.000000 86.338000 -7.000000 2.000000 4.000000 108.078197 4.538757 889.561205 588.560834 11.581091 0.000000 0.148285
235.000000 114.345000 -5.000000 2.000000 4.000000 117.512317 -12.480083 1213.216197 366.856213 8.742921 0.000000 0.101120
236.000000 130.589000 -4.000000 2.000000 4.000000 120.896015 -26.674990 1515.731098 220.240563 7.654827 0.000000 0.019806
238.000000 46.038000 -12.000000 3.000000 4.000000 87.825674 14.506175 696.527623 983.209692 21.726937 0.000000 0.148420
239.000000 50.618000 -11.000000 3.000000 4.000000 89.841826 12.165375 742.977682 944.039551 19.760492 0.000000 0.153965
240.000000 55.997000 -10.000000 3.000000 4.000000 92.078391 9.317978 798.403258 901.418258 17.861485 0.000000 0.159317
241.000000 62.338000 -9.000000 3.000000 4.000000 94.535522 5.799470 865.684075 855.183125 16.043895 0.000000 0.163680
242.000000 69.811000 -8.000000 3.000000 4.000000 97.178287 1.379604 949.079302 805.407479 14.325845 0.000000 0.165615
243.000000 78.550000 -7.000000 3.000000 4.000000 99.896502 -4.259710 1055.165897 752.704138 12.731272 0.000000 0.162468
244.000000 88.554000 -6.000000 3.000000 4.000000 102.428907 -11.535215 1194.663531 698.902122 11.292456 0.000000 0.149191
245.000000 99.457000 -5.000000 3.000000 4.000000 104.237064 -20.914363 1386.305993 648.653486 10.054003 0.000000 0.115904
246.000000 110.130000 -4.000000 3.000000 4.000000 104.356872 -32.703142 1666.051992 613.622482 9.079349 0.000000 0.051212
247.000000 118.168000 -3.000000 3.000000 4.000000 101.405412 -46.590994 2112.790989 625.045029 8.461868 0.000000 0.173602
248.000000 47.537000 -11.000000 4.000000 4.000000 85.657868 6.461175 853.110494 1023.245324 21.043067 0.000000 0.154146
249.000000 57.322000 -9.000000 4.000000 4.000000 88.708797 -0.614127 986.536749 965.260586 17.449977 0.000000 0.161221
250.000000 69.904000 -7.000000 4.000000 4.000000 91.424180 -11.022781 1184.654557 913.738503 14.308249 0.000000 0.155996
251.000000 84.176000 -5.000000 4.000000 4.000000 91.879173 -26.412416 1509.567856 901.571582 11.881825 0.000000 0.115122
252.000000 93.561000 -3.000000 4.000000 4.000000 85.653214 -47.273381 2140.282237 1061.575881 10.690277 0.000000 0.209238
253.000000 47.880000 -10.000000 5.000000 4.000000 82.030613 -1.983844 1012.281168 1091.767294 20.894123 0.000000 0.146733
254.000000 52.005000 -9.000000 5.000000 4.000000 82.725994 -5.987594 1087.887469 1079.133792 19.236464 0.000000 0.147160
255.000000 56.498000 -8.000000 5.000000 4.000000 83.183042 -10.701246 1178.392151 1071.940645 17.706151 0.000000 0.144712
256.000000 61.241000 -7.000000 5.000000 4.000000 83.226073 -16.248478 1288.680146 1074.162483 16.334900 0.000000 0.137977
257.000000 65.960000 -6.000000 5.000000 4.000000 82.597521 -22.736705 1426.034011 1092.615514 15.165914 0.000000 0.126231
258.000000 70.153000 -5.000000 5.000000 4.000000 80.947039 -30.215604 1601.810693 1139.450118 14.259601 0.000000 0.115627
259.000000 73.003000 -4.000000 5.000000 4.000000 77.854339 -38.618197 1834.754253 1237.465138 13.703081 0.000000 0.142105
260.000000 73.414000 -3.000000 5.000000 4.000000 72.918855 -47.708110 2158.168379 1432.484397 13.626791 0.000000 0.271882
262.000000 46.706000 -9.000000 6.000000 4.000000 76.841726 -10.480698 1174.104331 1196.884872 21.421115 0.000000 0.126035
263.000000 53.116000 -7.000000 6.000000 4.000000 75.602147 -20.344364 1374.081017 1235.684845 18.835769 0.000000 0.117441
264.000000 58.090000 -5.000000 6.000000 4.000000 71.505320 -32.980569 1673.434848 1370.170489 17.223455 0.000000 0.132590
266.000000 45.821000 -7.000000 7.000000 4.000000 68.674896 -23.610130 1445.448043 1399.557962 21.837217 0.000000 0.106492
267.000000 47.335000 -6.000000 7.000000 4.000000 66.470254 -29.086248 1573.719399 1477.281712 21.138819 0.000000 0.124677
268.000000 48.077000 -5.000000 7.000000 4.000000 63.430246 -35.072420 1730.658570 1598.673761 20.812744 0.000000 0.169906
269.000000 47.675000 -4.000000 7.000000 4.000000 59.408710 -41.495834 1927.085226 1790.525396 20.988648 0.000000 0.257839
274.000000 48.159000 -13.000000 -2.000000 5.000000 102.369766 46.102407 -143.529300 600.571673 20.762262 0.000000 0.176466
275.000000 52.923000 -12.000000 -2.000000 5.000000 105.726416 47.182683 -186.587650 495.090540 18.892339 0.000000 0.204546
276.000000 58.510000 -11.000000 -2.000000 5.000000 109.588839 48.543477 -243.391089 362.472625 17.087225 0.000000 0.248759
279.000000 48.453000 -13.000000 -1.000000 5.000000 102.071205 39.407229 90.694462 643.102186 20.637015 0.000000 0.077135
280.000000 53.353000 -12.000000 -1.000000 5.000000 105.522793 39.711855 81.067028 552.391327 18.740430 0.000000 0.076881
281.000000 59.136000 -11.000000 -1.000000 5.000000 109.531084 40.097629 68.752196 441.890235 16.906567 0.000000 0.086013
282.000000 66.005000 -10.000000 -1.000000 5.000000 114.229194 40.601904 52.442202 303.047614 15.145959 0.000000 0.109600
283.000000 74.202000 -9.000000 -1.000000 5.000000 119.789744 41.289059 29.816471 120.994960 13.471634 0.000000 0.151861
286.000000 47.452000 -13.000000 1.000000 5.000000 99.188927 26.266991 443.833546 746.843512 21.074072 0.000000 0.104290
287.000000 52.196000 -12.000000 1.000000 5.000000 102.310738 25.075600 471.385742 681.677252 19.157765 0.000000 0.102138
288.000000 57.786000 -11.000000 1.000000 5.000000 105.905253 23.586293 505.085183 606.345248 17.303505 0.000000 0.099080
289.000000 64.413000 -10.000000 1.000000 5.000000 110.069503 21.674398 547.247481 517.865080 15.521970 0.000000 0.094490
290.000000 72.306000 -9.000000 1.000000 5.000000 114.916518 19.137135 601.518284 411.776976 13.826431 0.000000 0.087368
291.000000 81.713000 -8.000000 1.000000 5.000000 120.564361 15.624933 673.988305 280.994416 12.233603 0.000000 0.076121
292.000000 92.853000 -7.000000 1.000000 5.000000 127.095044 10.493029 775.656089 113.309958 10.764829 0.000000 0.058096
293.000000 105.786000 -6.000000 1.000000 5.000000 134.422414 2.467567 928.618382 -114.789322 9.447808 0.000000 0.028705
295.000000 46.191000 -13.000000 2.000000 5.000000 96.716106 20.142056 580.236163 806.001479 21.651011 0.000000 0.133658
296.000000 50.652000 -12.000000 2.000000 5.000000 99.454454 18.347352 618.062643 752.170495 19.743159 0.000000 0.135975
297.000000 55.868000 -11.000000 2.000000 5.000000 102.553438 16.138550 663.558970 691.505955 17.899015 0.000000 0.137656
298.000000 61.992000 -10.000000 2.000000 5.000000 106.062331 13.363193 719.321081 622.486134 16.129679 0.000000 0.137924
299.000000 69.198000 -9.000000 2.000000 5.000000 110.020175 9.791022 789.265377 543.035142 14.448984 0.000000 0.135447
300.000000 77.655000 -8.000000 2.000000 5.000000 114.428788 5.065809 879.590652 450.201977 12.874404 0.000000 0.127867
301.000000 87.474000 -7.000000 2.000000 5.000000 119.190090 -1.369154 1000.724296 339.552029 11.428321 0.000000 0.110807
302.000000 98.581000 -6.000000 2.000000 5.000000 123.968555 -10.355315 1171.669420 203.883270 10.139894 0.000000 0.075903
303.000000 110.472000 -5.000000 2.000000 5.000000 127.927487 -22.965840 1431.102694 30.097956 9.047824 0.000000 0.031266
305.000000 48.570000 -12.000000 3.000000 5.000000 95.962987 12.199582 742.305160 825.982444 20.591080 0.000000 0.154990
306.000000 53.275000 -11.000000 3.000000 5.000000 98.459634 9.466236 795.542048 778.711949 18.771874 0.000000 0.158145
307.000000 58.716000 -10.000000 3.000000 5.000000 101.190685 6.115414 859.684460 726.851178 17.031354 0.000000 0.159701
308.000000 64.999000 -9.000000 3.000000 5.000000 104.130309 1.944128 938.465765 669.892159 15.384270 0.000000 0.158227
309.000000 72.199000 -8.000000 3.000000 5.000000 107.194378 -3.325690 1037.542932 607.385161 13.849301 0.000000 0.151244
310.000000 80.306000 -7.000000 3.000000 5.000000 110.186429 -10.058790 1165.918622 539.112849 12.450461 0.000000 0.134242
311.000000 89.114000 -6.000000 3.000000 5.000000 112.709860 -18.677944 1338.843780 465.516728 11.219150 0.000000 0.098527
312.000000 98.041000 -5.000000 3.000000 5.000000 114.059163 -29.517677 1584.376422 388.796687 10.197230 0.000000 0.026256
313.000000 105.884000 -4.000000 3.000000 5.000000 113.184029 -42.475552 1960.397447 316.045058 9.441778 0.000000 0.129446
315.000000 46.070000 -12.000000 4.000000 5.000000 92.015924 6.682661 848.894680 902.856327 21.710549 0.000000 0.162036
316.000000 50.178000 -11.000000 4.000000 5.000000 93.870609 3.606411 907.164404 868.035778 19.932147 0.000000 0.164944
317.000000 54.837000 -10.000000 4.000000 5.000000 95.798864 -0.072589 976.363571 831.695483 18.238301 0.000000 0.165999
318.000000 60.083000 -9.000000 4.000000 5.000000 97.731957 -4.509481 1059.885401 794.414186 16.645076 0.000000 0.163803
319.000000 65.910000 -8.000000 4.000000 5.000000 99.541688 -9.892069 1162.689901 757.354752 15.172879 0.000000 0.156059
320.000000 72.213000 -7.000000 4.000000 5.000000 101.005458 -16.427213 1292.326180 722.775191 13.848040 0.000000 0.138959
321.000000 78.707000 -6.000000 4.000000 5.000000 101.764235 -24.296015 1460.875383 695.069915 12.705120 0.000000 0.106564
322.000000 84.811000 -5.000000 4.000000 5.000000 101.294644 -33.558025 1688.952205 683.045629 11.790407 0.000000 0.059973
323.000000 89.544000 -4.000000 4.000000 5.000000 98.946903 -44.013497 2014.855388 705.388768 11.167346 0.000000 0.128117
325.000000 46.762000 -11.000000 5.000000 5.000000 89.012715 -1.479593 1002.800149 959.554052 21.390394 0.000000 0.161501
326.000000 54.822000 -9.000000 5.000000 5.000000 91.206091 -9.785226 1160.622513 918.005848 18.244895 0.000000 0.157603
327.000000 59.321000 -8.000000 5.000000 5.000000 91.944171 -15.044592 1264.290159 903.168242 16.860584 0.000000 0.148926
328.000000 63.954000 -7.000000 5.000000 5.000000 92.189426 -21.186354 1392.172162 896.869062 15.638914 0.000000 0.132829
329.000000 68.416000 -6.000000 5.000000 5.000000 91.652760 -28.273146 1553.874224 905.737674 14.618686 0.000000 0.108566
330.000000 74.578000 -4.000000 5.000000 5.000000 86.741767 -45.010763 2051.698730 1027.667380 13.411129 0.000000 0.169735
332.000000 46.278000 -10.000000 6.000000 5.000000 84.567042 -9.710915 1159.185391 1044.852513 21.616200 0.000000 0.148682
333.000000 49.526000 -9.000000 6.000000 5.000000 84.816644 -14.110038 1245.546908 1041.672575 20.197979 0.000000 0.143871
334.000000 52.847000 -8.000000 6.000000 5.000000 84.689820 -19.134100 1348.417833 1046.887538 18.928788 0.000000 0.135246
335.000000 56.065000 -7.000000 6.000000 5.000000 84.012080 -24.831348 1473.032546 1065.394169 17.842092 0.000000 0.123003
336.000000 58.904000 -6.000000 6.000000 5.000000 82.565467 -31.210621 1627.099699 1105.212703 16.982185 0.000000 0.113345
337.000000 60.962000 -5.000000 6.000000 5.000000 80.104086 -38.216435 1822.460107 1179.983379 16.408957 0.000000 0.132179
338.000000 61.730000 -4.000000 6.000000 5.000000 76.394095 -45.709457 2078.283980 1314.050953 16.205422 0.000000 0.221386
341.000000 46.761000 -8.000000 7.000000 5.000000 77.930159 -22.427606 1419.223286 1189.977040 21.394859 0.000000 0.120757
342.000000 48.855000 -7.000000 7.000000 5.000000 76.579410 -27.691035 1539.852324 1231.037263 20.477825 0.000000 0.117470
343.000000 50.478000 -6.000000 7.000000 5.000000 74.517780 -33.458094 1686.252114 1298.337892 19.819537 0.000000 0.128310
344.000000 51.333000 -5.000000 7.000000 5.000000 71.585153 -39.672002 1867.668651 1406.557809 19.489646 0.000000 0.173733
345.000000 51.084000 -4.000000 7.000000 5.000000 67.648076 -46.226063 2098.371769 1580.709271 19.585263 0.000000 0.275541
349.000000 49.876000 -13.000000 -2.000000 6.000000 110.415019 45.951021 -137.630358 364.835809 20.044851 0.000000 0.192005
351.000000 45.987000 -14.000000 -1.000000 6.000000 106.665037 38.528961 117.988259 529.149411 21.741719 0.000000 0.063482
352.000000 50.187000 -13.000000 -1.000000 6.000000 110.137639 38.723322 112.006169 435.127256 19.921254 0.000000 0.068683
353.000000 55.041000 -12.000000 -1.000000 6.000000 114.109675 38.967475 104.445227 321.494003 18.163209 0.000000 0.084474
354.000000 60.670000 -11.000000 -1.000000 6.000000 118.684995 39.283355 94.585346 180.187081 16.476765 0.000000 0.112845
355.000000 67.206000 -10.000000 -1.000000 6.000000 123.993272 39.707979 81.190045 -2.423619 14.872996 0.000000 0.155453
358.000000 45.777000 -14.000000 0.000000 6.000000 105.609617 32.078041 300.416543 586.116887 21.842512 0.000000 0.051947
359.000000 49.969000 -13.000000 0.000000 6.000000 108.999420 31.546222 314.251105 506.151780 20.008837 0.000000 0.039248
360.000000 60.454000 -11.000000 0.000000 6.000000 117.332560 30.023145 353.021371 298.499771 16.536097 0.000000 0.004144
361.000000 67.009000 -10.000000 0.000000 6.000000 122.496474 28.878326 381.384744 158.056945 14.917323 0.000000 0.020349
362.000000 83.400000 -8.000000 0.000000 6.000000 135.547593 24.868475 476.120440 -268.187652 11.983410 0.000000 0.082652
364.000000 49.221000 -13.000000 1.000000 6.000000 107.039669 24.635378 481.429902 578.096986 20.313808 0.000000 0.089718
365.000000 53.932000 -12.000000 1.000000 6.000000 110.628749 23.154250 514.716610 500.335406 18.538203 0.000000 0.084577
366.000000 59.388000 -11.000000 1.000000 6.000000 114.715120 21.273188 555.950507 409.392643 16.833983 0.000000 0.077703
367.000000 65.714000 -10.000000 1.000000 6.000000 119.378676 18.811261 608.363483 300.875305 15.212441 0.000000 0.068404
368.000000 73.029000 -9.000000 1.000000 6.000000 124.695019 15.465516 677.214651 167.883245 13.687381 0.000000 0.055795
369.000000 81.419000 -8.000000 1.000000 6.000000 130.703038 10.697771 771.675444 -1.234430 12.275864 0.000000 0.038681
370.000000 90.861000 -7.000000 1.000000 6.000000 137.315127 3.493222 909.298820 -228.159254 10.999222 0.000000 0.014384
372.000000 47.976000 -13.000000 2.000000 6.000000 104.355452 18.161441 621.934897 651.104403 20.842620 0.000000 0.127030
373.000000 57.533000 -11.000000 2.000000 6.000000 111.036721 13.353107 719.521224 515.555921 17.378221 0.000000 0.123593
374.000000 70.130000 -9.000000 2.000000 6.000000 119.263785 5.532333 870.751617 335.083650 14.254562 0.000000 0.107220
375.000000 86.155000 -7.000000 2.000000 6.000000 128.536477 -8.540169 1136.624762 74.145847 11.601436 0.000000 0.055675
377.000000 46.293000 -13.000000 3.000000 6.000000 101.082343 12.231461 741.678249 725.287143 21.601983 0.000000 0.150200
378.000000 55.010000 -11.000000 3.000000 6.000000 106.569740 6.405391 854.171709 618.749913 18.176954 0.000000 0.149974
379.000000 60.269000 -10.000000 3.000000 6.000000 109.632278 2.457524 928.807370 556.712055 16.589992 0.000000 0.145542
380.000000 72.745000 -8.000000 3.000000 6.000000 116.013798 -8.740846 1140.481500 409.563098 13.743102 0.000000 0.116252
381.000000 79.813000 -7.000000 3.000000 6.000000 118.877770 -16.691393 1297.727535 321.287157 12.525272 0.000000 0.080704
382.000000 93.836000 -5.000000 3.000000 6.000000 121.271287 -38.727990 1838.137928 103.110228 10.652747 0.000000 0.118184
384.000000 51.979000 -11.000000 4.000000 6.000000 101.593798 0.428587 966.948887 720.183750 19.238685 0.000000 0.162260
385.000000 61.527000 -9.000000 4.000000 6.000000 105.928977 -8.857418 1142.723772 630.113474 16.251760 0.000000 0.147630
386.000000 72.535000 -7.000000 4.000000 6.000000 109.208310 -22.365825 1417.865642 535.516397 13.784287 0.000000 0.093897
387.000000 82.833000 -5.000000 4.000000 6.000000 108.638497 -40.976528 1909.834508 460.167235 12.070235 0.000000 0.089221
388.000000 48.615000 -11.000000 5.000000 6.000000 96.355451 -4.662704 1062.782192 820.723498 20.572302 0.000000 0.164174
389.000000 52.416000 -10.000000 5.000000 6.000000 97.751529 -8.933599 1144.189867 792.694416 19.079690 0.000000 0.158988
390.000000 56.489000 -9.000000 5.000000 6.000000 98.946927 -13.928255 1241.919244 766.420569 17.703489 0.000000 0.148462
391.000000 60.735000 -8.000000 5.000000 6.000000 99.773591 -19.749843 1361.425810 744.015312 16.465386 0.000000 0.129900
392.000000 64.966000 -7.000000 5.000000 6.000000 99.994906 -26.469323 1510.901211 729.106853 15.392805 0.000000 0.100168
393.000000 68.866000 -6.000000 5.000000 6.000000 99.303781 -34.082787 1703.234547 728.108474 14.520950 0.000000 0.065801
394.000000 71.965000 -5.000000 5.000000 6.000000 97.347985 -42.462390 1959.943044 752.862715 13.895769 0.000000 0.108854
395.000000 73.649000 -4.000000 5.000000 6.000000 93.797701 -51.329283 2319.842854 826.661002 13.578390 0.000000 0.281921
397.000000 57.593000 -7.000000 6.000000 6.000000 91.462458 -29.545866 1585.075893 909.414621 17.365982 0.000000 0.104292
398.000000 61.931000 -5.000000 6.000000 6.000000 87.402061 -43.516042 1996.938021 1008.342374 16.149785 0.000000 0.148252
399.000000 46.371000 -9.000000 7.000000 6.000000 85.677431 -21.309618 1394.837757 1028.323635 21.571693 0.000000 0.131633
400.000000 48.685000 -8.000000 7.000000 6.000000 84.984048 -26.370257 1508.580903 1046.437033 20.546108 0.000000 0.119690
401.000000 50.725000 -7.000000 7.000000 6.000000 83.693556 -31.925435 1645.597265 1081.145313 19.719862 0.000000 0.111261
402.000000 52.271000 -6.000000 7.000000 6.000000 81.650606 -37.932192 1813.843863 1141.271728 19.136687 0.000000 0.125722
403.000000 53.056000 -5.000000 7.000000 6.000000 78.707562 -44.301635 2025.371574 1241.300769 18.854112 0.000000 0.191424
404.000000 52.791000 -4.000000 7.000000 6.000000 74.754703 -50.899297 2299.346609 1406.107691 18.949378 0.000000 0.329576
408.000000 46.963000 -14.000000 -2.000000 7.000000 114.340579 44.796336 -93.669750 254.877341 21.287019 0.000000 0.185445
409.000000 50.972000 -13.000000 -2.000000 7.000000 118.148606 45.773516 -130.754609 115.387829 19.611638 0.000000 0.227968
412.000000 47.186000 -14.000000 -1.000000 7.000000 113.998066 37.801231 140.103556 334.585389 21.186760 0.000000 0.067919
413.000000 51.285000 -13.000000 -1.000000 7.000000 117.878392 37.922473 136.449581 219.248246 19.492036 0.000000 0.088402
414.000000 55.947000 -12.000000 -1.000000 7.000000 122.284015 38.077816 131.750219 77.169498 17.866535 0.000000 0.118659
415.000000 61.246000 -11.000000 -1.000000 7.000000 127.313137 38.283998 125.481962 -104.043848 16.319728 0.000000 0.159502
418.000000 46.371000 -14.000000 1.000000 7.000000 111.006840 24.226073 490.705343 487.789221 21.561140 0.000000 0.076966
419.000000 50.362000 -13.000000 1.000000 7.000000 114.531895 22.756190 523.535611 408.316137 19.851134 0.000000 0.070360
420.000000 54.896000 -12.000000 1.000000 7.000000 118.488335 20.907771 563.835901 315.733577 18.210316 0.000000 0.062178
421.000000 60.042000 -11.000000 1.000000 7.000000 122.932545 18.518857 614.483035 205.775955 16.648343 0.000000 0.052165
422.000000 65.859000 -10.000000 1.000000 7.000000 127.912630 15.325286 680.048606 71.840084 15.176754 0.000000 0.040311
423.000000 72.374000 -9.000000 1.000000 7.000000 133.443401 10.873092 768.262546 -96.980815 13.809457 0.000000 0.026977
424.000000 79.547000 -8.000000 1.000000 7.000000 139.444006 4.340388 893.310019 -320.305104 12.563367 0.000000 0.010616
426.000000 49.152000 -13.000000 2.000000 7.000000 111.625410 15.909620 668.214121 497.317578 20.340896 0.000000 0.113414
427.000000 53.445000 -12.000000 2.000000 7.000000 115.096833 13.343880 719.704309 422.912331 18.706120 0.000000 0.108580
428.000000 58.285000 -11.000000 2.000000 7.000000 118.910612 10.112235 783.045659 337.214134 17.151554 0.000000 0.100719
429.000000 63.714000 -10.000000 2.000000 7.000000 123.054746 5.948137 862.861828 236.791920 15.689062 0.000000 0.088238
430.000000 69.737000 -9.000000 2.000000 7.000000 127.456734 0.450289 966.541206 116.395435 14.332969 0.000000 0.068707
431.000000 76.292000 -8.000000 2.000000 7.000000 131.919487 -6.974526 1106.666612 -32.568767 13.100736 0.000000 0.040306
432.000000 83.189000 -7.000000 2.000000 7.000000 136.006396 -17.121509 1306.553682 -225.479741 12.013863 0.000000 0.046227
434.000000 47.511000 -13.000000 3.000000 7.000000 108.094342 9.730741 790.431261 584.197095 21.045185 0.000000 0.141038
435.000000 51.468000 -12.000000 3.000000 7.000000 110.989146 6.672463 849.088871 525.267337 19.426292 0.000000 0.137699
436.000000 55.885000 -11.000000 3.000000 7.000000 114.075020 2.926365 919.980735 459.485418 17.889934 0.000000 0.130970
437.000000 60.779000 -10.000000 3.000000 7.000000 117.294371 -1.723209 1007.380043 385.365720 16.448453 0.000000 0.118950
438.000000 66.129000 -9.000000 3.000000 7.000000 120.523595 -7.558360 1117.812269 300.855102 15.116777 0.000000 0.098566
439.000000 71.846000 -8.000000 3.000000 7.000000 123.528370 -14.919114 1261.764275 202.970929 13.913138 0.000000 0.065039
440.000000 77.726000 -7.000000 3.000000 7.000000 125.905970 -24.134523 1457.228177 87.078983 12.860044 0.000000 0.027006
441.000000 83.394000 -6.000000 3.000000 7.000000 127.044423 -35.329059 1737.878642 -54.722943 11.985605 0.000000 0.116734
443.000000 45.515000 -13.000000 4.000000 7.000000 104.109406 4.248760 895.040945 669.720185 21.970064 0.000000 0.157023
444.000000 49.070000 -12.000000 4.000000 7.000000 106.394815 0.893683 958.210918 624.296684 20.377459 0.000000 0.154069
445.000000 52.985000 -11.000000 4.000000 7.000000 108.736740 -3.107231 1033.426250 575.387583 18.870765 0.000000 0.147557
446.000000 57.254000 -10.000000 4.000000 7.000000 111.051801 -7.907683 1124.495277 522.755411 17.462964 0.000000 0.135555
447.000000 61.830000 -9.000000 4.000000 7.000000 113.198722 -13.682342 1237.020881 466.255835 16.169795 0.000000 0.114945
448.000000 66.603000 -8.000000 4.000000 7.000000 114.953340 -20.602157 1379.598666 405.964948 15.010521 0.000000 0.080463
449.000000 71.362000 -7.000000 4.000000 7.000000 115.986535 -28.776500 1566.123061 342.450988 14.008981 0.000000 0.022683
450.000000 75.763000 -6.000000 4.000000 7.000000 115.865529 -38.155732 1820.614378 277.388681 13.195026 0.000000 0.076666
452.000000 46.369000 -12.000000 5.000000 7.000000 101.520214 -4.064775 1051.484674 721.076790 21.566517 0.000000 0.160863
453.000000 49.746000 -11.000000 5.000000 7.000000 103.156879 -8.140143 1128.948789 686.851265 20.101633 0.000000 0.154082
454.000000 53.356000 -10.000000 5.000000 7.000000 104.649576 -12.891014 1221.326649 652.377259 18.740984 0.000000 0.141962
455.000000 57.133000 -9.000000 5.000000 7.000000 105.860507 -18.416700 1333.383899 618.704737 17.501351 0.000000 0.121837
456.000000 60.956000 -8.000000 5.000000 7.000000 106.595350 -24.793022 1472.158707 587.671014 16.403319 0.000000 0.089855
457.000000 64.623000 -7.000000 5.000000 7.000000 106.598736 -32.036601 1648.499691 562.531393 15.472423 0.000000 0.044965
458.000000 67.830000 -6.000000 5.000000 7.000000 105.567645 -40.060243 1880.048288 549.225537 14.740731 0.000000 0.072702
459.000000 70.172000 -5.000000 5.000000 7.000000 103.194542 -48.640148 2197.542076 559.130023 14.249073 0.000000 0.220466
461.000000 46.321000 -11.000000 6.000000 7.000000 97.535427 -12.341395 1210.484808 795.258202 21.590443 0.000000 0.153218
462.000000 49.285000 -10.000000 6.000000 7.000000 98.314399 -16.935113 1302.723809 776.579328 20.291274 0.000000 0.141156
463.000000 52.300000 -9.000000 6.000000 7.000000 98.747927 -22.139135 1412.894381 762.199640 19.121209 0.000000 0.122441
464.000000 55.243000 -8.000000 6.000000 7.000000 98.676325 -27.979770 1546.788444 755.020400 18.102480 0.000000 0.095862
465.000000 57.929000 -7.000000 6.000000 7.000000 97.906862 -34.437647 1712.993286 759.756004 17.262738 0.000000 0.069957
466.000000 60.109000 -6.000000 6.000000 7.000000 96.228754 -41.427794 1924.809375 784.330154 16.636801 0.000000 0.099785
467.000000 61.469000 -5.000000 6.000000 7.000000 93.444209 -48.789769 2203.998187 842.677678 16.269149 0.000000 0.220886
469.000000 47.537000 -9.000000 7.000000 7.000000 92.000504 -25.119409 1479.617743 899.478612 21.039592 0.000000 0.119702
470.000000 49.711000 -8.000000 7.000000 7.000000 91.306031 -30.470432 1608.237868 912.530169 20.119502 0.000000 0.101414
471.000000 52.924000 -6.000000 7.000000 7.000000 87.842431 -42.456338 1959.734182 995.959728 18.898115 0.000000 0.135201
472.000000 53.533000 -5.000000 7.000000 7.000000 84.801995 -48.901354 2208.838174 1089.948906 18.683937 0.000000 0.243151
474.000000 45.724000 -7.000000 8.000000 7.000000 82.778600 -37.720494 1807.469852 1113.408596 21.876779 0.000000 0.121184
475.000000 46.438000 -6.000000 8.000000 7.000000 80.354003 -43.257553 1987.744024 1192.181243 21.540402 0.000000 0.171926
476.000000 46.502000 -5.000000 8.000000 7.000000 77.171986 -48.987771 2212.601367 1314.474589 21.511651 0.000000 0.275373
480.000000 47.892000 -14.000000 -1.000000 8.000000 121.025301 36.953969 165.308970 130.920285 20.872338 0.000000 0.094593
481.000000 51.796000 -13.000000 -1.000000 8.000000 125.242511 36.972296 164.769733 -10.825658 19.297688 0.000000 0.124849
482.000000 56.158000 -12.000000 -1.000000 8.000000 129.992514 36.996333 164.062078 -189.471882 17.797748 0.000000 0.162971
485.000000 51.606000 -13.000000 0.000000 8.000000 123.914318 28.529634 389.898908 117.354692 19.369310 0.000000 0.027253
486.000000 60.820000 -11.000000 0.000000 8.000000 133.683825 25.575378 459.894767 -198.609027 16.432689 0.000000 0.074510
488.000000 47.112000 -14.000000 1.000000 8.000000 117.803779 22.388290 531.640820 327.176016 21.219482 0.000000 0.057205
489.000000 50.920000 -13.000000 1.000000 8.000000 121.607137 20.573588 571.013716 233.554805 19.631460 0.000000 0.048667
490.000000 55.168000 -12.000000 1.000000 8.000000 125.824457 18.255034 619.986518 122.878748 18.118375 0.000000 0.039376
491.000000 59.886000 -11.000000 1.000000 8.000000 130.485997 15.200975 682.557651 -11.099344 16.689988 0.000000 0.030457
492.000000 65.076000 -10.000000 1.000000 8.000000 135.593181 11.024906 765.304017 -178.474766 15.357835 0.000000 0.023468
493.000000 70.698000 -9.000000 1.000000 8.000000 141.074276 5.051635 879.858984 -396.837883 14.135646 0.000000 0.014561
495.000000 49.763000 -13.000000 2.000000 8.000000 118.465617 13.335407 719.872428 341.285507 20.089098 0.000000 0.094018
496.000000 58.250000 -11.000000 2.000000 8.000000 126.100259 6.321028 855.776163 151.344629 17.159821 0.000000 0.071532
497.000000 68.342000 -9.000000 2.000000 8.000000 134.516001 -5.612175 1080.762488 -122.359493 14.624022 0.000000 0.028959
499.000000 48.187000 -13.000000 3.000000 8.000000 114.674206 6.919230 844.387543 442.919320 20.747353 0.000000 0.124576
500.000000 51.923000 -12.000000 3.000000 8.000000 117.726650 3.356154 911.882852 374.322204 19.253787 0.000000 0.116186
501.000000 56.008000 -11.000000 3.000000 8.000000 120.903235 -1.031241 994.373830 296.664251 17.848261 0.000000 0.102920
502.000000 60.424000 -10.000000 3.000000 8.000000 124.102776 -6.492339 1097.482466 207.514073 16.543004 0.000000 0.082433
503.000000 65.106000 -9.000000 3.000000 8.000000 127.139455 -13.331115 1230.042409 103.265587 15.352620 0.000000 0.052227
504.000000 69.921000 -8.000000 3.000000 8.000000 129.699964 -21.859061 1406.774470 -21.776796 14.294696 0.000000 0.035104
505.000000 74.640000 -7.000000 3.000000 8.000000 131.308122 -32.253059 1654.171462 -177.385648 13.390600 0.000000 0.116428
507.000000 46.264000 -13.000000 4.000000 8.000000 110.423438 1.326403 950.079232 540.121077 21.611539 0.000000 0.143683
508.000000 53.287000 -11.000000 4.000000 8.000000 115.233065 -7.033284 1107.787036 429.929780 18.761614 0.000000 0.122262
509.000000 61.220000 -9.000000 4.000000 8.000000 119.488227 -18.987298 1345.330956 297.332426 16.329050 0.000000 0.067996
510.000000 69.177000 -7.000000 4.000000 8.000000 121.383436 -35.541095 1743.878565 134.134100 14.450080 0.000000 0.077275
511.000000 47.055000 -12.000000 5.000000 8.000000 107.674905 -7.399371 1114.774210 595.149993 21.249403 0.000000 0.145838
512.000000 50.228000 -11.000000 5.000000 8.000000 109.357339 -11.925364 1202.308435 554.536669 19.906432 0.000000 0.132486
513.000000 53.548000 -10.000000 5.000000 8.000000 110.820130 -17.177452 1307.704637 512.613048 18.671679 0.000000 0.111487
514.000000 56.932000 -9.000000 5.000000 8.000000 111.902506 -23.233766 1437.051307 470.088267 17.561246 0.000000 0.079017
515.000000 60.247000 -8.000000 5.000000 8.000000 112.391977 -30.126004 1599.558771 428.307175 16.594589 0.000000 0.029957
516.000000 63.294000 -7.000000 5.000000 8.000000 112.031136 -37.799828 1809.854253 389.803575 15.795452 0.000000 0.055349
517.000000 65.804000 -6.000000 5.000000 8.000000 110.545629 -46.079911 2092.650661 359.460875 15.193112 0.000000 0.186068
519.000000 46.970000 -11.000000 6.000000 8.000000 103.472361 -15.934706 1282.295462 672.850050 21.289522 0.000000 0.135953
520.000000 52.469000 -9.000000 6.000000 8.000000 104.587280 -26.505957 1511.760261 628.001581 19.057485 0.000000 0.086798
521.000000 57.344000 -7.000000 6.000000 8.000000 103.358594 -39.442484 1860.415418 610.040528 17.437000 0.000000 0.066938
523.000000 45.868000 -10.000000 7.000000 8.000000 97.897053 -23.934182 1452.716368 777.663275 21.802620 0.000000 0.116434
524.000000 48.018000 -9.000000 7.000000 8.000000 97.659246 -29.089071 1573.788842 775.366606 20.826407 0.000000 0.092968
525.000000 49.973000 -8.000000 7.000000 8.000000 96.872992 -34.693603 1720.083730 783.216023 20.011602 0.000000 0.073073
526.000000 51.587000 -7.000000 7.000000 8.000000 95.402721 -40.688984 1900.399153 806.756636 19.385506 0.000000 0.095221
527.000000 52.685000 -6.000000 7.000000 8.000000 93.120883 -46.974715 2128.163584 854.994358 18.981948 0.000000 0.184935
530.000000 46.192000 -7.000000 8.000000 8.000000 88.155941 -41.666363 1932.810353 987.386967 21.652282 0.000000 0.126650
534.000000 48.148000 -14.000000 -1.000000 9.000000 127.711759 35.955573 194.300810 -87.086348 20.758999 0.000000 0.130523
538.000000 47.407000 -14.000000 1.000000 9.000000 124.224311 20.266819 577.575101 160.566493 21.085072 0.000000 0.037749
539.000000 50.963000 -13.000000 1.000000 9.000000 128.220613 18.015806 624.962505 49.714107 19.612781 0.000000 0.030815
540.000000 54.855000 -12.000000 1.000000 9.000000 132.589000 15.090020 684.794631 -83.654168 18.219995 0.000000 0.026871
541.000000 59.079000 -11.000000 1.000000 9.000000 137.323561 11.157641 762.714781 -248.821161 16.916427 0.000000 0.025864
544.000000 46.469000 -14.000000 2.000000 9.000000 121.301198 13.327599 720.027345 268.459088 21.511862 0.000000 0.080465
545.000000 49.870000 -13.000000 2.000000 9.000000 124.828825 10.377211 777.905509 179.700241 20.043668 0.000000 0.070553
546.000000 53.577000 -12.000000 2.000000 9.000000 128.596940 6.657297 849.377650 76.067707 18.655977 0.000000 0.057202
547.000000 57.577000 -11.000000 2.000000 9.000000 132.551284 1.869441 939.870314 -47.541876 17.358713 0.000000 0.039339
548.000000 61.831000 -10.000000 2.000000 9.000000 136.566407 -4.417215 1058.141636 -199.200211 16.163495 0.000000 0.020745
549.000000 66.253000 -9.000000 2.000000 9.000000 140.389115 -12.788539 1219.301670 -392.594777 15.084027 0.000000 0.047068
551.000000 48.379000 -13.000000 3.000000 9.000000 120.774934 3.751532 904.427047 298.661450 20.662982 0.000000 0.102011
552.000000 55.514000 -11.000000 3.000000 9.000000 127.004362 -5.527024 1079.147723 126.036758 18.005248 0.000000 0.068229
553.000000 59.400000 -10.000000 3.000000 9.000000 130.012857 -11.902172 1201.853394 17.618613 16.826777 0.000000 0.042241
554.000000 67.339000 -8.000000 3.000000 9.000000 134.548838 -29.471440 1583.229987 -275.948133 14.841813 0.000000 0.115024
556.000000 46.552000 -13.000000 4.000000 9.000000 116.269105 -1.906647 1010.829360 409.489905 21.475418 0.000000 0.123090
557.000000 49.684000 -12.000000 4.000000 9.000000 118.699617 -6.225964 1092.416481 348.259408 20.121062 0.000000 0.108983
558.000000 52.999000 -11.000000 4.000000 9.000000 121.039302 -11.374572 1191.521958 280.315273 18.861548 0.000000 0.087949
559.000000 56.445000 -10.000000 4.000000 9.000000 123.139972 -17.505443 1314.466705 204.178745 17.709294 0.000000 0.057237
560.000000 59.930000 -9.000000 4.000000 9.000000 124.786253 -24.743407 1471.028298 117.758184 16.678984 0.000000 0.024838
561.000000 63.310000 -8.000000 4.000000 9.000000 125.689684 -33.120567 1677.178069 17.917988 15.788113 0.000000 0.081693
564.000000 47.248000 -12.000000 5.000000 9.000000 113.294087 -11.024635 1184.690700 468.893416 21.160502 0.000000 0.121756
565.000000 50.155000 -11.000000 5.000000 9.000000 114.919311 -16.023563 1284.101500 420.747115 19.933329 0.000000 0.100454
566.000000 53.128000 -10.000000 5.000000 9.000000 116.236115 -21.781794 1405.090329 369.771037 18.817282 0.000000 0.068686
567.000000 56.075000 -9.000000 5.000000 9.000000 117.066850 -28.341802 1555.538060 316.113576 17.827727 0.000000 0.021160
568.000000 58.864000 -8.000000 5.000000 9.000000 117.193418 -35.675396 1747.695286 260.265463 16.983000 0.000000 0.052246
569.000000 61.311000 -7.000000 5.000000 9.000000 116.375570 -43.649014 2001.698305 203.411862 16.305158 0.000000 0.167360
571.000000 47.104000 -11.000000 6.000000 9.000000 108.828594 -19.762453 1361.693228 551.031935 21.226515 0.000000 0.107569
572.000000 49.602000 -10.000000 6.000000 9.000000 109.485496 -25.118292 1479.592159 520.395638 20.157218 0.000000 0.077535
573.000000 54.236000 -8.000000 6.000000 9.000000 109.176094 -37.557107 1802.575324 468.841495 18.434309 0.000000 0.046407
574.000000 56.096000 -7.000000 6.000000 9.000000 107.875007 -44.486460 2032.171570 454.446370 17.823374 0.000000 0.145216
575.000000 46.005000 -10.000000 7.000000 9.000000 103.002148 -27.777387 1541.922850 660.106631 21.735826 0.000000 0.084617
576.000000 47.928000 -9.000000 7.000000 9.000000 102.644483 -33.188656 1679.002930 652.476089 20.863293 0.000000 0.056081
577.000000 49.624000 -8.000000 7.000000 9.000000 101.694904 -38.997892 1846.500358 654.331372 20.150211 0.000000 0.065879
578.000000 50.962000 -7.000000 7.000000 9.000000 100.031571 -45.119751 2055.802732 671.181546 19.621410 0.000000 0.145701
579.000000 51.793000 -6.000000 7.000000 9.000000 97.550615 -51.431928 2324.792525 712.167561 19.307155 0.000000 0.284523
581.000000 46.068000 -7.000000 8.000000 9.000000 92.839661 -45.615320 2074.663571 864.676159 21.708751 0.000000 0.161975
582.000000 46.503000 -6.000000 8.000000 9.000000 90.220392 -51.237922 2315.455902 934.387406 21.506274 0.000000 0.283670
587.000000 47.847000 -14.000000 0.000000 10.000000 132.600160 25.961216 450.957778 -159.788814 20.888359 0.000000 0.069547
588.000000 51.179000 -13.000000 0.000000 10.000000 137.091880 24.236642 490.466593 -328.826839 19.527468 0.000000 0.088910
591.000000 47.313000 -14.000000 1.000000 10.000000 130.236679 17.797893 629.483366 -15.498287 21.125200 0.000000 0.027193
592.000000 50.573000 -13.000000 1.000000 10.000000 134.338682 14.990379 686.801523 -147.783234 19.762243 0.000000 0.028398
593.000000 54.072000 -12.000000 1.000000 10.000000 138.745739 11.274680 760.429757 -310.241831 18.482372 0.000000 0.030354
596.000000 49.552000 -13.000000 2.000000 10.000000 130.678837 6.962066 843.570953 9.060775 20.170615 0.000000 0.045176
597.000000 56.417000 -11.000000 2.000000 10.000000 138.223480 -3.361453 1038.217039 -265.839247 17.714405 0.000000 0.014874
599.000000 48.156000 -13.000000 3.000000 10.000000 126.361083 0.178867 971.639996 148.611429 20.756638 0.000000 0.074808
600.000000 51.275000 -12.000000 3.000000 10.000000 129.399326 -4.649266 1062.528098 54.024555 19.493254 0.000000 0.055953
601.000000 54.540000 -11.000000 3.000000 10.000000 132.346670 -10.611067 1176.638182 -57.022576 18.325350 0.000000 0.034769
602.000000 57.889000 -10.000000 3.000000 10.000000 135.004306 -17.974205 1324.173579 -190.687444 17.264543 0.000000 0.044976
605.000000 46.442000 -13.000000 4.000000 10.000000 121.613643 -5.478574 1078.229148 275.465822 21.524492 0.000000 0.096330
606.000000 52.243000 -11.000000 4.000000 10.000000 126.132180 -16.142570 1286.522855 122.973965 19.132840 0.000000 0.048423
607.000000 58.171000 -9.000000 4.000000 10.000000 129.116499 -30.881037 1618.665122 -78.762139 17.182255 0.000000 0.085956
609.000000 47.022000 -12.000000 5.000000 10.000000 118.351884 -14.947354 1262.332493 339.877387 21.259868 0.000000 0.089606
610.000000 49.631000 -11.000000 5.000000 10.000000 119.825313 -20.428086 1375.870927 282.560219 20.141907 0.000000 0.059441
611.000000 54.744000 -9.000000 5.000000 10.000000 121.378854 -33.680370 1692.266422 152.161064 18.259963 0.000000 0.056384
612.000000 57.030000 -8.000000 5.000000 10.000000 121.064989 -41.345995 1922.079576 77.357888 17.527833 0.000000 0.157193
614.000000 46.810000 -11.000000 6.000000 10.000000 113.589747 -23.810929 1449.947587 427.281615 21.357753 0.000000 0.068630
615.000000 51.101000 -9.000000 6.000000 10.000000 113.974942 -35.768088 1750.336989 351.106756 19.563707 0.000000 0.037636
617.000000 45.710000 -10.000000 7.000000 10.000000 107.507888 -31.755572 1641.175877 541.709434 21.873684 0.000000 0.042480
618.000000 47.386000 -9.000000 7.000000 10.000000 106.970321 -37.380991 1797.323427 527.659959 21.099888 0.000000 0.044694
619.000000 48.813000 -8.000000 7.000000 10.000000 105.806966 -43.336211 1990.533462 522.073143 20.483409 0.000000 0.120249
620.000000 49.876000 -7.000000 7.000000 10.000000 103.915048 -49.513461 2235.778347 530.298512 20.046940 0.000000 0.243198
622.000000 45.488000 -7.000000 8.000000 10.000000 96.869586 -49.530160 2236.522760 741.220747 21.983512 0.000000 0.235562
625.000000 46.891000 -14.000000 1.000000 11.000000 135.816526 14.900405 688.612090 -204.950002 21.313697 0.000000 0.032422
626.000000 49.834000 -13.000000 1.000000 11.000000 139.934967 11.378652 758.398306 -364.382465 20.053784 0.000000 0.034986
629.000000 46.060000 -14.000000 2.000000 11.000000 132.440156 7.239548 838.277594 -51.084834 21.699120 0.000000 0.035364
630.000000 48.888000 -13.000000 2.000000 11.000000 135.987491 3.006019 918.480427 -174.583503 20.443026 0.000000 0.020391
631.000000 51.852000 -12.000000 2.000000 11.000000 139.588565 -2.422513 1020.533747 -324.260995 19.273695 0.000000 0.010685
634.000000 47.594000 -13.000000 3.000000 11.000000 131.406701 -3.848032 1047.393685 -10.249304 21.000321 0.000000 0.045452
635.000000 50.371000 -12.000000 3.000000 11.000000 134.275414 -9.439913 1153.949769 -122.816367 19.841763 0.000000 0.029382
636.000000 53.214000 -11.000000 3.000000 11.000000 136.913340 -16.310204 1289.938552 -257.941084 18.781022 0.000000 0.047089
639.000000 46.000000 -13.000000 4.000000 11.000000 126.434876 -9.413173 1153.433610 135.631087 21.729417 0.000000 0.065143
640.000000 48.549000 -12.000000 4.000000 11.000000 128.621394 -14.886271 1261.103634 51.286529 20.587938 0.000000 0.041530
641.000000 51.134000 -11.000000 4.000000 11.000000 130.505901 -21.327617 1395.227353 -46.029581 19.546323 0.000000 0.036819
642.000000 53.688000 -10.000000 4.000000 11.000000 131.890574 -28.809057 1566.919356 -160.746679 18.616107 0.000000 0.088935
645.000000 46.458000 -12.000000 5.000000 11.000000 122.836290 -19.164363 1349.054856 205.658369 21.516362 0.000000 0.051562
646.000000 48.758000 -11.000000 5.000000 11.000000 124.075328 -25.116910 1479.560498 136.940717 20.500993 0.000000 0.023579
647.000000 50.998000 -10.000000 5.000000 11.000000 124.819730 -31.807691 1642.530768 60.116888 19.599991 0.000000 0.062359
648.000000 53.091000 -9.000000 5.000000 11.000000 124.888331 -39.167891 1851.800287 -27.023810 18.827217 0.000000 0.151298
650.000000 46.176000 -11.000000 6.000000 11.000000 117.757684 -28.056086 1548.627963 299.121160 21.649638 0.000000 0.020416
651.000000 48.094000 -10.000000 6.000000 11.000000 117.976584 -34.071453 1702.924212 250.809963 20.785937 0.000000 0.038498
652.000000 49.847000 -9.000000 6.000000 11.000000 117.585500 -40.556788 1896.088609 200.865126 20.054627 0.000000 0.121580
655.000000 46.504000 -9.000000 7.000000 11.000000 110.668734 -41.623306 1931.361976 397.840825 21.498503 0.000000 0.105066
656.000000 47.670000 -8.000000 7.000000 11.000000 109.261735 -47.659199 2156.141180 382.597122 20.972897 0.000000 0.215481
660.000000 46.204000 -14.000000 1.000000 12.000000 140.943933 11.471627 756.580438 -412.494995 21.629373 0.000000 0.039180
663.000000 47.956000 -13.000000 2.000000 12.000000 140.731347 -1.582451 1004.733715 -375.945694 20.839310 0.000000 0.007653
665.000000 46.764000 -13.000000 3.000000 12.000000 135.893212 -8.373592 1133.426464 -181.351046 21.371608 0.000000 0.025601
668.000000 49.775000 -11.000000 4.000000 12.000000 134.170189 -26.891351 1520.830983 -231.330431 20.079094 0.000000 0.090507
670.000000 45.630000 -12.000000 5.000000 12.000000 126.747480 -23.659353 1446.549752 63.620777 21.905354 0.000000 0.028742
671.000000 47.628000 -11.000000 5.000000 12.000000 127.684337 -30.050091 1597.654029 -19.485726 20.986161 0.000000 0.067897
672.000000 49.525000 -10.000000 5.000000 12.000000 128.044694 -37.110605 1789.308177 -115.144725 20.181970 0.000000 0.147328
678.000000 45.733000 -13.000000 3.000000 13.000000 139.807896 -13.428877 1231.982777 -368.789394 21.852334 0.000000 0.047528
681.000000 46.346000 -12.000000 4.000000 13.000000 136.068338 -25.115156 1479.520301 -292.851475 21.564089 0.000000 0.090848
684.000000 46.319000 -11.000000 5.000000 13.000000 130.680178 -35.169235 1733.376919 -190.698116 21.577998 0.000000 0.144087
#UB matrix in q= (UB) B0 G* 
#[[ 0.490042621  0.108119539 -0.86399109 ]
# [-0.522310326 -0.757879137 -0.391100395]
# [-0.697889786  0.64371524  -0.315347771]]
#B0 matrix in q= UB (B0) G*
#[[ 0.19670273 -0.          0.03056101]
# [ 0.          0.19187965 -0.        ]
# [ 0.          0.          0.18806537]]
#UBB0 matrix in q= (UB B0) G* i.e. recip. basis vectors are columns in LT frame: astar = UBB0[:,0], bstar = UBB0[:,1], cstar = UBB0[:,2]. (abcstar as columns on xyzlab1, xlab1 = ui, ui = unit vector along incident beam)
#[[ 0.09639272  0.02074594 -0.14751061]
# [-0.10273987 -0.14542159 -0.08951477]
# [-0.13727683  0.12351586 -0.08063421]]
#Euler angles phi theta psi (deg)
#[227.331 108.352 114.315]
#deviatoric strain in direct crystal frame (10-3 unit)
#[[  6.19   0.2   -1.03]
# [  0.2    5.81   0.06]
# [ -1.03   0.06 -12.  ]]
#deviatoric strain in sample2 frame (10-3 unit)
#[[-7.71 -6.51  4.03]
# [-6.52  2.97  2.25]
# [ 4.02  2.24  4.75]]
#new lattice parameters
#[ 5.1505     5.2095831  5.3193814 89.9999278 99.2887496 89.9767764]
#CCDLabel
#sCMOS
#DetectorParameters
#[79.0, 975.0, 941.0, 0.0, 0.0]
#pixelsize
#0.0734
#Frame dimensions
#[2018, 2016]
#
