#Strain and Orientation Refinement from experimental file: /home/micha/LaueProjects/DepthEffects/testZrO2_183.cor
#File created at Wed Jun 28 14:29:12 2023 with indexingSpotsSet.py
#Number of indexed spots: 524
#Element
#ZrO2
#grainIndex
#G_0
#Mean Deviation(pixel): 0.113
##spot_index intensity h k l 2theta Chi Xexp Yexp Energy GrainIndex PixDev
10.000000 47.347000 0.000000 -13.000000 -9.000000 125.350436 -40.316714 1888.303828 -60.314796 21.110062 0.000000 0.175208
11.000000 45.862000 1.000000 -13.000000 -9.000000 118.026106 -38.916092 1843.959221 204.681405 21.795895 0.000000 0.104141
14.000000 48.194000 1.000000 -12.000000 -9.000000 117.311279 -43.035960 1979.924303 180.614406 20.741545 0.000000 0.168038
15.000000 46.095000 2.000000 -12.000000 -9.000000 109.620338 -41.450092 1925.554689 429.105399 21.688808 0.000000 0.107471
18.000000 48.259000 2.000000 -11.000000 -9.000000 108.217428 -45.415631 2067.023832 436.368698 20.716296 0.000000 0.174642
20.000000 50.417000 2.000000 -10.000000 -9.000000 106.354215 -49.673915 2242.951983 452.948288 19.830236 0.000000 0.268012
21.000000 47.243000 3.000000 -10.000000 -9.000000 98.043574 -47.508743 2149.928980 715.828858 21.165340 0.000000 0.205873
23.000000 48.906000 1.000000 -3.000000 -3.000000 95.337127 -51.558859 2330.944186 779.271501 6.815428 0.000000 0.307647
33.000000 47.447000 -1.000000 -14.000000 -8.000000 132.361498 -29.892819 1593.717169 -191.078881 21.063794 0.000000 0.099574
34.000000 46.357000 0.000000 -7.000000 -4.000000 125.137057 -29.574198 1585.779313 70.058668 10.780501 0.000000 0.043514
37.000000 49.040000 0.000000 -13.000000 -8.000000 125.410233 -33.602914 1690.167120 22.308412 20.381389 0.000000 0.084665
38.000000 47.394000 1.000000 -13.000000 -8.000000 117.725130 -32.892278 1671.080240 267.337844 21.091821 0.000000 0.027145
40.000000 51.923000 0.000000 -6.000000 -4.000000 125.440312 -38.133168 1819.929104 -32.867937 9.624886 0.000000 0.142405
41.000000 50.098000 1.000000 -12.000000 -8.000000 117.365939 -36.861722 1781.980767 244.716421 19.953288 0.000000 0.072001
42.000000 47.754000 1.000000 -6.000000 -4.000000 109.251769 -35.852632 1752.751865 477.232009 10.467871 0.000000 0.037873
45.000000 52.965000 1.000000 -11.000000 -8.000000 116.674699 -41.256898 1919.114016 221.722618 18.873483 0.000000 0.133255
46.000000 50.317000 2.000000 -11.000000 -8.000000 108.152544 -39.729227 1869.484561 482.162267 19.869346 0.000000 0.079273
47.000000 47.146000 3.000000 -11.000000 -8.000000 99.672952 -38.496670 1831.020989 706.600477 21.209158 0.000000 0.074293
49.000000 55.956000 1.000000 -10.000000 -8.000000 115.541887 -46.089785 2093.036234 199.385322 17.864667 0.000000 0.219718
50.000000 52.956000 1.000000 -5.000000 -4.000000 106.623004 -43.965313 2013.106817 494.562656 9.439838 0.000000 0.143033
51.000000 49.338000 3.000000 -10.000000 -8.000000 97.730768 -42.259861 1952.975009 743.582338 20.267403 0.000000 0.116061
53.000000 55.591000 2.000000 -9.000000 -8.000000 104.545455 -48.560458 2194.119110 519.048680 17.984933 0.000000 0.235347
54.000000 51.454000 3.000000 -9.000000 -8.000000 95.256202 -46.326088 2102.304799 797.614892 19.434388 0.000000 0.184555
55.000000 46.801000 4.000000 -9.000000 -8.000000 86.128580 -44.501370 2032.722028 1043.119442 21.370248 0.000000 0.178666
57.000000 53.363000 3.000000 -8.000000 -8.000000 92.128088 -50.687587 2289.393558 877.872594 18.739988 0.000000 0.287200
58.000000 48.049000 1.000000 -2.000000 -2.000000 82.636763 -48.395455 2187.065732 1150.468477 5.204007 0.000000 0.261515
67.000000 46.623000 -2.000000 -15.000000 -7.000000 137.311677 -17.516609 1314.697336 -282.583915 21.434697 0.000000 0.048521
68.000000 45.891000 -1.000000 -15.000000 -7.000000 130.434108 -18.716143 1339.643541 -27.307789 21.778600 0.000000 0.025470
70.000000 49.480000 -2.000000 -14.000000 -7.000000 138.877815 -21.485634 1398.651879 -383.882148 20.196651 0.000000 0.080415
71.000000 48.725000 -1.000000 -14.000000 -7.000000 131.579627 -22.251395 1415.354207 -90.725914 20.511523 0.000000 0.039293
72.000000 47.524000 0.000000 -4.000000 -2.000000 124.145481 -22.835842 1428.224924 148.968343 6.009228 0.000000 0.025178
73.000000 45.889000 1.000000 -14.000000 -7.000000 116.637831 -23.296466 1438.446846 353.221713 21.784228 0.000000 0.056916
76.000000 51.837000 -1.000000 -13.000000 -7.000000 132.659772 -26.385503 1508.937728 -166.111741 19.279949 0.000000 0.072260
77.000000 50.534000 0.000000 -13.000000 -7.000000 124.767532 -26.486094 1511.294401 106.246650 19.779226 0.000000 0.020959
78.000000 48.712000 1.000000 -13.000000 -7.000000 116.792080 -26.563967 1513.121684 333.366991 20.521608 0.000000 0.034097
79.000000 46.415000 2.000000 -13.000000 -7.000000 108.809927 -26.626038 1514.579944 530.900684 21.540120 0.000000 0.069832
81.000000 55.245000 -1.000000 -12.000000 -7.000000 133.601383 -31.228927 1627.569898 -257.675703 18.090076 0.000000 0.122288
82.000000 53.832000 0.000000 -12.000000 -7.000000 125.235079 -30.676571 1613.461644 57.075021 18.567079 0.000000 0.053805
83.000000 51.793000 1.000000 -12.000000 -7.000000 116.765861 -30.256577 1602.841856 312.515727 19.300586 0.000000 0.004981
84.000000 49.184000 2.000000 -12.000000 -7.000000 108.286512 -29.926492 1594.559037 530.612180 20.327765 0.000000 0.050433
85.000000 46.095000 3.000000 -12.000000 -7.000000 99.889924 -29.660253 1587.918247 725.057800 21.693325 0.000000 0.082415
87.000000 57.430000 0.000000 -11.000000 -7.000000 125.458127 -35.480755 1742.167927 -0.320357 17.403801 0.000000 0.107056
88.000000 55.139000 1.000000 -11.000000 -7.000000 116.479854 -34.425710 1712.663685 291.013137 18.129633 0.000000 0.037826
89.000000 52.156000 2.000000 -11.000000 -7.000000 107.478465 -33.607508 1690.291509 534.071849 19.169306 0.000000 0.036037
90.000000 48.603000 3.000000 -11.000000 -7.000000 98.569658 -32.954690 1672.744206 747.708313 20.574199 0.000000 0.072135
92.000000 61.320000 0.000000 -10.000000 -7.000000 125.310927 -40.960229 1909.297479 -68.537315 16.299532 0.000000 0.185592
93.000000 58.734000 1.000000 -10.000000 -7.000000 115.826461 -39.116489 1850.195052 269.601729 17.019685 0.000000 0.095375
94.000000 55.308000 2.000000 -10.000000 -7.000000 106.289381 -37.702848 1806.940207 543.481437 18.077174 0.000000 0.055511
95.000000 51.198000 3.000000 -10.000000 -7.000000 96.848530 -36.585786 1773.912474 780.015459 19.531719 0.000000 0.074932
96.000000 46.610000 4.000000 -10.000000 -7.000000 87.637740 -35.681470 1747.868193 995.661384 21.458023 0.000000 0.102992
98.000000 62.536000 1.000000 -9.000000 -7.000000 114.662759 -44.357904 2027.437240 249.808320 15.985117 0.000000 0.178999
99.000000 58.579000 2.000000 -9.000000 -7.000000 104.594277 -42.237274 1952.200673 562.486776 17.067939 0.000000 0.111473
100.000000 53.803000 3.000000 -9.000000 -7.000000 94.614764 -40.574008 1896.649162 826.624585 18.586262 0.000000 0.104732
101.000000 48.483000 4.000000 -9.000000 -7.000000 84.895438 -39.236637 1853.950804 1065.129240 20.629783 0.000000 0.127318
103.000000 61.856000 2.000000 -8.000000 -7.000000 102.234851 -47.219142 2138.071308 597.375507 16.164193 0.000000 0.200960
104.000000 56.289000 3.000000 -8.000000 -7.000000 91.730263 -44.930187 2048.674603 895.076083 17.766134 0.000000 0.167435
105.000000 50.109000 4.000000 -8.000000 -7.000000 81.513085 -43.098191 1982.114638 1160.947312 19.960902 0.000000 0.178240
108.000000 58.444000 3.000000 -7.000000 -7.000000 88.029936 -49.650294 2241.892943 998.181139 17.111838 0.000000 0.270458
109.000000 51.277000 4.000000 -7.000000 -7.000000 77.351434 -47.267810 2140.054933 1296.950708 19.507245 0.000000 0.263798
117.000000 47.882000 -1.000000 -5.000000 -2.000000 142.130269 -6.645902 1100.405377 -452.432110 6.956718 0.000000 0.022033
118.000000 47.470000 -2.000000 -15.000000 -6.000000 135.458161 -9.461085 1154.358501 -167.727904 21.052995 0.000000 0.019986
119.000000 46.660000 -1.000000 -15.000000 -6.000000 128.556494 -11.614263 1196.210720 65.211180 21.420485 0.000000 0.047026
122.000000 50.590000 -1.000000 -7.000000 -3.000000 137.330302 -12.589665 1215.376442 -255.372837 9.877049 0.000000 0.028387
123.000000 49.748000 -1.000000 -14.000000 -6.000000 129.954147 -14.527844 1253.906729 9.566913 20.090452 0.000000 0.032680
124.000000 48.425000 0.000000 -7.000000 -3.000000 122.410607 -16.017147 1283.971031 230.085048 10.320908 0.000000 0.065270
125.000000 46.638000 1.000000 -14.000000 -6.000000 114.777274 -17.195855 1308.083407 420.953997 21.435539 0.000000 0.096118
127.000000 54.056000 -2.000000 -13.000000 -6.000000 139.283816 -16.421498 1292.209507 -362.776527 18.487047 0.000000 0.053505
128.000000 53.190000 -1.000000 -13.000000 -6.000000 131.385483 -17.990159 1324.504846 -56.147473 18.790036 0.000000 0.026009
129.000000 51.742000 0.000000 -13.000000 -6.000000 123.307296 -19.162065 1349.006482 192.329691 19.317939 0.000000 0.047048
130.000000 49.733000 1.000000 -13.000000 -6.000000 115.136120 -20.070141 1368.231885 403.349484 20.101145 0.000000 0.081594
131.000000 47.216000 2.000000 -13.000000 -6.000000 106.960435 -20.794131 1383.719681 589.885447 21.175770 0.000000 0.108109
134.000000 57.029000 -1.000000 -12.000000 -6.000000 132.807055 -22.138372 1412.877679 -135.250622 17.524604 0.000000 0.045965
135.000000 53.173000 1.000000 -12.000000 -6.000000 115.383979 -23.363909 1439.949425 384.691956 18.800594 0.000000 0.062336
136.000000 50.283000 1.000000 -6.000000 -3.000000 106.626193 -23.777543 1449.198502 589.795924 9.942082 0.000000 0.094275
137.000000 46.887000 1.000000 -4.000000 -2.000000 97.974605 -24.110271 1456.681260 775.812322 7.109299 0.000000 0.113817
139.000000 61.309000 -1.000000 -11.000000 -6.000000 134.143563 -27.139522 1526.704777 -232.830351 16.300910 0.000000 0.088950
140.000000 59.574000 0.000000 -11.000000 -6.000000 124.858237 -27.144958 1526.833730 98.539692 16.777858 0.000000 0.024572
141.000000 56.990000 1.000000 -11.000000 -6.000000 115.456568 -27.148974 1526.929004 365.194625 17.541090 0.000000 0.036414
142.000000 53.648000 2.000000 -11.000000 -6.000000 106.063684 -27.152063 1527.002270 592.699239 18.637166 0.000000 0.076802
143.000000 49.694000 3.000000 -11.000000 -6.000000 96.804003 -27.154511 1527.060363 796.675851 20.123319 0.000000 0.102140
145.000000 64.165000 0.000000 -5.000000 -3.000000 125.341981 -32.206339 1652.944997 38.964143 7.788617 0.000000 0.069326
146.000000 61.209000 1.000000 -10.000000 -6.000000 115.260399 -31.502653 1634.622545 345.360018 16.332035 0.000000 0.008353
147.000000 57.312000 1.000000 -5.000000 -3.000000 105.183773 -30.971420 1620.972363 600.333831 8.722798 0.000000 0.057025
148.000000 52.675000 3.000000 -10.000000 -6.000000 95.268140 -30.556230 1610.409389 825.754778 18.984903 0.000000 0.090590
149.000000 47.550000 2.000000 -5.000000 -3.000000 85.654126 -30.222838 1601.992693 1035.660429 10.517365 0.000000 0.108498
151.000000 65.828000 1.000000 -9.000000 -6.000000 114.661189 -36.500475 1771.429688 326.263604 15.185942 0.000000 0.054650
152.000000 61.250000 2.000000 -9.000000 -6.000000 103.864155 -35.288395 1736.731584 615.560575 16.324075 0.000000 0.048919
153.000000 55.771000 1.000000 -3.000000 -2.000000 93.252782 -34.353708 1710.677500 866.907110 5.977098 0.000000 0.085894
154.000000 49.738000 4.000000 -9.000000 -6.000000 83.005092 -33.611333 1690.395107 1099.565525 20.110407 0.000000 0.111989
155.000000 70.799000 1.000000 -8.000000 -6.000000 113.469886 -42.202258 1951.001361 310.158485 14.119832 0.000000 0.133567
156.000000 65.382000 1.000000 -4.000000 -3.000000 101.939193 -40.147570 1882.852241 643.271225 7.646434 0.000000 0.084495
157.000000 58.867000 3.000000 -8.000000 -6.000000 90.609216 -38.580610 1833.598255 926.360097 16.988861 0.000000 0.103315
158.000000 51.734000 2.000000 -4.000000 -3.000000 79.711504 -37.347847 1796.337830 1186.761835 9.667641 0.000000 0.134057
159.000000 75.979000 1.000000 -7.000000 -6.000000 111.428754 -48.629957 2197.103733 301.862741 13.157474 0.000000 0.259349
160.000000 69.530000 2.000000 -7.000000 -6.000000 99.189746 -45.574098 2073.082054 692.246597 14.380886 0.000000 0.166875
161.000000 61.751000 3.000000 -7.000000 -6.000000 87.147986 -43.259861 1987.825777 1014.626911 16.196185 0.000000 0.157979
162.000000 53.306000 4.000000 -7.000000 -6.000000 75.611028 -41.451931 1925.616174 1309.406138 18.765856 0.000000 0.185690
164.000000 54.101000 2.000000 -3.000000 -3.000000 70.513928 -45.932077 2086.894443 1488.570858 9.245643 0.000000 0.278813
173.000000 45.544000 -3.000000 -16.000000 -5.000000 137.008160 3.659480 906.163489 -215.872756 21.942944 0.000000 0.017737
176.000000 48.509000 -3.000000 -15.000000 -5.000000 139.274853 1.978473 937.819840 -309.942929 20.601035 0.000000 0.010078
177.000000 48.035000 -2.000000 -15.000000 -5.000000 132.738446 -1.801984 1008.861208 -54.005829 20.806289 0.000000 0.037380
178.000000 47.138000 -1.000000 -15.000000 -5.000000 125.907245 -4.760258 1064.627178 158.988032 21.204128 0.000000 0.074610
179.000000 45.818000 0.000000 -6.000000 -2.000000 118.874794 -7.126563 1109.566286 342.850294 8.727034 0.000000 0.107052
181.000000 51.818000 -3.000000 -14.000000 -5.000000 141.771717 -0.129326 977.429379 -425.341157 19.284740 0.000000 0.006823
182.000000 51.384000 -2.000000 -14.000000 -5.000000 134.768433 -4.034444 1050.912050 -129.281576 19.449624 0.000000 0.024480
183.000000 50.443000 -1.000000 -14.000000 -5.000000 127.438895 -6.996068 1107.077342 110.771087 19.814579 0.000000 0.062926
184.000000 48.989000 0.000000 -14.000000 -5.000000 119.890489 -9.307864 1151.401635 314.086815 20.404924 0.000000 0.098169
185.000000 47.046000 1.000000 -14.000000 -5.000000 112.221387 -11.156984 1187.272402 492.833682 21.250438 0.000000 0.125354
188.000000 55.154000 -2.000000 -13.000000 -5.000000 136.982346 -6.794436 1103.234327 -220.629682 18.119406 0.000000 0.014901
189.000000 54.176000 -1.000000 -13.000000 -5.000000 129.086620 -9.677786 1158.544900 54.115125 18.448721 0.000000 0.048600
190.000000 52.571000 0.000000 -13.000000 -5.000000 120.953625 -11.863714 1201.098980 281.392604 19.014160 0.000000 0.086634
191.000000 50.368000 1.000000 -13.000000 -5.000000 112.695974 -13.573363 1234.853397 477.931825 19.848938 0.000000 0.117058
192.000000 47.630000 2.000000 -13.000000 -5.000000 104.420777 -14.944839 1262.281877 654.549208 20.992804 0.000000 0.136576
194.000000 59.412000 -2.000000 -12.000000 -5.000000 139.379611 -10.275220 1170.114997 -334.282706 16.820406 0.000000 0.027260
195.000000 58.409000 -1.000000 -12.000000 -5.000000 130.840943 -12.937437 1222.244547 -13.607897 17.111022 0.000000 0.032453
196.000000 56.635000 0.000000 -12.000000 -5.000000 122.045646 -14.886309 1261.104387 243.866283 17.649618 0.000000 0.071407
197.000000 54.117000 1.000000 -12.000000 -5.000000 113.122258 -16.371511 1291.189207 462.006148 18.473489 0.000000 0.105929
198.000000 50.943000 2.000000 -12.000000 -5.000000 104.196061 -17.539476 1315.169724 655.459505 19.627803 0.000000 0.128547
199.000000 47.245000 3.000000 -12.000000 -5.000000 95.385425 -18.481311 1334.732689 834.019146 21.167794 0.000000 0.137869
202.000000 63.226000 -1.000000 -11.000000 -5.000000 132.673119 -16.954660 1303.125091 -96.327842 15.807148 0.000000 0.026790
203.000000 61.259000 0.000000 -11.000000 -5.000000 123.130993 -18.493920 1334.996040 200.290455 16.316845 0.000000 0.051046
204.000000 58.361000 1.000000 -11.000000 -5.000000 113.456212 -19.632582 1358.940957 445.167195 17.129900 0.000000 0.090743
205.000000 54.645000 2.000000 -11.000000 -5.000000 103.796834 -20.508388 1377.589553 658.815215 18.298115 0.000000 0.117835
206.000000 50.291000 3.000000 -11.000000 -5.000000 94.294716 -21.202639 1392.524065 854.304164 19.885800 0.000000 0.129628
207.000000 45.520000 4.000000 -11.000000 -5.000000 85.076007 -21.766333 1404.753562 1040.843443 21.973788 0.000000 0.127164
209.000000 68.713000 -1.000000 -10.000000 -5.000000 134.518562 -21.971159 1409.221030 -200.242911 14.544395 0.000000 0.055679
210.000000 63.169000 1.000000 -10.000000 -5.000000 113.628786 -23.454489 1441.969873 427.726016 15.825841 0.000000 0.069619
211.000000 58.774000 2.000000 -10.000000 -5.000000 103.147268 -23.918932 1452.373506 665.983918 17.012768 0.000000 0.103619
212.000000 53.596000 3.000000 -10.000000 -5.000000 92.874543 -24.280393 1460.522163 881.712355 18.659730 0.000000 0.119596
213.000000 47.943000 4.000000 -10.000000 -5.000000 82.963466 -24.569684 1467.077304 1087.075214 20.863997 0.000000 0.119765
215.000000 74.958000 -1.000000 -9.000000 -5.000000 136.247932 -28.299047 1554.501671 -335.830554 13.332319 0.000000 0.114541
216.000000 72.545000 0.000000 -9.000000 -5.000000 124.977436 -28.093244 1549.524552 87.437449 13.777895 0.000000 0.031167
217.000000 68.606000 1.000000 -9.000000 -5.000000 113.532311 -27.951170 1546.099767 410.395657 14.571661 0.000000 0.039959
218.000000 63.349000 2.000000 -9.000000 -5.000000 102.137935 -27.847193 1543.599046 679.199642 15.784156 0.000000 0.085507
219.000000 57.129000 3.000000 -9.000000 -5.000000 91.013690 -27.767802 1541.692854 919.477509 17.506348 0.000000 0.108709
220.000000 50.375000 4.000000 -9.000000 -5.000000 80.348942 -27.705198 1540.191699 1147.729493 19.857615 0.000000 0.114839
222.000000 79.361000 0.000000 -8.000000 -5.000000 125.438524 -34.467563 1713.819760 11.925756 12.594355 0.000000 0.094718
223.000000 74.707000 1.000000 -8.000000 -5.000000 113.000410 -33.246129 1680.545473 394.717295 13.381667 0.000000 0.018174
224.000000 68.349000 2.000000 -8.000000 -5.000000 100.611165 -32.374218 1657.357959 702.250892 14.629761 0.000000 0.067286
225.000000 60.800000 3.000000 -8.000000 -5.000000 88.560654 -31.720860 1640.274342 972.792864 16.449854 0.000000 0.101436
226.000000 52.673000 4.000000 -8.000000 -5.000000 77.090274 -31.213154 1627.164765 1229.451268 18.992088 0.000000 0.118910
228.000000 81.435000 1.000000 -7.000000 -5.000000 111.780324 -39.454738 1860.801452 384.021131 12.276216 0.000000 0.083768
229.000000 73.661000 2.000000 -7.000000 -5.000000 98.341823 -37.577181 1803.175512 741.870266 13.575077 0.000000 0.073135
230.000000 64.418000 3.000000 -7.000000 -5.000000 85.311014 -36.193520 1762.541407 1050.388160 15.526542 0.000000 0.111134
231.000000 54.592000 4.000000 -7.000000 -5.000000 73.005777 -35.132665 1732.349357 1343.211751 18.325422 0.000000 0.143815
232.000000 88.587000 1.000000 -6.000000 -5.000000 109.499963 -46.648715 2115.089467 385.789592 11.285289 0.000000 0.204798
233.000000 78.996000 2.000000 -6.000000 -5.000000 95.015365 -43.512912 1996.826197 810.757466 12.658779 0.000000 0.138347
234.000000 67.614000 3.000000 -6.000000 -5.000000 80.995119 -41.229259 1918.195715 1167.787849 14.793409 0.000000 0.159342
235.000000 55.729000 4.000000 -6.000000 -5.000000 67.870130 -39.497017 1862.134416 1508.209456 17.952547 0.000000 0.203967
236.000000 83.739000 2.000000 -5.000000 -5.000000 90.210978 -50.192487 2266.464116 934.809512 11.942513 0.000000 0.278158
237.000000 69.731000 3.000000 -5.000000 -5.000000 75.273172 -46.848306 2123.075169 1354.636331 14.345396 0.000000 0.267064
238.000000 55.462000 4.000000 -5.000000 -5.000000 61.419525 -44.326751 2026.293111 1760.634304 18.040240 0.000000 0.317175
245.000000 45.917000 -1.000000 -4.000000 -1.000000 138.837649 15.575276 674.993811 -337.002467 5.441006 0.000000 0.054347
246.000000 45.713000 -3.000000 -16.000000 -4.000000 133.317075 10.511824 775.290887 -91.176922 21.863000 0.000000 0.031277
249.000000 48.813000 -3.000000 -15.000000 -4.000000 135.522767 9.676000 791.489622 -170.934348 20.473578 0.000000 0.027061
250.000000 48.265000 -2.000000 -15.000000 -4.000000 129.195606 5.242954 876.235931 59.645813 20.708153 0.000000 0.056350
251.000000 47.274000 -1.000000 -15.000000 -4.000000 122.509993 1.677316 943.482821 254.766961 21.144353 0.000000 0.095308
252.000000 45.843000 0.000000 -15.000000 -4.000000 115.576498 -1.231826 998.143276 425.749826 21.807164 0.000000 0.126669
254.000000 52.307000 -3.000000 -14.000000 -4.000000 137.993761 8.636184 811.530478 -267.789716 19.105566 0.000000 0.026444
255.000000 51.790000 -1.000000 -7.000000 -2.000000 131.224257 3.853455 902.503977 -4.166430 9.648945 0.000000 0.045958
256.000000 50.739000 -1.000000 -14.000000 -4.000000 124.044004 0.108243 972.966665 213.825731 19.699963 0.000000 0.087566
257.000000 49.150000 0.000000 -7.000000 -2.000000 116.585720 -2.880333 1029.152334 401.686117 10.169677 0.000000 0.121830
258.000000 47.053000 1.000000 -14.000000 -4.000000 108.967940 -5.308244 1075.001001 569.482377 21.248676 0.000000 0.145530
260.000000 56.260000 -3.000000 -13.000000 -4.000000 140.775080 7.308338 836.964328 -388.295191 17.762590 0.000000 0.028727
261.000000 55.806000 -2.000000 -13.000000 -4.000000 133.496984 2.136955 934.838942 -80.968190 17.908756 0.000000 0.033731
262.000000 54.698000 -1.000000 -13.000000 -4.000000 125.746751 -1.778246 1008.414861 165.898381 18.273452 0.000000 0.077867
263.000000 52.928000 0.000000 -13.000000 -4.000000 117.684348 -4.819170 1065.741603 374.304514 18.887243 0.000000 0.115494
264.000000 50.529000 1.000000 -13.000000 -4.000000 109.451059 -7.236634 1111.666795 557.846476 19.786672 0.000000 0.141698
265.000000 47.582000 2.000000 -13.000000 -4.000000 101.175395 -9.198059 1149.284214 725.598581 21.015802 0.000000 0.155231
267.000000 60.405000 -1.000000 -6.000000 -2.000000 136.049812 -0.032850 975.617080 -175.476388 8.272359 0.000000 0.019387
268.000000 59.253000 -1.000000 -12.000000 -4.000000 127.637393 -4.083642 1051.840878 108.909719 16.868331 0.000000 0.065562
269.000000 54.505000 1.000000 -12.000000 -4.000000 109.930635 -9.483876 1154.798542 545.327846 18.343167 0.000000 0.136386
270.000000 51.055000 1.000000 -6.000000 -2.000000 100.958714 -11.357963 1191.197345 728.431376 9.792998 0.000000 0.151445
271.000000 47.077000 3.000000 -12.000000 -4.000000 92.097605 -12.880568 1221.120142 900.561574 21.244723 0.000000 0.152021
273.000000 65.699000 -2.000000 -11.000000 -4.000000 138.918759 -2.853231 1028.641943 -295.127444 15.210793 0.000000 0.005236
274.000000 64.527000 -1.000000 -11.000000 -4.000000 129.731248 -6.954215 1106.279382 39.821486 15.489096 0.000000 0.049893
275.000000 62.305000 0.000000 -11.000000 -4.000000 120.152338 -9.908504 1163.008037 306.312668 16.044023 0.000000 0.095567
276.000000 59.080000 1.000000 -11.000000 -4.000000 110.382754 -12.127202 1206.272025 531.970416 16.922487 0.000000 0.128930
277.000000 54.996000 2.000000 -11.000000 -4.000000 100.607588 -13.849861 1240.356591 733.393592 18.182646 0.000000 0.146123
278.000000 50.265000 3.000000 -11.000000 -4.000000 90.994157 -15.223807 1267.902966 921.643750 19.897484 0.000000 0.146692
280.000000 70.673000 -1.000000 -10.000000 -4.000000 132.031389 -10.605383 1176.527666 -46.028289 14.141599 0.000000 0.031355
281.000000 68.173000 0.000000 -5.000000 -2.000000 121.497741 -13.309953 1229.622614 263.300635 7.331319 0.000000 0.079564
282.000000 64.375000 1.000000 -10.000000 -4.000000 110.766306 -15.266587 1268.766263 517.949290 15.530426 0.000000 0.118293
283.000000 59.477000 1.000000 -5.000000 -2.000000 100.061396 -16.744682 1298.818863 741.574885 8.406454 0.000000 0.138645
284.000000 53.782000 3.000000 -10.000000 -4.000000 89.587471 -17.899248 1322.617976 949.143609 18.597023 0.000000 0.139719
285.000000 47.646000 2.000000 -5.000000 -2.000000 79.516301 -18.825332 1341.931544 1151.418639 10.497919 0.000000 0.123887
287.000000 77.873000 -1.000000 -9.000000 -4.000000 134.510169 -15.359515 1270.642783 -156.237225 12.833598 0.000000 0.027807
288.000000 75.057000 0.000000 -9.000000 -4.000000 122.863157 -17.529571 1314.965094 211.834061 13.317360 0.000000 0.056704
289.000000 70.531000 1.000000 -9.000000 -4.000000 111.011177 -19.030793 1346.244990 503.707522 14.174916 0.000000 0.102803
290.000000 64.570000 2.000000 -9.000000 -4.000000 99.229445 -20.129720 1369.500944 754.732715 15.486766 0.000000 0.128173
291.000000 57.621000 3.000000 -9.000000 -4.000000 87.772226 -20.968386 1387.469437 985.838878 17.358313 0.000000 0.130921
292.000000 50.195000 4.000000 -9.000000 -4.000000 76.849091 -21.629198 1401.769633 1211.517298 19.930299 0.000000 0.115835
293.000000 86.333000 -1.000000 -8.000000 -4.000000 137.069254 -21.698501 1403.276888 -304.218258 11.575604 0.000000 0.070321
294.000000 77.699000 1.000000 -8.000000 -4.000000 110.998110 -23.582575 1444.831663 490.245016 12.867120 0.000000 0.079757
295.000000 61.730000 3.000000 -8.000000 -4.000000 85.400109 -24.502916 1465.561708 1036.165081 16.203480 0.000000 0.120923
296.000000 52.650000 2.000000 -4.000000 -2.000000 73.534741 -24.806446 1472.464726 1291.437958 9.500936 0.000000 0.111569
297.000000 86.013000 1.000000 -7.000000 -4.000000 110.524863 -29.118477 1574.512395 479.764556 11.623265 0.000000 0.045848
298.000000 76.748000 2.000000 -7.000000 -4.000000 96.088144 -28.808242 1566.899425 809.988211 13.029880 0.000000 0.096107
299.000000 65.953000 3.000000 -7.000000 -4.000000 82.261664 -28.583428 1561.410911 1107.553345 15.166655 0.000000 0.113530
300.000000 54.755000 4.000000 -7.000000 -4.000000 69.376178 -28.413028 1557.266470 1401.539630 18.272435 0.000000 0.120809
301.000000 69.937000 3.000000 -6.000000 -4.000000 78.063061 -33.294690 1681.850407 1213.217913 14.303389 0.000000 0.121988
302.000000 56.062000 2.000000 -3.000000 -2.000000 64.116678 -32.507196 1660.865122 1560.255867 8.923842 0.000000 0.159896
303.000000 90.531000 2.000000 -5.000000 -4.000000 88.994351 -40.862891 1906.095898 965.981478 11.047156 0.000000 0.125359
304.000000 72.966000 3.000000 -5.000000 -4.000000 72.402055 -38.714958 1837.735731 1378.514467 13.710595 0.000000 0.173109
305.000000 55.826000 4.000000 -5.000000 -4.000000 57.435082 -37.143809 1790.289363 1803.340161 17.924285 0.000000 0.247753
306.000000 73.708000 3.000000 -4.000000 -4.000000 64.759747 -44.896546 2047.414552 1657.265033 13.573838 0.000000 0.300536
312.000000 45.834000 -4.000000 -16.000000 -3.000000 134.242992 21.770097 545.164448 -187.724051 21.804744 0.000000 0.058899
313.000000 45.567000 -3.000000 -16.000000 -3.000000 128.976270 16.522021 655.737093 32.667297 21.934153 0.000000 0.036451
315.000000 48.944000 -4.000000 -15.000000 -3.000000 136.534832 22.178158 536.251007 -285.286659 20.418599 0.000000 0.075882
316.000000 48.749000 -1.000000 -5.000000 -1.000000 130.994339 16.357682 659.092975 -33.882732 6.833988 0.000000 0.032839
317.000000 48.115000 -2.000000 -15.000000 -3.000000 124.913635 11.560235 754.846866 174.231645 20.774048 0.000000 0.068498
318.000000 47.024000 -1.000000 -15.000000 -3.000000 118.424627 7.590006 831.582758 353.302795 21.258120 0.000000 0.108926
319.000000 45.483000 0.000000 -5.000000 -1.000000 111.647418 4.279797 894.454665 512.639766 7.327147 0.000000 0.139061
322.000000 52.360000 -3.000000 -14.000000 -3.000000 133.273661 16.156051 663.202675 -113.978497 19.087211 0.000000 0.034242
323.000000 51.746000 -2.000000 -14.000000 -3.000000 126.792016 10.891173 767.910340 121.298306 19.315702 0.000000 0.060264
324.000000 50.575000 -1.000000 -14.000000 -3.000000 119.831344 6.625097 849.990716 319.669261 19.765124 0.000000 0.103995
325.000000 48.850000 0.000000 -14.000000 -3.000000 112.539280 3.134329 916.063200 493.650397 20.465676 0.000000 0.136981
326.000000 46.608000 1.000000 -14.000000 -3.000000 105.049476 0.245160 970.394671 651.608800 21.453319 0.000000 0.157364
328.000000 56.484000 -3.000000 -13.000000 -3.000000 135.866158 15.902816 668.352318 -212.484006 17.692955 0.000000 0.041911
329.000000 55.920000 -2.000000 -13.000000 -3.000000 128.929052 10.071496 783.835177 58.032294 17.873431 0.000000 0.050796
330.000000 54.669000 -1.000000 -13.000000 -3.000000 121.424090 5.468968 871.952950 280.398802 18.284517 0.000000 0.097869
331.000000 52.729000 0.000000 -13.000000 -3.000000 113.535265 1.787984 941.402021 471.997684 18.959848 0.000000 0.134197
332.000000 50.145000 1.000000 -13.000000 -3.000000 105.426617 -1.200092 997.546877 643.935998 19.939930 0.000000 0.156454
333.000000 47.008000 2.000000 -13.000000 -3.000000 97.245566 -3.661591 1043.876337 803.882806 21.273997 0.000000 0.164489
335.000000 60.755000 -2.000000 -12.000000 -3.000000 131.378545 9.044377 803.677104 -19.102044 16.450375 0.000000 0.040177
336.000000 59.431000 -1.000000 -12.000000 -3.000000 123.238729 4.059821 898.608872 233.878837 16.818838 0.000000 0.090142
337.000000 57.238000 0.000000 -4.000000 -1.000000 114.651009 0.184812 971.528322 447.071925 5.822033 0.000000 0.130418
338.000000 54.229000 1.000000 -12.000000 -3.000000 105.818909 -2.887972 1029.296202 635.667948 18.438139 0.000000 0.154957
339.000000 50.529000 2.000000 -12.000000 -3.000000 96.923638 -5.371016 1076.190467 809.727152 19.791635 0.000000 0.163266
340.000000 46.313000 1.000000 -4.000000 -1.000000 88.123901 -7.412088 1115.017132 976.551969 7.199090 0.000000 0.155801
342.000000 66.403000 -2.000000 -11.000000 -3.000000 134.208415 7.720662 829.084048 -115.535761 15.050549 0.000000 0.029114
343.000000 65.026000 -1.000000 -11.000000 -3.000000 125.318922 2.306823 931.643179 177.788919 15.371372 0.000000 0.080223
344.000000 62.531000 0.000000 -11.000000 -3.000000 115.903282 -1.753015 1007.940460 418.058641 15.987239 0.000000 0.125194
345.000000 58.987000 1.000000 -11.000000 -3.000000 106.216656 -4.881353 1066.918122 626.828797 16.950800 0.000000 0.152579
346.000000 54.565000 2.000000 -11.000000 -3.000000 96.484153 -7.352156 1113.872412 817.659234 18.328029 0.000000 0.161276
347.000000 49.511000 3.000000 -11.000000 -3.000000 86.900987 -9.346133 1152.139911 1000.055356 20.202717 0.000000 0.151783
349.000000 73.057000 -2.000000 -10.000000 -3.000000 137.504020 5.952494 862.779085 -240.102820 13.679169 0.000000 0.020143
350.000000 71.667000 -1.000000 -10.000000 -3.000000 127.716531 0.071526 973.656394 108.648447 13.946443 0.000000 0.067245
351.000000 68.814000 0.000000 -10.000000 -3.000000 117.307956 -4.136285 1052.834884 383.842582 14.527014 0.000000 0.117805
352.000000 64.583000 1.000000 -10.000000 -3.000000 106.600916 -7.264988 1112.208043 617.527126 15.481790 0.000000 0.148856
353.000000 59.216000 2.000000 -10.000000 -3.000000 95.878048 -9.669298 1158.380822 828.595702 16.888561 0.000000 0.158165
354.000000 53.070000 3.000000 -10.000000 -3.000000 85.382228 -11.568508 1195.315049 1029.735201 18.848284 0.000000 0.146299
355.000000 46.545000 4.000000 -10.000000 -3.000000 75.308044 -13.103525 1225.531321 1230.743340 21.494401 0.000000 0.115831
356.000000 80.961000 -2.000000 -9.000000 -3.000000 141.370024 3.476816 909.608156 -408.288267 12.343140 0.000000 0.016734
357.000000 79.639000 -1.000000 -9.000000 -3.000000 130.489295 -2.866140 1028.885048 20.954683 12.549862 0.000000 0.049988
358.000000 71.232000 1.000000 -9.000000 -3.000000 106.935891 -10.154636 1167.776288 608.044626 14.036507 0.000000 0.143027
359.000000 64.601000 2.000000 -9.000000 -3.000000 95.031181 -12.405933 1211.755488 843.980817 15.480882 0.000000 0.153408
360.000000 57.005000 1.000000 -3.000000 -1.000000 83.466742 -14.140434 1246.154044 1068.112669 5.849249 0.000000 0.138921
361.000000 49.030000 4.000000 -9.000000 -3.000000 72.480178 -15.515435 1273.795096 1293.613483 20.406077 0.000000 0.104756
363.000000 89.315000 -1.000000 -8.000000 -3.000000 133.689978 -6.872842 1104.728323 -94.610732 11.189625 0.000000 0.027993
364.000000 85.546000 0.000000 -8.000000 -3.000000 120.594854 -10.964939 1183.526994 292.777712 11.685042 0.000000 0.090830
365.000000 79.210000 1.000000 -8.000000 -3.000000 107.154557 -13.709917 1237.569630 599.022912 12.622700 0.000000 0.133793
366.000000 70.847000 2.000000 -8.000000 -3.000000 93.828984 -15.670694 1276.938762 866.184859 14.116266 0.000000 0.146230
367.000000 61.288000 3.000000 -8.000000 -3.000000 81.009961 -17.138161 1306.896216 1119.188583 16.322008 0.000000 0.129356
368.000000 51.414000 4.000000 -8.000000 -3.000000 68.989138 -18.276307 1330.456617 1376.345700 19.460821 0.000000 0.095289
369.000000 88.859000 1.000000 -7.000000 -3.000000 107.130963 -18.151205 1327.852140 591.878775 11.251906 0.000000 0.118869
370.000000 78.061000 2.000000 -7.000000 -3.000000 92.090452 -19.604049 1358.336868 899.296260 12.812028 0.000000 0.135640
371.000000 65.796000 3.000000 -7.000000 -3.000000 77.801843 -20.655720 1380.747442 1189.650859 15.204379 0.000000 0.118371
372.000000 53.424000 4.000000 -7.000000 -3.000000 64.624454 -21.451730 1397.916504 1489.495778 18.730034 0.000000 0.097618
373.000000 86.249000 2.000000 -6.000000 -3.000000 89.523968 -24.383700 1462.859575 950.818181 11.596203 0.000000 0.121181
374.000000 54.557000 4.000000 -6.000000 -3.000000 59.101910 -25.118056 1479.586759 1652.370838 18.342117 0.000000 0.131689
375.000000 73.745000 3.000000 -5.000000 -3.000000 67.759897 -29.720721 1589.423415 1447.771196 13.567387 0.000000 0.129625
376.000000 53.940000 4.000000 -5.000000 -3.000000 52.047440 -29.360606 1580.486074 1904.178214 18.553516 0.000000 0.217472
377.000000 74.851000 3.000000 -4.000000 -3.000000 59.842512 -35.535016 1743.706113 1709.468871 13.368305 0.000000 0.211662
381.000000 48.560000 -4.000000 -15.000000 -2.000000 131.085434 27.860859 406.072554 -120.469787 20.581571 0.000000 0.076221
382.000000 48.280000 -3.000000 -15.000000 -2.000000 125.826342 22.064894 538.730211 102.593890 20.702334 0.000000 0.029923
383.000000 47.552000 -2.000000 -15.000000 -2.000000 120.001309 17.127450 643.324118 290.730293 21.021656 0.000000 0.074511
384.000000 46.359000 -1.000000 -15.000000 -2.000000 113.737732 12.929736 727.907754 455.381458 21.564936 0.000000 0.116189
386.000000 52.112000 -2.000000 -7.000000 -1.000000 133.287467 28.954784 379.510219 -217.630480 9.589049 0.000000 0.101944
387.000000 51.929000 -3.000000 -14.000000 -2.000000 127.785638 22.472254 529.794816 38.003322 19.247284 0.000000 0.030518
388.000000 51.202000 -1.000000 -7.000000 -1.000000 121.604108 17.031919 645.288063 248.375647 9.761215 0.000000 0.067170
389.000000 49.907000 -1.000000 -14.000000 -2.000000 114.901901 12.478345 736.818052 429.269197 20.031530 0.000000 0.112949
390.000000 48.051000 0.000000 -7.000000 -1.000000 107.830211 8.656404 811.141851 590.824645 10.403947 0.000000 0.144435
391.000000 45.679000 1.000000 -14.000000 -2.000000 100.530262 5.429856 872.694352 740.030812 21.891470 0.000000 0.161488
394.000000 56.122000 -3.000000 -13.000000 -2.000000 130.019821 22.973586 518.725650 -40.609247 17.808624 0.000000 0.040322
395.000000 55.424000 -2.000000 -13.000000 -2.000000 123.441109 16.916361 647.661060 198.059553 18.034731 0.000000 0.058669
396.000000 54.020000 -1.000000 -13.000000 -2.000000 116.235645 11.941552 747.373877 398.832650 18.505651 0.000000 0.108980
397.000000 51.916000 0.000000 -13.000000 -2.000000 108.593828 7.840671 826.787607 575.499043 19.258681 0.000000 0.143756
398.000000 49.165000 1.000000 -13.000000 -2.000000 100.691723 4.434687 891.528193 737.182916 20.339101 0.000000 0.162112
399.000000 45.873000 2.000000 -13.000000 -2.000000 92.689184 1.579679 945.318409 890.427657 21.802426 0.000000 0.164804
401.000000 60.979000 -3.000000 -12.000000 -2.000000 132.588322 23.605535 504.654763 -138.638302 16.389538 0.000000 0.058491
402.000000 60.354000 -1.000000 -6.000000 -1.000000 125.566468 16.773741 650.585757 137.201190 8.280454 0.000000 0.049088
403.000000 58.842000 -1.000000 -12.000000 -2.000000 117.777997 11.292718 760.077439 362.869649 16.988911 0.000000 0.104047
404.000000 56.437000 0.000000 -6.000000 -1.000000 109.467449 6.873277 845.263389 557.798237 8.857795 0.000000 0.142755
405.000000 53.211000 1.000000 -12.000000 -2.000000 100.857949 3.274154 913.428380 734.219960 18.792705 0.000000 0.162647
406.000000 49.306000 1.000000 -6.000000 -1.000000 92.149798 0.308199 969.210472 900.596757 10.142352 0.000000 0.164500
408.000000 66.651000 -3.000000 -11.000000 -2.000000 135.567746 24.426556 486.169628 -264.763966 14.994089 0.000000 0.083894
409.000000 66.174000 -2.000000 -11.000000 -2.000000 128.051936 16.593296 654.279862 61.926368 15.103994 0.000000 0.039291
410.000000 64.561000 -1.000000 -11.000000 -2.000000 119.580513 10.492907 775.658457 319.673707 15.483420 0.000000 0.097815
411.000000 61.791000 0.000000 -11.000000 -2.000000 110.475097 5.708336 867.413396 537.120363 16.180119 0.000000 0.141274
412.000000 57.957000 1.000000 -11.000000 -2.000000 101.023787 1.904547 939.210127 731.209935 17.253833 0.000000 0.163011
413.000000 53.256000 2.000000 -11.000000 -2.000000 91.481670 -1.166828 996.921760 913.155023 18.780307 0.000000 0.163749
414.000000 47.962000 3.000000 -11.000000 -2.000000 82.066694 -3.685264 1044.322871 1091.296700 20.857031 0.000000 0.144594
416.000000 71.440000 -1.000000 -10.000000 -2.000000 121.712411 9.482945 795.219445 266.730895 13.991990 0.000000 0.089799
417.000000 63.593000 1.000000 -10.000000 -2.000000 101.179376 0.265865 970.005719 728.288293 15.724626 0.000000 0.163067
418.000000 57.836000 1.000000 -5.000000 -1.000000 90.639110 -2.896011 1029.447598 928.978541 8.646653 0.000000 0.162322
419.000000 51.356000 3.000000 -10.000000 -2.000000 80.303608 -5.436743 1077.436187 1125.735641 19.479436 0.000000 0.138222
421.000000 81.529000 -2.000000 -9.000000 -2.000000 134.527021 16.037047 665.624300 -160.537915 12.258202 0.000000 0.037336
422.000000 79.846000 -1.000000 -9.000000 -2.000000 124.268145 8.168446 820.508630 200.162259 12.518456 0.000000 0.079286
423.000000 76.079000 0.000000 -9.000000 -2.000000 113.023318 2.489348 928.208451 483.191108 13.140933 0.000000 0.135692
424.000000 70.380000 1.000000 -9.000000 -2.000000 101.306113 -1.726147 1007.435275 725.718067 14.208121 0.000000 0.162579
425.000000 63.185000 2.000000 -9.000000 -2.000000 89.554369 -4.947088 1068.162073 949.402604 15.829618 0.000000 0.159862
426.000000 55.107000 3.000000 -9.000000 -2.000000 78.125836 -7.473542 1116.191227 1169.242865 18.154255 0.000000 0.129440
427.000000 46.781000 4.000000 -9.000000 -2.000000 67.286169 -9.500953 1155.128298 1397.794888 21.389382 0.000000 0.077108
428.000000 90.304000 -1.000000 -8.000000 -2.000000 127.378341 6.389511 854.473772 113.615939 11.068189 0.000000 0.065202
429.000000 78.683000 1.000000 -8.000000 -2.000000 101.368692 -4.192750 1053.901179 724.012250 12.708774 0.000000 0.161123
430.000000 59.187000 3.000000 -8.000000 -2.000000 75.386775 -9.864901 1162.164077 1225.830328 16.903638 0.000000 0.117428
431.000000 48.805000 2.000000 -4.000000 -1.000000 63.485549 -11.789313 1199.640073 1489.530474 10.251777 0.000000 0.063069
432.000000 89.017000 1.000000 -7.000000 -2.000000 101.298650 -7.313018 1113.125045 724.197987 11.233405 0.000000 0.157918
433.000000 76.865000 2.000000 -7.000000 -2.000000 86.184067 -10.417771 1172.882050 1013.991247 13.013167 0.000000 0.149250
434.000000 63.468000 3.000000 -7.000000 -2.000000 71.871115 -12.701255 1217.578173 1302.227182 15.764262 0.000000 0.101792
435.000000 50.340000 4.000000 -7.000000 -2.000000 58.761713 -14.446167 1252.270007 1615.124557 19.879727 0.000000 0.072096
436.000000 67.601000 3.000000 -6.000000 -2.000000 67.256556 -16.100900 1285.674691 1410.603124 14.801574 0.000000 0.086385
437.000000 50.809000 2.000000 -3.000000 -1.000000 52.804979 -17.553614 1315.461864 1797.696338 9.848795 0.000000 0.128125
438.000000 70.745000 3.000000 -5.000000 -2.000000 61.054889 -20.217389 1371.370108 1575.335030 14.144889 0.000000 0.095970
439.000000 49.184000 4.000000 -5.000000 -2.000000 45.194397 -21.213076 1392.749644 2087.715503 20.349854 0.000000 0.241198
440.000000 71.026000 3.000000 -4.000000 -2.000000 52.531745 -25.245031 1482.499245 1853.028493 14.090428 0.000000 0.179979
445.000000 47.767000 -4.000000 -15.000000 -1.000000 125.166654 32.525324 288.655945 41.633488 20.924956 0.000000 0.072141
446.000000 47.390000 -3.000000 -15.000000 -1.000000 120.155770 26.905622 428.831963 239.789769 21.093134 0.000000 0.020897
447.000000 46.560000 -2.000000 -15.000000 -1.000000 114.578486 21.983390 540.511784 410.124053 21.471292 0.000000 0.075854
449.000000 51.282000 -4.000000 -14.000000 -1.000000 126.918393 33.967275 249.924421 -34.026676 19.489954 0.000000 0.100695
450.000000 50.983000 -3.000000 -14.000000 -1.000000 121.703666 27.732095 409.163555 189.894841 19.606061 0.000000 0.017636
451.000000 50.133000 -2.000000 -14.000000 -1.000000 115.809632 22.321486 533.107972 378.312088 19.940510 0.000000 0.068564
452.000000 48.713000 -1.000000 -14.000000 -1.000000 109.380930 17.660824 632.321371 543.652218 20.524209 0.000000 0.115543
453.000000 46.739000 0.000000 -14.000000 -1.000000 102.563784 13.654440 713.534259 694.157447 21.394188 0.000000 0.145043
455.000000 55.299000 -4.000000 -13.000000 -1.000000 128.876209 35.720275 201.026444 -127.785501 18.073679 0.000000 0.137034
456.000000 55.126000 -3.000000 -13.000000 -1.000000 123.462478 28.728557 385.048666 129.772924 18.131989 0.000000 0.029284
457.000000 54.277000 -2.000000 -13.000000 -1.000000 117.221977 22.724555 524.234273 340.741385 18.417558 0.000000 0.059834
458.000000 52.718000 -1.000000 -13.000000 -1.000000 110.335306 17.618815 633.190296 522.480299 18.964798 0.000000 0.112557
459.000000 50.462000 0.000000 -13.000000 -1.000000 102.985990 13.288630 720.800326 685.966420 19.815436 0.000000 0.145218
460.000000 47.576000 1.000000 -13.000000 -1.000000 95.351346 9.609356 792.777668 838.747561 21.020570 0.000000 0.159457
462.000000 59.946000 -3.000000 -12.000000 -1.000000 125.475212 29.952622 354.787295 55.754408 16.673549 0.000000 0.051419
463.000000 59.135000 -2.000000 -12.000000 -1.000000 118.857886 23.213264 513.404718 295.639692 16.904103 0.000000 0.049383
464.000000 57.425000 -1.000000 -12.000000 -1.000000 111.446329 17.568625 634.227924 497.514740 17.409943 0.000000 0.108889
465.000000 54.825000 0.000000 -12.000000 -1.000000 103.475219 12.857948 729.326934 676.463575 18.238440 0.000000 0.145376
466.000000 51.422000 1.000000 -12.000000 -1.000000 95.170683 8.917154 806.126659 842.413222 19.448498 0.000000 0.160412
467.000000 47.373000 2.000000 -12.000000 -1.000000 86.740561 5.601217 869.445346 1002.588366 21.114286 0.000000 0.155772
469.000000 65.608000 -3.000000 -11.000000 -1.000000 127.795621 31.490701 315.686267 -37.894385 15.234139 0.000000 0.082153
470.000000 64.899000 -2.000000 -11.000000 -1.000000 120.773665 23.818050 499.892582 240.401979 15.402324 0.000000 0.037253
471.000000 63.032000 -1.000000 -11.000000 -1.000000 112.755737 17.507604 635.488668 467.617126 15.860750 0.000000 0.104308
472.000000 60.005000 0.000000 -11.000000 -1.000000 104.048638 12.343525 739.473265 665.305945 16.663653 0.000000 0.145502
473.000000 55.935000 1.000000 -11.000000 -1.000000 94.946933 8.103857 821.746711 846.901198 17.879685 0.000000 0.161415
474.000000 51.042000 2.000000 -11.000000 -1.000000 85.718603 4.596694 888.465920 1021.835549 19.597031 0.000000 0.154219
475.000000 45.619000 3.000000 -11.000000 -1.000000 76.593532 1.667846 943.660867 1197.646585 21.930906 0.000000 0.125362
477.000000 72.328000 -3.000000 -10.000000 -1.000000 130.490239 33.478024 263.209888 -160.699879 13.818213 0.000000 0.123944
478.000000 71.832000 -2.000000 -10.000000 -1.000000 123.045558 24.585642 482.560211 171.023177 13.915117 0.000000 0.025949
479.000000 69.819000 -1.000000 -10.000000 -1.000000 114.321414 17.431825 637.053161 431.134090 14.318713 0.000000 0.098477
480.000000 66.255000 0.000000 -10.000000 -1.000000 104.729732 11.718421 751.749279 652.019391 15.091698 0.000000 0.145561
481.000000 61.299000 1.000000 -10.000000 -1.000000 94.664076 7.135077 840.271269 852.506573 16.315115 0.000000 0.162441
482.000000 55.279000 2.000000 -10.000000 -1.000000 84.477884 3.420966 910.661091 1045.240409 18.095581 0.000000 0.151790
483.000000 48.624000 3.000000 -10.000000 -1.000000 74.467362 0.374111 967.972266 1240.149561 20.576243 0.000000 0.115410
485.000000 80.305000 -2.000000 -9.000000 -1.000000 125.778882 25.591576 459.520752 80.984017 12.446427 0.000000 0.028927
486.000000 78.186000 -1.000000 -9.000000 -1.000000 116.225939 17.335197 639.046210 385.563099 12.785904 0.000000 0.090893
487.000000 73.937000 0.000000 -9.000000 -1.000000 105.551446 10.942818 766.904120 635.929130 13.523456 0.000000 0.145494
488.000000 67.775000 1.000000 -9.000000 -1.000000 94.297627 5.962267 862.593501 859.677944 14.756218 0.000000 0.163440
489.000000 60.204000 2.000000 -9.000000 -1.000000 82.943328 2.027487 936.897998 1074.316535 16.615724 0.000000 0.148022
490.000000 51.883000 3.000000 -9.000000 -1.000000 71.877947 -1.131923 996.265798 1293.314532 19.284614 0.000000 0.101594
492.000000 90.846000 -2.000000 -8.000000 -1.000000 129.122024 26.966214 427.399880 -41.153328 11.001761 0.000000 0.055681
493.000000 88.736000 -1.000000 -8.000000 -1.000000 118.591141 17.207744 641.671848 326.913692 11.265281 0.000000 0.080811
494.000000 83.599000 0.000000 -8.000000 -1.000000 106.561322 9.955351 786.084962 616.040731 11.960218 0.000000 0.145192
495.000000 75.737000 1.000000 -8.000000 -1.000000 93.808566 4.514771 890.014616 869.127982 13.205145 0.000000 0.164303
496.000000 65.959000 2.000000 -8.000000 -1.000000 81.002913 0.351809 968.391228 1111.415391 15.166475 0.000000 0.142144
497.000000 55.327000 3.000000 -8.000000 -1.000000 68.667862 -2.904482 1029.607131 1361.865875 18.085280 0.000000 0.082167
498.000000 85.736000 1.000000 -7.000000 -1.000000 93.131488 2.685995 924.506913 882.051981 11.665292 0.000000 0.164812
499.000000 72.691000 2.000000 -7.000000 -1.000000 78.483147 -1.697476 1006.896208 1160.400529 13.762675 0.000000 0.132842
500.000000 58.763000 3.000000 -7.000000 -1.000000 64.606233 -5.016687 1069.479424 1453.883333 17.028933 0.000000 0.055593
502.000000 80.485000 2.000000 -6.000000 -1.000000 75.103553 -4.253466 1055.047946 1228.099054 12.430609 0.000000 0.117806
503.000000 61.730000 3.000000 -6.000000 -1.000000 59.346091 -7.568702 1118.009970 1584.492630 16.211705 0.000000 0.037775
504.000000 89.164000 2.000000 -5.000000 -1.000000 70.388070 -7.515384 1116.990840 1327.826628 11.221675 0.000000 0.093368
505.000000 63.181000 3.000000 -5.000000 -1.000000 52.355263 -10.699720 1178.362471 1785.887221 15.840790 0.000000 0.099001
506.000000 60.810000 3.000000 -4.000000 -1.000000 42.812118 -14.605089 1255.455747 2141.594188 16.459981 0.000000 0.246352
510.000000 46.625000 -2.000000 -6.000000 0.000000 123.065877 42.291534 -4.061767 -6.256266 8.575096 0.000000 0.188630
511.000000 46.563000 -4.000000 -15.000000 0.000000 118.909800 36.374994 182.212238 202.771636 21.468011 0.000000 0.070908
512.000000 46.078000 -1.000000 -5.000000 0.000000 114.112175 31.008087 328.090384 378.956810 7.231849 0.000000 0.014276
514.000000 49.952000 -2.000000 -7.000000 0.000000 120.166380 38.010771 133.780871 147.019801 10.005459 0.000000 0.100629
515.000000 49.521000 -3.000000 -14.000000 0.000000 115.189787 32.110869 299.557327 343.339181 20.187013 0.000000 0.003493
516.000000 48.542000 -1.000000 -7.000000 0.000000 109.559935 26.852310 430.090698 512.380233 10.298039 0.000000 0.067243
517.000000 47.005000 -1.000000 -14.000000 0.000000 103.404842 22.210614 535.539834 663.936463 21.272517 0.000000 0.113254
519.000000 53.825000 -4.000000 -13.000000 0.000000 121.548536 39.953235 73.377829 78.965531 18.570524 0.000000 0.138598
520.000000 53.488000 -3.000000 -13.000000 0.000000 116.400583 33.415378 264.900142 300.900910 18.689196 0.000000 0.021959
521.000000 52.478000 -2.000000 -13.000000 0.000000 110.463599 27.620149 411.844924 487.712917 19.051199 0.000000 0.058239
522.000000 50.769000 -1.000000 -13.000000 0.000000 103.893875 22.546839 528.153146 652.732890 19.695089 0.000000 0.110439
524.000000 58.103000 -1.000000 -4.000000 0.000000 117.767159 34.980724 221.910146 249.377485 5.734788 0.000000 0.047085
525.000000 57.086000 -1.000000 -6.000000 0.000000 111.501493 28.534674 389.776242 458.379195 8.756505 0.000000 0.047034
526.000000 55.182000 -1.000000 -12.000000 0.000000 104.461422 22.943371 519.395093 639.579163 18.119612 0.000000 0.107008
527.000000 52.418000 0.000000 -4.000000 0.000000 96.860829 18.134207 622.501449 804.732213 6.359390 0.000000 0.139899
528.000000 48.894000 1.000000 -12.000000 0.000000 88.916326 14.008757 706.474964 961.983186 20.456560 0.000000 0.149539
530.000000 63.525000 -3.000000 -11.000000 0.000000 119.315410 36.890602 167.171431 185.334074 15.735476 0.000000 0.080064
531.000000 62.549000 -2.000000 -11.000000 0.000000 112.704352 29.641725 362.542574 422.875977 15.983117 0.000000 0.032788
532.000000 60.428000 -1.000000 -11.000000 0.000000 105.127874 23.417986 508.844698 623.913251 16.546587 0.000000 0.102748
533.000000 52.954000 1.000000 -11.000000 0.000000 88.184268 13.664069 713.342698 976.113532 18.888376 0.000000 0.149350
534.000000 47.978000 2.000000 -11.000000 0.000000 79.362176 9.876482 787.611787 1146.199588 20.851109 0.000000 0.134053
535.000000 69.966000 -3.000000 -10.000000 0.000000 121.073198 39.266761 95.105526 103.271458 14.286457 0.000000 0.124830
536.000000 66.761000 -1.000000 -10.000000 0.000000 105.921267 23.996174 495.889037 604.932074 14.976698 0.000000 0.097339
537.000000 57.734000 1.000000 -10.000000 0.000000 87.304504 13.256683 721.433836 993.059197 17.324864 0.000000 0.148899
538.000000 51.611000 1.000000 -5.000000 0.000000 77.601235 9.190118 800.868866 1180.691035 9.692103 0.000000 0.128186
539.000000 77.148000 -2.000000 -9.000000 0.000000 115.777206 32.734674 283.111204 323.093525 12.957758 0.000000 0.011656
540.000000 74.554000 -1.000000 -9.000000 0.000000 106.881172 24.715824 479.599764 581.445268 13.410915 0.000000 0.090276
541.000000 63.437000 1.000000 -9.000000 0.000000 86.227663 12.767836 731.107245 1013.764673 15.767716 0.000000 0.148015
542.000000 55.737000 2.000000 -9.000000 0.000000 75.456099 8.380515 816.440682 1223.242430 17.949868 0.000000 0.119779
543.000000 47.458000 1.000000 -3.000000 0.000000 64.937597 4.766319 885.258170 1446.058668 7.028484 0.000000 0.057879
545.000000 84.368000 -1.000000 -8.000000 0.000000 108.065152 25.635749 458.500252 551.606378 11.850648 0.000000 0.080729
546.000000 70.346000 1.000000 -8.000000 0.000000 84.879817 12.170478 742.877358 1039.656212 14.219558 0.000000 0.146403
547.000000 60.407000 1.000000 -4.000000 0.000000 72.789722 7.411638 834.991465 1277.189177 8.281506 0.000000 0.107378
548.000000 49.878000 3.000000 -8.000000 0.000000 61.120018 3.575302 907.751084 1535.813503 20.063709 0.000000 0.026958
549.000000 78.860000 1.000000 -7.000000 0.000000 83.145224 11.424157 757.508721 1072.999226 12.684687 0.000000 0.143511
550.000000 65.615000 2.000000 -7.000000 0.000000 69.393726 6.232121 857.466470 1348.092750 15.249304 0.000000 0.088387
551.000000 51.916000 3.000000 -7.000000 0.000000 56.341768 2.157340 934.455462 1658.174346 19.277430 0.000000 0.024693
552.000000 89.553000 1.000000 -6.000000 0.000000 80.832373 10.465597 776.189026 1117.636100 11.170660 0.000000 0.138239
553.000000 52.925000 1.000000 -2.000000 0.000000 50.226515 0.443099 966.676273 1836.917861 6.303758 0.000000 0.098569
554.000000 76.461000 2.000000 -5.000000 0.000000 58.870927 2.898464 920.506220 1591.839921 13.088564 0.000000 0.010462
555.000000 51.566000 3.000000 -5.000000 0.000000 42.202941 -1.666814 1006.319733 2128.367194 19.411321 0.000000 0.224923
559.000000 48.142000 -4.000000 -14.000000 1.000000 113.170829 41.310853 29.091108 327.729009 20.765556 0.000000 0.109558
560.000000 47.569000 -3.000000 -14.000000 1.000000 108.390830 35.772723 199.530741 499.947950 21.017456 0.000000 0.030263
561.000000 46.464000 -2.000000 -14.000000 1.000000 103.000170 30.730908 335.157668 651.921131 21.519761 0.000000 0.067668
563.000000 51.758000 -4.000000 -13.000000 1.000000 113.956036 43.327163 -40.212223 283.622201 19.314340 0.000000 0.147846
564.000000 51.241000 -3.000000 -13.000000 1.000000 109.017354 37.258145 156.325319 474.917459 19.510977 0.000000 0.041777
565.000000 50.068000 -2.000000 -13.000000 1.000000 103.348551 31.745883 309.075842 640.680900 19.970346 0.000000 0.060406
566.000000 48.226000 -1.000000 -13.000000 1.000000 97.083909 26.805042 431.205764 791.144905 20.736102 0.000000 0.105575
567.000000 45.748000 0.000000 -13.000000 1.000000 90.376079 22.413642 531.083674 933.357987 21.862136 0.000000 0.129967
569.000000 55.901000 -4.000000 -12.000000 1.000000 114.777521 45.698026 -127.843689 229.692678 17.882564 0.000000 0.198604
570.000000 55.490000 -3.000000 -12.000000 1.000000 109.696121 39.004663 103.289044 445.195675 18.016814 0.000000 0.063298
571.000000 54.261000 -2.000000 -12.000000 1.000000 103.731196 32.934793 277.786510 627.647978 18.427243 0.000000 0.052422
572.000000 52.183000 -1.000000 -12.000000 1.000000 97.043989 27.521928 414.193029 791.038250 19.163536 0.000000 0.102253
573.000000 49.298000 0.000000 -12.000000 1.000000 89.824358 22.746324 523.753548 944.577684 20.288053 0.000000 0.129040
574.000000 45.718000 1.000000 -12.000000 1.000000 82.272030 18.557125 613.683346 1095.066130 21.880151 0.000000 0.132526
576.000000 60.451000 -3.000000 -11.000000 1.000000 110.425263 41.083455 36.635846 409.246971 16.537914 0.000000 0.094958
577.000000 59.191000 -2.000000 -11.000000 1.000000 104.150157 34.345195 239.557111 612.353317 16.892055 0.000000 0.044856
578.000000 56.838000 -1.000000 -11.000000 1.000000 96.985475 28.366665 393.858876 791.128891 17.594087 0.000000 0.098315
579.000000 53.437000 0.000000 -11.000000 1.000000 89.170613 23.134948 515.145453 957.943600 18.717012 0.000000 0.127943
580.000000 49.143000 1.000000 -11.000000 1.000000 80.961969 18.590341 612.988940 1121.625306 20.355793 0.000000 0.130023
582.000000 66.302000 -3.000000 -10.000000 1.000000 111.195432 43.591892 -49.650798 364.738865 15.078247 0.000000 0.139787
583.000000 65.065000 -2.000000 -10.000000 1.000000 104.605146 36.043034 191.790643 594.146840 15.366976 0.000000 0.041740
584.000000 62.389000 -1.000000 -10.000000 1.000000 96.899209 29.376314 369.125421 791.552738 16.028682 0.000000 0.093628
585.000000 58.320000 0.000000 -10.000000 1.000000 88.383862 23.594874 504.893260 974.137342 17.149989 0.000000 0.126632
586.000000 53.080000 1.000000 -10.000000 1.000000 79.395421 18.629219 612.175819 1153.653898 18.846597 0.000000 0.126666
587.000000 47.026000 2.000000 -10.000000 1.000000 70.258279 14.378421 699.086643 1339.743506 21.276595 0.000000 0.097433
588.000000 73.274000 -3.000000 -9.000000 1.000000 111.982209 46.665132 -165.744082 307.913857 13.643287 0.000000 0.204683
589.000000 72.164000 -2.000000 -9.000000 1.000000 105.090419 38.122008 130.409699 572.099307 13.855097 0.000000 0.051258
590.000000 69.115000 -1.000000 -9.000000 1.000000 96.770324 30.603531 338.391805 792.547116 14.468656 0.000000 0.088092
591.000000 64.163000 0.000000 -9.000000 1.000000 87.419268 24.147627 492.476219 994.163663 15.588424 0.000000 0.125054
592.000000 57.632000 1.000000 -9.000000 1.000000 77.489695 18.675341 611.210695 1193.084516 17.358518 0.000000 0.122079
593.000000 50.072000 2.000000 -9.000000 1.000000 67.418108 14.057189 705.508333 1402.437336 19.983495 0.000000 0.084520
595.000000 80.886000 -2.000000 -8.000000 1.000000 105.588044 40.718799 48.626287 544.830815 12.360914 0.000000 0.079606
596.000000 77.424000 -1.000000 -8.000000 1.000000 96.573651 32.125536 299.173237 794.545721 12.916004 0.000000 0.081815
597.000000 71.269000 0.000000 -8.000000 1.000000 86.209495 24.824321 477.127698 1019.567973 14.034541 0.000000 0.123148
598.000000 62.917000 1.000000 -8.000000 1.000000 75.122768 18.730941 610.046552 1242.912014 15.901101 0.000000 0.115701
599.000000 53.253000 2.000000 -8.000000 1.000000 63.919410 13.675990 713.105509 1483.191134 18.790759 0.000000 0.068857
601.000000 91.799000 -2.000000 -7.000000 1.000000 106.052909 44.038382 -65.759565 510.189887 10.891218 0.000000 0.131604
602.000000 87.921000 -1.000000 -7.000000 1.000000 96.264352 34.059858 247.393198 798.389327 11.373847 0.000000 0.075781
603.000000 80.072000 0.000000 -7.000000 1.000000 84.648748 25.671635 457.670634 1052.857181 12.491962 0.000000 0.120880
604.000000 69.045000 1.000000 -7.000000 1.000000 72.107185 18.799274 608.614752 1308.066286 14.490659 0.000000 0.106776
605.000000 56.349000 2.000000 -7.000000 1.000000 59.513311 13.216348 722.233444 1591.888645 17.759665 0.000000 0.057726
606.000000 105.721000 -2.000000 -6.000000 1.000000 106.378022 48.396168 -237.096134 464.594284 9.456795 0.000000 0.221937
607.000000 101.551000 -1.000000 -6.000000 1.000000 95.757416 36.593394 175.865853 805.840293 9.847357 0.000000 0.074167
608.000000 91.209000 0.000000 -6.000000 1.000000 82.561205 26.762844 432.200430 1098.386938 10.967010 0.000000 0.118362
609.000000 76.046000 1.000000 -6.000000 1.000000 68.140565 18.885280 606.810996 1397.348544 13.157575 0.000000 0.094835
610.000000 58.823000 2.000000 -6.000000 1.000000 53.815433 12.651355 733.406622 1747.873438 17.014126 0.000000 0.081165
612.000000 119.822000 -1.000000 -5.000000 1.000000 94.878611 40.038989 70.633086 821.008602 8.345772 0.000000 0.089815
613.000000 105.612000 0.000000 -5.000000 1.000000 79.632969 28.219676 397.420117 1164.456664 9.471804 0.000000 0.116347
614.000000 83.628000 1.000000 -5.000000 1.000000 62.704968 18.996833 604.468706 1528.389993 11.965634 0.000000 0.084000
615.000000 59.407000 2.000000 -5.000000 1.000000 46.208503 11.940264 747.399166 1995.640901 16.848180 0.000000 0.166941
616.000000 145.196000 -1.000000 -4.000000 1.000000 93.233955 44.951477 -99.472812 855.068698 6.887367 0.000000 0.148991
617.000000 124.538000 0.000000 -4.000000 1.000000 75.248343 30.259545 347.083416 1269.101184 8.032880 0.000000 0.118430
618.000000 90.361000 1.000000 -4.000000 1.000000 54.845058 19.147298 601.304383 1743.363148 11.075331 0.000000 0.105822
620.000000 181.363000 -1.000000 -3.000000 1.000000 89.815629 52.371718 -421.170440 946.672706 5.514093 0.000000 0.314078
621.000000 148.848000 0.000000 -3.000000 1.000000 68.035308 33.309665 267.746871 1460.411424 6.721686 0.000000 0.141127
622.000000 90.670000 1.000000 -3.000000 1.000000 42.634226 19.361333 596.793185 2180.136219 11.039007 0.000000 0.241383
623.000000 171.957000 0.000000 -2.000000 1.000000 54.347281 38.325708 124.209596 1925.132161 5.819318 0.000000 0.258399
624.000000 46.132000 -5.000000 -14.000000 2.000000 110.032274 49.558657 -287.794204 336.029421 21.670776 0.000000 0.264914
626.000000 49.160000 -4.000000 -13.000000 2.000000 106.243765 46.061830 -141.945000 489.072673 20.337387 0.000000 0.170329
627.000000 48.459000 -3.000000 -13.000000 2.000000 101.473724 40.439279 57.728728 653.964987 20.633692 0.000000 0.077644
628.000000 47.134000 -2.000000 -13.000000 2.000000 96.043474 35.236077 214.742516 801.490497 21.216395 0.000000 0.073902
630.000000 52.206000 -3.000000 -12.000000 2.000000 101.461746 42.267979 -3.253448 646.102420 19.152603 0.000000 0.099810
631.000000 48.556000 -1.000000 -12.000000 2.000000 89.401721 31.422033 317.458927 954.170448 20.597480 0.000000 0.101537
633.000000 56.523000 -3.000000 -11.000000 2.000000 101.375472 44.400374 -78.999005 637.922020 17.689791 0.000000 0.132214
634.000000 54.990000 -2.000000 -11.000000 2.000000 95.381422 38.175176 128.794733 812.028519 18.185231 0.000000 0.078530
635.000000 52.448000 -1.000000 -11.000000 2.000000 88.597611 32.512595 288.992259 972.246071 19.069361 0.000000 0.100485
636.000000 48.965000 0.000000 -11.000000 2.000000 81.230506 27.435054 416.266366 1128.071680 20.429084 0.000000 0.117185
637.000000 61.530000 -3.000000 -10.000000 2.000000 101.173646 46.911288 -175.607441 629.788932 16.250287 0.000000 0.178646
638.000000 56.975000 -1.000000 -10.000000 2.000000 87.612118 33.793312 254.665707 995.006492 17.554304 0.000000 0.100652
639.000000 47.637000 1.000000 -10.000000 2.000000 71.234356 23.304070 511.383806 1339.163288 21.002557 0.000000 0.108265
640.000000 67.372000 -3.000000 -9.000000 2.000000 100.790929 49.898550 -303.074906 622.534171 14.841152 0.000000 0.246197
641.000000 65.709000 -2.000000 -9.000000 2.000000 94.192512 42.262400 -3.062096 834.393302 15.218814 0.000000 0.111646
642.000000 62.290000 -1.000000 -9.000000 2.000000 86.380161 35.316977 212.462279 1024.445669 16.056947 0.000000 0.103337
643.000000 57.212000 0.000000 -9.000000 2.000000 77.681625 29.147095 374.783022 1210.108312 17.485151 0.000000 0.116381
644.000000 50.824000 1.000000 -9.000000 2.000000 68.483084 23.749241 501.436193 1404.588897 19.686696 0.000000 0.105257
646.000000 68.580000 -1.000000 -8.000000 2.000000 84.803324 37.157042 159.319340 1063.822561 14.584415 0.000000 0.110950
647.000000 54.198000 1.000000 -8.000000 2.000000 65.090160 24.277981 489.532369 1489.316188 18.462142 0.000000 0.105153
649.000000 80.835000 -2.000000 -7.000000 2.000000 91.857265 48.253054 -231.015254 888.584060 12.371280 0.000000 0.210449
650.000000 76.073000 -1.000000 -7.000000 2.000000 82.726889 39.418171 90.350109 1118.808916 13.148254 0.000000 0.127770
651.000000 68.030000 0.000000 -7.000000 2.000000 72.137206 31.617379 312.409241 1348.321485 14.705905 0.000000 0.124946
652.000000 57.564000 1.000000 -7.000000 2.000000 60.811455 24.916135 475.032371 1603.941150 17.383662 0.000000 0.113674
653.000000 46.014000 2.000000 -7.000000 2.000000 49.469481 19.244092 599.265720 1915.697234 21.751080 0.000000 0.152801
654.000000 84.995000 -1.000000 -6.000000 2.000000 79.896429 42.253359 -2.752048 1200.108271 11.768478 0.000000 0.161236
655.000000 60.428000 1.000000 -6.000000 2.000000 55.268769 25.701367 456.982924 1769.051685 16.560770 0.000000 0.142709
657.000000 95.422000 -1.000000 -5.000000 2.000000 75.871557 45.892008 -135.339582 1330.237750 10.483090 0.000000 0.225305
658.000000 80.976000 0.000000 -5.000000 2.000000 62.416941 35.472908 208.054334 1631.416010 12.356513 0.000000 0.177786
659.000000 61.593000 1.000000 -5.000000 2.000000 47.852266 26.690712 433.898962 2031.315965 16.248926 0.000000 0.212860
665.000000 46.126000 -4.000000 -13.000000 3.000000 98.536683 48.313632 -233.585016 698.075199 21.677798 0.000000 0.206759
667.000000 49.288000 -4.000000 -12.000000 3.000000 98.015884 50.577113 -334.235483 702.325591 20.287197 0.000000 0.260863
668.000000 46.792000 -2.000000 -12.000000 3.000000 87.762266 39.659909 82.714715 995.630328 21.373902 0.000000 0.111395
670.000000 51.949000 -3.000000 -11.000000 3.000000 92.375074 47.073251 -182.146758 875.453836 19.250373 0.000000 0.186470
671.000000 50.177000 -2.000000 -11.000000 3.000000 86.627249 41.328017 28.519490 1025.467318 19.932297 0.000000 0.127084
672.000000 47.507000 -1.000000 -11.000000 3.000000 80.198222 36.002128 192.965352 1170.844021 21.055680 0.000000 0.121005
674.000000 55.951000 -3.000000 -10.000000 3.000000 91.267032 49.522997 -286.203397 904.328692 17.873352 0.000000 0.238933
675.000000 54.000000 -2.000000 -10.000000 3.000000 85.225006 43.258366 -37.772825 1064.451199 18.521773 0.000000 0.151024
676.000000 50.890000 -1.000000 -10.000000 3.000000 78.363012 37.443966 150.801448 1220.181494 19.656225 0.000000 0.132047
677.000000 46.735000 0.000000 -10.000000 3.000000 70.900276 32.138790 298.826037 1381.140809 21.407360 0.000000 0.128888
678.000000 58.309000 -2.000000 -9.000000 3.000000 83.462512 45.512456 -120.721412 1117.012719 17.153248 0.000000 0.186835
679.000000 54.647000 -1.000000 -9.000000 3.000000 76.111435 39.127579 99.458801 1284.062118 18.305499 0.000000 0.149898
681.000000 63.131000 -2.000000 -8.000000 3.000000 81.203726 48.170089 -227.505654 1190.725756 15.843435 0.000000 0.240475
682.000000 58.760000 -1.000000 -8.000000 3.000000 73.296705 41.115550 35.574125 1369.693500 17.024954 0.000000 0.178199
683.000000 52.559000 0.000000 -8.000000 3.000000 64.504282 34.688239 230.065332 1565.214669 19.036899 0.000000 0.162240
685.000000 68.420000 -2.000000 -7.000000 3.000000 78.245199 51.335110 -370.123280 1299.476985 14.619270 0.000000 0.322770
686.000000 63.115000 -1.000000 -7.000000 3.000000 69.700969 43.492227 -46.087667 1489.766859 15.850801 0.000000 0.222926
687.000000 55.312000 0.000000 -7.000000 3.000000 60.063561 36.333033 183.427508 1710.386734 18.090168 0.000000 0.197969
688.000000 45.824000 1.000000 -7.000000 3.000000 49.901504 29.963494 354.515217 1987.092382 21.839501 0.000000 0.216154
690.000000 67.376000 -1.000000 -6.000000 3.000000 64.992231 46.372789 -154.146067 1668.664637 14.849336 0.000000 0.294891
699.000000 46.972000 -3.000000 -11.000000 4.000000 83.592968 49.264183 -274.726468 1126.204807 21.293131 0.000000 0.253448
700.000000 49.917000 -3.000000 -10.000000 4.000000 81.679531 51.623437 -384.087079 1194.544092 20.036944 0.000000 0.315907
702.000000 50.532000 -2.000000 -9.000000 4.000000 73.181997 48.115938 -225.221078 1428.281360 19.796374 0.000000 0.277367
703.000000 46.773000 -1.000000 -9.000000 4.000000 66.262024 42.246347 -2.511666 1580.384283 21.390052 0.000000 0.226018
705.000000 48.863000 -1.000000 -8.000000 4.000000 62.430314 44.283155 -74.694003 1725.955588 20.476405 0.000000 0.278036
#UB matrix in q= (UB) B0 G* 
#[[ 0.528624686  0.747605515  0.399843711]
# [-0.387542785 -0.206513759  0.89845554 ]
# [ 0.755226146 -0.630631025  0.180814997]]
#B0 matrix in q= UB (B0) G*
#[[ 0.19670273 -0.          0.03056101]
# [ 0.          0.19187965 -0.        ]
# [ 0.          0.          0.18806537]]
#UBB0 matrix in q= (UB B0) G* i.e. recip. basis vectors are columns in LT frame: astar = UBB0[:,0], bstar = UBB0[:,1], cstar = UBB0[:,2]. (abcstar as columns on xyzlab1, xlab1 = ui, ui = unit vector along incident beam)
#[[ 0.10398192  0.14345029  0.09135206]
# [-0.07623072 -0.03962579  0.15712468]
# [ 0.14855505 -0.12100526  0.05708551]]
#Euler angles phi theta psi (deg)
#[50.162 79.594 24.03 ]
#deviatoric strain in direct crystal frame (10-3 unit)
#[[-1.41  0.46  0.21]
# [ 0.46 -1.    0.76]
# [ 0.21  0.76  2.42]]
#deviatoric strain in sample2 frame (10-3 unit)
#[[-0.32  1.51 -0.96]
# [ 1.51  1.34 -0.76]
# [-0.96 -0.76 -1.03]]
#new lattice parameters
#[ 5.1505     5.2137436  5.3180637 89.9629757 99.2160282 89.9474634]
#CCDLabel
#sCMOS
#DetectorParameters
#[79.0, 975.0, 941.0, 0.0, 0.0]
#pixelsize
#0.0734
#Frame dimensions
#[2018, 2016]
#
