#Strain and Orientation Refinement from experimental file: /home/micha/LaueProjects/DepthEffects/testZrO2_95.cor
#File created at Wed Jun 28 14:24:09 2023 with indexingSpotsSet.py
#Number of indexed spots: 539
#Element
#ZrO2
#grainIndex
#G_0
#Mean Deviation(pixel): 0.115
##spot_index intensity h k l 2theta Chi Xexp Yexp Energy GrainIndex PixDev
0.000000 45.744000 1.000000 -3.000000 -2.000000 105.298140 -26.770628 1517.983013 611.253483 5.465181 0.000000 0.084751
1.000000 46.030000 5.000000 -12.000000 -8.000000 108.708201 -20.897503 1385.943084 550.859325 21.723741 0.000000 0.104891
2.000000 45.874000 3.000000 -6.000000 -4.000000 111.414995 -14.794059 1259.249822 504.406796 10.898268 0.000000 0.120128
3.000000 46.485000 3.000000 -11.000000 -8.000000 97.787942 -29.859293 1592.879567 771.264502 21.514807 0.000000 0.090907
4.000000 47.302000 4.000000 -11.000000 -8.000000 101.877847 -24.118882 1456.875433 692.970755 21.141794 0.000000 0.109292
5.000000 47.568000 5.000000 -11.000000 -8.000000 105.261768 -18.085034 1326.476057 632.068825 21.022764 0.000000 0.127093
6.000000 47.328000 6.000000 -11.000000 -8.000000 107.893479 -11.876102 1201.341971 585.900750 21.128354 0.000000 0.139394
7.000000 46.653000 7.000000 -11.000000 -8.000000 109.770797 -5.633164 1081.160584 552.252421 21.433561 0.000000 0.145328
8.000000 45.623000 8.000000 -11.000000 -8.000000 110.933354 0.498071 965.643565 529.269555 21.916958 0.000000 0.145177
9.000000 46.285000 1.000000 -5.000000 -4.000000 88.994308 -32.874101 1670.596084 963.496157 10.805487 0.000000 0.102451
10.000000 47.827000 3.000000 -10.000000 -8.000000 93.788586 -27.295980 1530.421266 860.797350 20.913033 0.000000 0.111166
11.000000 48.708000 2.000000 -5.000000 -4.000000 97.906829 -21.369174 1396.127265 780.486066 10.266751 0.000000 0.129272
12.000000 48.950000 5.000000 -10.000000 -8.000000 101.264208 -15.196476 1267.351605 718.866880 20.430743 0.000000 0.144927
13.000000 48.617000 3.000000 -5.000000 -4.000000 103.824088 -8.911317 1143.760998 672.921021 10.285039 0.000000 0.154708
14.000000 47.797000 7.000000 -10.000000 -8.000000 105.600168 -2.662378 1025.048466 640.165115 20.922387 0.000000 0.158115
15.000000 46.592000 4.000000 -5.000000 -4.000000 106.650329 3.406660 910.930794 618.543222 10.731521 0.000000 0.155556
16.000000 47.154000 2.000000 -9.000000 -8.000000 84.267436 -30.410677 1606.727731 1066.282783 21.215120 0.000000 0.114670
17.000000 48.880000 3.000000 -9.000000 -8.000000 89.146457 -24.625128 1468.337068 958.639112 20.464307 0.000000 0.125696
18.000000 49.839000 4.000000 -9.000000 -8.000000 93.295405 -18.529309 1335.735347 875.639672 20.069267 0.000000 0.143099
19.000000 50.062000 5.000000 -9.000000 -8.000000 96.632203 -12.243919 1208.566778 812.942602 19.979019 0.000000 0.157070
20.000000 49.630000 6.000000 -9.000000 -8.000000 99.132159 -5.914745 1086.504143 767.059925 20.151877 0.000000 0.164889
21.000000 48.659000 7.000000 -9.000000 -8.000000 100.826574 0.306308 969.245982 735.165549 20.553426 0.000000 0.166302
22.000000 47.275000 8.000000 -9.000000 -8.000000 101.791887 6.282217 856.514108 714.952042 21.155002 0.000000 0.161843
23.000000 45.598000 9.000000 -9.000000 -8.000000 102.133178 11.907024 748.051405 704.522416 21.932541 0.000000 0.152312
24.000000 47.522000 1.000000 -4.000000 -4.000000 78.790046 -27.832626 1543.249085 1182.210724 10.526556 0.000000 0.120592
25.000000 49.469000 3.000000 -8.000000 -8.000000 83.757111 -21.852144 1406.623622 1067.852910 20.223072 0.000000 0.131756
26.000000 50.529000 2.000000 -4.000000 -4.000000 87.945175 -15.609372 1275.696553 981.094950 9.898739 0.000000 0.148640
27.000000 50.745000 5.000000 -8.000000 -8.000000 91.276557 -9.241340 1150.118657 916.700670 19.712227 0.000000 0.161680
28.000000 50.223000 3.000000 -4.000000 -4.000000 93.740198 -2.902440 1029.568677 870.550488 9.958041 0.000000 0.168343
29.000000 49.109000 7.000000 -8.000000 -8.000000 95.385625 3.257058 913.750576 839.368512 20.367600 0.000000 0.168531
30.000000 47.554000 2.000000 -2.000000 -2.000000 96.306889 9.111132 802.391111 820.524982 5.258225 0.000000 0.162927
31.000000 45.704000 9.000000 -8.000000 -8.000000 96.622336 14.570517 695.237677 811.890981 21.884006 0.000000 0.152502
32.000000 47.140000 2.000000 -7.000000 -8.000000 72.446292 -25.142920 1480.156589 1317.098885 21.226105 0.000000 0.117296
33.000000 49.353000 3.000000 -7.000000 -8.000000 77.508895 -18.984759 1345.277616 1193.148997 20.273071 0.000000 0.126075
34.000000 50.552000 4.000000 -7.000000 -8.000000 81.753177 -12.621674 1216.007796 1100.857391 19.790925 0.000000 0.142893
35.000000 50.793000 5.000000 -7.000000 -8.000000 85.106764 -6.204282 1092.004358 1033.685847 19.696181 0.000000 0.156160
36.000000 50.210000 6.000000 -7.000000 -8.000000 87.572625 0.109029 972.951902 986.625336 19.923984 0.000000 0.162895
37.000000 48.981000 7.000000 -7.000000 -8.000000 89.217523 6.174603 858.559721 955.785429 20.423195 0.000000 0.163044
38.000000 47.290000 8.000000 -7.000000 -8.000000 90.150651 11.881129 748.559430 938.108083 21.152938 0.000000 0.157471
39.000000 45.689000 1.000000 -3.000000 -4.000000 65.119408 -22.346751 1417.446730 1480.686692 10.951716 0.000000 0.105697
40.000000 48.225000 3.000000 -6.000000 -8.000000 70.290960 -16.033117 1284.295779 1342.165168 20.750111 0.000000 0.104904
41.000000 49.623000 2.000000 -3.000000 -4.000000 74.620069 -9.580564 1156.666023 1241.242909 10.082202 0.000000 0.121532
42.000000 49.948000 5.000000 -6.000000 -8.000000 78.039119 -3.149415 1034.221028 1169.350371 20.032128 0.000000 0.136794
43.000000 49.365000 3.000000 -3.000000 -4.000000 80.563464 3.103123 916.651148 1120.147247 10.133902 0.000000 0.145599
44.000000 48.086000 7.000000 -6.000000 -8.000000 82.274000 9.044698 803.670915 1088.856519 20.806165 0.000000 0.147661
45.000000 46.324000 4.000000 -3.000000 -4.000000 83.290913 14.581534 695.016720 1071.822320 10.798260 0.000000 0.144079
46.000000 45.721000 3.000000 -5.000000 -8.000000 62.007710 -13.009742 1223.674878 1528.161432 21.889986 0.000000 0.069488
47.000000 47.407000 4.000000 -5.000000 -8.000000 66.463976 -6.502101 1097.668218 1412.825854 21.110125 0.000000 0.078514
48.000000 47.917000 5.000000 -5.000000 -8.000000 70.009497 -0.094004 976.765849 1332.537596 20.884306 0.000000 0.098220
49.000000 47.441000 6.000000 -5.000000 -8.000000 72.667611 6.063867 860.663779 1278.785900 21.093002 0.000000 0.112752
50.000000 46.221000 7.000000 -5.000000 -8.000000 74.527796 11.854503 749.081686 1245.412992 21.648765 0.000000 0.120318
51.000000 45.486000 2.000000 -13.000000 -7.000000 105.664095 -41.973484 1943.198177 535.050363 21.983675 0.000000 0.105307
52.000000 46.582000 3.000000 -13.000000 -7.000000 110.499868 -36.637354 1775.415909 439.513490 21.464655 0.000000 0.042798
53.000000 47.205000 4.000000 -13.000000 -7.000000 114.739565 -30.764505 1615.696787 363.839390 21.180445 0.000000 0.014127
54.000000 47.367000 5.000000 -13.000000 -7.000000 118.280606 -24.410792 1463.473211 305.099273 21.106946 0.000000 0.043961
55.000000 47.105000 6.000000 -13.000000 -7.000000 121.051344 -17.687453 1318.229636 260.830816 21.223248 0.000000 0.067126
56.000000 46.474000 7.000000 -13.000000 -7.000000 123.021589 -10.758009 1179.496734 228.954916 21.511118 0.000000 0.080997
57.000000 45.534000 8.000000 -13.000000 -7.000000 124.207785 -3.819024 1046.846331 207.709035 21.954588 0.000000 0.086642
58.000000 45.722000 1.000000 -12.000000 -7.000000 97.482340 -44.766346 2042.551565 741.897979 21.872908 0.000000 0.150399
59.000000 47.476000 2.000000 -12.000000 -7.000000 102.950101 -39.702680 1868.641771 619.314579 21.063386 0.000000 0.076034
60.000000 48.682000 3.000000 -12.000000 -7.000000 107.881385 -34.083932 1703.265907 521.729167 20.539703 0.000000 0.034184
61.000000 49.329000 4.000000 -12.000000 -7.000000 112.143465 -27.939168 1545.810861 445.226147 20.269161 0.000000 0.048947
62.000000 49.437000 5.000000 -12.000000 -7.000000 115.630962 -21.350411 1395.720881 386.560392 20.223862 0.000000 0.074977
63.000000 49.057000 6.000000 -12.000000 -7.000000 118.279862 -14.457200 1252.491019 343.027979 20.379864 0.000000 0.093245
64.000000 48.259000 7.000000 -12.000000 -7.000000 120.077222 -7.445815 1115.661452 312.364824 20.716503 0.000000 0.102825
65.000000 47.122000 8.000000 -12.000000 -7.000000 121.062683 -0.522350 984.812557 292.666547 21.215847 0.000000 0.104534
66.000000 45.729000 9.000000 -12.000000 -7.000000 121.320279 6.121932 859.560605 282.324654 21.862265 0.000000 0.099360
67.000000 47.486000 1.000000 -11.000000 -7.000000 94.148405 -42.637064 1965.989044 834.885982 21.061970 0.000000 0.125863
68.000000 49.469000 2.000000 -11.000000 -7.000000 99.775143 -37.289651 1794.609326 707.928798 20.215985 0.000000 0.067091
69.000000 50.803000 3.000000 -11.000000 -7.000000 104.797796 -31.385947 1631.610555 607.941481 19.683695 0.000000 0.058738
70.000000 51.473000 4.000000 -11.000000 -7.000000 109.072435 -24.978499 1476.392627 530.482262 19.426239 0.000000 0.081673
71.000000 51.511000 5.000000 -11.000000 -7.000000 112.493653 -18.178083 1328.411396 471.912528 19.410918 0.000000 0.103450
72.000000 50.986000 6.000000 -11.000000 -7.000000 115.009607 -11.151854 1187.172296 429.232838 19.610025 0.000000 0.117226
73.000000 49.991000 7.000000 -11.000000 -7.000000 116.629281 -4.103977 1052.224827 399.956491 19.999923 0.000000 0.122671
74.000000 48.628000 8.000000 -11.000000 -7.000000 117.418610 2.757655 923.157747 382.011107 20.560326 0.000000 0.120566
75.000000 46.997000 9.000000 -11.000000 -7.000000 117.486092 9.256195 799.594892 373.661360 21.273728 0.000000 0.111869
76.000000 46.185000 0.000000 -10.000000 -7.000000 83.979913 -45.434338 2067.737208 1102.750553 21.658520 0.000000 0.197450
77.000000 49.131000 1.000000 -10.000000 -7.000000 90.258270 -40.368440 1889.976432 934.632181 20.358185 0.000000 0.115555
78.000000 51.386000 2.000000 -10.000000 -7.000000 96.044995 -34.729993 1721.095337 802.314986 19.463192 0.000000 0.078833
79.000000 52.868000 3.000000 -10.000000 -7.000000 101.155023 -28.543755 1560.444785 699.399978 18.916204 0.000000 0.087997
80.000000 53.561000 4.000000 -10.000000 -7.000000 105.434115 -21.889453 1407.437408 620.761987 18.670214 0.000000 0.110476
81.000000 53.512000 5.000000 -10.000000 -7.000000 108.780417 -14.907987 1261.540427 562.261752 18.686313 0.000000 0.128344
82.000000 52.816000 6.000000 -10.000000 -7.000000 111.159276 -7.791403 1122.269457 520.531127 18.932023 0.000000 0.138073
83.000000 51.594000 7.000000 -10.000000 -7.000000 112.605997 -0.754986 989.183134 492.810836 19.380019 0.000000 0.139704
84.000000 49.976000 8.000000 -10.000000 -7.000000 113.214858 5.999920 861.878439 476.826544 20.007146 0.000000 0.134079
85.000000 48.086000 9.000000 -10.000000 -7.000000 113.118114 12.317443 739.986630 470.693203 20.793653 0.000000 0.122198
86.000000 46.030000 10.000000 -10.000000 -7.000000 112.462366 18.102075 623.169665 472.840538 21.722590 0.000000 0.105085
87.000000 47.131000 0.000000 -9.000000 -7.000000 79.207265 -43.311013 1989.639078 1222.969692 21.225751 0.000000 0.188164
88.000000 50.523000 1.000000 -9.000000 -7.000000 85.699124 -37.954174 1814.507826 1043.654691 19.799065 0.000000 0.117525
89.000000 53.101000 2.000000 -9.000000 -7.000000 91.646045 -32.021093 1648.094377 904.520490 18.836306 0.000000 0.098092
90.000000 54.758000 3.000000 -9.000000 -7.000000 96.840777 -25.560579 1489.763596 797.875036 18.264992 0.000000 0.113410
91.000000 55.477000 4.000000 -9.000000 -7.000000 101.120258 -18.682568 1338.940585 717.676847 18.026990 0.000000 0.133994
92.000000 55.327000 5.000000 -9.000000 -7.000000 104.390390 -11.557709 1195.103704 659.131684 18.075138 0.000000 0.148464
93.000000 54.434000 6.000000 -9.000000 -7.000000 106.638751 -4.398000 1057.778543 618.400043 18.370770 0.000000 0.154679
94.000000 52.960000 7.000000 -9.000000 -7.000000 107.930447 2.578381 926.532696 592.381775 18.881884 0.000000 0.152966
95.000000 51.066000 8.000000 -9.000000 -7.000000 108.388602 9.184808 800.971214 578.555295 19.581771 0.000000 0.144284
96.000000 48.903000 9.000000 -9.000000 -7.000000 108.167027 15.291410 680.732632 574.856060 20.447958 0.000000 0.129755
97.000000 46.594000 10.000000 -9.000000 -7.000000 107.424300 20.831101 565.485497 579.583682 21.461404 0.000000 0.110619
98.000000 47.541000 0.000000 -8.000000 -7.000000 73.633776 -41.045574 1912.112422 1360.101779 21.044949 0.000000 0.188199
99.000000 51.457000 1.000000 -8.000000 -7.000000 80.336681 -35.389206 1739.577408 1165.799988 19.441945 0.000000 0.125117
100.000000 54.419000 2.000000 -8.000000 -7.000000 86.443459 -29.162690 1575.601094 1017.605704 18.382148 0.000000 0.114566
101.000000 56.287000 3.000000 -8.000000 -7.000000 91.723434 -22.443014 1419.562055 905.961939 17.770781 0.000000 0.131589
102.000000 57.043000 4.000000 -8.000000 -7.000000 96.006690 -15.372127 1270.897603 823.547940 17.533901 0.000000 0.150349
103.000000 56.784000 5.000000 -8.000000 -7.000000 99.211239 -8.147875 1129.097010 764.681866 17.612979 0.000000 0.162166
104.000000 55.682000 6.000000 -8.000000 -7.000000 101.351168 -0.995150 993.695644 724.902845 17.961077 0.000000 0.165601
105.000000 53.941000 7.000000 -8.000000 -7.000000 102.523164 5.873975 864.269884 700.672884 18.540115 0.000000 0.161235
106.000000 51.766000 8.000000 -8.000000 -7.000000 102.877700 12.294776 740.432692 689.160607 19.318876 0.000000 0.150206
107.000000 49.333000 9.000000 -8.000000 -7.000000 102.586358 18.166494 621.829749 688.081954 20.271529 0.000000 0.133867
108.000000 46.783000 10.000000 -8.000000 -7.000000 101.815298 23.449743 508.136067 695.581214 21.376512 0.000000 0.113844
109.000000 47.109000 0.000000 -2.000000 -2.000000 67.109633 -38.631088 1835.150990 1522.722791 6.068747 0.000000 0.195806
110.000000 51.630000 1.000000 -7.000000 -7.000000 74.015393 -32.670239 1665.179439 1307.254095 19.379069 0.000000 0.131628
111.000000 55.049000 2.000000 -7.000000 -7.000000 80.281656 -26.157460 1503.610211 1146.360877 18.174034 0.000000 0.122140
112.000000 57.178000 3.000000 -7.000000 -7.000000 85.653421 -19.201423 1349.835296 1027.626131 17.495824 0.000000 0.139096
113.000000 58.000000 4.000000 -7.000000 -7.000000 89.955945 -11.976088 1203.303966 941.845975 17.246800 0.000000 0.156811
114.000000 57.645000 5.000000 -7.000000 -7.000000 93.122958 -4.701517 1063.516184 882.079192 17.352048 0.000000 0.167118
115.000000 56.341000 6.000000 -7.000000 -7.000000 95.197452 2.393251 930.016902 843.012333 17.753128 0.000000 0.168879
116.000000 51.912000 8.000000 -7.000000 -7.000000 96.625226 15.314841 680.259536 811.385523 19.266933 0.000000 0.150682
117.000000 49.240000 9.000000 -7.000000 -7.000000 96.336567 20.933829 563.274869 813.034121 20.312479 0.000000 0.133881
118.000000 46.486000 10.000000 -7.000000 -7.000000 95.609753 25.954300 451.118471 823.425255 21.515762 0.000000 0.114808
119.000000 50.619000 1.000000 -6.000000 -7.000000 66.563638 -29.796341 1591.308266 1478.643276 19.768926 0.000000 0.134878
120.000000 54.578000 2.000000 -6.000000 -7.000000 72.989804 -23.011578 1432.116524 1298.731835 18.333610 0.000000 0.116103
121.000000 57.042000 3.000000 -6.000000 -7.000000 78.469632 -15.850159 1280.578520 1169.246801 17.540299 0.000000 0.131249
122.000000 57.987000 4.000000 -6.000000 -7.000000 82.824780 -8.515724 1136.155238 1078.005133 17.253165 0.000000 0.149321
123.000000 57.587000 5.000000 -6.000000 -7.000000 86.006116 -1.243205 998.357118 1016.164062 17.372170 0.000000 0.159961
124.000000 56.131000 6.000000 -6.000000 -7.000000 88.084624 5.743906 866.738503 977.175147 17.822010 0.000000 0.161843
125.000000 53.941000 7.000000 -6.000000 -7.000000 89.214300 12.271389 740.892833 956.105331 18.544911 0.000000 0.156074
126.000000 51.309000 8.000000 -6.000000 -7.000000 89.586239 18.232854 620.448448 949.183451 19.495814 0.000000 0.144515
127.000000 48.467000 9.000000 -6.000000 -7.000000 89.390691 23.587199 505.064919 953.489713 20.639055 0.000000 0.129563
128.000000 45.580000 10.000000 -6.000000 -7.000000 88.794267 28.343126 394.429836 966.738395 21.946041 0.000000 0.114509
129.000000 47.867000 1.000000 -5.000000 -7.000000 57.808366 -26.769580 1517.958313 1699.893574 20.908745 0.000000 0.146457
130.000000 52.455000 2.000000 -5.000000 -7.000000 64.396692 -19.735181 1361.114898 1488.934009 19.078541 0.000000 0.096358
131.000000 55.359000 3.000000 -5.000000 -7.000000 70.014770 -12.407533 1211.786989 1341.785635 18.076378 0.000000 0.101588
132.000000 56.539000 4.000000 -5.000000 -7.000000 74.479691 -5.014977 1069.447041 1241.042296 17.698178 0.000000 0.121669
133.000000 56.206000 5.000000 -5.000000 -7.000000 77.756775 2.201977 933.615755 1174.725716 17.801834 0.000000 0.135847
134.000000 54.717000 6.000000 -5.000000 -7.000000 79.939250 9.035053 803.856685 1134.355681 18.285346 0.000000 0.141056
135.000000 52.454000 7.000000 -5.000000 -7.000000 81.199426 15.339003 679.771554 1113.785223 19.073607 0.000000 0.138665
136.000000 49.749000 8.000000 -5.000000 -7.000000 81.736994 21.039574 560.996170 1108.469436 20.110086 0.000000 0.131290
137.000000 46.856000 9.000000 -5.000000 -7.000000 81.741507 26.122836 447.196857 1114.990928 21.351419 0.000000 0.122363
138.000000 48.028000 2.000000 -4.000000 -7.000000 54.360652 -16.342646 1290.600273 1745.160795 20.840530 0.000000 0.100820
139.000000 51.519000 3.000000 -4.000000 -7.000000 60.164278 -8.895471 1143.456033 1565.806097 19.427062 0.000000 0.049565
140.000000 53.116000 4.000000 -4.000000 -7.000000 64.823706 -1.499537 1003.175053 1447.095156 18.841694 0.000000 0.064133
141.000000 53.056000 5.000000 -4.000000 -7.000000 68.309924 5.609508 869.288092 1371.153513 18.861919 0.000000 0.088458
142.000000 51.746000 6.000000 -4.000000 -7.000000 70.726744 12.247248 741.367731 1326.113685 19.338395 0.000000 0.103761
143.000000 49.617000 7.000000 -4.000000 -7.000000 72.252700 18.301242 619.023816 1303.820549 20.167154 0.000000 0.111285
144.000000 47.035000 8.000000 -4.000000 -7.000000 73.086165 23.728575 501.899483 1298.510301 21.273585 0.000000 0.114875
145.000000 47.217000 4.000000 -3.000000 -7.000000 53.835542 2.004252 937.335010 1728.185072 21.199321 0.000000 0.038608
146.000000 47.737000 5.000000 -3.000000 -7.000000 57.670998 8.956453 805.370177 1630.575795 20.966967 0.000000 0.037039
147.000000 46.920000 6.000000 -3.000000 -7.000000 60.475152 15.363932 679.267971 1573.145719 21.330753 0.000000 0.068077
148.000000 45.518000 5.000000 -15.000000 -6.000000 128.589942 -31.888122 1644.624652 -70.546482 21.960491 0.000000 0.090434
149.000000 46.265000 1.000000 -7.000000 -3.000000 113.814422 -47.166052 2135.911584 242.304870 10.805038 0.000000 0.233277
150.000000 47.217000 3.000000 -14.000000 -6.000000 118.876344 -41.725180 1934.792045 145.702770 21.172996 0.000000 0.152614
151.000000 47.722000 2.000000 -7.000000 -3.000000 123.337881 -35.576900 1744.894865 70.495303 10.473926 0.000000 0.092225
152.000000 47.796000 5.000000 -14.000000 -6.000000 127.074932 -28.743083 1565.306237 13.457741 20.914464 0.000000 0.050663
153.000000 47.475000 3.000000 -7.000000 -3.000000 129.988575 -21.326766 1395.208943 -28.116162 10.527567 0.000000 0.030047
154.000000 46.809000 7.000000 -14.000000 -6.000000 132.022003 -13.523882 1233.869924 -56.506732 21.354274 0.000000 0.029797
155.000000 45.855000 4.000000 -7.000000 -3.000000 133.174065 -5.605175 1080.629715 -73.642628 10.899054 0.000000 0.034295
156.000000 47.115000 1.000000 -13.000000 -6.000000 106.183665 -50.000115 2257.682823 455.053438 21.222851 0.000000 0.273503
157.000000 48.677000 2.000000 -13.000000 -6.000000 111.897289 -44.909282 2047.891406 330.165759 20.539928 0.000000 0.174992
158.000000 49.714000 3.000000 -13.000000 -6.000000 117.072641 -39.113249 1850.093949 231.992596 20.110004 0.000000 0.099909
159.000000 50.220000 4.000000 -13.000000 -6.000000 121.558927 -32.598926 1663.290479 156.303276 19.906442 0.000000 0.046065
160.000000 50.218000 5.000000 -13.000000 -6.000000 125.224515 -25.422892 1486.589178 99.589031 19.906221 0.000000 0.021374
161.000000 49.759000 6.000000 -13.000000 -6.000000 127.975723 -17.733950 1319.192147 58.925778 20.089339 0.000000 0.033975
162.000000 48.908000 7.000000 -13.000000 -6.000000 129.775060 -9.772862 1160.383357 31.865844 20.438331 0.000000 0.046686
163.000000 47.741000 8.000000 -13.000000 -6.000000 130.651430 -1.836934 1009.518414 16.351930 20.937887 0.000000 0.051474
164.000000 46.332000 9.000000 -13.000000 -6.000000 130.695696 5.781990 866.015817 10.648296 21.574520 0.000000 0.048977
166.000000 49.482000 1.000000 -12.000000 -6.000000 103.722089 -47.916838 2166.862422 548.865485 20.208660 0.000000 0.215322
167.000000 51.246000 1.000000 -6.000000 -3.000000 109.625683 -42.481257 1960.594485 420.598996 9.755668 0.000000 0.121580
168.000000 52.378000 1.000000 -4.000000 -2.000000 114.907562 -36.315738 1766.071998 320.755324 6.362688 0.000000 0.050981
169.000000 52.874000 2.000000 -6.000000 -3.000000 119.400135 -29.434690 1582.319507 244.648443 9.453902 0.000000 0.005944
170.000000 52.771000 5.000000 -12.000000 -6.000000 122.967479 -21.936614 1408.466664 188.426510 18.944039 0.000000 0.036672
171.000000 52.136000 2.000000 -4.000000 -2.000000 125.527778 -14.019251 1243.734440 148.906195 6.391323 0.000000 0.058199
172.000000 51.060000 7.000000 -12.000000 -6.000000 127.070784 -5.963160 1087.423455 123.443557 19.577892 0.000000 0.068399
173.000000 49.637000 4.000000 -6.000000 -3.000000 127.661508 1.920823 938.904053 109.832629 10.069342 0.000000 0.069033
174.000000 47.964000 3.000000 -4.000000 -2.000000 127.425973 9.359208 797.607823 106.225146 6.947135 0.000000 0.061729
175.000000 46.124000 5.000000 -6.000000 -3.000000 126.524251 16.165006 663.020333 111.066582 10.836473 0.000000 0.048159
177.000000 49.237000 0.000000 -11.000000 -6.000000 94.213271 -50.746934 2292.174528 815.691175 20.312124 0.000000 0.281736
178.000000 51.943000 1.000000 -11.000000 -6.000000 100.821191 -45.671106 2076.807578 646.589978 19.252300 0.000000 0.165050
179.000000 53.947000 2.000000 -11.000000 -6.000000 106.917827 -39.871485 1874.011944 514.451831 18.535431 0.000000 0.076948
180.000000 55.186000 3.000000 -11.000000 -6.000000 112.297373 -33.326951 1682.718129 412.769101 18.117704 0.000000 0.018273
181.000000 55.660000 4.000000 -11.000000 -6.000000 116.775961 -26.087269 1501.974604 336.286280 17.962462 0.000000 0.039761
182.000000 55.422000 5.000000 -11.000000 -6.000000 120.218374 -18.299121 1330.931984 280.729954 18.038803 0.000000 0.068515
183.000000 54.568000 6.000000 -11.000000 -6.000000 122.562973 -10.208960 1168.829676 242.603620 18.320493 0.000000 0.084736
184.000000 53.217000 7.000000 -11.000000 -6.000000 123.835124 -2.127573 1014.984576 219.030210 18.785116 0.000000 0.089842
185.000000 51.495000 8.000000 -11.000000 -6.000000 124.140805 5.636221 868.781440 207.630107 19.413403 0.000000 0.085524
186.000000 49.517000 9.000000 -11.000000 -6.000000 123.641162 12.840859 729.664668 206.425849 20.188701 0.000000 0.073286
187.000000 47.387000 10.000000 -11.000000 -6.000000 122.518843 19.345313 597.131244 213.767089 21.096542 0.000000 0.054461
189.000000 51.295000 0.000000 -5.000000 -3.000000 90.499299 -48.678376 2199.187966 926.794757 9.749371 0.000000 0.237282
190.000000 54.436000 1.000000 -10.000000 -6.000000 97.379216 -43.250906 1987.508652 749.625942 18.371651 0.000000 0.127136
191.000000 56.728000 1.000000 -5.000000 -3.000000 103.670594 -37.070868 1788.135050 612.900947 8.813854 0.000000 0.054223
192.000000 58.089000 3.000000 -10.000000 -6.000000 109.137525 -30.144544 1600.024404 509.100535 17.213387 0.000000 0.047465
193.000000 58.523000 2.000000 -5.000000 -3.000000 113.581676 -22.565076 1422.248535 432.239969 8.542346 0.000000 0.077328
194.000000 58.111000 5.000000 -10.000000 -6.000000 116.875522 -14.531426 1253.978527 377.517063 17.205121 0.000000 0.099347
195.000000 56.986000 3.000000 -5.000000 -3.000000 118.987281 -6.334068 1094.471800 341.050264 8.772068 0.000000 0.109701
196.000000 55.309000 7.000000 -10.000000 -6.000000 119.985881 1.699743 943.061158 319.681407 18.075999 0.000000 0.109499
197.000000 53.238000 4.000000 -5.000000 -3.000000 120.021112 9.279499 799.145457 310.825532 9.389427 0.000000 0.100267
198.000000 50.920000 9.000000 -10.000000 -6.000000 119.286895 16.206184 662.181630 312.355392 19.634033 0.000000 0.083428
199.000000 48.473000 5.000000 -5.000000 -3.000000 117.983399 22.386606 531.677839 322.511826 10.312743 0.000000 0.060244
200.000000 45.990000 11.000000 -10.000000 -6.000000 116.290240 27.814445 407.187573 339.833605 21.739346 0.000000 0.031916
201.000000 48.691000 -1.000000 -9.000000 -6.000000 78.558465 -51.503148 2328.239969 1290.945364 20.545492 0.000000 0.349020
202.000000 53.178000 0.000000 -3.000000 -2.000000 86.107430 -46.445083 2107.002554 1047.282880 6.269918 0.000000 0.206175
203.000000 56.851000 1.000000 -9.000000 -6.000000 93.267735 -40.644789 1898.956167 860.011998 17.592813 0.000000 0.107769
204.000000 59.491000 2.000000 -9.000000 -6.000000 99.754201 -34.072586 1702.955212 717.631578 16.810397 0.000000 0.066959
205.000000 61.366000 4.000000 -9.000000 -6.000000 109.690188 -18.882668 1343.134179 533.931730 16.294377 0.000000 0.110648
206.000000 60.735000 5.000000 -9.000000 -6.000000 112.819451 -10.660513 1177.599783 480.184101 16.463063 0.000000 0.126741
207.000000 59.284000 2.000000 -3.000000 -2.000000 114.694266 -2.428948 1020.654844 445.645375 5.621857 0.000000 0.131594
208.000000 57.225000 7.000000 -9.000000 -6.000000 115.433493 5.485069 871.647720 426.812281 17.472007 0.000000 0.126380
209.000000 54.763000 8.000000 -9.000000 -6.000000 115.230761 12.824341 729.991055 420.853403 18.257369 0.000000 0.112631
210.000000 52.074000 3.000000 -3.000000 -2.000000 114.308023 19.438964 595.154050 425.465821 6.400194 0.000000 0.091878
211.000000 49.294000 10.000000 -9.000000 -6.000000 112.876721 25.281819 466.655810 438.765792 20.283751 0.000000 0.065773
212.000000 46.524000 11.000000 -9.000000 -6.000000 111.115520 30.379493 344.059617 459.204575 21.491592 0.000000 0.037475
213.000000 49.399000 -1.000000 -8.000000 -6.000000 73.005935 -49.450625 2232.981887 1446.972495 20.253148 0.000000 0.328382
214.000000 54.674000 0.000000 -4.000000 -3.000000 80.880274 -44.034211 2015.607980 1181.323415 9.148480 0.000000 0.190111
215.000000 58.994000 1.000000 -8.000000 -6.000000 88.325568 -37.842564 1811.140802 980.841691 16.955444 0.000000 0.108132
216.000000 62.058000 1.000000 -4.000000 -3.000000 95.006514 -30.873149 1618.463976 831.147684 8.058288 0.000000 0.093761
217.000000 63.724000 3.000000 -8.000000 -6.000000 100.619589 -23.212859 1436.586266 721.420464 15.693993 0.000000 0.116529
218.000000 64.022000 2.000000 -4.000000 -3.000000 104.949579 -15.061191 1264.624523 643.399833 7.810022 0.000000 0.138082
219.000000 63.126000 5.000000 -8.000000 -6.000000 107.912515 -6.718578 1101.789337 590.701193 15.840983 0.000000 0.149049
220.000000 61.295000 3.000000 -4.000000 -3.000000 109.566332 1.470385 947.372928 558.335343 8.156787 0.000000 0.149033
221.000000 58.811000 7.000000 -8.000000 -6.000000 110.083196 9.196862 800.738856 542.365682 17.002638 0.000000 0.139405
222.000000 55.927000 4.000000 -4.000000 -3.000000 109.697174 16.248801 661.313257 539.659482 8.939630 0.000000 0.121874
223.000000 52.853000 9.000000 -8.000000 -6.000000 108.651242 22.527575 528.577334 547.704757 18.919458 0.000000 0.098338
224.000000 49.741000 5.000000 -4.000000 -3.000000 107.161098 28.027520 402.060908 564.473641 10.051585 0.000000 0.071514
225.000000 46.699000 11.000000 -8.000000 -6.000000 105.399305 32.801460 281.336853 588.319255 21.413483 0.000000 0.048297
226.000000 49.236000 -1.000000 -7.000000 -6.000000 66.433840 -47.231216 2138.563082 1632.363683 20.322293 0.000000 0.324410
227.000000 55.442000 0.000000 -7.000000 -6.000000 74.624442 -41.433323 1924.994112 1335.766609 18.045559 0.000000 0.187644
228.000000 60.546000 1.000000 -7.000000 -6.000000 82.353350 -34.836216 1724.053391 1117.050676 16.522865 0.000000 0.118466
229.000000 64.131000 2.000000 -7.000000 -6.000000 89.228267 -27.473594 1534.653026 957.340619 15.597697 0.000000 0.116486
230.000000 66.002000 3.000000 -7.000000 -6.000000 94.909629 -19.485373 1355.826596 842.930035 15.154055 0.000000 0.139290
231.000000 66.216000 4.000000 -7.000000 -6.000000 99.182866 -11.128299 1186.712659 763.674483 15.104140 0.000000 0.157274
232.000000 65.024000 5.000000 -7.000000 -6.000000 102.001120 -2.741648 1026.540870 711.942403 15.380275 0.000000 0.164180
233.000000 62.781000 6.000000 -7.000000 -6.000000 103.478544 5.328233 874.620254 681.911340 15.929453 0.000000 0.160265
234.000000 59.849000 7.000000 -7.000000 -6.000000 103.839525 12.807224 730.329238 669.084501 16.709566 0.000000 0.147217
235.000000 56.542000 8.000000 -7.000000 -6.000000 103.351393 19.535803 593.107151 669.951719 17.686742 0.000000 0.127132
236.000000 53.100000 9.000000 -7.000000 -6.000000 102.269314 25.464732 462.446947 681.747285 18.833423 0.000000 0.102677
237.000000 49.688000 10.000000 -7.000000 -6.000000 100.806046 30.623359 337.888936 702.274128 20.126963 0.000000 0.078471
238.000000 46.411000 11.000000 -7.000000 -6.000000 99.123545 35.084045 219.015391 729.774291 21.548575 0.000000 0.064907
240.000000 60.997000 1.000000 -6.000000 -6.000000 75.111763 -31.621014 1637.684920 1277.032296 16.402819 0.000000 0.126670
241.000000 65.224000 1.000000 -3.000000 -3.000000 82.182288 -23.880695 1451.514179 1102.608166 7.669201 0.000000 0.126578
242.000000 67.529000 2.000000 -3.000000 -3.000000 92.192865 -7.117416 1109.391787 899.467124 7.406355 0.000000 0.164641
243.000000 66.049000 5.000000 -6.000000 -6.000000 94.922954 1.232282 951.848157 848.273218 15.143852 0.000000 0.169154
244.000000 60.058000 7.000000 -6.000000 -6.000000 96.614422 16.292934 660.413611 810.972016 16.653643 0.000000 0.148146
245.000000 56.379000 4.000000 -3.000000 -3.000000 96.135385 22.673194 525.367896 815.615042 8.870200 0.000000 0.127637
246.000000 52.633000 3.000000 -2.000000 -2.000000 95.127290 28.247018 396.758415 831.371486 6.334296 0.000000 0.105450
247.000000 48.992000 5.000000 -3.000000 -3.000000 93.793382 33.071480 274.135756 855.840881 10.207663 0.000000 0.088678
248.000000 45.553000 11.000000 -6.000000 -6.000000 92.281741 37.232302 157.091392 887.137270 21.956734 0.000000 0.088110
249.000000 52.471000 0.000000 -5.000000 -6.000000 58.077960 -35.618220 1746.068820 1765.819638 19.073065 0.000000 0.218766
250.000000 59.584000 1.000000 -5.000000 -6.000000 66.329960 -28.196799 1552.026523 1476.314983 16.794698 0.000000 0.127779
251.000000 64.604000 2.000000 -5.000000 -6.000000 73.603108 -20.108056 1369.039383 1278.264855 15.488440 0.000000 0.116397
252.000000 67.152000 3.000000 -5.000000 -6.000000 79.484613 -11.613143 1196.188801 1144.953455 14.899337 0.000000 0.137769
253.000000 67.351000 4.000000 -5.000000 -6.000000 83.777061 -3.066304 1032.655206 1058.527244 14.854423 0.000000 0.154617
254.000000 65.676000 5.000000 -5.000000 -6.000000 86.522862 5.165389 877.705063 1006.664597 15.232217 0.000000 0.159650
255.000000 62.739000 6.000000 -5.000000 -6.000000 87.943334 12.789474 730.679867 980.634149 15.944889 0.000000 0.153950
256.000000 59.096000 7.000000 -5.000000 -6.000000 88.340307 19.635994 590.986796 974.111396 16.927368 0.000000 0.140538
257.000000 55.174000 8.000000 -5.000000 -6.000000 88.012695 25.653466 458.090714 982.430076 18.130414 0.000000 0.123574
258.000000 51.256000 9.000000 -5.000000 -6.000000 87.210804 30.874275 331.507327 1002.093348 19.516082 0.000000 0.109149
259.000000 47.511000 10.000000 -5.000000 -6.000000 86.123468 35.375947 210.797280 1030.445802 21.054661 0.000000 0.105686
260.000000 46.976000 0.000000 -2.000000 -3.000000 47.274854 -32.388646 1657.737977 2118.179738 10.653601 0.000000 0.284073
261.000000 55.256000 1.000000 -4.000000 -6.000000 55.736051 -24.569339 1467.069479 1747.200674 18.113328 0.000000 0.142848
262.000000 61.248000 1.000000 -2.000000 -3.000000 63.228232 -16.176842 1287.220713 1506.395940 8.170080 0.000000 0.082873
263.000000 64.414000 3.000000 -4.000000 -6.000000 69.300098 -7.531357 1117.296119 1351.234590 15.535790 0.000000 0.095686
264.000000 64.886000 2.000000 -2.000000 -3.000000 73.759398 0.984934 956.496320 1254.565974 7.710800 0.000000 0.118425
265.000000 63.262000 5.000000 -4.000000 -6.000000 76.681651 9.022131 804.105543 1198.980944 15.816460 0.000000 0.129805
266.000000 60.282000 3.000000 -2.000000 -3.000000 78.319821 16.338664 659.480973 1172.865285 8.298763 0.000000 0.130394
267.000000 56.594000 7.000000 -4.000000 -6.000000 78.988765 22.823696 522.043683 1168.220152 17.678535 0.000000 0.124722
268.000000 52.665000 4.000000 -2.000000 -3.000000 78.982280 28.473228 391.270893 1179.391744 9.498568 0.000000 0.118984
269.000000 48.786000 9.000000 -4.000000 -6.000000 78.535943 33.348967 266.689325 1202.297277 20.507138 0.000000 0.120430
270.000000 46.804000 1.000000 -3.000000 -6.000000 43.126384 -20.751573 1382.805209 2169.810557 21.387580 0.000000 0.247530
271.000000 53.958000 2.000000 -3.000000 -6.000000 50.866134 -12.115923 1206.050371 1836.689000 18.551304 0.000000 0.108677
272.000000 58.084000 1.000000 -1.000000 -2.000000 57.241031 -3.403593 1039.011399 1634.757662 5.744051 0.000000 0.021707
273.000000 59.257000 4.000000 -3.000000 -6.000000 62.045420 4.996187 880.908629 1514.360348 16.889852 0.000000 0.044691
274.000000 58.139000 5.000000 -3.000000 -6.000000 65.360229 12.771056 731.043643 1447.192601 17.213437 0.000000 0.077903
275.000000 55.561000 2.000000 -1.000000 -2.000000 67.441054 19.739715 588.788956 1416.027744 6.003757 0.000000 0.097991
276.000000 52.230000 7.000000 -3.000000 -6.000000 68.593473 25.848299 453.579235 1409.843634 19.158812 0.000000 0.112589
277.000000 48.642000 8.000000 -3.000000 -6.000000 69.093835 31.132541 324.903786 1421.306326 20.571622 0.000000 0.128701
278.000000 47.295000 3.000000 -2.000000 -6.000000 43.331735 0.727800 961.327639 2081.961084 21.166713 0.000000 0.180358
279.000000 49.790000 2.000000 -1.000000 -3.000000 48.698617 8.929671 805.885731 1898.195245 10.052395 0.000000 0.109915
280.000000 49.841000 5.000000 -2.000000 -6.000000 52.653965 16.386080 658.513492 1797.054724 20.083016 0.000000 0.098303
281.000000 48.280000 3.000000 -1.000000 -3.000000 55.420259 22.979327 518.598425 1746.873623 10.365327 0.000000 0.118796
282.000000 45.837000 7.000000 -2.000000 -6.000000 57.272273 28.706455 385.588485 1729.633751 21.834444 0.000000 0.147324
288.000000 46.459000 7.000000 -15.000000 -5.000000 140.302505 -17.154510 1307.232561 -415.881873 21.512602 0.000000 0.064941
289.000000 45.536000 8.000000 -15.000000 -5.000000 141.514573 -7.979226 1125.865381 -426.028920 21.948185 0.000000 0.027764
294.000000 50.060000 5.000000 -14.000000 -5.000000 133.869510 -30.582845 1611.083769 -260.818151 19.966522 0.000000 0.119104
295.000000 49.574000 6.000000 -14.000000 -5.000000 136.833657 -21.998120 1409.810025 -296.588229 20.161459 0.000000 0.072442
296.000000 48.730000 7.000000 -14.000000 -5.000000 138.745742 -12.857193 1220.658130 -317.651703 20.510404 0.000000 0.037153
297.000000 47.593000 8.000000 -14.000000 -5.000000 139.604882 -3.592064 1042.565025 -326.349637 21.000069 0.000000 0.009524
298.000000 46.232000 9.000000 -14.000000 -5.000000 139.499821 5.329913 874.588427 -324.642909 21.618652 0.000000 0.016820
301.000000 52.695000 3.000000 -13.000000 -5.000000 123.871504 -42.273555 1953.444757 -35.378329 18.970455 0.000000 0.197501
302.000000 53.061000 4.000000 -13.000000 -5.000000 128.655022 -34.997370 1728.555729 -109.916374 18.838571 0.000000 0.125754
303.000000 52.877000 5.000000 -13.000000 -5.000000 132.475750 -26.771957 1518.014323 -162.715550 18.903391 0.000000 0.074898
304.000000 52.206000 6.000000 -13.000000 -5.000000 135.202304 -17.796605 1320.489944 -197.396885 19.145734 0.000000 0.040875
305.000000 51.128000 7.000000 -13.000000 -5.000000 136.781446 -8.445752 1134.811596 -216.951032 19.548832 0.000000 0.020539
306.000000 49.731000 8.000000 -13.000000 -5.000000 137.260215 0.801409 959.944650 -223.859077 20.097967 0.000000 0.015238
307.000000 48.099000 9.000000 -13.000000 -5.000000 136.778537 9.495782 794.971554 -220.187825 20.780161 0.000000 0.025269
308.000000 46.308000 10.000000 -13.000000 -5.000000 135.532783 17.333765 639.075727 -207.665465 21.583933 0.000000 0.042947
311.000000 54.917000 2.000000 -12.000000 -5.000000 116.563087 -45.984140 2088.918143 166.595105 18.204767 0.000000 0.221792
312.000000 55.941000 3.000000 -12.000000 -5.000000 122.256528 -39.202358 1852.877958 64.439971 17.870296 0.000000 0.134382
313.000000 56.254000 4.000000 -12.000000 -5.000000 127.026225 -31.413521 1632.321498 -10.244514 17.769783 0.000000 0.073748
314.000000 55.911000 5.000000 -12.000000 -5.000000 130.688002 -22.724912 1425.773600 -62.249068 17.877940 0.000000 0.038013
315.000000 55.002000 6.000000 -12.000000 -5.000000 133.127619 -13.426759 1231.940720 -95.481548 18.172997 0.000000 0.027520
316.000000 53.634000 7.000000 -12.000000 -5.000000 134.335596 -3.969379 1049.683819 -113.146534 18.636111 0.000000 0.029204
317.000000 51.921000 8.000000 -12.000000 -5.000000 134.416972 5.150028 877.995963 -117.884615 19.250889 0.000000 0.029624
318.000000 49.970000 9.000000 -12.000000 -5.000000 133.564096 13.531247 715.983712 -111.881286 20.003004 0.000000 0.030505
319.000000 47.872000 10.000000 -12.000000 -5.000000 132.006298 20.953484 562.851567 -96.952679 20.879877 0.000000 0.040185
320.000000 45.705000 11.000000 -12.000000 -5.000000 129.963382 27.366973 417.888908 -74.613538 21.870420 0.000000 0.061306
323.000000 56.400000 1.000000 -11.000000 -5.000000 107.800463 -49.447057 2232.823310 409.477030 17.728361 0.000000 0.263898
324.000000 58.382000 2.000000 -11.000000 -5.000000 114.439248 -43.170567 1984.667650 270.350802 17.125026 0.000000 0.153246
325.000000 59.479000 3.000000 -11.000000 -5.000000 120.238945 -35.870498 1753.262850 166.762859 16.807917 0.000000 0.074642
326.000000 59.708000 4.000000 -11.000000 -5.000000 124.957550 -27.570525 1536.968226 92.166371 16.742337 0.000000 0.028133
327.000000 59.152000 5.000000 -11.000000 -5.000000 128.410692 -18.463011 1334.350581 41.303689 16.898982 0.000000 0.030543
328.000000 57.937000 6.000000 -11.000000 -5.000000 130.516699 -8.931653 1144.152417 9.925221 17.252926 0.000000 0.044266
329.000000 56.210000 7.000000 -11.000000 -5.000000 131.325158 0.518179 965.265809 -5.423997 17.782840 0.000000 0.048038
330.000000 54.118000 8.000000 -11.000000 -5.000000 131.006274 9.405691 796.710806 -7.567880 18.470361 0.000000 0.042699
331.000000 51.794000 9.000000 -11.000000 -5.000000 129.801982 17.404476 637.617476 1.174260 19.299594 0.000000 0.033227
332.000000 49.347000 10.000000 -11.000000 -5.000000 127.966500 24.380588 487.210888 18.889167 20.256714 0.000000 0.033137
333.000000 46.866000 11.000000 -11.000000 -5.000000 125.723855 30.350211 344.798484 43.992260 21.329635 0.000000 0.053499
335.000000 59.860000 1.000000 -10.000000 -5.000000 104.943984 -46.886708 2124.618442 520.680230 16.704671 0.000000 0.194526
336.000000 62.131000 2.000000 -10.000000 -5.000000 111.822876 -40.103403 1881.433193 377.534129 16.092493 0.000000 0.090773
337.000000 63.301000 3.000000 -10.000000 -5.000000 117.707496 -32.268839 1654.585989 272.505860 15.793779 0.000000 0.018582
338.000000 63.404000 4.000000 -10.000000 -5.000000 122.332905 -23.477513 1442.483870 198.241394 15.767179 0.000000 0.030864
339.000000 60.960000 6.000000 -10.000000 -5.000000 127.261810 -4.362897 1057.115270 119.837082 16.398340 0.000000 0.069237
340.000000 58.792000 7.000000 -10.000000 -5.000000 127.657918 4.962368 881.548726 107.282252 17.002928 0.000000 0.066975
341.000000 56.250000 8.000000 -10.000000 -5.000000 126.954114 13.526344 716.081152 108.205018 17.771368 0.000000 0.054213
342.000000 53.498000 9.000000 -10.000000 -5.000000 125.434947 21.091987 559.865538 120.134184 18.685941 0.000000 0.034501
343.000000 50.665000 4.000000 -4.000000 -2.000000 123.369771 27.607522 412.147015 141.048912 7.892557 0.000000 0.021882
344.000000 47.846000 11.000000 -10.000000 -5.000000 120.979080 33.141893 272.250661 169.289399 20.894523 0.000000 0.045217
347.000000 59.587000 0.000000 -9.000000 -5.000000 93.518249 -50.345785 2273.512623 837.305297 16.784405 0.000000 0.271916
348.000000 63.497000 1.000000 -9.000000 -5.000000 101.455864 -44.086241 2017.500638 637.347939 15.748885 0.000000 0.136792
349.000000 66.121000 2.000000 -9.000000 -5.000000 108.574243 -36.766843 1779.199991 489.515219 15.122343 0.000000 0.043525
350.000000 67.362000 3.000000 -9.000000 -5.000000 114.518171 -28.395223 1556.834181 382.952446 14.842607 0.000000 0.033770
351.000000 67.281000 4.000000 -9.000000 -5.000000 119.006673 -19.154946 1348.856607 309.259966 14.859497 0.000000 0.070407
352.000000 66.066000 5.000000 -9.000000 -5.000000 121.899936 -9.438089 1153.914542 261.874416 15.132069 0.000000 0.089912
353.000000 63.975000 6.000000 -9.000000 -5.000000 123.239669 0.222535 970.819677 235.622679 15.626583 0.000000 0.093583
354.000000 61.275000 7.000000 -9.000000 -5.000000 123.232803 9.311725 798.523877 226.395756 16.314987 0.000000 0.084223
355.000000 58.212000 8.000000 -9.000000 -5.000000 122.182104 17.478044 636.099106 230.907224 17.173762 0.000000 0.064280
356.000000 54.982000 9.000000 -9.000000 -5.000000 120.404090 24.578577 482.720702 246.512264 18.183048 0.000000 0.035891
357.000000 51.732000 10.000000 -9.000000 -5.000000 118.172624 30.632644 337.653375 271.070609 19.325954 0.000000 0.006397
358.000000 48.562000 11.000000 -9.000000 -5.000000 115.697448 35.747881 200.239420 302.841744 20.588027 0.000000 0.042027
359.000000 45.536000 12.000000 -9.000000 -5.000000 113.126359 40.062207 69.888745 340.404055 21.956826 0.000000 0.087509
362.000000 62.494000 0.000000 -8.000000 -5.000000 88.831954 -47.805549 2162.218245 973.672799 16.004871 0.000000 0.223090
363.000000 67.179000 1.000000 -8.000000 -5.000000 97.155134 -41.025620 1911.453599 761.905986 14.887001 0.000000 0.100360
364.000000 70.238000 2.000000 -8.000000 -5.000000 104.509468 -33.149514 1677.953546 608.316145 14.237035 0.000000 0.051181
365.000000 71.545000 3.000000 -8.000000 -5.000000 110.485475 -24.257047 1459.994478 499.962482 13.975787 0.000000 0.080413
366.000000 71.209000 4.000000 -8.000000 -5.000000 114.798204 -14.635946 1256.074828 427.045786 14.040985 0.000000 0.107825
367.000000 69.513000 5.000000 -8.000000 -5.000000 117.362515 -4.773647 1064.880439 382.056245 14.382985 0.000000 0.118900
368.000000 66.823000 6.000000 -8.000000 -5.000000 118.311782 4.766423 885.256203 359.177626 14.961722 0.000000 0.115079
369.000000 63.501000 7.000000 -8.000000 -5.000000 117.941344 13.521233 716.182712 353.863309 15.744507 0.000000 0.098945
370.000000 59.853000 8.000000 -8.000000 -5.000000 116.609460 21.235902 556.756895 362.529849 16.704406 0.000000 0.072930
371.000000 56.110000 9.000000 -8.000000 -5.000000 114.651176 27.856559 406.175885 382.332357 17.819025 0.000000 0.039538
372.000000 52.432000 10.000000 -8.000000 -5.000000 112.334175 33.458997 263.723496 410.997746 19.069591 0.000000 0.013665
373.000000 48.918000 11.000000 -8.000000 -5.000000 109.851151 38.176357 128.758831 446.699510 20.440253 0.000000 0.051509
374.000000 45.622000 12.000000 -8.000000 -5.000000 107.330901 42.152324 0.706642 487.962693 21.917530 0.000000 0.100878
377.000000 64.969000 0.000000 -7.000000 -5.000000 83.082902 -45.020682 2052.071561 1125.723129 15.397070 0.000000 0.194744
378.000000 70.635000 1.000000 -7.000000 -5.000000 91.802789 -37.686887 1806.461348 898.192415 14.160236 0.000000 0.095690
379.000000 74.239000 2.000000 -7.000000 -5.000000 99.387901 -29.246996 1577.679643 737.055639 13.471277 0.000000 0.089470
380.000000 75.611000 3.000000 -7.000000 -5.000000 105.373227 -19.873689 1364.054173 626.340414 13.225634 0.000000 0.119673
381.000000 74.937000 4.000000 -7.000000 -5.000000 109.487463 -9.966304 1164.127132 554.293711 13.343763 0.000000 0.139184
382.000000 72.646000 5.000000 -7.000000 -5.000000 111.725598 -0.086339 976.621862 512.132906 13.764075 0.000000 0.142692
383.000000 69.254000 6.000000 -7.000000 -5.000000 112.327112 9.213632 800.415570 493.207137 14.438142 0.000000 0.132112
384.000000 65.236000 7.000000 -7.000000 -5.000000 111.671441 17.554646 634.516819 492.421360 15.327359 0.000000 0.110240
385.000000 60.968000 8.000000 -7.000000 -5.000000 110.157162 24.784001 478.046872 505.832953 16.400575 0.000000 0.080202
386.000000 56.710000 9.000000 -7.000000 -5.000000 108.122821 30.924571 330.224114 530.364163 17.632375 0.000000 0.047788
387.000000 52.625000 10.000000 -7.000000 -5.000000 105.820031 36.093108 190.351002 563.593940 19.001818 0.000000 0.038709
388.000000 48.800000 11.000000 -7.000000 -5.000000 103.419567 40.436988 57.803048 603.605097 20.491497 0.000000 0.074686
391.000000 66.443000 0.000000 -6.000000 -5.000000 75.968456 -41.969268 1943.054910 1302.773329 15.057542 0.000000 0.187217
392.000000 73.349000 1.000000 -6.000000 -5.000000 85.087072 -34.056256 1702.508227 1052.667988 13.638061 0.000000 0.110864
393.000000 77.647000 2.000000 -6.000000 -5.000000 92.899708 -25.064684 1478.364333 880.815189 12.881702 0.000000 0.121268
394.000000 79.104000 3.000000 -6.000000 -5.000000 98.887721 -15.278206 1269.000796 766.526841 12.643384 0.000000 0.148014
395.000000 78.024000 4.000000 -6.000000 -5.000000 102.814927 -5.202739 1073.002321 695.164222 12.817474 0.000000 0.161240
396.000000 75.048000 5.000000 -6.000000 -5.000000 104.778953 4.561635 889.128725 656.151412 13.325228 0.000000 0.158619
397.000000 70.890000 6.000000 -6.000000 -5.000000 105.129393 13.515902 716.288656 641.712356 14.106751 0.000000 0.142716
398.000000 66.158000 7.000000 -6.000000 -5.000000 104.315198 21.385553 553.517927 646.043574 15.115673 0.000000 0.117052
399.000000 61.294000 8.000000 -6.000000 -5.000000 102.755413 28.114532 399.961511 664.758072 16.315537 0.000000 0.086573
400.000000 56.573000 9.000000 -6.000000 -5.000000 100.777088 33.786222 254.858525 694.503065 17.677283 0.000000 0.062712
401.000000 52.149000 10.000000 -6.000000 -5.000000 98.607804 38.543900 117.529612 732.691957 19.177465 0.000000 0.069842
402.000000 48.089000 11.000000 -6.000000 -5.000000 96.393647 42.540245 -12.633686 777.313128 20.796954 0.000000 0.108716
404.000000 74.402000 1.000000 -5.000000 -5.000000 76.614230 -30.126805 1599.578885 1237.129102 13.447422 0.000000 0.122296
405.000000 79.603000 2.000000 -5.000000 -5.000000 84.660472 -20.620591 1379.993938 1048.479660 12.567415 0.000000 0.135142
406.000000 81.224000 3.000000 -5.000000 -5.000000 90.680293 -10.517639 1174.822102 928.001789 12.315417 0.000000 0.159553
407.000000 79.744000 4.000000 -5.000000 -5.000000 94.492072 -0.409333 982.689399 856.441488 12.543135 0.000000 0.169167
408.000000 71.206000 6.000000 -5.000000 -5.000000 96.572614 17.634472 632.866494 810.875057 14.046251 0.000000 0.144398
409.000000 65.852000 7.000000 -5.000000 -5.000000 95.782957 24.997282 473.177896 820.731657 15.188228 0.000000 0.118661
410.000000 60.514000 8.000000 -5.000000 -5.000000 94.355410 31.226463 322.493407 845.138202 16.528161 0.000000 0.094085
411.000000 55.466000 9.000000 -5.000000 -5.000000 92.592827 36.448772 180.072356 880.408360 18.032507 0.000000 0.086480
412.000000 50.837000 4.000000 -2.000000 -2.000000 90.694175 40.821791 45.253142 923.767493 7.869959 0.000000 0.108812
413.000000 46.665000 11.000000 -5.000000 -5.000000 88.781070 44.496902 -82.557046 973.106096 21.434314 0.000000 0.152866
415.000000 61.977000 0.000000 -4.000000 -5.000000 56.066532 -34.989764 1728.342851 1824.916616 16.148104 0.000000 0.226949
416.000000 72.266000 1.000000 -4.000000 -5.000000 65.921889 -25.901630 1497.658272 1475.666016 13.847677 0.000000 0.118622
417.000000 78.670000 2.000000 -4.000000 -5.000000 74.229579 -15.947482 1282.555035 1257.127025 12.719014 0.000000 0.118552
418.000000 80.689000 3.000000 -4.000000 -5.000000 80.374237 -5.651378 1081.506075 1124.430963 12.399630 0.000000 0.144141
419.000000 79.008000 4.000000 -4.000000 -5.000000 84.233946 4.347398 893.177563 1049.995383 12.662573 0.000000 0.155318
420.000000 74.888000 5.000000 -4.000000 -5.000000 86.120556 13.510334 716.399276 1016.063628 13.358500 0.000000 0.150463
421.000000 69.542000 6.000000 -4.000000 -5.000000 86.548871 21.541286 550.140263 1010.781570 14.385113 0.000000 0.134894
422.000000 63.839000 7.000000 -4.000000 -5.000000 86.025299 28.381919 393.488721 1026.001598 15.669986 0.000000 0.116783
423.000000 58.294000 8.000000 -4.000000 -5.000000 84.945709 34.124038 245.635267 1055.989626 17.160405 0.000000 0.108492
424.000000 53.162000 9.000000 -4.000000 -5.000000 83.581298 38.921952 105.858951 1096.631235 18.817087 0.000000 0.122371
425.000000 48.537000 10.000000 -4.000000 -5.000000 82.102875 42.937974 -26.484503 1144.926850 20.610162 0.000000 0.158441
427.000000 64.726000 1.000000 -3.000000 -5.000000 52.551684 -21.397070 1396.731632 1826.351512 15.464131 0.000000 0.144128
428.000000 72.758000 2.000000 -3.000000 -5.000000 61.185667 -11.093537 1186.034457 1544.321901 13.755827 0.000000 0.060578
429.000000 75.707000 3.000000 -3.000000 -5.000000 67.641601 -0.747416 989.040916 1383.740208 13.218773 0.000000 0.083516
430.000000 74.407000 4.000000 -3.000000 -5.000000 71.829723 9.003922 804.456201 1298.656124 13.448645 0.000000 0.108575
431.000000 70.426000 5.000000 -3.000000 -5.000000 74.115394 17.717731 631.143645 1262.528846 14.208016 0.000000 0.117201
432.000000 65.191000 6.000000 -3.000000 -5.000000 75.030854 25.218872 468.101293 1259.089183 15.348293 0.000000 0.117901
433.000000 59.656000 7.000000 -3.000000 -5.000000 75.062398 31.538820 314.442525 1277.901300 16.771728 0.000000 0.122474
434.000000 54.342000 8.000000 -3.000000 -5.000000 74.571553 36.815325 169.379918 1312.029922 18.411384 0.000000 0.140909
435.000000 49.481000 9.000000 -3.000000 -5.000000 73.798442 41.216988 32.211755 1356.735176 20.219880 0.000000 0.175623
437.000000 59.530000 2.000000 -2.000000 -5.000000 45.304133 -6.120874 1090.419281 2012.034082 16.816106 0.000000 0.159404
438.000000 64.366000 3.000000 -2.000000 -5.000000 52.356798 4.123050 897.415040 1773.305817 15.551576 0.000000 0.057385
439.000000 64.566000 4.000000 -2.000000 -5.000000 57.261089 13.504516 716.514889 1652.678102 15.502022 0.000000 0.059849
440.000000 61.806000 5.000000 -2.000000 -5.000000 60.352953 21.703478 546.614801 1600.329558 16.193038 0.000000 0.096603
441.000000 57.618000 6.000000 -2.000000 -5.000000 62.123829 28.659233 386.741054 1589.778933 17.368760 0.000000 0.129761
442.000000 53.007000 7.000000 -2.000000 -5.000000 63.015096 34.472942 236.031556 1605.782188 18.879017 0.000000 0.164602
443.000000 48.506000 8.000000 -2.000000 -5.000000 63.352552 39.310934 93.720294 1639.035167 20.629866 0.000000 0.205664
445.000000 48.940000 4.000000 -1.000000 -5.000000 40.843313 17.804649 629.343384 2248.624158 20.454804 0.000000 0.241244
446.000000 48.785000 5.000000 -1.000000 -5.000000 45.142421 25.449259 462.803492 2127.043084 20.518289 0.000000 0.221134
447.000000 46.771000 6.000000 -1.000000 -5.000000 48.108217 31.862178 306.051157 2077.703098 21.400219 0.000000 0.238292
474.000000 57.534000 3.000000 -6.000000 -2.000000 141.031524 -12.580629 1215.198236 -422.342195 8.685653 0.000000 0.045531
475.000000 55.879000 7.000000 -12.000000 -4.000000 141.796693 -1.153792 996.676771 -426.840950 17.885924 0.000000 0.004191
476.000000 53.885000 4.000000 -6.000000 -2.000000 141.213464 9.582234 793.301703 -417.234960 9.273792 0.000000 0.034976
477.000000 51.672000 9.000000 -12.000000 -4.000000 139.586331 19.040498 603.551013 -396.190444 19.342510 0.000000 0.072416
483.000000 63.430000 4.000000 -11.000000 -4.000000 133.553466 -29.653011 1587.738105 -236.481489 15.758083 0.000000 0.107616
484.000000 62.530000 5.000000 -11.000000 -4.000000 137.023179 -18.697401 1339.251103 -278.479051 15.984320 0.000000 0.054785
485.000000 60.941000 6.000000 -11.000000 -4.000000 138.807719 -7.106006 1109.174108 -298.294329 16.400760 0.000000 0.018360
486.000000 58.837000 7.000000 -11.000000 -4.000000 138.994712 4.222642 895.534250 -300.273648 16.987036 0.000000 0.013997
487.000000 56.387000 8.000000 -11.000000 -4.000000 137.866342 14.501025 696.630829 -287.901626 17.725586 0.000000 0.042118
488.000000 53.734000 9.000000 -11.000000 -4.000000 135.793718 23.321753 510.989946 -263.987023 18.601192 0.000000 0.074640
489.000000 50.995000 10.000000 -11.000000 -4.000000 133.127503 30.645470 337.327912 -230.804711 19.600595 0.000000 0.112483
490.000000 48.260000 11.000000 -11.000000 -4.000000 130.142399 36.639498 174.521527 -190.205040 20.712197 0.000000 0.155676
494.000000 67.337000 1.000000 -5.000000 -2.000000 120.385642 -44.159589 2020.174482 61.304249 7.423065 0.000000 0.208100
495.000000 68.247000 3.000000 -10.000000 -4.000000 126.784644 -35.213502 1734.622009 -43.959971 14.647101 0.000000 0.113621
496.000000 67.959000 2.000000 -5.000000 -2.000000 131.636652 -24.776890 1471.791065 -112.818280 7.354185 0.000000 0.055010
497.000000 66.647000 5.000000 -10.000000 -4.000000 134.685920 -13.282266 1229.073473 -152.818204 14.997411 0.000000 0.026929
498.000000 64.539000 3.000000 -5.000000 -2.000000 135.895264 -1.556483 1004.245534 -169.875746 7.743450 0.000000 0.021702
499.000000 61.875000 7.000000 -10.000000 -4.000000 135.481228 9.473609 795.399694 -168.661549 16.153713 0.000000 0.026153
500.000000 58.872000 4.000000 -5.000000 -2.000000 133.831017 19.166968 600.890291 -152.886889 8.489078 0.000000 0.042110
501.000000 55.707000 9.000000 -10.000000 -4.000000 131.363309 27.308112 419.290103 -125.517763 17.943343 0.000000 0.070890
502.000000 52.515000 5.000000 -5.000000 -2.000000 128.429917 33.988110 249.355267 -88.936726 9.517359 0.000000 0.109514
503.000000 49.390000 11.000000 -10.000000 -4.000000 125.285336 39.429396 89.996748 -45.066341 20.239665 0.000000 0.155484
504.000000 46.395000 6.000000 -5.000000 -2.000000 122.097130 43.872401 -59.743019 4.535851 10.773599 0.000000 0.207031
506.000000 70.159000 1.000000 -9.000000 -4.000000 110.139190 -48.604600 2196.013822 344.097524 14.251199 0.000000 0.251052
507.000000 72.666000 2.000000 -9.000000 -4.000000 118.015129 -40.441953 1892.357970 188.578715 13.757940 0.000000 0.125886
508.000000 73.539000 3.000000 -9.000000 -4.000000 124.446939 -30.686741 1613.719938 82.540287 13.593541 0.000000 0.047981
509.000000 72.905000 4.000000 -9.000000 -4.000000 129.031885 -19.547028 1357.130271 15.078458 13.711023 0.000000 0.027500
510.000000 71.033000 5.000000 -9.000000 -4.000000 131.569028 -7.676519 1120.071571 -22.170767 14.071948 0.000000 0.040577
511.000000 68.255000 6.000000 -9.000000 -4.000000 132.153792 3.965170 900.395622 -35.681443 14.644564 0.000000 0.042229
512.000000 64.897000 7.000000 -9.000000 -4.000000 131.147298 14.519621 696.258112 -30.505185 15.402408 0.000000 0.034206
513.000000 61.238000 8.000000 -9.000000 -4.000000 129.026946 23.542393 506.066723 -10.611966 16.323254 0.000000 0.035294
514.000000 57.489000 9.000000 -9.000000 -4.000000 126.235792 30.994431 328.439521 20.858464 17.388295 0.000000 0.062735
515.000000 53.799000 10.000000 -9.000000 -4.000000 123.110682 37.060484 162.171312 61.409048 18.581509 0.000000 0.105641
516.000000 50.264000 11.000000 -9.000000 -4.000000 119.878170 41.991003 6.206271 109.044136 19.889163 0.000000 0.156844
517.000000 46.938000 12.000000 -9.000000 -4.000000 116.678473 46.021805 -140.384509 162.162043 21.299419 0.000000 0.213559
519.000000 75.661000 1.000000 -8.000000 -4.000000 106.740480 -45.288676 2062.194773 480.848463 13.215734 0.000000 0.165306
520.000000 79.341000 3.000000 -8.000000 -4.000000 121.306093 -25.752746 1494.206313 214.264817 12.600243 0.000000 0.021220
521.000000 75.579000 5.000000 -8.000000 -4.000000 127.478455 -1.980947 1012.226676 115.279710 13.226440 0.000000 0.069807
522.000000 67.747000 7.000000 -8.000000 -4.000000 125.875765 19.299635 598.094805 116.237337 14.755576 0.000000 0.039748
523.000000 58.939000 9.000000 -8.000000 -4.000000 120.350933 34.386206 238.426455 177.328224 16.961850 0.000000 0.054109
524.000000 54.727000 5.000000 -4.000000 -2.000000 117.127249 39.878463 75.765489 222.457882 9.134058 0.000000 0.105331
525.000000 50.780000 11.000000 -8.000000 -4.000000 113.891593 44.342175 -76.859433 274.370507 19.688959 0.000000 0.163541
526.000000 47.137000 3.000000 -2.000000 -1.000000 110.755250 48.000082 -220.349339 331.425641 5.302912 0.000000 0.226300
528.000000 75.417000 0.000000 -7.000000 -4.000000 92.432471 -49.732443 2245.580452 870.263407 13.261525 0.000000 0.258019
529.000000 81.546000 1.000000 -7.000000 -4.000000 102.354833 -41.583934 1930.039225 625.820447 12.262989 0.000000 0.098894
530.000000 84.946000 2.000000 -7.000000 -4.000000 110.793626 -31.759935 1641.289239 460.313656 11.770790 0.000000 0.028924
531.000000 85.526000 3.000000 -7.000000 -4.000000 117.084667 -20.436801 1376.057355 353.625198 11.689906 0.000000 0.073125
532.000000 83.676000 4.000000 -7.000000 -4.000000 120.857855 -8.277501 1131.582752 291.156134 11.947691 0.000000 0.097521
533.000000 80.057000 5.000000 -7.000000 -4.000000 122.186962 3.693570 905.520465 262.153254 12.487655 0.000000 0.097614
534.000000 75.365000 6.000000 -7.000000 -4.000000 121.538663 14.539185 695.865927 258.593331 13.265211 0.000000 0.078551
535.000000 70.184000 7.000000 -7.000000 -4.000000 119.543460 23.773358 500.895366 274.422882 14.244695 0.000000 0.044715
536.000000 64.933000 8.000000 -7.000000 -4.000000 116.774625 31.357662 319.118304 305.030230 15.397240 0.000000 0.001924
537.000000 59.872000 9.000000 -7.000000 -4.000000 113.651592 37.496347 149.239378 346.872626 16.699232 0.000000 0.054342
538.000000 55.146000 10.000000 -7.000000 -4.000000 110.442488 42.460348 -9.872573 397.208887 18.131166 0.000000 0.114632
539.000000 50.817000 11.000000 -7.000000 -4.000000 107.302944 46.500812 -159.209727 453.905070 19.676789 0.000000 0.179764
540.000000 46.897000 12.000000 -7.000000 -4.000000 104.315198 49.822693 -299.645989 515.291481 21.322450 0.000000 0.248408
543.000000 87.464000 1.000000 -6.000000 -4.000000 96.612865 -37.454629 1799.516352 783.818244 11.434549 0.000000 0.078360
544.000000 84.049000 5.000000 -6.000000 -4.000000 115.436136 9.238557 799.934998 422.378462 11.895815 0.000000 0.120477
545.000000 71.854000 7.000000 -6.000000 -4.000000 112.027743 27.920197 404.645668 448.178436 13.915303 0.000000 0.051501
546.000000 65.752000 4.000000 -3.000000 -2.000000 109.163321 34.799570 226.967970 485.503023 7.603656 0.000000 0.025503
547.000000 60.057000 9.000000 -6.000000 -4.000000 106.090614 40.342367 60.866972 533.666601 16.649821 0.000000 0.073513
548.000000 54.880000 5.000000 -3.000000 -2.000000 103.030612 44.825361 -94.753062 589.805343 9.110654 0.000000 0.138579
549.000000 50.242000 11.000000 -6.000000 -4.000000 100.100959 48.484205 -240.853812 651.730046 19.904169 0.000000 0.208992
550.000000 46.120000 6.000000 -3.000000 -2.000000 97.356710 51.504032 -378.282800 717.757564 10.841931 0.000000 0.282610
553.000000 82.765000 0.000000 -5.000000 -4.000000 77.894509 -42.758263 1970.204084 1255.407047 12.087516 0.000000 0.187391
554.000000 86.848000 5.000000 -5.000000 -4.000000 106.947821 14.559794 695.452709 602.132868 11.514254 0.000000 0.135371
555.000000 79.580000 6.000000 -5.000000 -4.000000 105.553481 24.015383 495.456630 613.046071 12.565857 0.000000 0.100764
556.000000 72.278000 7.000000 -5.000000 -4.000000 103.220472 31.736026 309.331857 643.699481 13.835827 0.000000 0.063423
557.000000 65.425000 8.000000 -5.000000 -4.000000 100.476887 37.947837 135.683633 688.606339 15.285563 0.000000 0.061408
558.000000 59.229000 9.000000 -5.000000 -4.000000 97.641069 42.944175 -26.701874 743.745795 16.885057 0.000000 0.111398
559.000000 53.739000 10.000000 -5.000000 -4.000000 94.884988 46.992612 -178.885986 806.140155 18.610625 0.000000 0.179159
560.000000 48.923000 11.000000 -5.000000 -4.000000 92.291429 50.308644 -321.800735 873.565456 20.443331 0.000000 0.253453
563.000000 87.361000 5.000000 -4.000000 -4.000000 96.455983 19.585469 592.056401 811.730035 11.448812 0.000000 0.138397
564.000000 70.865000 7.000000 -4.000000 -4.000000 93.052464 35.229050 214.940351 870.737049 14.114042 0.000000 0.085733
565.000000 57.116000 9.000000 -4.000000 -4.000000 88.309535 45.322469 -113.478071 986.176622 17.512313 0.000000 0.165824
566.000000 51.546000 5.000000 -2.000000 -2.000000 86.027184 48.980430 -262.281178 1054.891189 9.702659 0.000000 0.237139
567.000000 46.745000 11.000000 -4.000000 -4.000000 83.903192 51.989213 -402.059387 1127.684319 21.398790 0.000000 0.314869
569.000000 75.252000 0.000000 -3.000000 -4.000000 52.912079 -34.030738 1701.810078 1922.780571 13.300004 0.000000 0.243043
570.000000 84.134000 5.000000 -3.000000 -4.000000 83.774500 24.269272 489.729228 1069.789602 11.890680 0.000000 0.126943
571.000000 75.252000 6.000000 -3.000000 -4.000000 82.965695 32.130452 299.044460 1097.826077 13.293956 0.000000 0.113204
572.000000 67.005000 7.000000 -3.000000 -4.000000 81.529057 38.415750 121.457826 1145.582821 14.930093 0.000000 0.126824
573.000000 59.742000 8.000000 -3.000000 -4.000000 79.855150 43.443094 -44.335429 1206.249671 16.745174 0.000000 0.172981
574.000000 53.495000 9.000000 -3.000000 -4.000000 78.150675 47.497649 -199.472332 1275.236129 18.700734 0.000000 0.238811
575.000000 48.170000 10.000000 -3.000000 -4.000000 76.515791 50.805978 -344.948298 1349.390404 20.768597 0.000000 0.314650
577.000000 76.097000 1.000000 -2.000000 -4.000000 47.141645 -16.468095 1293.161086 1982.418877 13.154523 0.000000 0.171215
578.000000 88.398000 3.000000 -2.000000 -4.000000 63.875530 8.976346 804.987183 1475.385949 11.321600 0.000000 0.063371
579.000000 75.669000 5.000000 -2.000000 -4.000000 68.910110 28.588944 388.454693 1413.726208 13.224153 0.000000 0.120089
580.000000 67.638000 3.000000 -1.000000 -2.000000 69.159109 35.675558 202.300113 1445.381033 7.396806 0.000000 0.151079
581.000000 60.242000 7.000000 -2.000000 -4.000000 68.771044 41.317456 28.871215 1497.668235 16.609503 0.000000 0.199456
582.000000 53.782000 4.000000 -1.000000 -2.000000 68.083624 45.834032 -133.093780 1562.502174 9.302155 0.000000 0.262897
585.000000 66.441000 3.000000 -1.000000 -4.000000 43.838580 14.604502 694.556023 2099.261744 15.066766 0.000000 0.188538
586.000000 65.532000 4.000000 -1.000000 -4.000000 49.053278 24.535910 483.689551 1967.548787 15.274262 0.000000 0.174774
587.000000 61.205000 5.000000 -1.000000 -4.000000 52.195606 32.541947 288.216637 1931.502660 16.352791 0.000000 0.209329
588.000000 55.830000 6.000000 -1.000000 -4.000000 54.018225 38.900934 106.511015 1945.134636 17.925942 0.000000 0.260630
626.000000 75.299000 5.000000 -9.000000 -3.000000 141.703677 -4.925461 1067.752793 -427.056645 13.272984 0.000000 0.016681
627.000000 67.870000 7.000000 -9.000000 -3.000000 138.870285 21.865073 543.094405 -387.021663 14.726224 0.000000 0.085282
634.000000 86.438000 2.000000 -8.000000 -3.000000 126.021254 -40.982576 1910.033845 -95.659632 11.564573 0.000000 0.191607
635.000000 86.522000 3.000000 -8.000000 -3.000000 132.979926 -28.069222 1548.944841 -195.648813 11.552370 0.000000 0.089089
636.000000 84.476000 4.000000 -8.000000 -3.000000 137.045256 -13.044576 1224.364267 -245.634999 11.831724 0.000000 0.031486
637.000000 80.868000 5.000000 -8.000000 -3.000000 138.074109 2.339853 931.021701 -258.459715 12.359461 0.000000 0.012823
638.000000 76.295000 6.000000 -8.000000 -3.000000 136.601582 16.086682 664.614611 -243.596817 13.100531 0.000000 0.042891
639.000000 71.262000 7.000000 -8.000000 -3.000000 133.515927 27.211114 421.595920 -208.108400 14.026183 0.000000 0.085873
640.000000 66.142000 8.000000 -8.000000 -3.000000 129.616161 35.790786 199.015172 -157.305969 15.112608 0.000000 0.140401
646.000000 86.645000 5.000000 -7.000000 -3.000000 133.112915 9.436140 796.123079 -80.454869 11.536144 0.000000 0.033053
647.000000 80.628000 6.000000 -7.000000 -3.000000 130.718871 22.117761 537.573508 -58.961245 12.397450 0.000000 0.038306
648.000000 74.323000 7.000000 -7.000000 -3.000000 127.030841 32.033411 301.583679 -16.788482 13.449759 0.000000 0.078308
649.000000 68.162000 8.000000 -7.000000 -3.000000 122.819202 39.577477 85.324347 40.419306 14.666106 0.000000 0.138879
650.000000 62.388000 9.000000 -7.000000 -3.000000 118.539915 45.325142 -113.579620 108.450297 16.024377 0.000000 0.210851
655.000000 76.680000 7.000000 -6.000000 -3.000000 119.287560 36.346743 183.030575 191.500150 13.037752 0.000000 0.070133
656.000000 69.418000 8.000000 -6.000000 -3.000000 114.963280 42.953866 -27.041645 256.421553 14.402580 0.000000 0.143548
661.000000 87.079000 6.000000 -5.000000 -3.000000 114.353891 32.538621 288.304545 363.102110 11.481780 0.000000 0.006490
662.000000 77.805000 7.000000 -5.000000 -3.000000 110.167105 40.186042 65.910158 423.562902 12.851137 0.000000 0.078602
663.000000 69.508000 8.000000 -5.000000 -3.000000 105.982334 45.963254 -138.105827 497.531957 14.385952 0.000000 0.165134
664.000000 62.270000 9.000000 -5.000000 -3.000000 102.053002 50.398159 -325.931167 580.478097 16.059008 0.000000 0.258348
670.000000 87.581000 6.000000 -4.000000 -3.000000 103.494151 36.929916 166.016279 617.896992 11.418023 0.000000 0.048341
671.000000 77.014000 7.000000 -4.000000 -3.000000 99.585226 43.596153 -49.803384 690.031301 12.985295 0.000000 0.118146
672.000000 67.970000 8.000000 -4.000000 -3.000000 95.847109 48.648250 -247.890692 774.171687 14.713842 0.000000 0.212012
678.000000 73.557000 7.000000 -3.000000 -3.000000 87.533530 46.624767 -164.135252 1008.505490 13.598258 0.000000 0.188558
679.000000 64.355000 8.000000 -3.000000 -3.000000 84.591976 51.048556 -356.418218 1103.077407 15.543144 0.000000 0.288490
684.000000 90.239000 5.000000 -2.000000 -3.000000 77.822034 37.542223 147.869476 1233.935460 11.086798 0.000000 0.134567
685.000000 77.333000 6.000000 -2.000000 -3.000000 76.026056 44.264575 -74.013221 1314.999939 12.937009 0.000000 0.199510
686.000000 66.821000 7.000000 -2.000000 -3.000000 74.129894 49.318160 -277.110045 1410.401968 14.972266 0.000000 0.293280
691.000000 86.041000 4.000000 -1.000000 -3.000000 58.460676 33.634222 258.984807 1734.391778 11.631509 0.000000 0.178868
692.000000 74.735000 5.000000 -1.000000 -3.000000 59.588837 41.486418 23.230008 1784.317623 13.390316 0.000000 0.253172
#UB matrix in q= (UB) B0 G* 
#[[-0.436202748  0.897587339 -0.050603781]
# [ 0.884981754  0.438890735  0.156555719]
# [ 0.162894005  0.02359007  -0.986884713]]
#B0 matrix in q= UB (B0) G*
#[[ 0.19670273 -0.          0.03056101]
# [ 0.          0.19187965 -0.        ]
# [ 0.          0.          0.18806537]]
#UBB0 matrix in q= (UB B0) G* i.e. recip. basis vectors are columns in LT frame: astar = UBB0[:,0], bstar = UBB0[:,1], cstar = UBB0[:,2]. (abcstar as columns on xyzlab1, xlab1 = ui, ui = unit vector along incident beam)
#[[-0.08580227  0.17222875 -0.02284761]
# [ 0.17407833  0.0842142   0.05648864]
# [ 0.0320417   0.00452645 -0.18062064]]
#Euler angles phi theta psi (deg)
#[ 98.204 170.527  17.922]
#deviatoric strain in direct crystal frame (10-3 unit)
#[[-1.65 -0.36  0.27]
# [-0.36 -1.04 -0.12]
# [ 0.27 -0.12  2.68]]
#deviatoric strain in sample2 frame (10-3 unit)
#[[ 0.93 -0.6   1.71]
# [-0.6  -1.64 -0.64]
# [ 1.71 -0.64  0.72]]
#new lattice parameters
#[ 5.1505     5.2147926  5.3147932 90.0005134 99.217871  90.0408262]
#CCDLabel
#sCMOS
#DetectorParameters
#[79.0, 975.0, 941.0, 0.0, 0.0]
#pixelsize
#0.0734
#Frame dimensions
#[2018, 2016]
#
