#Strain and Orientation Refinement from experimental file: /home/micha/LaueProjects/DepthEffects/testZrO2_16.cor
#File created at Wed Jun 28 14:18:39 2023 with indexingSpotsSet.py
#Number of indexed spots: 521
#Element
#ZrO2
#grainIndex
#G_0
#Mean Deviation(pixel): 0.113
##spot_index intensity h k l 2theta Chi Xexp Yexp Energy GrainIndex PixDev
2.000000 45.732000 -9.000000 -1.000000 -10.000000 105.487169 46.315692 -151.895358 509.220640 21.881850 0.000000 0.192984
3.000000 46.294000 -8.000000 -1.000000 -10.000000 99.799876 46.568760 -161.906934 670.584941 21.618335 0.000000 0.190452
4.000000 46.426000 -7.000000 -1.000000 -10.000000 93.488513 46.816797 -171.810553 845.122170 21.559073 0.000000 0.199269
5.000000 45.967000 -6.000000 -1.000000 -10.000000 86.489986 47.059943 -181.607953 1037.909309 21.776884 0.000000 0.220434
6.000000 45.775000 -9.000000 0.000000 -10.000000 105.275626 39.850286 76.663916 558.115397 21.861810 0.000000 0.084030
7.000000 46.344000 -8.000000 0.000000 -10.000000 99.594685 40.166544 66.537562 702.913989 21.595276 0.000000 0.092530
8.000000 46.483000 -7.000000 0.000000 -10.000000 93.286319 40.476854 56.509543 859.754479 21.533278 0.000000 0.111556
9.000000 46.027000 -6.000000 0.000000 -10.000000 86.286321 40.781364 46.578435 1033.258537 21.749109 0.000000 0.137948
10.000000 45.915000 -8.000000 1.000000 -10.000000 98.690394 33.837045 253.475597 742.942424 21.798216 0.000000 0.069831
11.000000 46.005000 -7.000000 1.000000 -10.000000 92.389350 34.200808 243.528986 886.700429 21.757682 0.000000 0.091599
24.000000 48.509000 -10.000000 -1.000000 -9.000000 115.710863 46.496676 -159.045731 188.182852 20.625489 0.000000 0.240638
25.000000 49.825000 -9.000000 -1.000000 -9.000000 110.595585 46.781348 -170.389549 350.364771 20.082376 0.000000 0.220465
26.000000 50.866000 -8.000000 -1.000000 -9.000000 104.864072 47.059607 -181.594333 521.678756 19.673261 0.000000 0.207581
27.000000 51.477000 -7.000000 -1.000000 -9.000000 98.432791 47.331654 -192.662622 705.571105 19.441946 0.000000 0.205908
28.000000 51.453000 -6.000000 -1.000000 -9.000000 91.214538 47.597683 -203.596896 907.161541 19.453663 0.000000 0.218560
29.000000 50.534000 -5.000000 -1.000000 -9.000000 83.124847 47.857880 -214.399574 1134.409534 19.809991 0.000000 0.246929
30.000000 48.419000 -4.000000 -1.000000 -9.000000 74.092776 48.112425 -225.073017 1400.413613 20.678292 0.000000 0.291924
31.000000 46.727000 -11.000000 1.000000 -9.000000 119.005470 31.514374 315.074560 241.026219 21.411660 0.000000 0.030064
32.000000 48.169000 -10.000000 1.000000 -9.000000 114.443326 31.955145 303.627711 364.415513 20.772036 0.000000 0.013059
33.000000 49.445000 -9.000000 1.000000 -9.000000 109.341293 32.387449 292.293562 493.624734 20.237957 0.000000 0.028134
34.000000 50.440000 -8.000000 1.000000 -9.000000 103.622811 32.811478 281.070457 630.649458 19.840796 0.000000 0.052387
35.000000 50.999000 -7.000000 1.000000 -9.000000 97.204359 33.227424 269.956771 778.357534 19.625730 0.000000 0.076518
36.000000 50.916000 -6.000000 1.000000 -9.000000 89.998747 33.635472 258.950912 941.028274 19.660267 0.000000 0.099313
37.000000 49.933000 -5.000000 1.000000 -9.000000 81.921526 34.035806 248.051318 1125.347842 20.049987 0.000000 0.121190
38.000000 47.751000 -4.000000 1.000000 -9.000000 72.901767 34.428603 237.256459 1342.385114 20.969794 0.000000 0.145577
39.000000 46.000000 -11.000000 2.000000 -9.000000 117.196076 24.598685 482.263879 332.751904 21.750685 0.000000 0.037700
40.000000 47.340000 -10.000000 2.000000 -9.000000 112.615027 25.087245 471.119070 445.949195 21.136933 0.000000 0.056203
41.000000 48.499000 -9.000000 2.000000 -9.000000 107.498921 25.567617 460.073937 564.832376 20.633815 0.000000 0.074984
42.000000 49.364000 -8.000000 2.000000 -9.000000 101.773892 26.039940 449.127150 691.316379 20.274356 0.000000 0.092199
43.000000 49.783000 -7.000000 2.000000 -9.000000 95.360017 26.504352 438.277401 828.158369 20.106182 0.000000 0.106360
44.000000 49.557000 -6.000000 2.000000 -9.000000 88.174747 26.960990 427.523405 979.481065 20.200580 0.000000 0.116167
45.000000 48.440000 -5.000000 2.000000 -9.000000 80.139306 27.409991 416.863900 1151.741536 20.669289 0.000000 0.121250
46.000000 46.151000 -4.000000 2.000000 -9.000000 71.189180 27.851493 406.297647 1355.660997 21.697927 0.000000 0.125076
47.000000 46.116000 -10.000000 3.000000 -9.000000 110.118602 18.714547 610.389887 524.727120 21.699001 0.000000 0.100307
48.000000 47.106000 -3.000000 1.000000 -3.000000 104.978554 19.223440 599.700885 636.035265 7.081666 0.000000 0.114481
49.000000 47.786000 -8.000000 3.000000 -9.000000 99.242255 19.725087 589.099105 754.946615 20.945079 0.000000 0.125567
50.000000 48.009000 -7.000000 3.000000 -9.000000 92.835443 20.219565 578.583485 884.192255 20.850569 0.000000 0.131914
51.000000 47.587000 -2.000000 1.000000 -3.000000 85.682749 20.706955 568.152976 1027.864191 7.012809 0.000000 0.131682
52.000000 46.293000 -5.000000 3.000000 -9.000000 77.714038 21.187339 557.806552 1192.386697 21.629546 0.000000 0.123503
53.000000 45.798000 -8.000000 4.000000 -9.000000 96.174957 13.958204 707.483494 821.009907 21.856002 0.000000 0.145971
54.000000 45.790000 -7.000000 4.000000 -9.000000 89.782783 14.466051 697.331643 945.214009 21.862652 0.000000 0.145899
67.000000 56.003000 -8.000000 -1.000000 -8.000000 110.560456 47.684553 -207.191525 341.330162 17.867093 0.000000 0.241347
68.000000 57.282000 -7.000000 -1.000000 -8.000000 104.062946 47.985323 -219.730288 538.193861 17.470135 0.000000 0.226813
69.000000 57.913000 -6.000000 -1.000000 -8.000000 96.667371 48.278519 -232.094762 751.950808 17.281744 0.000000 0.226655
70.000000 57.554000 -5.000000 -1.000000 -8.000000 88.250397 48.564409 -244.288554 990.678780 17.392077 0.000000 0.245223
71.000000 55.768000 -4.000000 -1.000000 -8.000000 78.697141 48.843249 -256.315175 1267.870834 17.952001 0.000000 0.284734
75.000000 48.506000 -3.000000 0.000000 -2.000000 129.518793 37.818941 139.570551 -182.892611 5.155650 0.000000 0.184525
76.000000 50.521000 -11.000000 0.000000 -8.000000 125.566832 38.261998 126.152502 -39.159805 19.801259 0.000000 0.158330
77.000000 52.523000 -5.000000 0.000000 -4.000000 121.119145 38.694289 112.901799 108.509445 9.523886 0.000000 0.131359
78.000000 54.434000 -9.000000 0.000000 -8.000000 116.093416 39.116156 99.815330 261.609443 18.380819 0.000000 0.106113
79.000000 56.131000 -4.000000 0.000000 -4.000000 110.393762 39.527926 86.890060 422.227311 8.913313 0.000000 0.087918
80.000000 57.437000 -7.000000 0.000000 -8.000000 103.910646 39.929916 74.123030 593.376535 17.423215 0.000000 0.084998
81.000000 58.096000 -3.000000 0.000000 -4.000000 96.523006 40.322433 61.511350 779.583919 8.613930 0.000000 0.100948
82.000000 57.759000 -5.000000 0.000000 -8.000000 88.104513 40.705772 49.052203 987.987158 17.331054 0.000000 0.130771
83.000000 55.980000 -2.000000 0.000000 -4.000000 78.536564 41.080219 36.742838 1230.549182 8.942331 0.000000 0.170557
84.000000 52.251000 -3.000000 0.000000 -8.000000 67.730927 41.446047 24.580571 1528.985688 19.164585 0.000000 0.223484
85.000000 46.090000 -1.000000 0.000000 -4.000000 55.663350 41.803522 12.562779 1927.279739 10.864935 0.000000 0.302848
86.000000 46.227000 -13.000000 1.000000 -8.000000 131.826336 28.928832 380.146790 -159.531708 21.638868 0.000000 0.100351
87.000000 48.162000 -12.000000 1.000000 -8.000000 128.294571 29.468412 366.845069 -35.124556 20.770803 0.000000 0.077809
88.000000 50.125000 -11.000000 1.000000 -8.000000 124.336866 29.996404 353.691273 92.079449 19.958269 0.000000 0.052928
89.000000 52.067000 -10.000000 1.000000 -8.000000 119.883823 30.513091 340.682949 223.086009 19.215317 0.000000 0.026448
90.000000 53.907000 -9.000000 1.000000 -8.000000 114.853890 31.018749 327.817696 359.264296 18.561177 0.000000 0.007479
91.000000 55.522000 -8.000000 1.000000 -8.000000 109.152312 31.513654 315.093167 502.531590 18.022887 0.000000 0.031926
92.000000 56.735000 -7.000000 1.000000 -8.000000 102.671179 31.998071 302.507067 655.663031 17.639695 0.000000 0.059246
93.000000 57.291000 -6.000000 1.000000 -8.000000 95.291700 32.472265 290.057148 822.838000 17.470834 0.000000 0.084876
94.000000 56.847000 -5.000000 1.000000 -8.000000 86.890563 32.936492 277.741211 1010.664764 17.610105 0.000000 0.108062
95.000000 54.967000 -4.000000 1.000000 -8.000000 77.352912 33.391004 265.557106 1230.255310 18.215388 0.000000 0.130532
96.000000 51.160000 -3.000000 1.000000 -8.000000 66.594647 33.836048 253.502727 1501.864766 19.574638 0.000000 0.161000
97.000000 45.598000 -13.000000 2.000000 -8.000000 129.752024 21.073943 560.254857 -18.374510 21.938149 0.000000 0.036289
98.000000 47.437000 -6.000000 1.000000 -4.000000 126.185685 21.666639 547.416243 93.830029 10.544536 0.000000 0.026085
99.000000 49.287000 -11.000000 2.000000 -8.000000 122.193696 22.248658 534.705808 208.879874 20.298676 0.000000 0.030356
100.000000 51.095000 -5.000000 1.000000 -4.000000 117.708168 22.820170 522.121643 327.734831 9.790930 0.000000 0.046674
101.000000 52.778000 -9.000000 2.000000 -8.000000 112.649811 23.381345 509.661874 451.704691 18.959041 0.000000 0.066583
102.000000 54.214000 -4.000000 1.000000 -4.000000 106.927192 23.932357 497.324666 582.627723 9.229478 0.000000 0.086302
103.000000 55.224000 -7.000000 2.000000 -8.000000 100.437137 24.473380 485.108220 723.170704 18.123390 0.000000 0.103513
104.000000 55.563000 -3.000000 1.000000 -4.000000 93.067398 25.004590 473.010771 877.359401 9.007758 0.000000 0.116047
105.000000 54.901000 -5.000000 2.000000 -8.000000 84.703272 25.526161 461.030589 1051.576318 18.235602 0.000000 0.121950
106.000000 52.832000 -2.000000 1.000000 -4.000000 75.240441 26.038271 449.165977 1256.588574 9.476460 0.000000 0.121504
107.000000 48.908000 -3.000000 2.000000 -8.000000 64.606252 26.541095 437.415271 1512.104543 20.477433 0.000000 0.125843
108.000000 46.362000 -12.000000 3.000000 -8.000000 123.337315 14.615341 694.338589 209.327233 21.578985 0.000000 0.059006
109.000000 48.046000 -11.000000 3.000000 -8.000000 119.287507 15.221595 682.141664 315.371821 20.824313 0.000000 0.076287
110.000000 49.659000 -10.000000 3.000000 -8.000000 114.747996 15.818959 670.054719 425.337958 20.149560 0.000000 0.094147
111.000000 51.116000 -9.000000 3.000000 -8.000000 109.643204 16.407500 658.076273 540.525593 19.576986 0.000000 0.111099
112.000000 52.294000 -8.000000 3.000000 -8.000000 103.887038 16.987290 646.204871 662.762876 19.137968 0.000000 0.125524
113.000000 53.020000 -7.000000 3.000000 -8.000000 97.383800 17.558407 634.439086 794.707434 18.878191 0.000000 0.135446
114.000000 53.060000 -6.000000 3.000000 -8.000000 90.031351 18.120933 622.777513 940.380332 18.866863 0.000000 0.138388
115.000000 52.109000 -5.000000 3.000000 -8.000000 81.728010 18.674955 611.218775 1106.173346 19.214079 0.000000 0.131501
116.000000 49.806000 -4.000000 3.000000 -8.000000 72.385004 19.220563 599.761517 1302.903858 20.106261 0.000000 0.113411
117.000000 45.763000 -3.000000 3.000000 -8.000000 61.946053 19.757849 588.404408 1550.455169 21.886159 0.000000 0.097228
118.000000 46.459000 -11.000000 4.000000 -8.000000 115.797017 8.999094 804.549186 414.284709 21.537039 0.000000 0.109700
119.000000 47.832000 -5.000000 2.000000 -4.000000 111.190889 9.598952 792.978705 517.804737 10.460304 0.000000 0.125441
120.000000 49.015000 -9.000000 4.000000 -8.000000 106.031104 10.191788 781.503344 626.787194 20.417634 0.000000 0.138876
121.000000 49.887000 -2.000000 1.000000 -2.000000 100.238613 10.777601 770.121934 743.104384 5.015777 0.000000 0.148430
122.000000 50.282000 -7.000000 4.000000 -8.000000 93.727328 11.356393 758.833327 869.483451 19.908065 0.000000 0.152019
123.000000 49.983000 -3.000000 2.000000 -4.000000 86.407752 11.928175 747.636391 1010.059668 10.014972 0.000000 0.146868
124.000000 48.721000 -5.000000 4.000000 -8.000000 78.193988 12.492961 736.530015 1171.423275 20.552236 0.000000 0.129474
125.000000 46.184000 -1.000000 1.000000 -2.000000 69.015457 13.050772 725.513105 1364.763216 5.421170 0.000000 0.097217
126.000000 45.702000 -10.000000 5.000000 -8.000000 107.224261 4.158732 896.741244 606.450907 21.897224 0.000000 0.144755
127.000000 46.587000 -9.000000 5.000000 -8.000000 102.011119 4.739603 885.763490 711.222563 21.483644 0.000000 0.154373
128.000000 47.132000 -8.000000 5.000000 -8.000000 96.189598 5.315123 874.868662 823.770684 21.237627 0.000000 0.159067
129.000000 47.184000 -7.000000 5.000000 -8.000000 89.684589 5.885251 864.055823 946.956403 21.217054 0.000000 0.156617
130.000000 46.548000 -6.000000 5.000000 -8.000000 82.420567 6.449950 853.324051 1085.127387 21.509935 0.000000 0.143994
140.000000 63.914000 -7.000000 -1.000000 -7.000000 110.495853 48.842425 -256.279421 329.692441 15.655519 0.000000 0.269863
141.000000 65.514000 -6.000000 -1.000000 -7.000000 102.996523 49.168039 -270.493645 561.071780 15.275104 0.000000 0.253260
142.000000 66.079000 -5.000000 -1.000000 -7.000000 94.303847 49.484259 -284.477843 816.319357 15.146689 0.000000 0.255864
143.000000 64.991000 -4.000000 -1.000000 -7.000000 84.236630 49.791466 -298.237556 1109.270834 15.402837 0.000000 0.284174
144.000000 61.468000 -3.000000 -1.000000 -7.000000 72.638378 50.090024 -311.778144 1465.481674 16.288860 0.000000 0.342457
148.000000 51.220000 -12.000000 1.000000 -7.000000 133.876607 27.365484 417.924360 -224.301078 19.528897 0.000000 0.102747
149.000000 53.687000 -11.000000 1.000000 -7.000000 130.112726 28.001766 402.681635 -85.955004 18.632792 0.000000 0.079254
150.000000 56.223000 -10.000000 1.000000 -7.000000 125.837507 28.622783 387.629984 55.461065 17.793302 0.000000 0.052506
151.000000 58.760000 -9.000000 1.000000 -7.000000 120.955729 29.228939 372.765837 201.238812 17.026426 0.000000 0.023142
152.000000 61.179000 -8.000000 1.000000 -7.000000 115.352591 29.820630 358.085712 353.195572 16.354813 0.000000 0.007828
153.000000 63.287000 -7.000000 1.000000 -7.000000 108.891401 30.398245 343.586211 513.979736 15.811625 0.000000 0.039015
154.000000 64.788000 -6.000000 1.000000 -7.000000 101.413248 30.962168 329.264022 687.616712 15.447437 0.000000 0.068675
155.000000 65.238000 -5.000000 1.000000 -7.000000 92.741343 31.512774 315.115913 880.549918 15.343394 0.000000 0.094989
156.000000 64.019000 -4.000000 1.000000 -7.000000 82.694530 32.050431 301.138728 1103.793710 15.638418 0.000000 0.117379
157.000000 60.353000 -3.000000 1.000000 -7.000000 71.116355 32.575500 287.329388 1377.884117 16.591763 0.000000 0.141471
158.000000 53.419000 -2.000000 1.000000 -7.000000 57.925601 33.088331 273.684889 1746.041881 18.749326 0.000000 0.191255
159.000000 46.027000 -14.000000 2.000000 -7.000000 137.742859 17.099073 643.907705 -298.394929 21.731506 0.000000 0.062003
160.000000 48.158000 -13.000000 2.000000 -7.000000 134.732052 17.822201 628.979613 -179.023270 20.770680 0.000000 0.049002
161.000000 50.397000 -12.000000 2.000000 -7.000000 131.350587 18.531483 614.219227 -58.033343 19.848772 0.000000 0.035789
162.000000 52.721000 -11.000000 2.000000 -7.000000 127.534556 19.227102 599.623735 65.249823 18.975066 0.000000 0.029139
163.000000 55.084000 -10.000000 2.000000 -7.000000 123.206844 19.909249 585.190391 191.727492 18.162054 0.000000 0.037863
164.000000 57.413000 -9.000000 2.000000 -7.000000 118.274624 20.578124 570.916507 322.634428 17.426956 0.000000 0.056812
165.000000 59.582000 -8.000000 2.000000 -7.000000 112.626938 21.233934 556.799454 459.713286 16.794182 0.000000 0.078621
166.000000 61.397000 -7.000000 2.000000 -7.000000 106.133061 21.876890 542.836663 605.511021 16.299527 0.000000 0.099425
167.000000 62.565000 -6.000000 2.000000 -7.000000 98.643036 22.507210 529.025619 763.910088 15.997694 0.000000 0.116103
168.000000 62.657000 -5.000000 2.000000 -7.000000 89.992929 23.125115 515.363860 941.144427 15.976655 0.000000 0.125284
169.000000 61.098000 -4.000000 2.000000 -7.000000 80.018881 23.730828 501.848981 1147.908985 16.387504 0.000000 0.123963
170.000000 57.182000 -3.000000 2.000000 -7.000000 68.585324 24.324576 488.478624 1404.236199 17.513429 0.000000 0.116100
171.000000 50.196000 -2.000000 2.000000 -7.000000 55.631701 24.906584 475.250483 1752.558163 19.954448 0.000000 0.141290
172.000000 47.110000 -13.000000 3.000000 -7.000000 131.438897 10.061454 784.029760 -24.021558 21.233890 0.000000 0.034023
173.000000 49.175000 -12.000000 3.000000 -7.000000 127.972425 10.783294 770.011105 85.840067 20.343307 0.000000 0.047509
174.000000 51.289000 -11.000000 3.000000 -7.000000 124.069892 11.494503 756.132982 198.221228 19.506089 0.000000 0.065111
175.000000 53.400000 -10.000000 3.000000 -7.000000 119.656708 12.195100 742.393289 314.021506 18.736117 0.000000 0.084682
176.000000 55.427000 -9.000000 3.000000 -7.000000 114.644103 12.885115 728.789965 434.476837 18.052546 0.000000 0.104483
177.000000 57.240000 -8.000000 3.000000 -7.000000 108.927427 13.564591 715.320991 561.336104 17.482566 0.000000 0.122696
178.000000 58.645000 -7.000000 3.000000 -7.000000 102.385475 14.233580 701.984384 697.161897 17.066115 0.000000 0.137084
179.000000 59.355000 -6.000000 3.000000 -7.000000 94.882184 14.892146 688.778204 845.870883 16.864335 0.000000 0.144691
180.000000 58.975000 -5.000000 3.000000 -7.000000 86.272999 15.540360 675.700546 1013.770526 16.975813 0.000000 0.141557
181.000000 56.990000 -4.000000 3.000000 -7.000000 76.419284 16.178303 662.749545 1211.720296 17.570403 0.000000 0.123051
182.000000 52.802000 -3.000000 3.000000 -7.000000 65.214790 16.806061 649.923367 1460.154304 18.967856 0.000000 0.091206
183.000000 45.845000 -2.000000 3.000000 -7.000000 52.626460 17.423730 637.220218 1802.636789 21.849968 0.000000 0.111225
184.000000 45.761000 -13.000000 4.000000 -7.000000 127.552927 3.458887 909.946176 112.039529 21.861061 0.000000 0.061028
185.000000 47.608000 -12.000000 4.000000 -7.000000 123.978298 4.162846 896.663556 213.704561 21.014156 0.000000 0.079345
186.000000 49.462000 -11.000000 4.000000 -7.000000 119.967735 4.859165 883.501695 318.170563 20.227791 0.000000 0.098304
187.000000 51.266000 -10.000000 4.000000 -7.000000 115.450348 5.547767 870.458952 426.367838 19.517773 0.000000 0.116917
188.000000 52.930000 -9.000000 4.000000 -7.000000 110.343046 6.228584 857.533718 539.577530 18.905936 0.000000 0.133917
189.000000 54.322000 -8.000000 4.000000 -7.000000 104.549681 6.901557 844.724412 659.616594 18.423318 0.000000 0.147632
190.000000 55.253000 -7.000000 4.000000 -7.000000 97.961418 7.566639 832.029481 789.153483 18.115577 0.000000 0.155788
191.000000 55.453000 -6.000000 4.000000 -7.000000 90.459590 8.223791 819.447401 932.276764 18.052756 0.000000 0.155215
192.000000 54.570000 -5.000000 4.000000 -7.000000 81.922954 8.872986 806.976672 1095.589477 18.348067 0.000000 0.141439
193.000000 52.166000 -4.000000 4.000000 -7.000000 72.241902 9.514203 794.615824 1290.499721 19.197203 0.000000 0.108639
194.000000 47.764000 -3.000000 4.000000 -7.000000 61.342144 10.147430 782.363411 1538.572776 20.970193 0.000000 0.058686
195.000000 45.763000 -12.000000 5.000000 -7.000000 119.585109 -1.418553 1001.652793 329.762359 21.862992 0.000000 0.103117
196.000000 47.327000 -11.000000 5.000000 -7.000000 115.458968 -0.754567 989.175277 428.535339 21.142126 0.000000 0.120728
197.000000 48.791000 -10.000000 5.000000 -7.000000 110.833761 -0.095881 976.801110 531.427714 20.509335 0.000000 0.136853
198.000000 50.064000 -9.000000 5.000000 -7.000000 105.633495 0.557398 964.529010 639.800619 19.989909 0.000000 0.150197
199.000000 51.015000 -8.000000 5.000000 -7.000000 99.772207 1.205168 952.357723 755.588307 19.619846 0.000000 0.159018
200.000000 51.461000 -7.000000 5.000000 -7.000000 93.155286 1.847335 940.286009 881.637500 19.452190 0.000000 0.160923
201.000000 51.163000 -6.000000 5.000000 -7.000000 85.683232 2.483812 928.312652 1022.320152 19.568471 0.000000 0.152527
202.000000 49.816000 -5.000000 5.000000 -7.000000 77.259317 3.114518 916.436455 1184.716549 20.100804 0.000000 0.128945
203.000000 47.068000 -4.000000 5.000000 -7.000000 67.802865 3.739383 904.656240 1381.101754 21.278309 0.000000 0.083308
204.000000 46.091000 -10.000000 6.000000 -7.000000 106.011373 -4.860047 1066.514984 631.031908 21.713156 0.000000 0.147568
205.000000 46.973000 -9.000000 6.000000 -7.000000 100.732866 -4.243384 1054.857518 736.431822 21.307296 0.000000 0.156877
206.000000 47.495000 -8.000000 6.000000 -7.000000 94.824906 -3.630418 1043.288385 849.967201 21.075624 0.000000 0.160661
207.000000 47.491000 -7.000000 6.000000 -7.000000 88.207849 -3.021256 1031.806583 974.723206 21.080315 0.000000 0.156424
208.000000 46.751000 -6.000000 6.000000 -7.000000 80.801452 -2.415997 1020.411127 1115.448715 21.417124 0.000000 0.140638
216.000000 76.435000 -5.000000 -1.000000 -6.000000 101.510907 50.730429 -341.400428 594.715051 13.092816 0.000000 0.291810
217.000000 76.677000 -4.000000 -1.000000 -6.000000 90.986043 51.070166 -357.445841 911.519643 13.053861 0.000000 0.299778
218.000000 73.907000 -3.000000 -1.000000 -6.000000 78.524061 51.398612 -373.183555 1291.223442 13.546073 0.000000 0.345712
224.000000 68.258000 -8.000000 0.000000 -6.000000 124.143146 38.407274 121.717163 9.561709 14.656318 0.000000 0.149342
225.000000 71.751000 -7.000000 0.000000 -6.000000 117.838517 38.976672 104.159427 209.858957 13.944071 0.000000 0.114085
226.000000 76.992000 -5.000000 0.000000 -6.000000 101.554822 40.061793 69.902016 653.488419 12.998535 0.000000 0.088361
227.000000 77.344000 -4.000000 0.000000 -6.000000 91.032898 40.578995 53.188475 915.450661 12.941879 0.000000 0.119649
228.000000 67.317000 -2.000000 0.000000 -6.000000 63.847196 41.566121 20.558715 1647.373088 14.876356 0.000000 0.245993
234.000000 57.345000 -11.000000 1.000000 -6.000000 136.332316 25.272311 466.874227 -305.891438 17.442582 0.000000 0.104340
235.000000 60.571000 -10.000000 1.000000 -6.000000 132.319634 26.043693 449.039811 -149.785802 16.514417 0.000000 0.080559
236.000000 63.948000 -9.000000 1.000000 -6.000000 127.683622 26.794193 431.461540 9.637598 15.643440 0.000000 0.052338
237.000000 67.380000 -8.000000 1.000000 -6.000000 122.289212 27.524402 414.133934 174.073318 14.847939 0.000000 0.021097
238.000000 70.686000 -7.000000 1.000000 -6.000000 115.968007 28.234902 397.051671 346.004706 14.154934 0.000000 0.016793
239.000000 73.547000 -6.000000 1.000000 -6.000000 108.512817 28.926272 380.209576 529.239106 13.606084 0.000000 0.049897
240.000000 75.427000 -5.000000 1.000000 -6.000000 99.676070 29.599080 363.602619 729.946382 13.269168 0.000000 0.081172
241.000000 75.480000 -4.000000 1.000000 -6.000000 89.178987 30.253886 347.225911 958.855601 13.262350 0.000000 0.106507
242.000000 72.495000 -3.000000 1.000000 -6.000000 76.744243 30.891238 331.074696 1236.460862 13.811694 0.000000 0.126105
243.000000 64.988000 -2.000000 1.000000 -6.000000 62.169969 31.511673 315.144348 1607.468370 15.410739 0.000000 0.160394
247.000000 50.707000 -13.000000 2.000000 -6.000000 139.889472 13.505277 716.499767 -372.998090 19.725240 0.000000 0.055502
248.000000 53.383000 -6.000000 1.000000 -3.000000 136.748744 14.373984 699.175459 -240.056062 9.368529 0.000000 0.044844
249.000000 56.237000 -11.000000 2.000000 -6.000000 133.173596 15.225107 682.070818 -105.505362 17.787261 0.000000 0.034095
250.000000 59.242000 -5.000000 1.000000 -3.000000 129.078798 16.058808 665.181693 31.489840 8.443004 0.000000 0.032133
251.000000 62.342000 -9.000000 2.000000 -6.000000 124.358582 16.875276 648.504035 172.077536 16.047383 0.000000 0.045807
252.000000 65.430000 -4.000000 1.000000 -3.000000 118.881817 17.674718 632.033898 317.885420 7.645754 0.000000 0.068147
253.000000 68.311000 -7.000000 2.000000 -6.000000 112.487012 18.457359 615.767433 471.308998 14.648157 0.000000 0.092508
254.000000 71.948000 -5.000000 2.000000 -6.000000 96.127406 19.973217 583.830591 818.062184 13.912065 0.000000 0.129446
255.000000 67.861000 -3.000000 2.000000 -6.000000 73.405554 21.424930 552.664554 1285.553351 14.756285 0.000000 0.116844
256.000000 60.125000 -1.000000 1.000000 -3.000000 59.137918 22.127428 537.361919 1635.319544 8.329337 0.000000 0.111991
257.000000 47.173000 -1.000000 2.000000 -6.000000 42.913601 22.814737 522.241750 2196.939755 21.236234 0.000000 0.231140
258.000000 47.215000 -14.000000 3.000000 -6.000000 138.851126 4.169015 896.547050 -293.924546 21.184283 0.000000 0.018256
259.000000 49.535000 -13.000000 3.000000 -6.000000 135.961893 5.038052 880.116133 -176.369786 20.192963 0.000000 0.021475
260.000000 52.000000 -4.000000 1.000000 -2.000000 132.700030 5.895004 863.870654 -57.456898 6.412264 0.000000 0.032537
261.000000 54.592000 -11.000000 3.000000 -6.000000 128.997653 6.739746 847.807491 63.442706 18.324348 0.000000 0.049659
262.000000 57.275000 -10.000000 3.000000 -6.000000 124.771610 7.572178 831.923592 187.173006 17.467242 0.000000 0.070403
263.000000 59.977000 -3.000000 1.000000 -2.000000 119.920036 8.392222 816.215974 314.898209 5.560534 0.000000 0.092871
264.000000 62.575000 -8.000000 3.000000 -6.000000 114.318623 9.199826 800.681717 448.275254 15.990488 0.000000 0.115122
265.000000 64.864000 -7.000000 3.000000 -6.000000 107.817263 9.994956 785.317968 589.751075 15.428089 0.000000 0.134742
266.000000 67.029000 -5.000000 3.000000 -6.000000 91.381685 11.547766 755.090884 914.503843 14.934776 0.000000 0.151433
267.000000 65.689000 -4.000000 3.000000 -6.000000 81.036101 12.305476 740.222146 1114.765388 15.242359 0.000000 0.136862
268.000000 53.716000 -2.000000 3.000000 -6.000000 55.218479 13.783711 710.961202 1710.694942 18.647806 0.000000 0.077256
269.000000 45.927000 -7.000000 2.000000 -3.000000 134.458875 -2.661610 1025.034016 -116.294539 10.889949 0.000000 0.024200
270.000000 48.029000 -13.000000 4.000000 -6.000000 131.425096 -1.844499 1009.660665 -9.211544 20.827403 0.000000 0.040862
271.000000 50.230000 -6.000000 2.000000 -3.000000 128.012091 -1.034914 994.442842 99.603681 9.958015 0.000000 0.060011
272.000000 52.500000 -11.000000 4.000000 -6.000000 124.153880 -0.233069 979.378199 210.810925 19.055846 0.000000 0.080808
273.000000 54.791000 -5.000000 2.000000 -3.000000 119.770791 0.560836 964.464435 325.299387 9.130249 0.000000 0.102255
274.000000 57.018000 -9.000000 4.000000 -6.000000 114.766885 1.346618 949.699294 444.299707 17.548960 0.000000 0.123059
275.000000 59.045000 -4.000000 2.000000 -3.000000 109.027518 2.124110 935.080566 569.568631 8.474200 0.000000 0.141478
276.000000 60.660000 -7.000000 4.000000 -6.000000 102.417819 2.893161 920.606084 703.707961 16.499164 0.000000 0.155098
277.000000 61.547000 -3.000000 2.000000 -3.000000 94.783625 3.653635 906.273724 850.747364 8.131920 0.000000 0.160452
278.000000 61.253000 -5.000000 4.000000 -6.000000 85.957659 4.405412 892.081402 1017.286517 16.345056 0.000000 0.152392
279.000000 59.170000 -2.000000 2.000000 -3.000000 75.775361 5.148385 878.027075 1214.942037 8.461797 0.000000 0.123096
280.000000 54.581000 -3.000000 4.000000 -6.000000 64.105986 5.882463 864.108742 1466.247304 18.350260 0.000000 0.062537
281.000000 46.796000 -1.000000 2.000000 -3.000000 50.902927 6.607568 850.324438 1821.437585 10.703613 0.000000 0.076411
282.000000 46.250000 -13.000000 5.000000 -6.000000 126.533723 -7.399283 1114.772515 136.907514 21.630060 0.000000 0.062724
283.000000 48.153000 -12.000000 5.000000 -6.000000 122.958516 -6.650945 1100.501404 238.425504 20.776505 0.000000 0.082577
284.000000 50.067000 -11.000000 5.000000 -6.000000 118.936809 -5.907180 1086.360521 342.774534 19.983789 0.000000 0.102838
285.000000 51.931000 -10.000000 5.000000 -6.000000 114.393897 -5.168195 1072.348091 450.917075 19.268193 0.000000 0.122399
286.000000 53.651000 -9.000000 5.000000 -6.000000 109.241683 -4.434188 1058.462372 564.188624 18.652375 0.000000 0.139886
287.000000 55.085000 -8.000000 5.000000 -6.000000 103.377531 -3.705345 1044.701652 684.500340 18.168836 0.000000 0.153477
288.000000 56.026000 -7.000000 5.000000 -6.000000 96.684441 -2.981847 1031.064253 814.689755 17.865909 0.000000 0.160634
289.000000 56.183000 -6.000000 5.000000 -6.000000 89.033931 -2.263862 1017.548522 959.163391 17.818739 0.000000 0.157706
290.000000 55.165000 -5.000000 5.000000 -6.000000 80.293874 -1.551552 1004.152840 1125.160309 18.150874 0.000000 0.139245
291.000000 52.486000 -4.000000 5.000000 -6.000000 70.344366 -0.845066 990.875614 1325.470976 19.080707 0.000000 0.096829
292.000000 47.621000 -3.000000 5.000000 -6.000000 59.104674 -0.144546 977.715280 1585.031639 21.034108 0.000000 0.017318
293.000000 45.855000 -4.000000 2.000000 -2.000000 117.746374 -11.212561 1188.357221 363.803951 7.273325 0.000000 0.098369
294.000000 47.400000 -11.000000 6.000000 -6.000000 113.570324 -10.529787 1175.058170 463.399532 21.110238 0.000000 0.116852
295.000000 48.832000 -5.000000 3.000000 -3.000000 108.882690 -9.849686 1161.869644 567.357840 10.246388 0.000000 0.133545
296.000000 50.054000 -3.000000 2.000000 -2.000000 103.604687 -9.172434 1148.790272 677.149982 6.664937 0.000000 0.147031
297.000000 50.924000 -4.000000 3.000000 -3.000000 97.647161 -8.498201 1135.818703 794.885638 9.827725 0.000000 0.155415
298.000000 51.250000 -7.000000 6.000000 -6.000000 90.912080 -7.827151 1122.953611 923.704107 19.532946 0.000000 0.156084
299.000000 50.777000 -2.000000 2.000000 -2.000000 83.296683 -7.159446 1110.193690 1068.492731 6.572687 0.000000 0.145314
300.000000 49.183000 -5.000000 6.000000 -6.000000 74.701901 -6.495239 1097.537655 1237.304312 20.360417 0.000000 0.117699
301.000000 46.101000 -2.000000 3.000000 -3.000000 65.046881 -5.834682 1084.984243 1444.420579 10.862726 0.000000 0.065969
302.000000 45.623000 -10.000000 7.000000 -6.000000 103.408463 -13.698849 1237.349358 676.910203 21.936736 0.000000 0.138012
303.000000 46.383000 -9.000000 7.000000 -6.000000 98.037934 -13.076888 1225.003904 784.963535 21.579282 0.000000 0.147234
304.000000 46.752000 -8.000000 7.000000 -6.000000 92.027553 -12.456538 1212.752285 901.978177 21.411967 0.000000 0.150429
305.000000 46.556000 -7.000000 7.000000 -6.000000 85.297890 -11.837937 1200.593435 1031.451139 21.504994 0.000000 0.145013
306.000000 45.581000 -6.000000 7.000000 -6.000000 77.770003 -11.221221 1188.526304 1178.839698 21.967973 0.000000 0.127489
316.000000 69.353000 -9.000000 1.000000 -5.000000 135.038829 23.305562 511.350579 -232.502497 14.422864 0.000000 0.080848
317.000000 74.018000 -8.000000 1.000000 -5.000000 129.997553 24.246253 490.249441 -49.404465 13.514811 0.000000 0.052183
318.000000 78.870000 -7.000000 1.000000 -5.000000 123.984165 25.157894 469.500115 139.425449 12.684596 0.000000 0.021817
319.000000 83.623000 -6.000000 1.000000 -5.000000 116.738553 26.041370 449.093874 337.504122 11.964908 0.000000 0.029790
320.000000 87.706000 -5.000000 1.000000 -5.000000 107.925790 26.897564 429.022280 550.596189 11.409720 0.000000 0.065270
321.000000 90.050000 -4.000000 1.000000 -5.000000 97.130077 27.727357 409.277167 788.901416 11.114980 0.000000 0.097139
322.000000 88.839000 -3.000000 1.000000 -5.000000 83.877475 28.531618 389.850634 1072.409908 11.269262 0.000000 0.117594
323.000000 81.410000 -2.000000 1.000000 -5.000000 67.729835 29.311205 370.735032 1446.480782 12.301098 0.000000 0.133791
324.000000 64.882000 -1.000000 1.000000 -5.000000 48.506106 30.066960 351.922956 2041.041318 15.438732 0.000000 0.228296
329.000000 59.739000 -11.000000 2.000000 -5.000000 139.001183 9.739852 790.255062 -315.294737 16.743248 0.000000 0.036342
330.000000 63.457000 -10.000000 2.000000 -5.000000 135.226145 10.785824 769.961857 -163.333817 15.762934 0.000000 0.029615
331.000000 67.448000 -9.000000 2.000000 -5.000000 130.821159 11.809619 749.961829 -8.831184 14.831066 0.000000 0.033984
332.000000 71.644000 -8.000000 2.000000 -5.000000 125.636634 12.811302 730.248669 149.708926 13.963614 0.000000 0.053601
333.000000 75.886000 -7.000000 2.000000 -5.000000 119.479884 13.790989 710.816250 314.499855 13.184432 0.000000 0.080474
334.000000 79.855000 -6.000000 2.000000 -5.000000 112.104108 14.748842 691.658616 488.978702 12.530814 0.000000 0.108290
335.000000 82.955000 -5.000000 2.000000 -5.000000 103.199182 15.685067 672.769981 678.810315 12.064502 0.000000 0.131270
336.000000 84.151000 -4.000000 2.000000 -5.000000 92.392653 16.599903 654.144718 894.072360 11.895658 0.000000 0.141706
337.000000 81.791000 -3.000000 2.000000 -5.000000 79.279993 17.493626 635.777357 1154.637862 12.241896 0.000000 0.128724
338.000000 73.635000 -2.000000 2.000000 -5.000000 63.518140 18.366537 617.662578 1505.974848 13.601539 0.000000 0.092833
339.000000 57.502000 -1.000000 2.000000 -5.000000 45.018493 19.218963 599.795206 2080.083724 17.421706 0.000000 0.188322
342.000000 51.876000 -13.000000 3.000000 -5.000000 140.376365 -1.469974 1002.619342 -359.352052 19.280762 0.000000 0.001742
343.000000 54.758000 -12.000000 3.000000 -5.000000 137.365174 -0.445526 983.369321 -228.069644 18.266479 0.000000 0.011520
344.000000 57.863000 -11.000000 3.000000 -5.000000 133.918077 0.566147 964.364652 -95.445952 17.287144 0.000000 0.027900
345.000000 61.175000 -10.000000 3.000000 -5.000000 129.944957 1.564664 945.600676 39.306240 16.352237 0.000000 0.049055
346.000000 64.648000 -9.000000 3.000000 -5.000000 125.332240 2.549684 927.072849 177.275516 15.475009 0.000000 0.073631
347.000000 68.180000 -8.000000 3.000000 -5.000000 119.936496 3.520911 908.776741 320.018602 14.674563 0.000000 0.099842
348.000000 71.578000 -7.000000 3.000000 -5.000000 113.577153 4.478084 890.708031 469.851306 13.979485 0.000000 0.125237
349.000000 74.492000 -6.000000 3.000000 -5.000000 106.029586 5.420985 872.862506 630.386777 13.434558 0.000000 0.146305
350.000000 76.326000 -5.000000 3.000000 -5.000000 97.022158 6.349430 855.236057 807.606906 13.114135 0.000000 0.157758
351.000000 76.126000 -4.000000 3.000000 -5.000000 86.245266 7.263274 837.824674 1012.204737 13.151366 0.000000 0.151220
352.000000 72.510000 -3.000000 3.000000 -5.000000 73.387915 8.162405 820.624444 1265.390661 13.810636 0.000000 0.113283
353.000000 63.792000 -2.000000 3.000000 -5.000000 58.224469 9.046742 803.631551 1616.092438 15.702124 0.000000 0.046703
354.000000 48.582000 -1.000000 3.000000 -5.000000 40.766374 9.916237 786.842267 2208.312280 20.621784 0.000000 0.208851
355.000000 45.555000 -15.000000 4.000000 -5.000000 140.445530 -10.254760 1169.718048 -383.277412 21.955794 0.000000 0.029958
356.000000 47.800000 -14.000000 4.000000 -5.000000 137.921951 -9.315539 1151.549684 -267.007665 20.925557 0.000000 0.020056
357.000000 50.207000 -13.000000 4.000000 -5.000000 135.078992 -8.382035 1133.588490 -149.919177 19.923109 0.000000 0.019838
358.000000 52.774000 -12.000000 4.000000 -5.000000 131.858999 -7.454686 1115.830942 -31.534348 18.954857 0.000000 0.034130
359.000000 55.486000 -11.000000 4.000000 -5.000000 128.191059 -6.533912 1098.273595 88.776370 18.029338 0.000000 0.054979
360.000000 58.307000 -10.000000 4.000000 -5.000000 123.987624 -5.620115 1080.913084 211.863658 17.158189 0.000000 0.078640
361.000000 61.165000 -9.000000 4.000000 -5.000000 119.140462 -4.713675 1063.746116 338.909970 16.357697 0.000000 0.103218
362.000000 63.932000 -8.000000 4.000000 -5.000000 113.516117 -3.814950 1046.769474 471.613785 15.651371 0.000000 0.126771
363.000000 66.387000 -7.000000 4.000000 -5.000000 106.951512 -2.924281 1029.980008 612.511794 15.074457 0.000000 0.146734
364.000000 68.171000 -6.000000 4.000000 -5.000000 99.251364 -2.041982 1013.374642 765.576652 14.682289 0.000000 0.159414
365.000000 68.723000 -5.000000 4.000000 -5.000000 90.191018 -1.168350 996.950362 937.410984 14.567000 0.000000 0.159172
366.000000 67.228000 -4.000000 4.000000 -5.000000 79.531512 -0.303658 980.704223 1139.869935 14.894196 0.000000 0.136945
367.000000 62.618000 -3.000000 4.000000 -5.000000 67.057671 0.551845 964.633343 1396.602945 15.994437 0.000000 0.077474
368.000000 53.751000 -2.000000 4.000000 -5.000000 52.651073 1.397927 948.734901 1762.614465 18.636727 0.000000 0.047123
369.000000 46.123000 -14.000000 5.000000 -5.000000 132.559123 -14.521319 1253.775918 -79.900350 21.687548 0.000000 0.025402
370.000000 48.241000 -13.000000 5.000000 -5.000000 129.508663 -13.689874 1237.170759 27.547801 20.736576 0.000000 0.034573
371.000000 50.455000 -12.000000 5.000000 -5.000000 126.071110 -12.861046 1220.734286 136.808731 19.827846 0.000000 0.053291
372.000000 52.734000 -11.000000 5.000000 -5.000000 122.177991 -12.035166 1204.463942 248.579037 18.971944 0.000000 0.075409
373.000000 57.238000 -9.000000 5.000000 -5.000000 112.676093 -10.393547 1172.411667 483.802143 17.482186 0.000000 0.120374
374.000000 59.224000 -8.000000 5.000000 -5.000000 106.847100 -9.578434 1156.624873 610.473988 16.897821 0.000000 0.139418
375.000000 60.755000 -7.000000 5.000000 -5.000000 100.117822 -8.767521 1140.994480 746.666571 16.474150 0.000000 0.152821
376.000000 61.488000 -6.000000 5.000000 -5.000000 92.326217 -7.961099 1125.518175 896.852793 16.280305 0.000000 0.156727
377.000000 58.438000 -4.000000 5.000000 -5.000000 72.857762 -6.362831 1095.018803 1275.037750 17.136654 0.000000 0.109528
378.000000 53.241000 -3.000000 5.000000 -5.000000 60.876905 -5.571513 1079.991334 1543.472266 18.813061 0.000000 0.038383
379.000000 46.055000 -13.000000 6.000000 -5.000000 123.866927 -17.828131 1321.143292 182.224714 21.722729 0.000000 0.047116
380.000000 47.900000 -12.000000 6.000000 -5.000000 120.223102 -17.088221 1305.869165 285.042403 20.887269 0.000000 0.067825
381.000000 49.737000 -11.000000 6.000000 -5.000000 116.122371 -16.349247 1290.734939 390.966357 20.117108 0.000000 0.089420
382.000000 51.500000 -10.000000 6.000000 -5.000000 111.488310 -15.611454 1275.738700 501.060142 19.430167 0.000000 0.110163
383.000000 53.086000 -9.000000 6.000000 -5.000000 106.231010 -14.875081 1260.878571 616.811555 18.851586 0.000000 0.128431
384.000000 54.343000 -8.000000 6.000000 -5.000000 100.246132 -14.140367 1246.152707 740.370267 18.417768 0.000000 0.142226
385.000000 55.051000 -7.000000 6.000000 -5.000000 93.415452 -13.407548 1231.559296 874.965289 18.183470 0.000000 0.148842
386.000000 54.904000 -6.000000 6.000000 -5.000000 85.610413 -12.676854 1217.096558 1025.683890 18.235059 0.000000 0.144449
387.000000 53.499000 -5.000000 6.000000 -5.000000 76.701033 -11.948514 1202.762748 1201.038677 18.717150 0.000000 0.123643
388.000000 50.349000 -4.000000 6.000000 -5.000000 66.573260 -11.222750 1188.556148 1416.442045 19.891677 0.000000 0.080652
389.000000 46.614000 -11.000000 7.000000 -5.000000 110.182855 -19.786849 1362.210740 520.541953 21.467004 0.000000 0.098448
390.000000 47.880000 -10.000000 7.000000 -5.000000 105.385135 -19.123608 1348.197024 627.541021 20.901352 0.000000 0.116093
391.000000 48.897000 -9.000000 7.000000 -5.000000 99.989077 -18.460574 1334.299683 741.147807 20.469060 0.000000 0.130114
392.000000 49.517000 -8.000000 7.000000 -5.000000 93.906912 -17.797924 1320.517274 863.800429 20.215139 0.000000 0.138577
393.000000 49.543000 -7.000000 7.000000 -5.000000 87.043466 -17.135836 1306.848377 999.169690 20.207430 0.000000 0.138904
394.000000 48.717000 -6.000000 7.000000 -5.000000 79.301000 -16.474484 1293.291596 1153.054110 20.553164 0.000000 0.127767
395.000000 46.726000 -5.000000 7.000000 -5.000000 70.588415 -15.814045 1279.845557 1335.187188 21.432424 0.000000 0.102053
403.000000 80.863000 -8.000000 1.000000 -4.000000 138.431722 19.230153 599.559458 -344.329445 12.369312 0.000000 0.077620
404.000000 87.612000 -7.000000 1.000000 -4.000000 132.950438 20.470405 573.223598 -128.454329 11.417386 0.000000 0.050973
405.000000 85.450000 -1.000000 1.000000 -4.000000 52.789983 27.034806 425.776839 1858.503536 11.722158 0.000000 0.172135
410.000000 67.567000 -5.000000 1.000000 -2.000000 141.423299 3.288044 913.166598 -410.600606 7.401427 0.000000 0.019029
411.000000 72.535000 -9.000000 2.000000 -4.000000 137.449357 4.605036 888.308214 -235.284065 13.789783 0.000000 0.018966
412.000000 83.888000 -7.000000 2.000000 -4.000000 126.955974 7.157506 839.843322 124.890354 11.925332 0.000000 0.059702
413.000000 72.215000 -1.000000 2.000000 -4.000000 47.666974 14.145568 703.743392 1952.147118 13.872184 0.000000 0.136715
418.000000 57.350000 -12.000000 3.000000 -4.000000 141.706568 -8.750883 1140.674511 -438.201229 17.439928 0.000000 0.027182
419.000000 60.978000 -11.000000 3.000000 -4.000000 138.564436 -7.543374 1117.525812 -288.933840 16.403178 0.000000 0.015830
420.000000 64.948000 -10.000000 3.000000 -4.000000 134.906545 -6.346909 1094.715986 -138.404820 15.401219 0.000000 0.020559
421.000000 69.253000 -9.000000 3.000000 -4.000000 130.610497 -5.162364 1072.237648 14.403614 14.444679 0.000000 0.043262
422.000000 73.837000 -8.000000 3.000000 -4.000000 125.516555 -3.990559 1050.083623 170.950482 13.549002 0.000000 0.072203
423.000000 78.549000 -7.000000 3.000000 -4.000000 119.415279 -2.832255 1028.246943 333.418971 12.737536 0.000000 0.103366
424.000000 83.061000 -6.000000 3.000000 -4.000000 112.032555 -1.688148 1006.720838 505.248219 12.047318 0.000000 0.132887
425.000000 86.721000 -5.000000 3.000000 -4.000000 103.014798 -0.558875 985.498728 692.213231 11.540832 0.000000 0.155076
426.000000 88.336000 -4.000000 3.000000 -4.000000 91.923664 0.554992 964.574219 904.848933 11.332411 0.000000 0.160572
427.000000 85.906000 -3.000000 3.000000 -4.000000 78.264363 1.652941 943.941095 1164.681135 11.656067 0.000000 0.132663
428.000000 76.591000 -2.000000 3.000000 -4.000000 61.595921 2.734521 923.593311 1523.712710 13.077614 0.000000 0.040758
429.000000 57.559000 -1.000000 3.000000 -4.000000 41.783173 3.799344 903.524989 2148.134358 17.405650 0.000000 0.186016
432.000000 52.218000 -13.000000 4.000000 -4.000000 138.284717 -16.399866 1291.767893 -317.562767 19.154860 0.000000 0.048698
433.000000 55.147000 -6.000000 2.000000 -2.000000 135.279049 -15.355039 1270.552373 -186.061619 9.069132 0.000000 0.031542
434.000000 58.303000 -11.000000 4.000000 -4.000000 131.829523 -14.313231 1249.608672 -53.177129 17.157052 0.000000 0.026268
435.000000 61.671000 -5.000000 2.000000 -2.000000 127.842246 -13.275112 1228.931598 81.912876 8.110537 0.000000 0.043257
436.000000 65.201000 -9.000000 4.000000 -4.000000 123.198242 -12.241342 1208.516091 220.354720 15.344207 0.000000 0.069725
437.000000 72.203000 -7.000000 4.000000 -4.000000 111.295131 -10.189391 1168.450178 514.753160 13.858993 0.000000 0.125503
438.000000 76.754000 -5.000000 4.000000 -4.000000 94.383200 -8.162268 1129.372930 857.656851 13.041600 0.000000 0.156916
439.000000 71.778000 -3.000000 4.000000 -4.000000 70.010715 -6.164495 1091.248199 1334.788148 13.952462 0.000000 0.095307
440.000000 61.750000 -1.000000 2.000000 -2.000000 54.290836 -5.177917 1072.532211 1717.827002 8.111116 0.000000 0.038555
441.000000 45.479000 -15.000000 5.000000 -4.000000 137.491012 -22.857077 1428.694631 -333.258264 21.993222 0.000000 0.081528
442.000000 47.696000 -14.000000 5.000000 -4.000000 134.915020 -21.958700 1408.948924 -216.045783 20.971760 0.000000 0.059829
443.000000 50.066000 -13.000000 5.000000 -4.000000 132.011495 -21.059308 1389.429426 -97.878549 19.979931 0.000000 0.038654
444.000000 52.582000 -12.000000 5.000000 -4.000000 128.720942 -20.159342 1370.132269 21.765272 19.024716 0.000000 0.025498
445.000000 55.224000 -11.000000 5.000000 -4.000000 124.970179 -19.259247 1351.053677 143.578084 18.115474 0.000000 0.036192
446.000000 57.949000 -10.000000 5.000000 -4.000000 120.668895 -18.359466 1332.189957 268.502532 17.265052 0.000000 0.060264
447.000000 60.672000 -9.000000 5.000000 -4.000000 115.705565 -17.460442 1313.537500 397.860268 16.491574 0.000000 0.086837
448.000000 63.248000 -8.000000 5.000000 -4.000000 109.942958 -16.562618 1295.092777 533.569149 15.821464 0.000000 0.112122
449.000000 65.435000 -7.000000 5.000000 -4.000000 103.214016 -15.666429 1276.852336 678.528908 15.294806 0.000000 0.133006
450.000000 66.841000 -6.000000 5.000000 -4.000000 95.319995 -14.772309 1258.812802 837.350385 14.975491 0.000000 0.145426
451.000000 66.869000 -5.000000 5.000000 -4.000000 86.034876 -13.880684 1240.970874 1017.847665 14.971961 0.000000 0.143372
452.000000 64.670000 -4.000000 5.000000 -4.000000 75.123367 -12.991974 1223.323323 1234.420903 15.484247 0.000000 0.117876
453.000000 59.173000 -3.000000 5.000000 -4.000000 62.383604 -12.106590 1205.866990 1516.873215 16.926551 0.000000 0.063859
454.000000 49.304000 -2.000000 5.000000 -4.000000 47.725244 -11.224933 1188.598783 1938.568915 20.318626 0.000000 0.125249
455.000000 45.663000 -7.000000 3.000000 -2.000000 128.946096 -25.329527 1484.440743 -21.415094 10.953672 0.000000 0.042530
456.000000 47.682000 -13.000000 6.000000 -4.000000 125.791816 -24.547943 1466.583616 87.875196 20.980752 0.000000 0.022652
457.000000 49.771000 -6.000000 3.000000 -2.000000 122.239422 -23.764619 1448.908648 199.296650 10.050588 0.000000 0.025576
458.000000 51.893000 -11.000000 6.000000 -4.000000 118.219230 -22.979846 1431.413067 313.645445 19.280677 0.000000 0.047958
459.000000 53.982000 -5.000000 3.000000 -2.000000 113.647269 -22.193912 1414.094155 432.010101 9.267915 0.000000 0.073115
460.000000 55.936000 -9.000000 6.000000 -4.000000 108.422803 -21.407112 1396.949249 555.922431 17.890046 0.000000 0.097059
461.000000 57.593000 -4.000000 3.000000 -2.000000 102.426211 -20.619743 1379.975741 687.612704 8.688757 0.000000 0.117421
462.000000 58.706000 -7.000000 6.000000 -4.000000 95.518198 -19.832100 1363.171072 830.463806 17.050193 0.000000 0.131418
463.000000 58.920000 -3.000000 3.000000 -2.000000 87.542214 -19.044481 1346.532737 989.872566 8.495546 0.000000 0.135264
464.000000 57.740000 -5.000000 6.000000 -4.000000 78.333256 -18.257185 1330.058277 1175.018947 17.341548 0.000000 0.123980
465.000000 54.537000 -2.000000 3.000000 -2.000000 67.737818 -17.470507 1313.745284 1402.897355 9.181670 0.000000 0.094598
466.000000 48.621000 -3.000000 6.000000 -4.000000 55.650221 -16.684743 1297.591395 1708.898538 20.601761 0.000000 0.087326
467.000000 46.822000 -12.000000 7.000000 -4.000000 115.958657 -26.549589 1512.784127 355.248487 21.369562 0.000000 0.035226
468.000000 48.445000 -11.000000 7.000000 -4.000000 111.713763 -25.857837 1496.641997 464.703697 20.654927 0.000000 0.059605
469.000000 49.946000 -10.000000 7.000000 -4.000000 106.927062 -25.164336 1480.647594 579.093595 20.036124 0.000000 0.082603
470.000000 51.212000 -9.000000 7.000000 -4.000000 101.510666 -24.469284 1464.798898 700.187884 19.542945 0.000000 0.102570
471.000000 52.081000 -8.000000 7.000000 -4.000000 95.364142 -23.772881 1449.093929 830.569870 19.218951 0.000000 0.117622
472.000000 52.329000 -7.000000 7.000000 -4.000000 88.376012 -23.075328 1433.530740 974.168373 19.130485 0.000000 0.125353
473.000000 51.653000 -6.000000 7.000000 -4.000000 80.428524 -22.376831 1418.107419 1137.269545 19.383783 0.000000 0.122943
474.000000 49.672000 -5.000000 7.000000 -4.000000 71.407828 -21.677596 1402.822090 1330.603224 20.160286 0.000000 0.109069
475.000000 45.949000 -4.000000 7.000000 -4.000000 61.222090 -20.977830 1387.672908 1574.121447 21.797480 0.000000 0.097195
476.000000 45.976000 -5.000000 4.000000 -2.000000 100.588295 -27.521474 1535.796136 714.131618 10.884350 0.000000 0.089755
477.000000 46.656000 -9.000000 8.000000 -4.000000 95.048557 -26.901470 1521.069968 834.379422 21.453650 0.000000 0.105494
478.000000 46.888000 -2.000000 2.000000 -1.000000 88.830482 -26.279813 1506.465999 965.505081 5.337502 0.000000 0.115872
479.000000 46.479000 -7.000000 8.000000 -4.000000 81.848095 -25.656643 1491.982714 1112.037747 21.541135 0.000000 0.119290
485.000000 84.123000 -8.000000 2.000000 -3.000000 139.598103 -4.317466 1056.256940 -327.155394 11.889826 0.000000 0.007103
489.000000 68.390000 -10.000000 3.000000 -3.000000 139.201317 -16.748694 1298.901053 -361.198860 14.625216 0.000000 0.054830
490.000000 79.206000 -8.000000 3.000000 -3.000000 130.565478 -13.966748 1242.686941 -8.440760 12.629586 0.000000 0.029982
491.000000 85.349000 -7.000000 3.000000 -3.000000 124.827794 -12.585409 1215.292504 173.746063 11.721634 0.000000 0.060447
492.000000 68.243000 -1.000000 3.000000 -3.000000 42.461067 -4.525084 1060.180335 2120.850348 14.680554 0.000000 0.178161
497.000000 60.812000 -11.000000 4.000000 -3.000000 134.720587 -23.757861 1448.757090 -223.534734 16.448498 0.000000 0.069832
498.000000 64.703000 -10.000000 4.000000 -3.000000 130.962563 -22.616023 1423.371249 -71.210615 15.460305 0.000000 0.040130
499.000000 68.889000 -9.000000 4.000000 -3.000000 126.544473 -21.472019 1398.356532 83.797645 14.521747 0.000000 0.024277
500.000000 73.293000 -8.000000 4.000000 -3.000000 121.300038 -20.326758 1373.704859 243.144136 13.650258 0.000000 0.047941
501.000000 77.730000 -7.000000 4.000000 -3.000000 115.011501 -19.181152 1349.408383 409.337156 12.872518 0.000000 0.082364
502.000000 81.816000 -6.000000 4.000000 -3.000000 107.394756 -18.036119 1325.459482 586.393156 12.231521 0.000000 0.114653
503.000000 84.814000 -5.000000 4.000000 -3.000000 98.085735 -16.892570 1301.850752 781.198814 11.801300 0.000000 0.137653
504.000000 85.414000 -4.000000 4.000000 -3.000000 86.639093 -15.751411 1278.574995 1006.672848 11.721091 0.000000 0.141077
505.000000 81.499000 -3.000000 4.000000 -3.000000 72.566267 -14.613537 1255.625216 1290.285755 12.287399 0.000000 0.108642
506.000000 70.228000 -2.000000 4.000000 -3.000000 55.463878 -13.479826 1232.994616 1702.699319 14.263420 0.000000 0.070620
510.000000 51.648000 -13.000000 5.000000 -3.000000 133.812887 -29.502249 1583.993773 -245.430854 19.367339 0.000000 0.108824
511.000000 54.438000 -12.000000 5.000000 -3.000000 130.661034 -28.557196 1560.772028 -111.537722 18.375399 0.000000 0.077321
512.000000 57.414000 -11.000000 5.000000 -3.000000 127.047591 -27.607371 1537.849367 24.164289 17.423993 0.000000 0.044758
513.000000 60.542000 -10.000000 5.000000 -3.000000 122.875986 -26.653263 1515.220050 162.643715 16.524704 0.000000 0.016098
514.000000 63.752000 -9.000000 5.000000 -3.000000 118.024616 -25.695376 1492.878482 305.264286 15.693991 0.000000 0.031372
515.000000 66.904000 -8.000000 5.000000 -3.000000 112.340323 -24.734226 1470.819209 454.017896 14.956062 0.000000 0.063973
516.000000 69.748000 -7.000000 5.000000 -3.000000 105.631351 -23.770339 1449.036915 611.943976 14.348035 0.000000 0.094403
517.000000 71.853000 -6.000000 5.000000 -3.000000 97.661636 -22.804251 1427.526414 783.936079 13.929877 0.000000 0.117926
518.000000 72.516000 -5.000000 5.000000 -3.000000 88.151116 -21.836505 1406.282652 978.428664 13.805175 0.000000 0.128690
519.000000 70.666000 -4.000000 5.000000 -3.000000 76.791978 -20.867652 1385.300698 1211.333875 14.169619 0.000000 0.119022
520.000000 64.856000 -3.000000 5.000000 -3.000000 63.298332 -19.898242 1364.575741 1516.730845 15.442618 0.000000 0.092438
521.000000 53.527000 -2.000000 5.000000 -3.000000 47.510825 -18.928832 1344.103089 1983.229399 18.714961 0.000000 0.162210
522.000000 46.874000 -14.000000 6.000000 -3.000000 130.152589 -32.805807 1668.778716 -139.310494 21.340594 0.000000 0.114058
523.000000 49.077000 -13.000000 6.000000 -3.000000 127.082835 -32.004938 1647.672295 -18.299413 20.383802 0.000000 0.082613
524.000000 51.383000 -4.000000 2.000000 -1.000000 123.610744 -31.199238 1626.807415 104.662269 6.490024 0.000000 0.050135
525.000000 53.759000 -11.000000 6.000000 -3.000000 119.662048 -30.388983 1606.179952 230.409795 18.610678 0.000000 0.017006
526.000000 56.145000 -10.000000 6.000000 -3.000000 115.145958 -29.574463 1585.785878 360.089905 17.821214 0.000000 0.016158
527.000000 58.436000 -3.000000 2.000000 -1.000000 109.951711 -28.755973 1565.621253 495.325819 5.707954 0.000000 0.048039
528.000000 60.465000 -8.000000 6.000000 -3.000000 103.945150 -27.933823 1545.682228 638.499254 16.551303 0.000000 0.077052
529.000000 61.961000 -7.000000 6.000000 -3.000000 96.966352 -27.108328 1525.965037 793.259420 16.153746 0.000000 0.100762
530.000000 61.545000 -5.000000 6.000000 -3.000000 79.335934 -25.448608 1487.181513 1165.446705 16.268518 0.000000 0.118711
531.000000 58.260000 -4.000000 6.000000 -3.000000 68.286475 -24.615052 1468.108058 1412.445667 17.189214 0.000000 0.110848
532.000000 51.761000 -1.000000 2.000000 -1.000000 55.535919 -23.779490 1449.242187 1748.256308 6.450512 0.000000 0.130667
533.000000 46.359000 -13.000000 7.000000 -3.000000 120.622805 -33.888390 1697.923207 173.529093 21.580895 0.000000 0.057348
534.000000 48.194000 -12.000000 7.000000 -3.000000 116.880608 -33.188156 1678.989528 289.079855 20.760460 0.000000 0.027923
535.000000 50.003000 -11.000000 7.000000 -3.000000 112.658993 -32.483856 1660.248809 408.343204 20.010915 0.000000 0.014840
536.000000 51.708000 -10.000000 7.000000 -3.000000 107.875854 -31.775668 1641.698115 532.664440 19.352680 0.000000 0.038620
537.000000 53.191000 -9.000000 7.000000 -3.000000 102.434363 -31.063779 1623.334571 663.954404 18.814855 0.000000 0.065077
538.000000 54.278000 -8.000000 7.000000 -3.000000 96.222023 -30.348381 1605.155358 805.025774 18.440374 0.000000 0.088258
539.000000 54.716000 -7.000000 7.000000 -3.000000 89.111551 -29.629672 1587.157715 960.201552 18.295335 0.000000 0.105802
540.000000 54.157000 -6.000000 7.000000 -3.000000 80.965424 -28.907857 1569.338935 1136.492878 18.487059 0.000000 0.115853
541.000000 52.149000 -5.000000 7.000000 -3.000000 71.646918 -28.183146 1551.696365 1346.082435 19.202165 0.000000 0.119615
542.000000 48.160000 -4.000000 7.000000 -3.000000 61.041250 -27.455755 1534.227404 1612.184530 20.796396 0.000000 0.132365
543.000000 46.271000 -11.000000 8.000000 -3.000000 106.085108 -34.114343 1704.099001 566.140870 21.627101 0.000000 0.038731
544.000000 47.382000 -10.000000 8.000000 -3.000000 101.110291 -33.489197 1687.091835 687.566105 21.121994 0.000000 0.059930
545.000000 48.189000 -9.000000 8.000000 -3.000000 95.510284 -32.860735 1670.240180 817.391268 20.770526 0.000000 0.081288
546.000000 48.529000 -8.000000 8.000000 -3.000000 89.194212 -32.229084 1653.541915 958.894805 20.627755 0.000000 0.099648
547.000000 48.183000 -7.000000 8.000000 -3.000000 82.064765 -31.594373 1636.994953 1117.128981 20.778621 0.000000 0.113641
548.000000 46.875000 -6.000000 8.000000 -3.000000 74.024204 -30.956737 1620.597249 1300.312320 21.361389 0.000000 0.124075
553.000000 83.818000 -8.000000 3.000000 -2.000000 134.281676 -26.886349 1520.712856 -235.851152 11.933889 0.000000 0.089656
554.000000 78.847000 -1.000000 3.000000 -2.000000 42.067167 -15.900187 1281.594293 2180.972388 12.705957 0.000000 0.212590
558.000000 67.187000 -5.000000 2.000000 -1.000000 132.880832 -33.601577 1690.130897 -258.995647 7.444030 0.000000 0.144406
559.000000 71.942000 -9.000000 4.000000 -2.000000 128.663920 -32.405993 1658.195052 -79.005688 13.904929 0.000000 0.098475
560.000000 82.434000 -7.000000 4.000000 -2.000000 117.481339 -29.982238 1595.953990 294.670544 12.137339 0.000000 0.001112
561.000000 90.371000 -3.000000 4.000000 -2.000000 74.016591 -25.032102 1477.618624 1281.243992 11.080423 0.000000 0.115292
567.000000 59.164000 -11.000000 5.000000 -2.000000 128.119243 -36.931192 1784.021227 -115.481262 16.907928 0.000000 0.148394
568.000000 62.625000 -10.000000 5.000000 -2.000000 124.046483 -35.966007 1755.998364 42.468102 15.974607 0.000000 0.105127
569.000000 66.239000 -9.000000 5.000000 -2.000000 119.279432 -34.991364 1728.387634 204.364395 15.104269 0.000000 0.061525
570.000000 69.874000 -8.000000 5.000000 -2.000000 113.651029 -34.007696 1701.180010 372.381502 14.319786 0.000000 0.024178
571.000000 73.276000 -7.000000 5.000000 -2.000000 106.947334 -33.015463 1674.366729 549.866458 13.656628 0.000000 0.037473
572.000000 75.978000 -6.000000 5.000000 -2.000000 98.897678 -32.015157 1647.939278 742.277355 13.172921 0.000000 0.073252
573.000000 77.175000 -5.000000 5.000000 -2.000000 89.170060 -31.007296 1621.889390 959.190848 12.970983 0.000000 0.102211
574.000000 75.572000 -4.000000 5.000000 -2.000000 77.384215 -29.992423 1596.209031 1219.136455 13.249169 0.000000 0.118664
575.000000 69.313000 -3.000000 5.000000 -2.000000 63.167139 -28.971109 1570.890393 1563.325688 14.449093 0.000000 0.135303
576.000000 56.298000 -2.000000 5.000000 -2.000000 46.286761 -27.943947 1545.925887 2105.814947 17.793432 0.000000 0.234130
580.000000 52.644000 -6.000000 3.000000 -1.000000 124.153311 -39.240658 1854.076702 -1.764851 9.501490 0.000000 0.151344
581.000000 55.220000 -11.000000 6.000000 -2.000000 120.248507 -38.435094 1829.134210 139.738169 18.117669 0.000000 0.112375
582.000000 57.838000 -5.000000 3.000000 -1.000000 115.762108 -37.621862 1804.512586 285.209739 8.649418 0.000000 0.075256
583.000000 60.395000 -9.000000 6.000000 -2.000000 110.574520 -36.801184 1780.205675 436.445660 16.568115 0.000000 0.046907
584.000000 62.712000 -4.000000 3.000000 -1.000000 104.538645 -35.973299 1756.207484 596.101421 7.978834 0.000000 0.046368
585.000000 64.499000 -7.000000 6.000000 -2.000000 97.475959 -35.138462 1732.512167 768.288199 15.517475 0.000000 0.070398
586.000000 65.300000 -3.000000 3.000000 -1.000000 89.175730 -34.296943 1709.114027 959.743926 7.664833 0.000000 0.097453
587.000000 64.431000 -5.000000 6.000000 -2.000000 79.402342 -33.449029 1686.007507 1182.350829 15.539316 0.000000 0.120242
588.000000 60.954000 -2.000000 3.000000 -1.000000 67.919480 -32.595023 1663.187191 1459.233819 8.214521 0.000000 0.143100
589.000000 53.756000 -3.000000 6.000000 -2.000000 54.543407 -31.735242 1640.647792 1842.228341 18.632642 0.000000 0.196728
590.000000 47.287000 -13.000000 7.000000 -2.000000 120.824167 -40.931485 1908.351084 90.938993 21.156827 0.000000 0.154694
591.000000 49.245000 -12.000000 7.000000 -2.000000 117.095909 -40.241918 1885.889773 219.588219 20.316804 0.000000 0.120407
592.000000 51.192000 -11.000000 7.000000 -2.000000 112.875837 -39.546141 1863.685237 352.097678 19.545669 0.000000 0.089388
593.000000 53.047000 -10.000000 7.000000 -2.000000 108.076119 -38.844277 1841.733098 489.964295 18.863729 0.000000 0.067145
594.000000 54.686000 -9.000000 7.000000 -2.000000 102.592050 -38.136461 1820.029077 635.328565 18.300147 0.000000 0.063008
595.000000 55.920000 -8.000000 7.000000 -2.000000 96.300489 -37.422834 1798.568991 791.368422 17.898345 0.000000 0.077605
596.000000 56.472000 -7.000000 7.000000 -2.000000 89.060166 -36.703549 1777.348750 963.022450 17.725956 0.000000 0.100132
597.000000 55.949000 -6.000000 7.000000 -2.000000 80.716052 -35.978768 1756.364356 1158.415703 17.894407 0.000000 0.123681
598.000000 53.832000 -5.000000 7.000000 -2.000000 71.111281 -35.248662 1735.611898 1391.938454 18.601229 0.000000 0.148850
599.000000 49.499000 -4.000000 7.000000 -2.000000 60.111382 -34.513411 1715.087554 1691.748779 20.233139 0.000000 0.188310
600.000000 45.832000 -6.000000 4.000000 -1.000000 110.476868 -41.011901 1911.000921 408.361567 10.916198 0.000000 0.102934
601.000000 47.215000 -11.000000 8.000000 -2.000000 106.018479 -40.399894 1890.994792 535.245439 21.194431 0.000000 0.085009
602.000000 48.412000 -5.000000 4.000000 -1.000000 100.997465 -39.782958 1871.192361 668.822903 10.336160 0.000000 0.080187
603.000000 49.295000 -9.000000 8.000000 -2.000000 95.325694 -39.161179 1851.590534 811.602033 20.304113 0.000000 0.089349
604.000000 49.687000 -4.000000 4.000000 -1.000000 88.904235 -38.534647 1832.186276 967.317433 10.073287 0.000000 0.107314
605.000000 49.346000 -7.000000 8.000000 -2.000000 81.626072 -37.903460 1812.976616 1141.790193 20.288294 0.000000 0.129133
606.000000 47.965000 -3.000000 4.000000 -1.000000 73.382559 -37.267720 1793.958642 1344.629150 10.437818 0.000000 0.153940
612.000000 85.668000 -7.000000 4.000000 -1.000000 118.002114 -42.220821 1951.636976 168.170770 11.678760 0.000000 0.158687
613.000000 81.164000 -2.000000 4.000000 -1.000000 53.637657 -35.983022 1756.486386 1920.275701 12.340370 0.000000 0.245103
618.000000 67.880000 -9.000000 5.000000 -1.000000 119.137705 -45.001521 2051.351429 92.469470 14.738798 0.000000 0.219462
619.000000 71.813000 -8.000000 5.000000 -1.000000 113.498037 -44.054463 2016.344264 289.885769 13.932955 0.000000 0.168019
620.000000 75.543000 -7.000000 5.000000 -1.000000 106.737406 -43.093151 1981.937080 497.764805 13.246452 0.000000 0.127035
621.000000 78.566000 -6.000000 5.000000 -1.000000 98.556833 -42.117816 1948.114582 722.676998 12.738717 0.000000 0.110451
622.000000 79.975000 -5.000000 5.000000 -1.000000 88.582059 -41.128725 1914.861994 976.369215 12.516488 0.000000 0.126443
623.000000 78.266000 -4.000000 5.000000 -1.000000 76.374475 -40.126188 1882.165031 1282.199846 12.792597 0.000000 0.164381
624.000000 71.222000 -3.000000 5.000000 -1.000000 61.493381 -39.110554 1850.009883 1694.342370 14.061362 0.000000 0.226791
630.000000 58.916000 -10.000000 6.000000 -1.000000 115.306010 -46.080401 2092.669770 207.342724 16.982399 0.000000 0.219202
631.000000 61.616000 -9.000000 6.000000 -1.000000 110.078285 -45.294130 2062.401777 381.762667 16.239475 0.000000 0.177940
632.000000 64.078000 -8.000000 6.000000 -1.000000 103.969595 -44.497478 2032.578332 565.630956 15.617340 0.000000 0.147077
633.000000 65.985000 -7.000000 6.000000 -1.000000 96.786515 -43.690554 2003.189714 763.864368 15.167897 0.000000 0.134773
634.000000 66.833000 -6.000000 6.000000 -1.000000 88.298009 -42.873482 1974.226481 984.638898 14.977752 0.000000 0.145477
635.000000 65.854000 -5.000000 6.000000 -1.000000 78.242559 -42.046410 1945.679463 1242.662525 15.203052 0.000000 0.175255
636.000000 61.979000 -4.000000 6.000000 -1.000000 66.354956 -41.209502 1917.539754 1567.380263 16.156801 0.000000 0.223366
641.000000 51.922000 -11.000000 7.000000 -1.000000 112.250582 -46.859173 2123.511682 297.039301 19.270817 0.000000 0.220883
642.000000 53.847000 -10.000000 7.000000 -1.000000 107.401555 -46.187436 2096.856736 453.752330 18.583198 0.000000 0.187538
643.000000 55.549000 -9.000000 7.000000 -1.000000 101.844620 -45.507826 2070.544280 618.909994 18.015805 0.000000 0.163687
644.000000 56.822000 -8.000000 7.000000 -1.000000 95.448260 -44.820398 2044.567756 796.277548 17.614067 0.000000 0.154347
645.000000 57.365000 -7.000000 7.000000 -1.000000 88.060524 -44.125220 2018.920769 991.774217 17.449601 0.000000 0.162206
646.000000 56.748000 -6.000000 7.000000 -1.000000 79.513520 -43.422367 1993.597091 1215.287360 17.642256 0.000000 0.185803
647.000000 54.394000 -5.000000 7.000000 -1.000000 69.636523 -42.711926 1968.590644 1484.690695 18.408937 0.000000 0.224315
648.000000 49.612000 -4.000000 7.000000 -1.000000 58.283336 -41.993996 1943.895506 1835.983883 20.186799 0.000000 0.285932
649.000000 46.339000 -12.000000 8.000000 -1.000000 109.761861 -47.447569 2147.413367 369.210972 21.593231 0.000000 0.223677
650.000000 47.756000 -11.000000 8.000000 -1.000000 105.253146 -46.861445 2123.602964 511.766242 20.954318 0.000000 0.196425
651.000000 48.977000 -10.000000 8.000000 -1.000000 100.164530 -46.269157 2100.064472 661.850465 20.433843 0.000000 0.177562
652.000000 49.865000 -9.000000 8.000000 -1.000000 94.402908 -45.670734 2076.793260 822.405897 20.071744 0.000000 0.170329
653.000000 50.231000 -8.000000 8.000000 -1.000000 87.863308 -45.066214 2053.784801 997.855060 19.928187 0.000000 0.176485
654.000000 49.812000 -7.000000 8.000000 -1.000000 80.431764 -44.455640 2031.034670 1195.174368 20.098236 0.000000 0.195554
655.000000 48.275000 -6.000000 8.000000 -1.000000 71.992341 -43.839061 2008.538541 1426.060323 20.741442 0.000000 0.227034
660.000000 133.488000 -3.000000 3.000000 0.000000 86.020891 -51.661560 2335.946692 1061.694562 7.498879 0.000000 0.321261
673.000000 65.357000 -5.000000 6.000000 0.000000 75.677421 -50.895640 2299.173909 1376.675487 15.318660 0.000000 0.343212
678.000000 56.831000 -8.000000 7.000000 0.000000 93.578977 -52.308134 2367.970750 830.897591 17.611353 0.000000 0.326409
679.000000 56.330000 -6.000000 7.000000 0.000000 77.265535 -51.005822 2304.388919 1327.550822 17.773101 0.000000 0.338004
683.000000 49.814000 -9.000000 8.000000 0.000000 92.693638 -52.227813 2363.941890 858.330540 20.092651 0.000000 0.324712
684.000000 49.462000 -7.000000 8.000000 0.000000 78.431526 -51.088291 2308.308489 1291.750918 20.240535 0.000000 0.334575
#UB matrix in q= (UB) B0 G* 
#[[ 0.995407058  0.043427976  0.085197957]
# [ 0.08995195  -0.729890757 -0.678981931]
# [ 0.032763315  0.683785889 -0.730714956]]
#B0 matrix in q= UB (B0) G*
#[[ 0.19670273 -0.          0.03056101]
# [ 0.          0.19187965 -0.        ]
# [ 0.          0.          0.18806537]]
#UBB0 matrix in q= (UB B0) G* i.e. recip. basis vectors are columns in LT frame: astar = UBB0[:,0], bstar = UBB0[:,1], cstar = UBB0[:,2]. (abcstar as columns on xyzlab1, xlab1 = ui, ui = unit vector along incident beam)
#[[ 0.19579929  0.00833294  0.04644343]
# [ 0.01769379 -0.14005119 -0.12494397]
# [ 0.00644463  0.1312046  -0.1364209 ]]
#Euler angles phi theta psi (deg)
#[177.254 136.857 172.832]
#deviatoric strain in direct crystal frame (10-3 unit)
#[[-2.34 -0.02  0.52]
# [-0.02 -3.37  0.35]
# [ 0.52  0.35  5.72]]
#deviatoric strain in sample2 frame (10-3 unit)
#[[-1.73  2.27  1.47]
# [ 2.27  1.1   3.95]
# [ 1.46  3.95  0.63]]
#new lattice parameters
#[ 5.1505     5.2062246  5.3117366 89.9788489 99.2082536 90.0020576]
#CCDLabel
#sCMOS
#DetectorParameters
#[79.0, 975.0, 941.0, 0.0, 0.0]
#pixelsize
#0.0734
#Frame dimensions
#[2018, 2016]
#
