#Strain and Orientation Refinement from experimental file: /home/micha/LaueProjects/DepthEffects/testZrO2_149.cor
#File created at Wed Jun 28 14:27:15 2023 with indexingSpotsSet.py
#Number of indexed spots: 521
#Element
#ZrO2
#grainIndex
#G_0
#Mean Deviation(pixel): 0.117
##spot_index intensity h k l 2theta Chi Xexp Yexp Energy GrainIndex PixDev
1.000000 46.649000 6.000000 0.000000 -2.000000 39.921929 13.883595 708.971110 2265.940637 21.459761 0.000000 0.246865
4.000000 50.045000 6.000000 1.000000 -2.000000 43.559956 23.571540 505.415120 2175.836107 20.001893 0.000000 0.237336
5.000000 47.718000 7.000000 1.000000 -2.000000 48.251042 21.756304 545.464860 1975.266241 20.976804 0.000000 0.172206
9.000000 48.365000 7.000000 2.000000 -2.000000 50.439517 30.126861 350.419718 1969.005281 20.694883 0.000000 0.211913
10.000000 45.499000 4.000000 1.000000 -1.000000 53.832950 27.852680 406.269110 1830.867806 10.998779 0.000000 0.167642
14.000000 47.309000 7.000000 3.000000 -2.000000 51.618038 38.022321 133.431294 2023.178608 21.155284 0.000000 0.282159
17.000000 53.546000 5.000000 -2.000000 -1.000000 40.564045 -10.353974 1171.643381 2219.143130 18.695721 0.000000 0.228376
18.000000 51.803000 6.000000 -2.000000 -1.000000 46.387283 -7.788111 1122.206453 1975.943131 19.323811 0.000000 0.134085
19.000000 48.842000 7.000000 -2.000000 -1.000000 50.636448 -5.819797 1084.701716 1828.506490 20.494695 0.000000 0.074670
20.000000 45.630000 8.000000 -2.000000 -1.000000 53.854666 -4.265455 1055.274403 1729.336039 21.936609 0.000000 0.035048
22.000000 70.576000 4.000000 -1.000000 -1.000000 41.108527 -1.637001 1005.759236 2174.912292 14.184512 0.000000 0.208239
23.000000 66.288000 5.000000 -1.000000 -1.000000 48.010683 0.115946 972.821962 1909.738384 15.101153 0.000000 0.103532
24.000000 60.627000 6.000000 -1.000000 -1.000000 52.677279 1.360851 949.431774 1761.822727 16.510435 0.000000 0.045940
25.000000 55.193000 7.000000 -1.000000 -1.000000 56.028469 2.289815 931.963180 1666.771343 18.135004 0.000000 0.018086
26.000000 50.365000 8.000000 -1.000000 -1.000000 58.545915 3.009220 918.420129 1600.277238 19.872806 0.000000 0.026078
27.000000 46.171000 9.000000 -1.000000 -1.000000 60.503723 3.582621 907.613058 1551.037869 21.677490 0.000000 0.041150
28.000000 79.707000 5.000000 1.000000 -1.000000 58.572761 24.465362 485.290027 1663.551993 12.556394 0.000000 0.121840
29.000000 70.064000 6.000000 1.000000 -1.000000 61.692977 22.074608 538.517746 1566.550765 14.284040 0.000000 0.104388
30.000000 62.172000 7.000000 1.000000 -1.000000 63.887058 20.302695 576.809105 1503.520557 16.096732 0.000000 0.099040
31.000000 55.727000 8.000000 1.000000 -1.000000 65.507683 18.939281 605.677529 1459.385047 17.958034 0.000000 0.098608
32.000000 50.415000 9.000000 1.000000 -1.000000 66.750756 17.858834 628.220199 1426.804168 19.849721 0.000000 0.100029
33.000000 45.985000 10.000000 1.000000 -1.000000 67.732971 16.982123 646.310993 1401.789378 21.761667 0.000000 0.102049
35.000000 86.395000 4.000000 2.000000 -1.000000 55.444527 41.771213 13.654467 1934.887278 11.583740 0.000000 0.299518
36.000000 77.665000 5.000000 2.000000 -1.000000 60.369034 36.384768 181.928993 1701.435660 12.885289 0.000000 0.200198
37.000000 69.292000 6.000000 2.000000 -1.000000 63.579023 32.414502 291.580675 1574.467480 14.442070 0.000000 0.153658
38.000000 62.027000 7.000000 2.000000 -1.000000 65.789184 29.393540 368.699207 1496.454154 16.133289 0.000000 0.131335
39.000000 55.892000 8.000000 2.000000 -1.000000 67.381811 27.029907 425.892837 1444.406360 17.903990 0.000000 0.120858
40.000000 50.730000 9.000000 2.000000 -1.000000 68.573071 25.136086 470.000057 1407.561468 19.725580 0.000000 0.116239
41.000000 46.366000 10.000000 2.000000 -1.000000 69.491854 23.587812 505.051209 1380.287796 21.581710 0.000000 0.114511
45.000000 65.632000 6.000000 3.000000 -1.000000 63.826228 41.908470 9.009150 1651.805532 15.246452 0.000000 0.241265
46.000000 59.805000 7.000000 3.000000 -1.000000 66.360093 37.961070 135.283802 1538.535702 16.731630 0.000000 0.184317
47.000000 54.541000 8.000000 3.000000 -1.000000 68.167782 34.790545 227.219365 1466.044334 18.346491 0.000000 0.153294
48.000000 49.916000 9.000000 3.000000 -1.000000 69.496696 32.202852 297.146485 1416.651796 20.046191 0.000000 0.136420
49.000000 45.890000 10.000000 3.000000 -1.000000 70.500008 30.058974 352.123242 1381.359436 21.804425 0.000000 0.127415
52.000000 56.180000 7.000000 4.000000 -1.000000 65.864308 45.711210 -128.351500 1631.636749 17.810823 0.000000 0.285421
53.000000 52.052000 8.000000 4.000000 -1.000000 68.023068 41.981914 6.515292 1525.305678 19.222929 0.000000 0.218008
54.000000 48.194000 9.000000 4.000000 -1.000000 69.615949 38.868036 107.530929 1454.656138 20.761699 0.000000 0.177674
57.000000 48.854000 8.000000 5.000000 -1.000000 67.171235 48.466543 -240.098891 1624.302075 20.480799 0.000000 0.329624
58.000000 45.835000 9.000000 5.000000 -1.000000 69.082202 45.003054 -101.409021 1522.810125 21.829433 0.000000 0.253979
61.000000 45.832000 3.000000 -2.000000 0.000000 47.150990 -26.305398 1507.063930 2054.700499 10.919820 0.000000 0.210036
64.000000 59.979000 5.000000 -3.000000 0.000000 50.133750 -23.839610 1450.591413 1923.687434 16.688302 0.000000 0.161727
65.000000 56.497000 2.000000 -1.000000 0.000000 54.755013 -19.744439 1361.311209 1749.012411 5.905336 0.000000 0.100069
66.000000 52.504000 7.000000 -3.000000 0.000000 58.116663 -16.505045 1293.915971 1639.272498 19.062648 0.000000 0.069773
67.000000 48.605000 8.000000 -3.000000 0.000000 60.639159 -13.894055 1241.237388 1564.741691 20.591336 0.000000 0.060530
68.000000 75.786000 5.000000 -2.000000 0.000000 59.463623 -15.132214 1266.055767 1598.712055 13.206330 0.000000 0.063108
69.000000 67.520000 3.000000 -1.000000 0.000000 62.584783 -11.753064 1198.929580 1511.215481 7.411239 0.000000 0.062716
70.000000 60.454000 7.000000 -2.000000 0.000000 64.773140 -9.187242 1149.075698 1454.671517 16.554559 0.000000 0.072155
71.000000 54.522000 4.000000 -1.000000 0.000000 66.378018 -7.180084 1110.587509 1415.433639 9.177551 0.000000 0.081515
72.000000 49.543000 9.000000 -2.000000 0.000000 67.598203 -5.570704 1079.975997 1386.761231 20.199442 0.000000 0.089184
73.000000 90.673000 5.000000 -1.000000 0.000000 68.553439 -4.253450 1055.047652 1364.972151 11.036745 0.000000 0.095271
74.000000 77.337000 6.000000 -1.000000 0.000000 69.946138 -2.229450 1016.901103 1334.182920 12.939617 0.000000 0.104015
75.000000 67.312000 7.000000 -1.000000 0.000000 70.907725 -0.749682 989.083487 1313.569702 14.866503 0.000000 0.109831
76.000000 59.536000 8.000000 -1.000000 0.000000 71.608873 0.377964 967.899896 1298.858121 16.808001 0.000000 0.113902
77.000000 53.343000 9.000000 -1.000000 0.000000 72.141524 1.265173 951.230007 1287.856948 18.759052 0.000000 0.116878
78.000000 48.302000 10.000000 -1.000000 0.000000 72.559266 1.981119 937.770079 1279.332934 20.716690 0.000000 0.119132
79.000000 168.206000 3.000000 0.000000 0.000000 75.942063 8.641385 811.430517 1213.601134 5.948628 0.000000 0.133757
80.000000 169.203000 3.000000 1.000000 0.000000 81.206612 31.734486 309.371856 1136.758994 5.912543 0.000000 0.117648
81.000000 129.100000 4.000000 1.000000 0.000000 80.795665 26.075230 448.305724 1135.168089 7.749411 0.000000 0.125155
82.000000 103.773000 5.000000 1.000000 0.000000 80.266545 22.598622 527.012308 1140.975444 9.640997 0.000000 0.130838
83.000000 86.537000 6.000000 1.000000 0.000000 79.790951 20.262009 577.677758 1147.617114 11.561396 0.000000 0.133964
84.000000 74.118000 7.000000 1.000000 0.000000 79.390369 18.588773 613.021734 1153.706995 13.498826 0.000000 0.135670
85.000000 64.770000 8.000000 1.000000 0.000000 79.056624 17.333493 639.081341 1159.007172 15.447159 0.000000 0.136611
86.000000 57.492000 9.000000 1.000000 0.000000 78.777378 16.357819 659.090180 1163.562636 17.402891 0.000000 0.137127
87.000000 51.670000 10.000000 1.000000 0.000000 78.541657 15.578111 674.936430 1167.479419 19.363875 0.000000 0.137396
88.000000 46.910000 11.000000 1.000000 0.000000 78.340692 14.940936 687.796668 1170.863978 21.328721 0.000000 0.137521
89.000000 144.759000 3.000000 2.000000 0.000000 78.342299 51.267221 -366.860888 1295.906804 6.910677 0.000000 0.332068
90.000000 119.076000 4.000000 2.000000 0.000000 80.503644 42.224414 -1.760061 1184.126367 8.401284 0.000000 0.162562
91.000000 99.390000 5.000000 2.000000 0.000000 81.146379 36.084237 190.606173 1148.449493 10.065423 0.000000 0.121714
92.000000 73.330000 7.000000 2.000000 0.000000 81.041732 28.525726 389.994008 1134.107474 13.642927 0.000000 0.121149
93.000000 57.561000 9.000000 2.000000 0.000000 80.528749 24.149132 492.442271 1137.775863 17.380971 0.000000 0.128399
94.000000 47.199000 11.000000 2.000000 0.000000 80.019430 21.325337 554.822003 1144.324965 21.197041 0.000000 0.132638
96.000000 90.366000 5.000000 3.000000 0.000000 79.336221 47.835729 -213.475722 1242.915439 11.070367 0.000000 0.249987
97.000000 70.222000 7.000000 3.000000 0.000000 81.025470 37.888916 137.462105 1156.379140 14.246170 0.000000 0.128580
98.000000 62.660000 8.000000 3.000000 0.000000 81.206715 34.474745 235.981726 1142.958860 15.965580 0.000000 0.118480
99.000000 51.178000 10.000000 3.000000 0.000000 81.110369 29.496061 366.159679 1134.411838 19.547975 0.000000 0.119779
100.000000 46.778000 11.000000 3.000000 0.000000 80.964690 27.638473 411.406384 1134.193084 21.387051 0.000000 0.122538
102.000000 65.586000 7.000000 4.000000 0.000000 79.714183 46.288961 -150.843284 1223.654829 15.252986 0.000000 0.220525
103.000000 54.263000 9.000000 4.000000 0.000000 80.935592 38.874663 107.325560 1161.557672 18.435903 0.000000 0.134008
104.000000 45.739000 11.000000 4.000000 0.000000 81.219458 33.734293 256.269850 1140.904442 21.872431 0.000000 0.117752
107.000000 55.666000 8.000000 5.000000 0.000000 78.980554 49.151666 -269.774463 1261.444409 17.971162 0.000000 0.278593
108.000000 51.451000 9.000000 5.000000 0.000000 79.909810 45.409976 -116.808255 1213.819322 19.443488 0.000000 0.205673
112.000000 45.555000 6.000000 -5.000000 1.000000 52.136366 -35.560196 1744.420628 1969.605468 21.970061 0.000000 0.243371
116.000000 58.917000 5.000000 -4.000000 1.000000 56.004716 -35.450487 1741.310808 1832.020867 16.986696 0.000000 0.210351
117.000000 55.923000 6.000000 -4.000000 1.000000 60.156604 -30.503370 1609.071059 1657.670249 17.895725 0.000000 0.143084
118.000000 52.362000 7.000000 -4.000000 1.000000 63.188510 -26.420639 1509.760452 1548.386924 19.112111 0.000000 0.110393
119.000000 48.768000 8.000000 -4.000000 1.000000 65.444541 -23.026221 1432.441225 1475.326218 20.520417 0.000000 0.097710
122.000000 81.589000 4.000000 -3.000000 1.000000 61.923719 -35.274675 1736.344843 1644.233885 12.265405 0.000000 0.171894
123.000000 74.516000 5.000000 -3.000000 1.000000 66.124977 -29.037083 1572.510618 1485.874324 13.429281 0.000000 0.117939
124.000000 67.375000 6.000000 -3.000000 1.000000 68.856954 -24.168012 1457.983744 1397.225370 14.852156 0.000000 0.104748
125.000000 60.912000 7.000000 -3.000000 1.000000 70.692241 -20.313255 1373.416441 1343.082593 16.427945 0.000000 0.105964
126.000000 55.279000 8.000000 -3.000000 1.000000 71.964991 -17.211847 1308.412612 1307.865703 18.101541 0.000000 0.110553
127.000000 50.431000 9.000000 -3.000000 1.000000 72.873511 -14.676436 1256.887466 1283.842362 19.841474 0.000000 0.115190
128.000000 46.264000 10.000000 -3.000000 1.000000 73.538799 -12.572734 1215.042558 1266.833612 21.628470 0.000000 0.119109
129.000000 143.378000 2.000000 -2.000000 1.000000 64.689849 -47.082130 2132.506420 1688.478973 6.978867 0.000000 0.310290
130.000000 125.879000 3.000000 -2.000000 1.000000 72.029270 -34.947266 1727.154032 1366.899866 7.948621 0.000000 0.132007
131.000000 106.975000 4.000000 -2.000000 1.000000 75.411393 -26.522529 1512.149033 1254.073344 9.353088 0.000000 0.114645
132.000000 91.274000 5.000000 -2.000000 1.000000 77.012613 -20.569995 1378.909283 1206.136708 10.961900 0.000000 0.123447
133.000000 78.888000 6.000000 -2.000000 1.000000 77.784804 -16.227095 1288.244400 1183.669435 12.683025 0.000000 0.131182
134.000000 69.134000 7.000000 -2.000000 1.000000 78.150438 -12.953348 1222.559234 1172.717966 14.472482 0.000000 0.136118
135.000000 61.358000 8.000000 -2.000000 1.000000 78.307221 -10.412528 1172.780238 1167.478014 16.306603 0.000000 0.139111
136.000000 55.061000 9.000000 -2.000000 1.000000 78.353026 -8.390643 1133.753713 1165.251568 18.171519 0.000000 0.140897
137.000000 49.881000 10.000000 -2.000000 1.000000 78.338773 -6.747247 1102.335380 1164.679531 20.058563 0.000000 0.141940
138.000000 45.558000 11.000000 -2.000000 1.000000 78.292058 -5.387245 1076.498023 1165.035012 21.962044 0.000000 0.142519
139.000000 170.654000 3.000000 -1.000000 1.000000 91.357473 -21.249069 1393.527816 913.634796 5.861377 0.000000 0.138932
140.000000 131.821000 4.000000 -1.000000 1.000000 89.342057 -13.993529 1243.221192 953.737946 7.588530 0.000000 0.157361
141.000000 106.411000 5.000000 -1.000000 1.000000 87.571384 -9.473983 1154.607523 987.279830 9.400954 0.000000 0.162541
142.000000 88.829000 6.000000 -1.000000 1.000000 86.139323 -6.423452 1096.171859 1014.091164 11.262094 0.000000 0.163283
143.000000 76.057000 7.000000 -1.000000 1.000000 84.990292 -4.237230 1054.741270 1035.605907 13.153676 0.000000 0.162436
144.000000 66.406000 8.000000 -1.000000 1.000000 84.059252 -2.597956 1023.835766 1053.113105 15.065551 0.000000 0.161037
145.000000 58.880000 9.000000 -1.000000 1.000000 83.294214 -1.325120 999.896663 1067.579563 16.991628 0.000000 0.159496
146.000000 52.857000 10.000000 -1.000000 1.000000 82.656597 -0.309134 980.807099 1079.707270 18.928035 0.000000 0.157979
147.000000 47.934000 11.000000 -1.000000 1.000000 82.118132 0.520139 965.228993 1090.007160 20.872188 0.000000 0.156551
148.000000 199.412000 3.000000 1.000000 1.000000 113.443737 29.823742 358.008035 403.019697 5.013963 0.000000 0.026093
149.000000 149.590000 4.000000 1.000000 1.000000 105.844879 23.622658 504.271639 607.590384 6.684881 0.000000 0.101756
150.000000 118.364000 5.000000 1.000000 1.000000 100.654013 20.191233 579.187775 725.269087 8.449321 0.000000 0.131834
151.000000 97.381000 6.000000 1.000000 1.000000 96.945718 18.027227 624.725244 803.113723 10.270710 0.000000 0.145563
152.000000 82.463000 7.000000 1.000000 1.000000 94.182794 16.541817 655.332483 858.888420 12.129344 0.000000 0.152234
153.000000 71.378000 8.000000 1.000000 1.000000 92.051530 15.460405 677.318009 900.998320 14.013671 0.000000 0.155492
154.000000 62.847000 9.000000 1.000000 1.000000 90.360529 14.638444 693.875035 934.000207 15.916468 0.000000 0.156976
155.000000 56.095000 10.000000 1.000000 1.000000 88.987587 13.992809 706.793168 960.601703 17.832988 0.000000 0.157492
156.000000 50.625000 11.000000 1.000000 1.000000 87.851437 13.472381 717.153264 982.522012 19.759981 0.000000 0.157464
157.000000 46.111000 12.000000 1.000000 1.000000 86.896105 13.044023 725.646683 1000.909230 21.695149 0.000000 0.157127
159.000000 137.899000 4.000000 2.000000 1.000000 104.079122 42.838669 -23.009560 572.883055 7.251482 0.000000 0.114875
160.000000 112.999000 5.000000 2.000000 1.000000 100.853841 35.697212 201.683520 686.894002 8.850067 0.000000 0.056521
161.000000 94.846000 6.000000 2.000000 1.000000 98.030704 30.892591 331.040183 764.043978 10.544627 0.000000 0.084856
162.000000 81.293000 7.000000 2.000000 1.000000 95.671084 27.483218 415.117281 820.523920 12.303200 0.000000 0.108287
163.000000 70.904000 8.000000 2.000000 1.000000 93.713365 24.954850 474.147908 863.954097 14.106598 0.000000 0.123083
164.000000 62.741000 9.000000 2.000000 1.000000 92.080801 23.012046 517.873113 898.514307 15.942604 0.000000 0.132478
165.000000 56.186000 10.000000 2.000000 1.000000 90.706893 21.475759 551.562338 926.729676 17.803071 0.000000 0.138575
166.000000 50.823000 11.000000 2.000000 1.000000 89.538907 20.232143 578.315119 950.231336 19.682359 0.000000 0.142602
167.000000 46.362000 12.000000 2.000000 1.000000 88.536089 19.205740 600.073769 970.126453 21.576437 0.000000 0.145289
169.000000 102.803000 5.000000 3.000000 1.000000 97.645940 49.008069 -263.487141 720.729925 9.728017 0.000000 0.232209
170.000000 88.908000 6.000000 3.000000 1.000000 96.505421 42.611027 -15.085686 774.237869 11.248800 0.000000 0.115064
171.000000 77.721000 7.000000 3.000000 1.000000 95.153124 37.802664 140.060435 818.155540 12.868481 0.000000 0.080086
172.000000 68.702000 8.000000 3.000000 1.000000 93.808653 34.104648 246.166640 854.466949 14.558380 0.000000 0.085235
173.000000 61.363000 9.000000 3.000000 1.000000 92.555072 31.194621 323.311121 884.853351 16.299928 0.000000 0.098451
174.000000 55.322000 10.000000 3.000000 1.000000 91.417236 28.856163 381.927603 910.596943 18.080574 0.000000 0.110105
175.000000 50.286000 11.000000 3.000000 1.000000 90.395870 26.941873 427.975339 932.658137 19.891528 0.000000 0.119090
176.000000 46.040000 12.000000 3.000000 1.000000 89.482387 25.349261 465.105439 951.759553 21.726452 0.000000 0.125831
179.000000 72.557000 7.000000 4.000000 1.000000 93.100975 46.970935 -178.011107 855.550098 13.784343 0.000000 0.190975
180.000000 65.221000 8.000000 4.000000 1.000000 92.600870 42.506489 -11.466271 874.680727 15.335079 0.000000 0.122845
181.000000 58.975000 9.000000 4.000000 1.000000 91.933376 38.882269 107.089799 894.326987 16.959800 0.000000 0.095440
182.000000 53.657000 10.000000 4.000000 1.000000 91.205124 35.903712 195.786611 913.047727 18.641006 0.000000 0.091348
183.000000 49.113000 11.000000 4.000000 1.000000 90.472271 33.424916 264.642938 930.370149 20.366311 0.000000 0.096655
185.000000 60.961000 8.000000 5.000000 1.000000 90.453662 49.939667 -304.937997 927.758479 16.406903 0.000000 0.260130
186.000000 55.887000 9.000000 5.000000 1.000000 90.451031 45.873466 -134.620827 928.830815 17.896789 0.000000 0.176394
187.000000 51.392000 10.000000 5.000000 1.000000 90.224347 42.446451 -9.393050 935.288778 19.462413 0.000000 0.129203
188.000000 47.432000 11.000000 5.000000 1.000000 89.869765 39.538454 86.557584 944.172289 21.087566 0.000000 0.106060
190.000000 52.400000 9.000000 6.000000 1.000000 88.365027 52.080896 -406.610282 990.989745 19.088234 0.000000 0.320855
191.000000 48.732000 10.000000 6.000000 1.000000 88.658183 48.386629 -236.689747 978.961841 20.525051 0.000000 0.228537
196.000000 54.275000 5.000000 -5.000000 2.000000 59.164210 -44.820264 2044.562737 1846.811731 18.437674 0.000000 0.311101
197.000000 52.400000 6.000000 -5.000000 2.000000 63.204752 -39.618217 1865.964610 1646.641809 19.096934 0.000000 0.207906
198.000000 49.814000 7.000000 -5.000000 2.000000 66.223794 -35.140001 1732.555412 1520.846707 20.087701 0.000000 0.151666
199.000000 46.980000 8.000000 -5.000000 2.000000 68.491443 -31.288862 1629.110631 1437.336574 21.299292 0.000000 0.123634
201.000000 67.757000 5.000000 -4.000000 2.000000 69.067902 -40.464864 1893.101283 1482.122038 14.767240 0.000000 0.185381
202.000000 58.063000 7.000000 -4.000000 2.000000 74.038385 -30.356195 1605.352489 1297.752938 17.232207 0.000000 0.115447
203.000000 49.339000 9.000000 -4.000000 2.000000 76.357112 -23.300196 1438.529920 1225.432853 20.278749 0.000000 0.118686
205.000000 92.710000 4.000000 -3.000000 2.000000 77.713755 -41.833417 1938.448305 1255.593340 10.791038 0.000000 0.160247
206.000000 83.127000 5.000000 -3.000000 2.000000 80.244202 -34.648615 1718.834311 1165.946650 12.034927 0.000000 0.112818
207.000000 74.261000 6.000000 -3.000000 2.000000 81.569038 -28.969518 1570.851341 1123.342856 13.471790 0.000000 0.114744
208.000000 66.541000 7.000000 -3.000000 2.000000 82.212747 -24.450268 1464.367772 1102.690288 15.034767 0.000000 0.125090
209.000000 59.961000 8.000000 -3.000000 2.000000 82.471660 -20.810594 1384.073585 1093.165754 16.684690 0.000000 0.133867
210.000000 54.381000 9.000000 -3.000000 2.000000 82.512746 -17.838826 1321.364995 1089.597517 18.397086 0.000000 0.140124
211.000000 49.636000 10.000000 -3.000000 2.000000 82.431122 -15.378925 1271.034959 1089.324370 20.155881 0.000000 0.144387
212.000000 45.579000 11.000000 -3.000000 2.000000 82.281780 -13.316248 1229.747482 1090.899493 21.950079 0.000000 0.147237
214.000000 136.840000 3.000000 -2.000000 2.000000 91.478011 -44.416488 2029.592132 902.120637 7.309121 0.000000 0.140990
215.000000 116.172000 4.000000 -2.000000 2.000000 92.588032 -34.123707 1704.355659 882.233040 8.609655 0.000000 0.086240
216.000000 98.982000 5.000000 -2.000000 2.000000 92.235216 -26.694566 1516.191745 893.978599 10.105263 0.000000 0.117476
217.000000 74.530000 7.000000 -2.000000 2.000000 90.342063 -17.154541 1307.233194 934.275134 13.421479 0.000000 0.150854
218.000000 58.934000 9.000000 -2.000000 2.000000 88.413288 -11.493536 1193.848093 971.423890 16.973982 0.000000 0.160827
219.000000 48.436000 11.000000 -2.000000 2.000000 86.815668 -7.812364 1122.670606 1001.439929 20.653681 0.000000 0.163223
220.000000 172.849000 3.000000 -1.000000 2.000000 112.527704 -32.959033 1672.860084 408.945515 5.784503 0.000000 0.015503
221.000000 137.803000 4.000000 -1.000000 2.000000 108.025250 -22.299742 1416.414798 562.455516 7.256394 0.000000 0.105984
222.000000 112.774000 5.000000 -1.000000 2.000000 103.933768 -15.704743 1277.628809 663.615896 8.867660 0.000000 0.143669
223.000000 94.635000 6.000000 -1.000000 2.000000 100.556504 -11.329296 1190.637175 736.436506 10.568123 0.000000 0.160465
224.000000 81.122000 7.000000 -1.000000 2.000000 97.814903 -8.247391 1131.005202 791.737130 12.329108 0.000000 0.168233
225.000000 70.771000 8.000000 -1.000000 2.000000 95.578141 -5.971378 1087.579515 835.309488 14.133043 0.000000 0.171667
226.000000 62.639000 9.000000 -1.000000 2.000000 93.732559 -4.226777 1054.543846 870.593470 15.968559 0.000000 0.172879
227.000000 56.108000 10.000000 -1.000000 2.000000 92.190451 -2.849291 1028.567748 899.781630 17.827973 0.000000 0.172909
228.000000 50.762000 11.000000 -1.000000 2.000000 90.886101 -1.735268 1007.606768 924.345731 19.705907 0.000000 0.172299
229.000000 46.315000 12.000000 -1.000000 2.000000 89.770372 -0.816367 990.336388 945.313992 21.598485 0.000000 0.171351
230.000000 195.731000 3.000000 0.000000 2.000000 131.698121 -10.598965 1176.402880 -34.523626 5.106868 0.000000 0.036235
231.000000 151.343000 4.000000 0.000000 2.000000 120.972666 -4.178444 1053.631003 293.274111 6.605812 0.000000 0.106367
232.000000 121.477000 5.000000 0.000000 2.000000 113.452492 -0.940344 992.665838 474.011805 8.230957 0.000000 0.140540
233.000000 100.615000 6.000000 0.000000 2.000000 107.990104 0.999624 956.220280 591.443104 9.938631 0.000000 0.157402
234.000000 85.451000 7.000000 0.000000 2.000000 103.874431 2.288994 931.978630 674.941471 11.703228 0.000000 0.165917
235.000000 74.035000 8.000000 0.000000 2.000000 100.674577 3.207196 914.690215 737.808405 13.508743 0.000000 0.170131
236.000000 65.180000 9.000000 0.000000 2.000000 98.121090 3.894010 901.738666 787.061039 15.344657 0.000000 0.172011
237.000000 58.139000 10.000000 0.000000 2.000000 96.038885 4.426973 891.673975 826.797613 17.203770 0.000000 0.172582
238.000000 52.421000 11.000000 0.000000 2.000000 94.310016 4.852505 883.627718 859.592021 19.080991 0.000000 0.172402
239.000000 47.694000 12.000000 0.000000 2.000000 92.852435 5.200079 877.048047 887.151425 20.972617 0.000000 0.171790
241.000000 152.463000 4.000000 1.000000 2.000000 127.079732 20.037397 582.465166 75.195514 6.556584 0.000000 0.033612
242.000000 123.135000 5.000000 1.000000 2.000000 118.641399 16.982294 646.307470 326.375402 8.119326 0.000000 0.082936
243.000000 102.286000 6.000000 1.000000 2.000000 112.476677 15.213248 682.310066 479.525536 9.775370 0.000000 0.116869
244.000000 86.979000 7.000000 1.000000 2.000000 107.814370 14.061447 705.423337 584.458413 11.496742 0.000000 0.136480
245.000000 75.386000 8.000000 1.000000 2.000000 104.180375 13.252431 721.518146 661.607553 13.265633 0.000000 0.148111
246.000000 66.363000 9.000000 1.000000 2.000000 101.275383 12.653216 733.369897 721.074865 15.070172 0.000000 0.155148
247.000000 59.173000 10.000000 1.000000 2.000000 98.903614 12.191653 742.461069 768.496733 16.902134 0.000000 0.159428
248.000000 53.327000 11.000000 1.000000 2.000000 96.932542 11.825239 749.655563 807.296219 18.755646 0.000000 0.161995
249.000000 48.492000 12.000000 1.000000 2.000000 95.269651 11.527325 755.490864 839.686632 20.626400 0.000000 0.163465
251.000000 118.045000 5.000000 2.000000 2.000000 118.545724 35.180131 216.316724 224.664904 8.469186 0.000000 0.059344
252.000000 85.693000 7.000000 2.000000 2.000000 109.266081 26.208318 445.203449 521.695332 11.668682 0.000000 0.073294
253.000000 66.156000 9.000000 2.000000 2.000000 103.017572 21.688893 546.932164 673.211913 15.116505 0.000000 0.119867
254.000000 53.458000 11.000000 2.000000 2.000000 98.655010 18.998611 604.431352 767.730026 18.708771 0.000000 0.139954
256.000000 93.857000 6.000000 3.000000 2.000000 111.303067 43.094954 -32.000585 366.249152 10.652900 0.000000 0.139222
257.000000 82.073000 7.000000 3.000000 2.000000 108.376723 37.697734 143.213238 489.118912 12.183252 0.000000 0.049524
258.000000 72.508000 8.000000 3.000000 2.000000 105.710293 33.664975 258.151134 577.256375 13.791095 0.000000 0.040474
259.000000 64.692000 9.000000 3.000000 2.000000 103.347054 30.565654 339.351859 644.432386 15.458094 0.000000 0.068074
260.000000 58.240000 10.000000 3.000000 2.000000 101.272461 28.122527 399.768456 697.756125 17.171276 0.000000 0.090331
261.000000 52.856000 11.000000 3.000000 2.000000 99.453923 26.153789 446.475391 741.337121 18.921202 0.000000 0.106419
262.000000 48.314000 12.000000 3.000000 2.000000 97.856147 24.537052 483.663628 777.748610 20.700843 0.000000 0.118094
263.000000 76.865000 7.000000 4.000000 2.000000 105.703449 47.787871 -211.482357 490.616372 13.009031 0.000000 0.216032
264.000000 62.221000 9.000000 4.000000 2.000000 102.432015 38.891089 106.816357 636.160282 16.072025 0.000000 0.064722
265.000000 51.616000 11.000000 4.000000 2.000000 99.382896 33.075185 274.036640 728.757999 19.375494 0.000000 0.069556
267.000000 64.593000 8.000000 5.000000 2.000000 101.382316 50.855219 -347.266953 597.772628 15.481607 0.000000 0.284425
268.000000 59.041000 9.000000 5.000000 2.000000 100.546379 46.406125 -155.462294 650.400449 16.937691 0.000000 0.176309
269.000000 54.153000 10.000000 5.000000 2.000000 99.574336 42.698961 -18.139632 693.974477 18.467180 0.000000 0.112177
270.000000 49.865000 11.000000 5.000000 2.000000 98.556751 39.586863 85.027533 730.863975 20.055731 0.000000 0.078878
271.000000 46.104000 12.000000 5.000000 2.000000 97.545128 36.951802 165.372702 762.609379 21.692509 0.000000 0.069627
273.000000 47.743000 11.000000 6.000000 2.000000 97.124995 45.573548 -123.060953 748.803291 20.947366 0.000000 0.160304
278.000000 46.151000 7.000000 -6.000000 3.000000 67.793824 -42.540487 1962.642066 1537.312509 21.680798 0.000000 0.216656
280.000000 59.682000 5.000000 -5.000000 3.000000 69.850130 -49.357010 2228.828914 1547.331727 16.764221 0.000000 0.322895
281.000000 56.871000 6.000000 -5.000000 3.000000 73.140413 -43.797662 2007.044801 1392.897158 17.592392 0.000000 0.204597
282.000000 53.593000 7.000000 -5.000000 3.000000 75.489869 -38.958510 1845.276205 1299.219078 18.668353 0.000000 0.144429
283.000000 50.225000 8.000000 -5.000000 3.000000 77.156000 -34.764870 1722.065748 1239.719063 19.920070 0.000000 0.119348
284.000000 46.968000 9.000000 -5.000000 3.000000 78.331485 -31.132521 1625.095706 1200.672796 21.300967 0.000000 0.113551
287.000000 72.454000 5.000000 -4.000000 3.000000 80.352983 -45.651361 2076.048233 1202.722816 13.807045 0.000000 0.197420
288.000000 66.939000 6.000000 -4.000000 3.000000 82.500988 -39.601582 1865.438131 1124.878985 14.944422 0.000000 0.123742
289.000000 61.535000 7.000000 -4.000000 3.000000 83.777761 -34.508920 1714.963304 1083.403245 16.256908 0.000000 0.105672
290.000000 56.533000 8.000000 -4.000000 3.000000 84.489095 -30.226540 1602.085827 1061.181825 17.695209 0.000000 0.110875
291.000000 52.030000 9.000000 -4.000000 3.000000 84.837400 -26.613258 1514.279573 1049.765795 19.226944 0.000000 0.120770
292.000000 48.026000 10.000000 -4.000000 3.000000 84.954154 -23.546568 1444.026594 1044.662822 20.829967 0.000000 0.129733
293.000000 96.070000 4.000000 -3.000000 3.000000 90.468940 -48.649172 2197.930366 927.666257 10.410982 0.000000 0.218852
294.000000 86.437000 5.000000 -3.000000 3.000000 92.107575 -40.606420 1897.704976 888.828650 11.571268 0.000000 0.097853
295.000000 69.529000 7.000000 -3.000000 3.000000 92.441664 -28.911814 1569.435950 888.571397 14.385711 0.000000 0.107461
296.000000 62.711000 8.000000 -3.000000 3.000000 91.974621 -24.695455 1469.936622 900.156835 15.950021 0.000000 0.126003
297.000000 51.904000 10.000000 -3.000000 3.000000 90.683547 -18.398655 1333.007396 927.467289 19.271921 0.000000 0.147644
298.000000 47.629000 11.000000 -3.000000 3.000000 90.003015 -16.012982 1283.886353 940.941074 21.001887 0.000000 0.153476
300.000000 115.679000 4.000000 -2.000000 3.000000 105.810335 -42.396015 1957.654474 528.312983 8.644104 0.000000 0.099223
301.000000 100.305000 5.000000 -2.000000 3.000000 104.704731 -33.478312 1686.797911 602.362769 9.969402 0.000000 0.048600
302.000000 87.449000 6.000000 -2.000000 3.000000 102.963425 -26.834234 1519.482787 663.342221 11.435654 0.000000 0.096338
303.000000 76.918000 7.000000 -2.000000 3.000000 101.086633 -21.817320 1405.864450 713.828723 13.001928 0.000000 0.126522
304.000000 68.306000 8.000000 -2.000000 3.000000 99.281670 -17.949840 1323.667772 756.104088 14.641739 0.000000 0.144432
305.000000 61.220000 9.000000 -2.000000 3.000000 97.623316 -14.903069 1261.441499 791.931548 16.337196 0.000000 0.155279
306.000000 55.333000 10.000000 -2.000000 3.000000 96.129112 -12.453681 1212.696009 822.639236 18.075775 0.000000 0.161927
307.000000 50.393000 11.000000 -2.000000 3.000000 94.793131 -10.448492 1173.478707 849.229278 19.848450 0.000000 0.165986
308.000000 46.204000 12.000000 -2.000000 3.000000 93.600879 -8.780528 1141.244637 872.465516 21.648547 0.000000 0.168399
310.000000 132.854000 4.000000 -1.000000 3.000000 121.908342 -32.175330 1652.131648 149.254030 7.524786 0.000000 0.036248
311.000000 111.989000 5.000000 -1.000000 3.000000 117.162750 -23.074494 1433.512225 340.719319 8.927558 0.000000 0.064534
312.000000 95.678000 6.000000 -1.000000 3.000000 112.825954 -17.052207 1305.128854 467.162903 10.450346 0.000000 0.112472
313.000000 82.918000 7.000000 -1.000000 3.000000 109.101115 -12.857845 1220.671017 558.689876 12.059397 0.000000 0.138710
314.000000 72.820000 8.000000 -1.000000 3.000000 105.953380 -9.798982 1160.888611 628.769977 13.732530 0.000000 0.153861
315.000000 64.710000 9.000000 -1.000000 3.000000 103.293998 -7.481648 1116.346126 684.510259 15.454569 0.000000 0.162862
316.000000 58.096000 10.000000 -1.000000 3.000000 101.034340 -5.670819 1081.874860 730.087861 17.214778 0.000000 0.168244
317.000000 52.624000 11.000000 -1.000000 3.000000 99.099278 -4.219481 1054.406034 768.150994 19.005349 0.000000 0.171406
318.000000 48.038000 12.000000 -1.000000 3.000000 97.428373 -3.031666 1032.002686 800.475093 20.820470 0.000000 0.173162
320.000000 120.694000 5.000000 1.000000 3.000000 133.771966 12.526696 735.865124 -115.262964 8.281655 0.000000 0.033567
321.000000 102.346000 6.000000 1.000000 3.000000 126.026465 11.582107 754.418773 141.997316 9.767424 0.000000 0.064061
322.000000 88.155000 7.000000 1.000000 3.000000 120.013883 11.006777 765.657476 307.601831 11.340861 0.000000 0.097132
323.000000 77.025000 8.000000 1.000000 3.000000 115.236984 10.619654 773.194856 424.844919 12.980656 0.000000 0.119919
324.000000 68.151000 9.000000 1.000000 3.000000 111.363365 10.341391 778.600867 513.046719 14.671884 0.000000 0.135314
325.000000 60.960000 10.000000 1.000000 3.000000 108.165984 10.131741 782.667564 582.245906 16.403787 0.000000 0.145800
326.000000 55.042000 11.000000 1.000000 3.000000 105.485984 9.968115 785.837802 638.230149 18.168411 0.000000 0.153008
327.000000 50.104000 12.000000 1.000000 3.000000 103.209577 9.836859 788.378576 684.598074 19.959747 0.000000 0.157988
328.000000 45.933000 13.000000 1.000000 3.000000 101.253462 9.729232 790.460428 723.719075 21.773174 0.000000 0.161425
330.000000 100.077000 6.000000 2.000000 3.000000 127.124015 28.423037 392.490482 14.628273 9.988586 0.000000 0.056465
331.000000 86.950000 7.000000 2.000000 3.000000 121.578345 24.615391 481.884250 213.288648 11.497577 0.000000 0.028834
332.000000 76.429000 8.000000 2.000000 3.000000 116.998497 22.014268 539.837080 349.511105 13.081328 0.000000 0.065259
333.000000 67.910000 9.000000 2.000000 3.000000 113.189818 20.131763 580.455519 449.923034 14.723443 0.000000 0.092799
334.000000 60.926000 10.000000 2.000000 3.000000 109.990328 18.709044 610.505124 527.623722 16.411991 0.000000 0.112045
335.000000 55.131000 11.000000 2.000000 3.000000 107.273912 17.597259 633.636005 589.878498 18.138088 0.000000 0.125683
336.000000 50.265000 12.000000 2.000000 3.000000 104.944019 16.705142 651.990963 641.076873 19.894979 0.000000 0.135505
337.000000 46.134000 13.000000 2.000000 3.000000 102.926701 15.973771 666.910740 684.046201 21.677437 0.000000 0.142676
338.000000 83.590000 7.000000 3.000000 3.000000 120.467180 37.567325 147.119199 142.204004 11.959713 0.000000 0.103548
339.000000 74.240000 8.000000 3.000000 3.000000 116.734520 33.134140 272.458382 293.595187 13.466854 0.000000 0.024623
340.000000 59.977000 10.000000 3.000000 3.000000 110.565825 27.273230 420.119777 486.673220 16.671252 0.000000 0.060257
341.000000 54.509000 11.000000 3.000000 3.000000 108.050247 25.255297 467.265031 553.177188 18.344765 0.000000 0.084322
342.000000 45.884000 13.000000 3.000000 3.000000 103.902747 22.276618 534.092574 653.101915 21.794832 0.000000 0.114668
344.000000 70.829000 8.000000 4.000000 3.000000 114.773953 43.235577 -36.965996 259.195541 14.115679 0.000000 0.159237
345.000000 64.058000 9.000000 4.000000 3.000000 112.302449 38.901437 106.495419 373.718243 15.608435 0.000000 0.075485
346.000000 58.252000 10.000000 4.000000 3.000000 109.989632 35.458704 208.456580 460.334248 17.165046 0.000000 0.028591
347.000000 53.262000 11.000000 4.000000 3.000000 107.868173 32.676685 284.649674 528.785593 18.773798 0.000000 0.034828
348.000000 48.957000 12.000000 4.000000 3.000000 105.940513 30.391870 343.747158 584.613933 20.425674 0.000000 0.058522
350.000000 60.945000 9.000000 5.000000 3.000000 110.076034 47.024568 -180.177003 363.962879 16.406015 0.000000 0.214364
351.000000 55.928000 10.000000 5.000000 3.000000 108.457704 42.988666 -28.262681 449.892169 17.878271 0.000000 0.126683
352.000000 51.512000 11.000000 5.000000 3.000000 106.853441 39.641796 83.288684 517.587324 19.411726 0.000000 0.071441
353.000000 47.627000 12.000000 5.000000 3.000000 105.312734 36.839299 168.677046 572.775039 20.995998 0.000000 0.044275
354.000000 53.196000 10.000000 6.000000 3.000000 106.210522 49.714345 -294.767003 457.072802 18.797093 0.000000 0.265932
355.000000 49.389000 11.000000 6.000000 3.000000 105.173685 46.008351 -139.860487 520.741620 20.246153 0.000000 0.175333
359.000000 48.676000 7.000000 -6.000000 4.000000 75.735280 -46.104408 2093.607451 1335.663172 20.553051 0.000000 0.226018
362.000000 59.230000 6.000000 -5.000000 4.000000 81.840495 -48.058023 2172.783015 1171.887380 16.888880 0.000000 0.233460
363.000000 55.718000 7.000000 -5.000000 4.000000 83.729278 -42.890837 1974.833656 1102.423685 17.953511 0.000000 0.147286
364.000000 52.166000 8.000000 -5.000000 4.000000 84.966535 -38.369983 1827.142621 1061.911676 19.175716 0.000000 0.109314
365.000000 48.753000 9.000000 -5.000000 4.000000 85.740407 -34.427951 1712.725537 1038.187204 20.518142 0.000000 0.101662
366.000000 45.564000 10.000000 -5.000000 4.000000 86.188776 -30.991134 1621.476192 1024.638861 21.954374 0.000000 0.107377
367.000000 73.840000 5.000000 -4.000000 4.000000 89.785939 -50.930930 2300.841511 947.380129 13.545373 0.000000 0.274365
368.000000 63.077000 7.000000 -4.000000 4.000000 92.310650 -38.850336 1841.920741 885.235306 15.856696 0.000000 0.087345
369.000000 53.552000 9.000000 -4.000000 4.000000 92.517386 -30.111452 1599.193411 886.298907 18.677411 0.000000 0.101993
370.000000 45.875000 11.000000 -4.000000 4.000000 91.829771 -23.769299 1449.013590 903.429384 21.803643 0.000000 0.129717
372.000000 85.919000 5.000000 -3.000000 4.000000 101.693831 -46.805080 2121.340647 615.543928 11.638833 0.000000 0.173185
373.000000 77.755000 6.000000 -3.000000 4.000000 101.832843 -39.579070 1864.726011 648.434713 12.861167 0.000000 0.064711
374.000000 70.338000 7.000000 -3.000000 4.000000 101.281805 -33.677339 1692.184188 682.989615 14.217776 0.000000 0.060888
375.000000 63.797000 8.000000 -3.000000 4.000000 100.379290 -28.861960 1568.214357 715.905015 15.675983 0.000000 0.091529
376.000000 58.102000 9.000000 -3.000000 4.000000 99.322528 -24.910418 1474.837060 746.192013 17.212922 0.000000 0.115471
377.000000 53.164000 10.000000 -3.000000 4.000000 98.221933 -21.638503 1401.971921 773.692714 18.812107 0.000000 0.132156
378.000000 48.881000 11.000000 -3.000000 4.000000 97.137047 -18.901481 1343.528981 798.552479 20.461355 0.000000 0.143729
380.000000 97.487000 5.000000 -2.000000 4.000000 114.450390 -40.815400 1904.537230 294.385314 10.255726 0.000000 0.101418
381.000000 76.933000 7.000000 -2.000000 4.000000 110.282145 -26.949882 1522.213967 494.791095 12.997092 0.000000 0.070183
382.000000 62.124000 9.000000 -2.000000 4.000000 105.892650 -18.639105 1338.031015 617.596408 16.096860 0.000000 0.128742
383.000000 51.503000 11.000000 -2.000000 4.000000 102.157847 -13.311702 1229.657300 702.723623 19.417755 0.000000 0.153673
385.000000 106.989000 5.000000 -1.000000 4.000000 127.288030 -31.612139 1637.455033 -21.360177 9.343183 0.000000 0.068797
386.000000 93.437000 6.000000 -1.000000 4.000000 122.861715 -23.669200 1446.770253 181.875034 10.699069 0.000000 0.033471
387.000000 82.222000 7.000000 -1.000000 4.000000 118.737809 -18.139646 1327.611691 319.957143 12.159440 0.000000 0.082270
388.000000 72.980000 8.000000 -1.000000 4.000000 115.077894 -14.137266 1246.090756 421.602394 13.700185 0.000000 0.113694
389.000000 65.335000 9.000000 -1.000000 4.000000 111.883917 -11.133144 1186.807195 500.391623 15.304085 0.000000 0.134010
390.000000 58.965000 10.000000 -1.000000 4.000000 109.107312 -8.807019 1141.754163 563.697328 16.958509 0.000000 0.147502
391.000000 53.608000 11.000000 -1.000000 4.000000 106.689195 -6.958279 1106.356850 615.923155 18.653985 0.000000 0.156627
392.000000 49.062000 12.000000 -1.000000 4.000000 104.574208 -5.456547 1077.811591 659.889836 20.383270 0.000000 0.162862
394.000000 112.868000 5.000000 0.000000 4.000000 138.689738 -16.817434 1300.309784 -338.395448 8.855220 0.000000 0.044751
395.000000 85.635000 7.000000 0.000000 4.000000 125.844621 -6.761378 1102.604550 158.031709 11.673458 0.000000 0.077159
396.000000 67.501000 9.000000 0.000000 4.000000 116.895380 -2.328231 1018.759619 394.622841 14.811819 0.000000 0.126516
397.000000 55.084000 11.000000 0.000000 4.000000 110.516929 0.138091 972.405978 538.226385 18.152744 0.000000 0.150406
398.000000 46.233000 13.000000 0.000000 4.000000 105.795722 1.703417 942.992079 636.391609 21.629957 0.000000 0.162380
400.000000 99.159000 6.000000 1.000000 4.000000 137.506348 6.764338 847.339058 -242.065697 10.079726 0.000000 0.026503
401.000000 86.837000 7.000000 1.000000 4.000000 130.673014 7.177438 839.462977 8.817885 11.511117 0.000000 0.047843
402.000000 76.761000 8.000000 1.000000 4.000000 125.117559 7.441529 834.420432 177.645526 13.023163 0.000000 0.078441
403.000000 68.479000 9.000000 1.000000 4.000000 120.532587 7.624908 830.915439 300.526296 14.599376 0.000000 0.102335
404.000000 61.612000 10.000000 1.000000 4.000000 116.695842 7.759668 828.337791 394.776536 16.227475 0.000000 0.120004
405.000000 55.865000 11.000000 1.000000 4.000000 113.444880 7.862882 826.362455 469.814647 17.898125 0.000000 0.133000
406.000000 51.006000 12.000000 1.000000 4.000000 110.659311 7.944464 824.800405 531.242875 19.604105 0.000000 0.142594
407.000000 46.859000 13.000000 1.000000 4.000000 108.248579 8.010570 823.534219 582.624067 21.339739 0.000000 0.149716
408.000000 85.819000 7.000000 2.000000 4.000000 132.513404 22.572187 527.594792 -127.560629 11.647290 0.000000 0.057683
409.000000 68.249000 9.000000 2.000000 4.000000 122.512007 18.275627 619.557543 218.567553 14.647923 0.000000 0.057993
410.000000 55.933000 11.000000 2.000000 4.000000 115.331858 15.993420 666.511344 410.990771 17.875485 0.000000 0.102246
411.000000 47.037000 13.000000 2.000000 4.000000 109.992584 14.582232 695.002730 536.384938 21.258357 0.000000 0.127979
414.000000 74.255000 8.000000 3.000000 4.000000 126.792089 32.480639 289.836115 -13.202278 13.462031 0.000000 0.090525
415.000000 66.912000 9.000000 3.000000 4.000000 122.764945 28.935792 379.976099 149.498151 14.940284 0.000000 0.029231
416.000000 60.664000 10.000000 3.000000 4.000000 119.227350 26.279061 443.551558 269.393346 16.480270 0.000000 0.026827
417.000000 55.326000 11.000000 3.000000 4.000000 116.124575 24.222000 490.797341 362.200344 18.071313 0.000000 0.055606
418.000000 50.741000 12.000000 3.000000 4.000000 113.396941 22.586069 527.288939 436.630811 19.705066 0.000000 0.078483
419.000000 46.779000 13.000000 3.000000 4.000000 110.989434 21.255967 556.322993 497.935418 21.374906 0.000000 0.095960
421.000000 64.660000 9.000000 4.000000 4.000000 121.467034 38.913751 106.113430 94.439295 15.460754 0.000000 0.130354
422.000000 54.122000 11.000000 4.000000 4.000000 115.870840 32.218498 296.735929 324.060689 18.473130 0.000000 0.010075
423.000000 46.122000 13.000000 4.000000 4.000000 111.249246 27.853737 406.243724 467.624568 21.679229 0.000000 0.052841
426.000000 56.804000 10.000000 5.000000 4.000000 116.809774 43.324420 -40.114873 193.342957 17.600115 0.000000 0.173151
427.000000 52.430000 11.000000 5.000000 4.000000 114.704907 39.704667 81.295164 297.400412 19.069391 0.000000 0.098779
428.000000 48.553000 12.000000 5.000000 4.000000 112.702943 36.711976 172.404950 379.298242 20.592666 0.000000 0.047615
430.000000 50.370000 11.000000 6.000000 4.000000 112.812250 46.502179 -159.263890 283.313673 19.849394 0.000000 0.215782
435.000000 50.009000 7.000000 -6.000000 5.000000 82.784828 -49.708479 2244.503443 1151.703581 20.002683 0.000000 0.264827
436.000000 47.599000 8.000000 -6.000000 5.000000 84.473183 -45.219987 2059.591017 1088.850341 21.015014 0.000000 0.174543
437.000000 59.911000 6.000000 -5.000000 5.000000 89.309485 -52.353702 2370.262893 962.238030 16.694553 0.000000 0.314462
438.000000 56.482000 7.000000 -5.000000 5.000000 90.925163 -46.903760 2125.304462 915.560986 17.707905 0.000000 0.182970
439.000000 53.002000 8.000000 -5.000000 5.000000 91.894693 -42.081567 1946.877730 893.027804 18.870539 0.000000 0.111371
440.000000 49.636000 9.000000 -5.000000 5.000000 92.402687 -37.841812 1811.118135 883.813425 20.150439 0.000000 0.084062
442.000000 68.043000 6.000000 -4.000000 5.000000 99.000387 -49.329798 2227.624688 679.415434 14.697182 0.000000 0.227533
443.000000 63.115000 7.000000 -4.000000 5.000000 99.635840 -43.340801 1990.696457 689.744531 15.844769 0.000000 0.111600
444.000000 58.422000 8.000000 -4.000000 5.000000 99.685701 -38.190861 1821.682117 707.274419 17.117717 0.000000 0.061363
445.000000 54.088000 9.000000 -4.000000 5.000000 99.365028 -33.782547 1695.041529 727.436076 18.489776 0.000000 0.067168
446.000000 50.152000 10.000000 -4.000000 5.000000 98.820717 -30.008608 1596.614414 748.127876 19.941545 0.000000 0.089038
447.000000 46.608000 11.000000 -4.000000 5.000000 98.150093 -26.767848 1517.917484 768.360164 21.458376 0.000000 0.108329
449.000000 76.101000 6.000000 -3.000000 5.000000 109.382510 -45.256632 2060.979339 403.087931 13.138825 0.000000 0.158960
450.000000 69.540000 7.000000 -3.000000 5.000000 108.746393 -38.706832 1837.485036 472.909548 14.378836 0.000000 0.052921
451.000000 63.578000 8.000000 -3.000000 5.000000 107.667307 -33.293154 1681.809119 530.874572 15.727590 0.000000 0.036832
452.000000 58.263000 9.000000 -3.000000 5.000000 106.375994 -28.818455 1567.149309 580.011406 17.162839 0.000000 0.072679
453.000000 53.568000 10.000000 -3.000000 5.000000 105.009953 -25.100416 1479.182614 622.312386 18.668015 0.000000 0.100359
454.000000 49.432000 11.000000 -3.000000 5.000000 103.647599 -21.986657 1409.559579 659.173399 20.230528 0.000000 0.120078
455.000000 45.789000 12.000000 -3.000000 5.000000 102.331472 -19.355522 1353.084171 691.615362 21.840640 0.000000 0.134234
457.000000 83.431000 6.000000 -2.000000 5.000000 120.155899 -39.546894 1863.709044 130.071896 11.982520 0.000000 0.114448
458.000000 75.287000 7.000000 -2.000000 5.000000 117.948020 -32.532259 1661.527305 263.700147 13.279240 0.000000 0.014382
459.000000 68.135000 8.000000 -2.000000 5.000000 115.554244 -27.047214 1524.516949 363.188593 14.673985 0.000000 0.045849
460.000000 61.922000 9.000000 -2.000000 5.000000 113.187526 -22.714360 1425.540636 441.214321 16.147150 0.000000 0.084456
461.000000 56.543000 10.000000 -2.000000 5.000000 110.947026 -19.242053 1350.691302 504.611729 17.684031 0.000000 0.110444
462.000000 51.882000 11.000000 -2.000000 5.000000 108.871812 -16.416399 1292.105401 557.457760 19.273384 0.000000 0.128494
463.000000 47.831000 12.000000 -2.000000 5.000000 106.970623 -14.082738 1245.001734 602.369738 20.906462 0.000000 0.141318
465.000000 89.284000 6.000000 -1.000000 5.000000 130.761360 -31.187946 1626.517534 -143.506616 11.195344 0.000000 0.090575
466.000000 79.854000 7.000000 -1.000000 5.000000 126.736917 -24.139994 1457.351595 60.691792 12.518230 0.000000 0.022655
467.000000 71.749000 8.000000 -1.000000 5.000000 122.928084 -19.035103 1346.335575 203.646133 13.933188 0.000000 0.057054
468.000000 64.826000 9.000000 -1.000000 5.000000 119.465302 -15.222859 1267.883838 310.809923 15.422208 0.000000 0.090233
469.000000 58.911000 10.000000 -1.000000 5.000000 116.368928 -12.291402 1209.500925 394.932992 16.971689 0.000000 0.113631
470.000000 53.840000 11.000000 -1.000000 5.000000 113.616443 -9.978296 1164.359367 463.182992 18.571169 0.000000 0.130284
471.000000 49.470000 12.000000 -1.000000 5.000000 111.171342 -8.112202 1128.413230 519.938880 20.212467 0.000000 0.142321
472.000000 45.683000 13.000000 -1.000000 5.000000 108.995146 -6.577991 1099.112543 568.048955 21.889096 0.000000 0.151128
474.000000 83.888000 7.000000 1.000000 5.000000 139.791944 2.287391 932.008799 -333.274461 11.914304 0.000000 0.017290
475.000000 75.121000 8.000000 1.000000 5.000000 133.795824 3.556218 908.110963 -92.969523 13.305800 0.000000 0.034106
476.000000 67.674000 9.000000 1.000000 5.000000 128.746070 4.403421 892.119022 74.746841 14.771174 0.000000 0.062066
477.000000 61.340000 10.000000 1.000000 5.000000 124.453525 5.008970 880.666653 199.737269 16.297396 0.000000 0.085871
478.000000 55.932000 11.000000 1.000000 5.000000 120.770708 5.463260 872.061159 297.220988 17.874329 0.000000 0.104680
479.000000 51.288000 12.000000 1.000000 5.000000 117.583129 5.816631 865.358361 375.820493 19.493971 0.000000 0.119303
480.000000 47.274000 13.000000 1.000000 5.000000 114.801571 6.099331 859.990042 440.814963 21.149919 0.000000 0.130652
482.000000 74.692000 8.000000 2.000000 5.000000 136.070594 17.555867 634.491577 -230.868779 13.381723 0.000000 0.055101
483.000000 67.484000 9.000000 2.000000 5.000000 130.952236 16.030514 665.757153 -30.823834 14.812169 0.000000 0.034919
484.000000 61.304000 10.000000 2.000000 5.000000 126.570964 14.949090 687.632575 114.548382 16.306309 0.000000 0.051177
485.000000 55.994000 11.000000 2.000000 5.000000 122.792726 14.142943 703.795821 225.893573 17.853728 0.000000 0.073210
486.000000 51.412000 12.000000 2.000000 5.000000 119.509715 13.519061 716.225882 314.461048 19.446162 0.000000 0.091983
487.000000 47.436000 13.000000 2.000000 5.000000 116.636027 13.022017 726.082224 386.936698 21.076977 0.000000 0.107059
490.000000 66.294000 9.000000 3.000000 5.000000 131.281678 27.854563 406.223854 -127.769412 15.077778 0.000000 0.084083
491.000000 60.480000 10.000000 3.000000 5.000000 127.223563 25.100281 470.820472 38.085093 16.528356 0.000000 0.037291
492.000000 55.427000 11.000000 3.000000 5.000000 123.643140 23.021954 517.653387 162.760256 18.035916 0.000000 0.030783
493.000000 51.028000 12.000000 3.000000 5.000000 120.480262 21.401875 553.164264 260.595491 19.591772 0.000000 0.052014
494.000000 47.184000 13.000000 3.000000 5.000000 117.677146 20.105454 581.016056 339.847070 21.188919 0.000000 0.072644
497.000000 58.970000 10.000000 4.000000 5.000000 126.488950 34.850491 225.548507 -29.083007 16.951588 0.000000 0.114820
498.000000 54.301000 11.000000 4.000000 5.000000 123.358332 31.686205 310.625034 108.315205 18.410123 0.000000 0.055770
499.000000 50.184000 12.000000 4.000000 5.000000 120.509695 29.173750 374.126412 214.624945 19.921039 0.000000 0.016752
500.000000 46.551000 13.000000 4.000000 5.000000 117.928459 27.137796 423.336186 299.865751 21.476861 0.000000 0.025992
502.000000 52.709000 11.000000 5.000000 5.000000 122.078459 39.777331 78.986607 63.235334 18.966326 0.000000 0.148315
503.000000 48.947000 12.000000 5.000000 5.000000 119.685698 36.566701 176.643432 177.081915 20.424849 0.000000 0.084520
504.000000 45.584000 13.000000 5.000000 5.000000 117.445574 33.916045 251.322671 267.407845 21.932476 0.000000 0.037554
507.000000 47.393000 12.000000 6.000000 5.000000 118.147274 43.385636 -42.289907 148.661783 21.094682 0.000000 0.183092
513.000000 56.213000 7.000000 -5.000000 6.000000 97.118098 -50.959575 2302.197006 727.614523 17.790532 0.000000 0.268591
514.000000 52.965000 8.000000 -5.000000 6.000000 97.956766 -45.872110 2084.568294 724.938887 18.881779 0.000000 0.154203
515.000000 49.781000 9.000000 -5.000000 6.000000 98.319313 -41.355190 1922.386069 731.329058 20.089397 0.000000 0.088086
516.000000 46.750000 10.000000 -5.000000 6.000000 98.345502 -37.365242 1796.855008 742.345268 21.392000 0.000000 0.063572
517.000000 62.079000 7.000000 -4.000000 6.000000 105.818003 -47.930730 2167.443546 485.906170 16.107322 0.000000 0.205226
518.000000 53.844000 9.000000 -4.000000 6.000000 105.386797 -37.607454 1804.081260 567.116898 18.571517 0.000000 0.043809
519.000000 46.782000 11.000000 -4.000000 6.000000 103.872689 -29.916154 1594.300510 634.326071 21.375803 0.000000 0.074293
520.000000 67.668000 7.000000 -3.000000 6.000000 114.921892 -43.939815 2012.182644 246.484549 14.774787 0.000000 0.157736
521.000000 62.419000 8.000000 -3.000000 6.000000 113.876052 -37.957370 1814.604377 336.778252 16.017906 0.000000 0.057507
522.000000 53.284000 10.000000 -3.000000 6.000000 111.042510 -28.780159 1566.212526 468.575944 18.765275 0.000000 0.053916
523.000000 49.402000 11.000000 -3.000000 6.000000 109.521893 -25.269556 1483.062480 519.022023 20.240506 0.000000 0.084035
524.000000 72.606000 7.000000 -2.000000 6.000000 124.181243 -38.507310 1831.347360 6.933513 13.768212 0.000000 0.127133
525.000000 60.897000 9.000000 -2.000000 6.000000 119.517427 -27.130261 1526.485113 256.292866 16.416829 0.000000 0.026147
526.000000 51.663000 11.000000 -2.000000 6.000000 114.921165 -19.773830 1361.934545 409.582681 19.352809 0.000000 0.092277
528.000000 76.504000 7.000000 -1.000000 6.000000 133.184676 -30.856978 1618.051697 -235.732146 13.065152 0.000000 0.105721
529.000000 69.591000 8.000000 -1.000000 6.000000 129.536661 -24.521902 1465.992528 -35.459854 14.363742 0.000000 0.033358
530.000000 63.492000 9.000000 -1.000000 6.000000 126.043484 -19.784951 1362.170482 108.643472 15.744426 0.000000 0.038003
531.000000 58.145000 10.000000 -1.000000 6.000000 122.810580 -16.154940 1286.774712 218.567523 17.193267 0.000000 0.069726
532.000000 53.465000 11.000000 -1.000000 6.000000 119.865645 -13.305608 1229.536417 305.913749 18.699313 0.000000 0.094555
533.000000 49.364000 12.000000 -1.000000 6.000000 117.201531 -11.020048 1184.601277 377.431528 20.253840 0.000000 0.113228
534.000000 45.760000 13.000000 -1.000000 6.000000 114.796855 -9.151535 1148.387467 437.342933 21.849811 0.000000 0.127368
536.000000 71.687000 8.000000 0.000000 6.000000 136.229360 -14.363257 1250.609813 -218.752185 13.942585 0.000000 0.024831
537.000000 59.623000 10.000000 0.000000 6.000000 127.677282 -7.863443 1123.648290 101.936980 16.765800 0.000000 0.064795
538.000000 54.725000 11.000000 0.000000 6.000000 124.121105 -5.794332 1084.218417 207.970386 18.267571 0.000000 0.088124
539.000000 46.701000 13.000000 0.000000 6.000000 118.176775 -2.883473 1029.211460 363.726784 21.408523 0.000000 0.120603
541.000000 72.583000 8.000000 1.000000 6.000000 141.290566 -1.251046 998.504482 -402.301837 13.769743 0.000000 0.009318
542.000000 66.058000 9.000000 1.000000 6.000000 136.004204 0.548961 964.687526 -173.750201 15.130883 0.000000 0.022305
543.000000 60.362000 10.000000 1.000000 6.000000 131.428804 1.797405 941.224879 -9.310691 16.559807 0.000000 0.048001
544.000000 55.394000 11.000000 1.000000 6.000000 127.447744 2.713325 923.992392 115.763681 18.046004 0.000000 0.071112
545.000000 51.054000 12.000000 1.000000 6.000000 123.962918 3.413629 910.799420 214.754826 19.581028 0.000000 0.090302
546.000000 47.251000 13.000000 1.000000 6.000000 120.893735 3.966283 900.374604 295.464887 21.158016 0.000000 0.105872
548.000000 65.921000 9.000000 2.000000 6.000000 138.516356 13.269499 721.179713 -309.619418 15.161887 0.000000 0.049724
549.000000 55.460000 11.000000 2.000000 6.000000 129.642852 11.989119 746.440204 29.369897 18.023821 0.000000 0.044728
550.000000 47.403000 13.000000 2.000000 6.000000 122.839392 11.263273 760.652556 232.685829 21.089400 0.000000 0.081989
552.000000 59.619000 10.000000 3.000000 6.000000 134.550104 23.681552 502.953115 -215.947422 16.765181 0.000000 0.078641
553.000000 54.949000 11.000000 3.000000 6.000000 130.594310 21.612613 548.590852 -51.056485 18.190960 0.000000 0.041980
554.000000 47.168000 13.000000 3.000000 6.000000 123.949460 18.799741 608.604966 175.576019 21.194331 0.000000 0.048757
556.000000 53.920000 11.000000 4.000000 6.000000 130.319315 31.060363 326.752884 -125.264390 18.538026 0.000000 0.105065
557.000000 46.572000 13.000000 4.000000 6.000000 124.217684 26.322953 442.525637 124.390265 21.464964 0.000000 0.026188
560.000000 48.884000 12.000000 5.000000 6.000000 126.246146 36.399390 181.505095 -39.320782 20.449076 0.000000 0.132489
561.000000 45.660000 13.000000 5.000000 6.000000 123.697587 33.582770 260.378223 79.465669 21.893923 0.000000 0.077907
565.000000 47.839000 8.000000 -6.000000 7.000000 95.733535 -52.096924 2357.407784 765.092668 20.905192 0.000000 0.300538
566.000000 45.556000 9.000000 -6.000000 7.000000 96.648151 -47.685329 2157.223678 754.654412 21.952586 0.000000 0.190322
568.000000 52.276000 8.000000 -5.000000 7.000000 103.200011 -49.710196 2244.580592 550.616988 19.128530 0.000000 0.242395
569.000000 49.354000 9.000000 -5.000000 7.000000 103.516893 -44.945096 2049.233508 575.449170 20.261310 0.000000 0.139130
570.000000 46.532000 10.000000 -5.000000 7.000000 103.473853 -40.699792 1900.752313 600.855585 21.490372 0.000000 0.074504
572.000000 56.608000 8.000000 -4.000000 7.000000 111.023880 -46.699138 2117.101314 337.839097 17.662678 0.000000 0.195449
573.000000 53.017000 9.000000 -4.000000 7.000000 110.617044 -41.560039 1929.237212 399.854745 18.859172 0.000000 0.097514
574.000000 49.639000 10.000000 -4.000000 7.000000 109.903795 -37.087775 1788.634036 452.486077 20.143065 0.000000 0.036508
575.000000 46.506000 11.000000 -4.000000 7.000000 109.002889 -33.205331 1679.450278 498.006554 21.500554 0.000000 0.031189
577.000000 60.632000 8.000000 -3.000000 7.000000 119.078812 -42.807398 1971.917609 125.157407 16.488410 0.000000 0.161090
578.000000 56.390000 9.000000 -3.000000 7.000000 117.816976 -37.306676 1795.114712 227.055875 17.729319 0.000000 0.068638
579.000000 52.479000 10.000000 -3.000000 7.000000 116.338071 -32.665808 1665.061980 308.062249 19.051175 0.000000 0.007117
580.000000 48.911000 11.000000 -3.000000 7.000000 114.765799 -28.746190 1565.382154 374.665923 20.441418 0.000000 0.036644
581.000000 45.676000 12.000000 -3.000000 7.000000 113.178023 -25.421091 1486.547707 430.788223 21.889956 0.000000 0.068099
583.000000 64.127000 8.000000 -2.000000 7.000000 127.163891 -37.640341 1805.066047 -89.337892 15.588054 0.000000 0.137450
584.000000 59.305000 9.000000 -2.000000 7.000000 124.921601 -31.872419 1644.215550 56.151061 16.856182 0.000000 0.054210
585.000000 54.926000 10.000000 -2.000000 7.000000 122.598497 -27.201954 1528.186526 167.131628 18.200881 0.000000 0.016400
586.000000 50.980000 11.000000 -2.000000 7.000000 120.310791 -23.390198 1440.535527 255.456214 19.610473 0.000000 0.047275
587.000000 47.438000 12.000000 -2.000000 7.000000 118.120042 -20.246257 1371.986047 327.950546 21.075539 0.000000 0.075393
589.000000 66.878000 8.000000 -1.000000 7.000000 134.969971 -30.591563 1611.304758 -308.007282 14.945337 0.000000 0.116677
590.000000 61.605000 9.000000 -1.000000 7.000000 131.651514 -24.837899 1473.181972 -113.887943 16.225357 0.000000 0.047396
591.000000 56.863000 10.000000 -1.000000 7.000000 128.446172 -20.421832 1375.737149 29.220414 17.579340 0.000000 0.026980
592.000000 52.624000 11.000000 -1.000000 7.000000 125.439532 -16.963516 1303.306921 140.155087 18.996196 0.000000 0.052555
593.000000 48.845000 12.000000 -1.000000 7.000000 122.661022 -14.200529 1247.354890 229.318059 20.466944 0.000000 0.077422
594.000000 45.476000 13.000000 -1.000000 7.000000 120.112194 -11.952047 1202.832094 302.955963 21.984237 0.000000 0.097197
596.000000 63.910000 9.000000 1.000000 7.000000 142.326743 -4.097920 1052.110469 -456.479051 15.638223 0.000000 0.009668
597.000000 58.878000 10.000000 1.000000 7.000000 137.629993 -1.975242 1012.119394 -239.633985 16.975545 0.000000 0.012067
598.000000 54.396000 11.000000 1.000000 7.000000 133.476344 -0.453785 983.524480 -79.552912 18.375303 0.000000 0.035952
599.000000 50.411000 12.000000 1.000000 7.000000 129.793962 0.688715 962.061942 44.392797 19.828856 0.000000 0.058094
600.000000 46.868000 13.000000 1.000000 7.000000 126.517344 1.577511 945.359157 143.777660 21.329089 0.000000 0.077187
603.000000 58.889000 10.000000 2.000000 7.000000 140.256143 9.603288 792.894911 -371.782199 16.971780 0.000000 0.042886
604.000000 54.472000 11.000000 2.000000 7.000000 135.884599 9.458584 795.689788 -184.351892 18.349213 0.000000 0.030530
605.000000 50.530000 12.000000 2.000000 7.000000 132.023515 9.351722 797.752254 -41.964024 19.781648 0.000000 0.038582
606.000000 47.014000 13.000000 2.000000 7.000000 128.595864 9.269575 799.336855 70.566119 21.261914 0.000000 0.055609
609.000000 54.025000 11.000000 3.000000 7.000000 136.982992 19.936245 584.616652 -286.030352 18.500737 0.000000 0.072811
610.000000 50.217000 12.000000 3.000000 7.000000 133.193611 18.450045 615.920123 -124.234898 19.904743 0.000000 0.043680
611.000000 46.801000 13.000000 3.000000 7.000000 129.800741 17.306832 639.630867 1.716080 21.358326 0.000000 0.034834
614.000000 49.505000 12.000000 4.000000 7.000000 133.285629 27.546553 413.604710 -202.354870 20.190558 0.000000 0.097567
615.000000 46.253000 13.000000 4.000000 7.000000 130.111986 25.387605 464.223202 -62.631470 21.611347 0.000000 0.057502
620.000000 48.504000 9.000000 -5.000000 8.000000 108.039287 -48.585158 2195.178888 411.110302 20.614342 0.000000 0.227546
621.000000 45.929000 10.000000 -5.000000 8.000000 108.000832 -44.107985 2018.292610 453.935635 21.770662 0.000000 0.132780
622.000000 51.781000 9.000000 -4.000000 8.000000 115.108326 -45.607608 2074.367503 220.035802 19.307764 0.000000 0.191907
623.000000 45.881000 11.000000 -4.000000 8.000000 113.559508 -36.621996 1774.967958 356.247228 21.791797 0.000000 0.039411
625.000000 54.775000 9.000000 -3.000000 8.000000 122.302064 -41.823908 1938.126590 27.874318 18.250556 0.000000 0.165574
626.000000 51.300000 10.000000 -3.000000 8.000000 120.931554 -36.736571 1778.314212 136.209689 19.487312 0.000000 0.080566
627.000000 48.073000 11.000000 -3.000000 8.000000 119.399008 -32.406416 1658.206192 222.701819 20.796273 0.000000 0.022062
628.000000 57.350000 9.000000 -2.000000 8.000000 129.458205 -36.906605 1783.298624 -166.920974 17.429460 0.000000 0.145511
629.000000 49.952000 11.000000 -2.000000 8.000000 125.059163 -27.264472 1529.671978 91.314349 20.012400 0.000000 0.022454
632.000000 55.231000 10.000000 -1.000000 8.000000 133.304223 -25.103677 1479.257318 -179.211638 18.097529 0.000000 0.059794
633.000000 51.445000 11.000000 -1.000000 8.000000 130.353406 -20.969358 1387.490369 -38.350517 19.430159 0.000000 0.026157
634.000000 48.011000 12.000000 -1.000000 8.000000 127.556730 -17.671342 1317.896253 72.452154 20.821002 0.000000 0.038992
636.000000 52.496000 11.000000 0.000000 8.000000 135.047389 -13.297013 1229.365940 -166.774613 19.040152 0.000000 0.021270
637.000000 45.717000 13.000000 0.000000 8.000000 128.636793 -8.473979 1135.353579 71.177445 21.865098 0.000000 0.058071
640.000000 53.069000 11.000000 1.000000 8.000000 138.866339 -4.116322 1052.457923 -294.504218 18.833558 0.000000 0.003986
641.000000 49.458000 12.000000 1.000000 8.000000 135.080548 -2.412280 1020.341173 -139.282032 20.209487 0.000000 0.025664
642.000000 46.200000 13.000000 1.000000 8.000000 131.672688 -1.105917 995.777107 -17.201773 21.635966 0.000000 0.046681
644.000000 53.156000 11.000000 2.000000 8.000000 141.529736 6.456049 853.208022 -422.174411 18.802086 0.000000 0.035490
645.000000 46.343000 13.000000 2.000000 8.000000 133.906536 6.996420 842.915940 -102.749621 21.568196 0.000000 0.032695
648.000000 49.308000 12.000000 3.000000 8.000000 138.829583 16.583514 654.479928 -343.136647 20.270207 0.000000 0.066469
649.000000 46.156000 13.000000 3.000000 8.000000 135.233456 15.585902 674.778684 -185.524868 21.655184 0.000000 0.043260
651.000000 45.659000 13.000000 4.000000 8.000000 135.614772 24.303516 488.954987 -265.571259 21.890683 0.000000 0.090853
655.000000 47.579000 10.000000 -4.000000 9.000000 118.387398 -44.634205 2037.638459 123.632474 21.012167 0.000000 0.191330
656.000000 49.870000 10.000000 -3.000000 9.000000 124.868559 -40.962260 1909.364383 -52.132444 20.045041 0.000000 0.169917
657.000000 46.983000 11.000000 -3.000000 9.000000 123.450880 -36.233053 1763.682225 59.472231 21.277056 0.000000 0.091482
660.000000 48.683000 11.000000 -2.000000 9.000000 129.194099 -31.386092 1631.614276 -87.046164 20.532732 0.000000 0.080725
661.000000 45.764000 12.000000 -2.000000 9.000000 127.067940 -27.319469 1530.980133 25.880089 21.843143 0.000000 0.033680
664.000000 50.034000 11.000000 -1.000000 9.000000 134.630761 -25.330317 1484.458910 -234.530553 19.976998 0.000000 0.070248
665.000000 46.945000 12.000000 -1.000000 9.000000 131.902917 -21.445019 1397.770965 -96.639513 21.292178 0.000000 0.032277
668.000000 48.281000 12.000000 1.000000 9.000000 139.831925 -5.950529 1087.183603 -340.970269 20.701081 0.000000 0.006952
672.000000 45.457000 13.000000 2.000000 9.000000 138.777482 4.389526 892.381576 -291.080535 21.987392 0.000000 0.021967
677.000000 45.723000 11.000000 -3.000000 10.000000 126.957171 -40.201458 1884.586146 -119.234180 21.862161 0.000000 0.173721
681.000000 45.720000 12.000000 -1.000000 10.000000 135.718693 -25.525866 1488.962597 -282.017579 21.861720 0.000000 0.079046
#UB matrix in q= (UB) B0 G* 
#[[-0.614945291 -0.212286651 -0.758471302]
# [ 0.118456263  0.927292147 -0.355569373]
# [ 0.779621962 -0.30885527  -0.545723129]]
#B0 matrix in q= UB (B0) G*
#[[ 0.19670273 -0.          0.03056101]
# [ 0.          0.19187965 -0.        ]
# [ 0.          0.          0.18806537]]
#UBB0 matrix in q= (UB B0) G* i.e. recip. basis vectors are columns in LT frame: astar = UBB0[:,0], bstar = UBB0[:,1], cstar = UBB0[:,2]. (abcstar as columns on xyzlab1, xlab1 = ui, ui = unit vector along incident beam)
#[[-0.12096142 -0.04073349 -0.16143553]
# [ 0.02330067  0.1779285  -0.06325014]
# [ 0.15335377 -0.05926304 -0.07880559]]
#Euler angles phi theta psi (deg)
#[ 68.412 123.025 115.078]
#deviatoric strain in direct crystal frame (10-3 unit)
#[[-5.84  0.19  0.97]
# [ 0.19 -5.83  0.2 ]
# [ 0.97  0.2  11.67]]
#deviatoric strain in sample2 frame (10-3 unit)
#[[ 9.45  5.52 -2.1 ]
# [ 5.53 -3.79 -0.58]
# [-2.08 -0.58 -5.66]]
#new lattice parameters
#[ 5.1505     5.2116669  5.3195147 89.9911554 99.1674579 89.9786678]
#CCDLabel
#sCMOS
#DetectorParameters
#[79.0, 975.0, 941.0, 0.0, 0.0]
#pixelsize
#0.0734
#Frame dimensions
#[2018, 2016]
#
