#Strain and Orientation Refinement from experimental file: /home/micha/LaueProjects/DepthEffects/testZrO2_45.cor
#File created at Wed Jun 28 14:21:02 2023 with indexingSpotsSet.py
#Number of indexed spots: 497
#Element
#ZrO2
#grainIndex
#G_0
#Mean Deviation(pixel): 0.114
##spot_index intensity h k l 2theta Chi Xexp Yexp Energy GrainIndex PixDev
4.000000 46.957000 -10.000000 -3.000000 -4.000000 83.781422 46.824405 -172.115753 1112.397001 21.311498 0.000000 0.207568
5.000000 49.214000 -9.000000 -3.000000 -4.000000 80.425748 48.710371 -250.567413 1216.122783 20.335114 0.000000 0.256029
6.000000 51.352000 -8.000000 -3.000000 -4.000000 76.387971 50.820072 -345.611464 1353.534974 19.489428 0.000000 0.321792
10.000000 47.176000 -5.000000 -1.000000 -2.000000 82.445453 40.567842 53.551579 1128.904856 10.606763 0.000000 0.139923
11.000000 49.570000 -9.000000 -2.000000 -4.000000 79.105993 42.102889 2.394921 1220.192777 20.190142 0.000000 0.166176
12.000000 51.888000 -4.000000 -1.000000 -2.000000 75.083638 43.835003 -58.392043 1338.468593 9.644639 0.000000 0.203427
13.000000 53.895000 -7.000000 -2.000000 -4.000000 70.175217 45.800868 -131.811249 1497.570897 18.572367 0.000000 0.257099
17.000000 46.709000 -10.000000 -1.000000 -4.000000 80.380236 34.292640 241.004395 1161.806027 21.427035 0.000000 0.122858
18.000000 49.079000 -9.000000 -1.000000 -4.000000 76.971125 35.433433 209.171858 1246.666027 20.393652 0.000000 0.133752
19.000000 51.371000 -8.000000 -1.000000 -4.000000 72.869405 36.727871 171.940248 1354.907487 19.484967 0.000000 0.151670
20.000000 53.341000 -7.000000 -1.000000 -4.000000 67.863683 38.207601 127.808691 1498.198649 18.766596 0.000000 0.181157
21.000000 54.527000 -6.000000 -1.000000 -4.000000 61.659897 39.913003 74.663203 1697.821474 18.359989 0.000000 0.230010
24.000000 45.531000 -5.000000 0.000000 -2.000000 77.614939 28.146397 399.191843 1209.041692 10.991677 0.000000 0.123679
25.000000 47.699000 -9.000000 0.000000 -4.000000 74.047932 28.879582 381.353972 1292.342306 20.985420 0.000000 0.124899
26.000000 49.732000 -4.000000 0.000000 -2.000000 69.766956 29.713226 360.763260 1397.760238 10.064356 0.000000 0.129762
27.000000 51.363000 -7.000000 0.000000 -4.000000 64.554043 30.669056 336.729174 1536.400355 19.491415 0.000000 0.143289
28.000000 52.086000 -3.000000 0.000000 -2.000000 58.104478 31.775389 308.309149 1728.910291 9.611245 0.000000 0.175415
29.000000 50.970000 -5.000000 0.000000 -4.000000 49.989279 33.069749 274.182071 2019.107267 19.645177 0.000000 0.243614
32.000000 47.041000 -8.000000 1.000000 -4.000000 65.891443 22.989617 518.370362 1464.197220 21.282339 0.000000 0.109830
33.000000 48.057000 -7.000000 1.000000 -4.000000 60.384227 23.434320 508.480243 1607.813272 20.834291 0.000000 0.114610
34.000000 47.976000 -6.000000 1.000000 -4.000000 53.604887 23.948614 496.959083 1809.106251 20.871250 0.000000 0.145972
35.000000 45.816000 -5.000000 1.000000 -4.000000 45.126085 24.550112 483.367144 2119.067055 21.857100 0.000000 0.227474
37.000000 46.027000 -12.000000 -4.000000 -3.000000 97.275156 49.590989 -289.238626 729.038046 21.737020 0.000000 0.235096
38.000000 48.688000 -11.000000 -4.000000 -3.000000 95.277738 51.591435 -382.528494 780.966786 20.549573 0.000000 0.287589
42.000000 46.677000 -4.000000 -1.000000 -1.000000 96.633869 43.457396 -44.845179 768.553808 7.144975 0.000000 0.120388
43.000000 49.562000 -11.000000 -3.000000 -3.000000 94.755596 45.141767 -106.633666 814.058250 20.187547 0.000000 0.148400
44.000000 52.711000 -10.000000 -3.000000 -3.000000 92.502635 47.033004 -180.518048 871.981223 18.982362 0.000000 0.185072
45.000000 56.107000 -3.000000 -1.000000 -1.000000 89.766339 49.166718 -270.435605 947.712924 5.944662 0.000000 0.234019
46.000000 59.689000 -8.000000 -3.000000 -3.000000 86.397482 51.585515 -382.240395 1050.057099 16.764662 0.000000 0.301195
49.000000 46.841000 -12.000000 -2.000000 -3.000000 95.297257 37.238688 156.902138 815.651245 21.360887 0.000000 0.079635
50.000000 49.849000 -11.000000 -2.000000 -3.000000 93.457839 38.553635 117.230650 857.838893 20.072293 0.000000 0.089170
51.000000 53.172000 -10.000000 -2.000000 -3.000000 91.262120 40.040346 70.589589 910.027073 18.818372 0.000000 0.103788
52.000000 56.818000 -9.000000 -2.000000 -3.000000 88.605025 41.732371 14.965442 976.121198 17.611539 0.000000 0.125431
53.000000 60.756000 -8.000000 -2.000000 -3.000000 85.339635 43.671728 -52.513562 1062.300993 16.470940 0.000000 0.157012
54.000000 64.868000 -7.000000 -2.000000 -3.000000 81.256529 45.911335 -136.089282 1178.911681 15.427725 0.000000 0.203317
55.000000 68.852000 -6.000000 -2.000000 -3.000000 76.051751 48.518038 -242.301381 1344.569350 14.536211 0.000000 0.272898
59.000000 46.471000 -12.000000 -1.000000 -3.000000 93.255386 31.079220 326.270050 869.521671 21.532312 0.000000 0.099799
60.000000 49.477000 -11.000000 -1.000000 -3.000000 91.361195 31.997780 302.514687 910.843593 20.224508 0.000000 0.101107
61.000000 52.812000 -10.000000 -1.000000 -3.000000 89.112714 33.040126 274.974197 960.884418 18.948231 0.000000 0.103740
62.000000 56.490000 -9.000000 -1.000000 -3.000000 86.405934 34.232236 242.665596 1022.767916 17.715160 0.000000 0.108722
63.000000 60.494000 -8.000000 -1.000000 -3.000000 83.094327 35.607591 204.233276 1101.332417 16.543563 0.000000 0.117862
64.000000 64.723000 -7.000000 -1.000000 -3.000000 78.966422 37.209936 157.753946 1204.508879 15.463690 0.000000 0.134338
65.000000 68.889000 -6.000000 -1.000000 -3.000000 73.709238 39.097263 100.404741 1346.297784 14.529533 0.000000 0.163749
66.000000 72.288000 -5.000000 -1.000000 -3.000000 66.848323 41.347580 27.867619 1554.049864 13.847808 0.000000 0.216492
70.000000 46.709000 -11.000000 1.000000 -3.000000 84.974710 19.617871 591.370544 1041.474539 21.426392 0.000000 0.139190
71.000000 49.533000 -10.000000 1.000000 -3.000000 82.301330 19.797976 587.553169 1095.635319 20.206151 0.000000 0.135771
72.000000 52.550000 -9.000000 1.000000 -3.000000 79.110594 20.003520 583.186034 1161.348510 19.047236 0.000000 0.130436
73.000000 55.680000 -8.000000 1.000000 -3.000000 75.243151 20.240296 578.141167 1243.160658 17.977812 0.000000 0.122491
74.000000 58.727000 -7.000000 1.000000 -3.000000 70.470870 20.515996 572.247528 1348.604273 17.046412 0.000000 0.111699
75.000000 61.255000 -6.000000 1.000000 -3.000000 64.458806 20.841063 565.271242 1491.323380 16.344405 0.000000 0.101600
76.000000 62.321000 -5.000000 1.000000 -3.000000 56.703102 21.230032 556.883819 1699.377764 16.066636 0.000000 0.113167
77.000000 59.908000 -4.000000 1.000000 -3.000000 46.432263 21.703748 546.608924 2042.901755 16.715780 0.000000 0.196159
79.000000 46.769000 -10.000000 2.000000 -3.000000 77.914920 13.845009 709.740089 1178.339887 21.402521 0.000000 0.131464
80.000000 49.159000 -9.000000 2.000000 -3.000000 74.353212 13.639693 713.827608 1251.202784 20.363281 0.000000 0.119746
81.000000 51.456000 -8.000000 2.000000 -3.000000 70.059745 13.404724 718.496763 1342.404134 19.455873 0.000000 0.102710
82.000000 53.382000 -7.000000 2.000000 -3.000000 64.800255 13.133187 723.881211 1461.062270 18.755635 0.000000 0.079859
83.000000 54.393000 -6.000000 2.000000 -3.000000 58.239726 12.815843 730.158957 1624.320901 18.408818 0.000000 0.064951
84.000000 53.433000 -5.000000 2.000000 -3.000000 49.892247 12.440056 737.572410 1869.369208 18.741691 0.000000 0.116621
85.000000 48.474000 -4.000000 2.000000 -3.000000 39.051637 11.988090 746.460410 2297.244878 20.660663 0.000000 0.265090
86.000000 46.488000 -8.000000 3.000000 -3.000000 64.433363 7.289763 837.318967 1460.099266 21.537206 0.000000 0.064907
87.000000 47.197000 -7.000000 3.000000 -3.000000 58.693268 6.592274 850.615576 1599.927054 21.215848 0.000000 0.035430
88.000000 46.655000 -2.000000 1.000000 -1.000000 51.629861 5.786864 865.923321 1797.512300 7.154684 0.000000 0.077481
91.000000 46.894000 -13.000000 -4.000000 -2.000000 106.379672 48.084250 -223.886407 467.439887 21.331681 0.000000 0.212633
92.000000 49.900000 -6.000000 -2.000000 -1.000000 105.182391 50.112303 -312.795331 485.558880 10.023597 0.000000 0.260091
96.000000 47.516000 -13.000000 -3.000000 -2.000000 105.752647 41.611632 19.030419 534.934786 21.053197 0.000000 0.089606
97.000000 50.741000 -12.000000 -3.000000 -2.000000 104.701648 43.272943 -38.289230 553.148133 19.715402 0.000000 0.113819
98.000000 54.374000 -11.000000 -3.000000 -2.000000 103.422829 45.154110 -107.099770 576.760274 18.398119 0.000000 0.144870
99.000000 58.478000 -10.000000 -3.000000 -2.000000 101.845178 47.296880 -191.241513 608.154919 17.107469 0.000000 0.185549
100.000000 63.110000 -9.000000 -3.000000 -2.000000 99.868711 49.752454 -296.480571 651.199140 15.852272 0.000000 0.240397
104.000000 47.686000 -13.000000 -2.000000 -2.000000 104.384783 35.092252 218.785130 603.635705 20.978905 0.000000 0.045057
105.000000 51.035000 -6.000000 -1.000000 -1.000000 103.385865 36.333098 183.425600 623.058964 9.801294 0.000000 0.048322
106.000000 54.848000 -11.000000 -2.000000 -2.000000 102.187053 37.747458 141.720306 647.028106 18.240171 0.000000 0.055905
107.000000 59.213000 -5.000000 -1.000000 -1.000000 100.726999 39.372313 91.792596 677.244960 8.447959 0.000000 0.069205
108.000000 64.232000 -9.000000 -2.000000 -2.000000 98.918417 41.255125 30.944914 716.336577 15.576043 0.000000 0.089848
109.000000 76.656000 -7.000000 -2.000000 -2.000000 93.681955 46.059453 -141.852234 841.188383 13.052601 0.000000 0.165467
110.000000 47.364000 -13.000000 -1.000000 -2.000000 102.273826 28.691941 385.942846 674.069480 21.122646 0.000000 0.086335
111.000000 50.721000 -12.000000 -1.000000 -2.000000 101.220092 29.492741 366.241991 695.710683 19.724889 0.000000 0.085208
112.000000 54.561000 -11.000000 -1.000000 -2.000000 99.972417 30.407960 343.340880 721.570511 18.337318 0.000000 0.084202
113.000000 58.982000 -10.000000 -1.000000 -2.000000 98.473834 31.463422 316.390792 753.009661 16.963152 0.000000 0.083584
114.000000 64.108000 -9.000000 -1.000000 -2.000000 96.643504 32.693122 284.213792 792.041638 15.607127 0.000000 0.083906
115.000000 70.086000 -8.000000 -1.000000 -2.000000 94.363272 34.142614 245.125961 841.775655 14.276507 0.000000 0.086297
116.000000 77.072000 -7.000000 -1.000000 -2.000000 91.454456 35.874138 196.633029 907.274912 12.983033 0.000000 0.093001
117.000000 85.187000 -6.000000 -1.000000 -2.000000 87.635992 37.974554 134.876254 997.366495 11.746998 0.000000 0.108271
118.000000 46.537000 -13.000000 0.000000 -2.000000 99.466166 22.559210 527.880668 746.674290 21.499542 0.000000 0.123716
119.000000 49.778000 -12.000000 0.000000 -2.000000 98.253167 22.935425 519.571100 771.482776 20.100064 0.000000 0.124404
120.000000 53.476000 -11.000000 0.000000 -2.000000 96.828169 23.364893 510.028641 800.610737 18.710717 0.000000 0.125041
121.000000 57.722000 -10.000000 0.000000 -2.000000 95.131190 23.859723 498.956918 835.321238 17.334801 0.000000 0.125570
122.000000 62.629000 -9.000000 0.000000 -2.000000 93.077693 24.435970 485.956291 877.436478 15.977222 0.000000 0.125902
123.000000 68.327000 -8.000000 0.000000 -2.000000 90.544899 25.115379 470.474582 929.694987 14.645613 0.000000 0.125907
124.000000 74.948000 -7.000000 0.000000 -2.000000 87.348061 25.928121 451.726622 996.431516 13.352519 0.000000 0.125419
125.000000 82.575000 -6.000000 0.000000 -2.000000 83.197325 26.917266 428.556873 1084.991110 12.120121 0.000000 0.124378
126.000000 48.229000 -12.000000 1.000000 -2.000000 94.589909 16.801604 650.014717 850.741182 20.747711 0.000000 0.147942
127.000000 51.624000 -11.000000 1.000000 -2.000000 92.880036 16.795565 650.138500 884.440543 19.383934 0.000000 0.148478
128.000000 55.472000 -10.000000 1.000000 -2.000000 90.851178 16.788640 650.280423 924.297644 18.039741 0.000000 0.148404
129.000000 59.845000 -9.000000 1.000000 -2.000000 88.406607 16.780620 650.444789 972.271016 16.722542 0.000000 0.147294
130.000000 64.803000 -8.000000 1.000000 -2.000000 85.407072 16.771222 650.637379 1031.304002 15.444030 0.000000 0.144412
131.000000 70.367000 -7.000000 1.000000 -2.000000 81.645343 16.760057 650.866143 1106.075348 14.223783 0.000000 0.138469
132.000000 76.427000 -6.000000 1.000000 -2.000000 76.800933 16.746576 651.142332 1204.603865 13.097280 0.000000 0.127185
133.000000 82.489000 -5.000000 1.000000 -2.000000 70.355750 16.729974 651.482398 1342.168690 12.136129 0.000000 0.107128
134.000000 86.991000 -4.000000 1.000000 -2.000000 61.430189 16.709027 651.911398 1552.916024 11.509801 0.000000 0.082928
135.000000 85.303000 -3.000000 1.000000 -2.000000 48.458376 16.681770 652.469468 1936.517006 11.739505 0.000000 0.149243
137.000000 46.139000 -6.000000 1.000000 -1.000000 90.373124 11.176805 762.340759 933.855303 10.844752 0.000000 0.157338
138.000000 49.098000 -11.000000 2.000000 -2.000000 88.305567 10.806581 769.557759 973.413844 20.383291 0.000000 0.155750
139.000000 52.370000 -5.000000 1.000000 -1.000000 85.858251 10.385271 777.749022 1020.236116 9.555310 0.000000 0.152596
140.000000 55.963000 -9.000000 2.000000 -2.000000 82.919503 9.901574 787.126107 1076.708946 17.884649 0.000000 0.146970
141.000000 59.842000 -4.000000 1.000000 -1.000000 79.330997 9.340612 797.966611 1146.489512 8.363233 0.000000 0.137337
142.000000 63.874000 -7.000000 2.000000 -2.000000 74.862008 8.682403 810.642106 1235.547692 15.672097 0.000000 0.121014
143.000000 67.697000 -3.000000 1.000000 -1.000000 69.166075 7.899490 825.661591 1354.499066 7.394295 0.000000 0.093213
144.000000 70.430000 -5.000000 2.000000 -2.000000 61.706625 6.953121 843.741492 1524.656731 14.216577 0.000000 0.048168
146.000000 46.042000 -11.000000 3.000000 -2.000000 83.303178 5.437236 872.554477 1067.946177 21.738285 0.000000 0.149593
147.000000 48.626000 -10.000000 3.000000 -2.000000 80.403770 4.695829 886.591380 1123.581563 20.584490 0.000000 0.141397
148.000000 51.303000 -9.000000 3.000000 -2.000000 76.940535 3.853560 902.501984 1191.224710 19.511478 0.000000 0.128810
149.000000 53.945000 -8.000000 3.000000 -2.000000 72.743059 2.888796 920.688283 1275.766629 18.557341 0.000000 0.109324
150.000000 56.282000 -7.000000 3.000000 -2.000000 67.571081 1.773407 941.676121 1385.465028 17.788580 0.000000 0.078552
151.000000 57.769000 -6.000000 3.000000 -2.000000 61.079913 0.470215 966.166873 1535.658790 17.332670 0.000000 0.028437
152.000000 57.326000 -5.000000 3.000000 -2.000000 52.769134 -1.070808 995.117350 1759.008929 17.468721 0.000000 0.057675
153.000000 52.855000 -4.000000 3.000000 -2.000000 41.914282 -2.918320 1029.867739 2141.505086 18.948385 0.000000 0.212076
154.000000 46.223000 -9.000000 4.000000 -2.000000 70.769545 -1.394132 1001.193774 1316.558088 21.658607 0.000000 0.096803
155.000000 47.647000 -4.000000 2.000000 -1.000000 66.023982 -2.632834 1024.492308 1420.163195 10.506515 0.000000 0.066024
156.000000 48.408000 -7.000000 4.000000 -2.000000 60.259220 -4.043538 1051.083728 1557.457625 20.684600 0.000000 0.023583
157.000000 47.899000 -3.000000 2.000000 -1.000000 53.163399 -5.662614 1081.719213 1751.197465 10.453245 0.000000 0.061401
160.000000 46.906000 -14.000000 -4.000000 -1.000000 114.612943 46.408783 -155.567329 225.910769 21.323591 0.000000 0.210326
165.000000 47.467000 -14.000000 -3.000000 -1.000000 113.951176 39.571374 85.517317 320.762671 21.071919 0.000000 0.082773
166.000000 50.793000 -13.000000 -3.000000 -1.000000 113.600949 41.189937 33.109428 316.118237 19.692235 0.000000 0.105998
167.000000 54.586000 -12.000000 -3.000000 -1.000000 113.144721 43.039920 -30.063557 311.522249 18.324035 0.000000 0.135247
168.000000 58.940000 -11.000000 -3.000000 -1.000000 112.543519 45.169947 -107.698174 307.284014 16.970330 0.000000 0.173026
169.000000 63.974000 -10.000000 -3.000000 -1.000000 111.740525 47.641346 -205.402146 303.999247 15.635279 0.000000 0.223374
172.000000 47.619000 -14.000000 -2.000000 -1.000000 112.513135 32.740029 282.969029 410.638333 21.005400 0.000000 0.014825
173.000000 51.058000 -13.000000 -2.000000 -1.000000 112.215883 33.880622 252.288534 411.518923 19.590967 0.000000 0.014450
174.000000 55.013000 -12.000000 -2.000000 -1.000000 111.845032 35.192074 215.980857 413.031874 18.182576 0.000000 0.022291
175.000000 59.605000 -11.000000 -2.000000 -1.000000 111.374802 36.714145 172.341546 415.507960 16.781848 0.000000 0.036433
176.000000 64.991000 -10.000000 -2.000000 -1.000000 110.767357 38.499230 118.900482 419.487465 15.391045 0.000000 0.056220
177.000000 71.381000 -9.000000 -2.000000 -1.000000 109.965552 40.617387 51.937549 425.890122 14.013413 0.000000 0.083168
178.000000 79.052000 -8.000000 -2.000000 -1.000000 108.880223 43.163627 -34.422590 436.364215 12.653789 0.000000 0.120685
179.000000 88.370000 -7.000000 -2.000000 -1.000000 107.367027 46.268422 -150.035589 454.063140 11.319710 0.000000 0.175277
180.000000 47.329000 -14.000000 -1.000000 -1.000000 110.307850 26.103375 447.650253 497.458525 21.135323 0.000000 0.072591
181.000000 50.778000 -13.000000 -1.000000 -1.000000 109.947310 26.758262 432.308370 503.535085 19.699864 0.000000 0.069874
182.000000 54.761000 -12.000000 -1.000000 -1.000000 109.519378 27.512224 414.424787 510.804709 18.267052 0.000000 0.066690
183.000000 59.411000 -11.000000 -1.000000 -1.000000 109.003932 28.389249 393.310831 519.646651 16.837616 0.000000 0.062946
184.000000 64.904000 -10.000000 -1.000000 -1.000000 108.372245 29.421613 368.004332 530.615676 15.412581 0.000000 0.058557
185.000000 71.487000 -9.000000 -1.000000 -1.000000 107.581980 30.653705 337.118888 544.554355 13.993431 0.000000 0.053542
186.000000 79.505000 -8.000000 -1.000000 -1.000000 106.568388 32.148139 298.581095 562.802109 12.582407 0.000000 0.048318
187.000000 89.456000 -7.000000 -1.000000 -1.000000 105.227932 33.995811 249.144829 587.612225 11.183046 0.000000 0.044717
188.000000 48.553000 -13.000000 1.000000 -1.000000 103.070886 13.807614 710.485111 683.679003 20.605918 0.000000 0.145500
189.000000 52.160000 -12.000000 1.000000 -1.000000 102.142233 13.590392 714.808056 702.762000 19.181399 0.000000 0.147638
190.000000 56.329000 -11.000000 1.000000 -1.000000 101.048351 13.340275 719.775848 725.019019 17.762048 0.000000 0.149895
191.000000 61.197000 -10.000000 1.000000 -1.000000 99.741187 13.049191 725.544402 751.331364 16.349528 0.000000 0.152224
192.000000 66.945000 -9.000000 1.000000 -1.000000 98.152234 12.706196 732.324304 782.948883 14.946300 0.000000 0.154516
193.000000 73.812000 -8.000000 1.000000 -1.000000 96.180479 12.296078 740.407073 821.711587 13.556172 0.000000 0.156549
194.000000 82.120000 -7.000000 1.000000 -1.000000 93.670834 11.797053 750.208180 870.459367 12.185360 0.000000 0.157840
195.000000 46.678000 -13.000000 2.000000 -1.000000 98.730838 8.185759 820.176687 774.009573 21.435345 0.000000 0.160871
196.000000 49.907000 -12.000000 2.000000 -1.000000 97.421133 7.609077 831.218132 799.564678 20.049385 0.000000 0.162290
197.000000 53.577000 -11.000000 2.000000 -1.000000 95.877431 6.951381 843.774654 829.383800 18.676418 0.000000 0.163375
198.000000 57.773000 -10.000000 2.000000 -1.000000 94.032496 6.194526 858.181068 864.679108 17.320757 0.000000 0.163853
199.000000 62.588000 -9.000000 2.000000 -1.000000 91.791357 5.314594 874.878685 907.193285 15.988859 0.000000 0.163265
200.000000 68.122000 -8.000000 2.000000 -1.000000 89.015857 4.279445 894.461315 959.540522 14.690850 0.000000 0.160793
201.000000 74.447000 -7.000000 2.000000 -1.000000 85.498065 3.044934 917.747370 1025.862587 13.443561 0.000000 0.154928
202.000000 81.528000 -6.000000 2.000000 -1.000000 80.912483 1.548893 945.897141 1113.216843 12.277182 0.000000 0.142712
203.000000 88.968000 -5.000000 2.000000 -1.000000 74.726268 -0.298756 980.612138 1234.914482 11.251792 0.000000 0.117887
205.000000 47.159000 -12.000000 3.000000 -1.000000 92.274152 2.320273 931.390110 898.222812 21.219988 0.000000 0.164377
206.000000 50.220000 -11.000000 3.000000 -1.000000 90.243799 1.363705 949.378131 936.418942 19.927102 0.000000 0.162531
207.000000 53.603000 -10.000000 3.000000 -1.000000 87.824848 0.276479 969.806334 981.880079 18.670367 0.000000 0.159011
208.000000 57.310000 -9.000000 3.000000 -1.000000 84.900739 -0.969165 993.207389 1037.056462 17.463762 0.000000 0.152884
209.000000 61.295000 -8.000000 3.000000 -1.000000 81.306373 -2.409091 1020.281165 1105.719239 16.329542 0.000000 0.142597
210.000000 65.402000 -7.000000 3.000000 -1.000000 76.802229 -4.090265 1051.965921 1194.042893 15.305421 0.000000 0.125489
211.000000 69.229000 -6.000000 3.000000 -1.000000 71.032272 -6.075082 1089.549263 1313.009058 14.460818 0.000000 0.097005
212.000000 71.830000 -5.000000 3.000000 -1.000000 63.455851 -8.447617 1134.847409 1484.553659 13.939045 0.000000 0.053134
213.000000 71.064000 -4.000000 3.000000 -1.000000 53.243427 -11.322659 1190.507503 1760.856193 14.091268 0.000000 0.082054
214.000000 62.331000 -3.000000 3.000000 -1.000000 39.149390 -14.858450 1260.544157 2308.785332 16.067696 0.000000 0.284495
215.000000 46.456000 -11.000000 4.000000 -1.000000 84.381267 -3.477092 1040.397055 1047.082146 21.544155 0.000000 0.150431
216.000000 48.978000 -10.000000 4.000000 -1.000000 81.412297 -4.782425 1065.046493 1104.105783 20.436160 0.000000 0.141573
217.000000 51.544000 -9.000000 4.000000 -1.000000 77.854959 -6.256773 1093.002155 1174.010568 19.419982 0.000000 0.128482
218.000000 54.000000 -8.000000 4.000000 -1.000000 73.534917 -7.932843 1124.977054 1262.173021 18.538157 0.000000 0.109238
219.000000 56.042000 -7.000000 4.000000 -1.000000 68.211252 -9.851519 1161.905105 1377.680925 17.864293 0.000000 0.081951
220.000000 57.092000 -6.000000 4.000000 -1.000000 61.548655 -12.064183 1205.033856 1537.368597 17.537786 0.000000 0.055521
221.000000 56.073000 -5.000000 4.000000 -1.000000 53.082368 -14.635616 1256.068213 1776.740526 17.858454 0.000000 0.099589
222.000000 51.069000 -4.000000 4.000000 -1.000000 42.186692 -17.647412 1317.401171 2187.186762 19.610539 0.000000 0.246598
223.000000 45.683000 -9.000000 5.000000 -1.000000 70.936637 -10.696571 1178.301208 1319.506709 21.914178 0.000000 0.096283
224.000000 46.796000 -8.000000 5.000000 -1.000000 66.039423 -12.492291 1213.456766 1430.908522 21.394615 0.000000 0.073717
225.000000 47.155000 -7.000000 5.000000 -1.000000 60.119426 -14.512865 1253.606477 1579.794222 21.233826 0.000000 0.064829
226.000000 46.171000 -6.000000 5.000000 -1.000000 52.894468 -16.797244 1299.895904 1791.443884 21.688480 0.000000 0.112766
231.000000 46.766000 -5.000000 -1.000000 0.000000 121.262943 37.310256 154.778987 119.434912 7.128438 0.000000 0.094645
232.000000 50.027000 -14.000000 -3.000000 0.000000 121.488750 38.860265 107.771718 94.356161 19.991461 0.000000 0.117857
233.000000 53.752000 -13.000000 -3.000000 0.000000 121.703391 40.650276 50.864776 64.736774 18.605889 0.000000 0.146981
234.000000 58.042000 -4.000000 -1.000000 0.000000 121.892092 42.736247 -19.437189 29.166935 5.743511 0.000000 0.184454
237.000000 46.888000 -15.000000 -2.000000 0.000000 119.721003 30.160107 349.584594 230.367581 21.330518 0.000000 0.012305
238.000000 50.244000 -7.000000 -1.000000 0.000000 119.990088 31.168400 323.984068 215.059865 9.952888 0.000000 0.019623
239.000000 54.105000 -13.000000 -2.000000 0.000000 120.280539 32.338495 293.582462 197.192049 18.484933 0.000000 0.031447
240.000000 58.594000 -6.000000 -1.000000 0.000000 120.592054 33.711476 256.889449 176.051296 8.534461 0.000000 0.047169
241.000000 63.869000 -11.000000 -2.000000 0.000000 120.921975 35.343041 211.726688 150.627261 15.658993 0.000000 0.067619
242.000000 77.738000 -9.000000 -2.000000 0.000000 121.598220 39.722112 80.741386 80.190013 12.865021 0.000000 0.131553
243.000000 46.619000 -15.000000 -1.000000 0.000000 117.400265 23.298937 511.498135 333.561363 21.454662 0.000000 0.058818
244.000000 49.984000 -14.000000 -1.000000 0.000000 117.590555 23.775603 500.845012 326.391935 20.010339 0.000000 0.055073
245.000000 53.869000 -13.000000 -1.000000 0.000000 117.805579 24.328440 488.391196 318.084915 18.567050 0.000000 0.050649
246.000000 58.405000 -12.000000 -1.000000 0.000000 118.050227 24.977160 473.637983 308.345057 17.125048 0.000000 0.045352
247.000000 63.768000 -11.000000 -1.000000 0.000000 118.330630 25.748855 455.883783 296.764739 15.684675 0.000000 0.038915
248.000000 70.205000 -10.000000 -1.000000 0.000000 118.654471 26.681775 434.109269 282.764538 14.246406 0.000000 0.030995
249.000000 78.071000 -9.000000 -1.000000 0.000000 119.031280 27.831643 406.774531 265.491327 12.810920 0.000000 0.021301
250.000000 87.893000 -8.000000 -1.000000 0.000000 119.472442 29.282739 371.438104 243.633345 11.379227 0.000000 0.011755
251.000000 45.951000 -4.000000 0.000000 0.000000 114.373195 16.890019 648.201593 431.396109 5.804759 0.000000 0.102717
252.000000 48.007000 -14.000000 1.000000 0.000000 110.468925 10.636442 772.868382 532.231879 20.837185 0.000000 0.134390
253.000000 51.579000 -13.000000 1.000000 0.000000 110.144529 10.183312 781.667714 539.864425 19.394586 0.000000 0.136267
254.000000 55.719000 -12.000000 1.000000 0.000000 109.762189 9.659760 791.803542 548.750876 17.953455 0.000000 0.138365
255.000000 60.576000 -11.000000 1.000000 0.000000 109.305100 9.048100 803.605384 559.229052 16.514200 0.000000 0.140719
256.000000 66.349000 -10.000000 1.000000 0.000000 108.749367 8.324229 817.520784 571.770625 15.077401 0.000000 0.143370
257.000000 73.321000 -9.000000 1.000000 0.000000 108.059894 7.454461 834.173345 587.055041 13.643904 0.000000 0.146357
258.000000 81.900000 -8.000000 1.000000 0.000000 107.183076 6.390300 854.458760 606.098803 12.214991 0.000000 0.149716
259.000000 92.695000 -7.000000 1.000000 0.000000 106.033053 5.059433 879.711369 630.495729 10.792711 0.000000 0.153446
260.000000 106.653000 -6.000000 1.000000 0.000000 104.463940 3.349401 912.010147 662.898889 9.380544 0.000000 0.157446
261.000000 125.299000 -5.000000 1.000000 0.000000 102.208513 1.076146 954.782352 708.088471 7.984919 0.000000 0.161307
262.000000 151.163000 -4.000000 1.000000 0.000000 98.726653 -2.080974 1014.108048 775.682374 6.619186 0.000000 0.163662
263.000000 188.229000 -3.000000 1.000000 0.000000 92.771541 -6.724527 1101.902631 888.535376 5.316342 0.000000 0.159767
264.000000 49.600000 -13.000000 2.000000 0.000000 105.313636 4.261109 894.807687 645.466958 20.170117 0.000000 0.155426
265.000000 57.631000 -11.000000 2.000000 0.000000 103.446498 2.298884 931.792554 683.460057 17.360138 0.000000 0.159443
266.000000 68.558000 -9.000000 2.000000 0.000000 100.673452 -0.363500 981.828393 738.144468 14.593975 0.000000 0.162836
267.000000 83.998000 -7.000000 2.000000 0.000000 96.189594 -4.161083 1053.303156 823.966302 11.912477 0.000000 0.163090
268.000000 106.126000 -5.000000 2.000000 0.000000 87.973628 -9.946960 1163.752568 979.662203 9.430174 0.000000 0.150943
269.000000 119.549000 -4.000000 2.000000 0.000000 80.888205 -14.089028 1245.127344 1118.975422 8.372438 0.000000 0.131132
270.000000 131.072000 -3.000000 2.000000 0.000000 69.765840 -19.541114 1357.005194 1361.975357 7.637802 0.000000 0.097709
271.000000 126.729000 -2.000000 2.000000 0.000000 51.152868 -26.877038 1520.493011 1912.796099 7.901518 0.000000 0.193928
272.000000 47.175000 -13.000000 3.000000 0.000000 100.077434 -0.901517 991.936293 749.696418 21.209228 0.000000 0.163215
273.000000 54.012000 -11.000000 3.000000 0.000000 97.115737 -3.420880 1039.337286 806.400409 18.525493 0.000000 0.163500
274.000000 58.111000 -10.000000 3.000000 0.000000 95.167175 -4.954549 1068.303285 843.306201 17.219456 0.000000 0.162385
275.000000 67.944000 -8.000000 3.000000 0.000000 89.770526 -8.785678 1141.343680 945.361843 14.729134 0.000000 0.154761
276.000000 73.674000 -7.000000 3.000000 0.000000 85.929006 -11.209372 1188.294972 1019.091809 13.584422 0.000000 0.145936
277.000000 85.283000 -5.000000 3.000000 0.000000 74.087091 -17.547082 1315.326898 1262.827468 11.737756 0.000000 0.108816
278.000000 88.470000 -4.000000 3.000000 0.000000 64.636267 -21.742665 1404.238174 1490.306818 11.316632 0.000000 0.096474
280.000000 49.943000 -11.000000 4.000000 0.000000 90.588726 -8.239518 1130.854214 929.825111 20.037665 0.000000 0.156303
281.000000 56.377000 -9.000000 4.000000 0.000000 84.798918 -11.882312 1201.463780 1041.116167 17.752624 0.000000 0.142894
282.000000 63.003000 -7.000000 4.000000 0.000000 75.993918 -16.620338 1296.273295 1221.177139 15.888189 0.000000 0.114942
283.000000 66.322000 -5.000000 4.000000 0.000000 61.710428 -22.929453 1430.296648 1569.970023 15.096301 0.000000 0.105129
285.000000 45.644000 -11.000000 5.000000 0.000000 84.082384 -12.300395 1209.677886 1055.179747 21.927281 0.000000 0.140873
286.000000 49.912000 -9.000000 5.000000 0.000000 77.066487 -16.085177 1285.354750 1198.237575 20.054823 0.000000 0.118506
287.000000 51.726000 -8.000000 5.000000 0.000000 72.444988 -18.321379 1331.395876 1299.672479 19.353068 0.000000 0.103975
288.000000 52.916000 -7.000000 5.000000 0.000000 66.796405 -20.835504 1384.609196 1434.663141 18.919511 0.000000 0.094764
289.000000 52.894000 -6.000000 5.000000 0.000000 59.824077 -23.671072 1446.812177 1624.302246 18.929493 0.000000 0.114727
292.000000 45.617000 -16.000000 -3.000000 1.000000 127.743965 34.798678 226.992832 -73.628508 21.921845 0.000000 0.112567
293.000000 48.710000 -15.000000 -3.000000 1.000000 128.431460 36.246598 185.926648 -117.951602 20.529996 0.000000 0.136045
294.000000 52.230000 -14.000000 -3.000000 1.000000 129.178078 37.937765 135.987837 -171.136454 19.145932 0.000000 0.165443
298.000000 45.705000 -16.000000 -2.000000 1.000000 126.069733 27.329855 418.772683 58.519084 21.880557 0.000000 0.034853
299.000000 48.874000 -15.000000 -2.000000 1.000000 126.782064 28.167137 398.690646 28.262870 20.461400 0.000000 0.044107
300.000000 52.504000 -14.000000 -2.000000 1.000000 127.582686 29.148201 374.755787 -7.449144 19.046527 0.000000 0.056531
301.000000 56.700000 -13.000000 -2.000000 1.000000 128.487731 30.312805 345.741688 -50.270677 17.636856 0.000000 0.072666
302.000000 61.600000 -12.000000 -2.000000 1.000000 129.516810 31.716470 309.839630 -102.611994 16.233593 0.000000 0.093556
303.000000 67.392000 -11.000000 -2.000000 1.000000 130.693453 33.438875 264.266441 -168.135806 14.838344 0.000000 0.121028
307.000000 48.627000 -15.000000 -1.000000 1.000000 124.229367 20.527876 571.993105 159.094780 20.566737 0.000000 0.042828
308.000000 52.273000 -14.000000 -1.000000 1.000000 124.928360 20.834190 565.419067 136.790057 19.131719 0.000000 0.038833
309.000000 56.504000 -13.000000 -1.000000 1.000000 125.733346 21.196725 557.603747 110.463491 17.699065 0.000000 0.034846
310.000000 61.468000 -12.000000 -1.000000 1.000000 126.670178 21.632484 548.158936 78.906806 16.269335 0.000000 0.031545
311.000000 67.373000 -11.000000 -1.000000 1.000000 127.773748 22.166074 536.515699 40.368183 14.843281 0.000000 0.030451
312.000000 74.506000 -10.000000 -1.000000 1.000000 129.092232 22.834473 521.805361 -7.795646 13.421936 0.000000 0.033984
313.000000 83.285000 -9.000000 -1.000000 1.000000 130.693898 23.695879 502.632166 -69.776799 12.006757 0.000000 0.044270
314.000000 94.337000 -8.000000 -1.000000 1.000000 132.678368 24.847368 476.602022 -152.663674 10.599879 0.000000 0.062677
315.000000 108.634000 -7.000000 -1.000000 1.000000 135.195753 26.463489 439.235548 -269.513298 9.204544 0.000000 0.091696
318.000000 46.875000 -15.000000 1.000000 1.000000 116.868107 7.293022 837.256753 391.270469 21.338186 0.000000 0.117220
319.000000 50.262000 -14.000000 1.000000 1.000000 116.990268 6.580976 850.830643 389.195020 19.900196 0.000000 0.117680
320.000000 54.171000 -13.000000 1.000000 1.000000 117.121415 5.756239 866.504479 386.930849 18.464218 0.000000 0.118112
321.000000 58.730000 -12.000000 1.000000 1.000000 117.261027 4.790201 884.806420 384.466020 17.030752 0.000000 0.118483
322.000000 64.115000 -11.000000 1.000000 1.000000 117.407273 3.643867 906.457957 381.798188 15.600476 0.000000 0.118736
323.000000 70.565000 -10.000000 1.000000 1.000000 117.555735 2.262810 932.471270 378.947019 14.174336 0.000000 0.118771
324.000000 78.425000 -9.000000 1.000000 1.000000 117.696848 0.568948 964.312032 375.980539 12.753694 0.000000 0.118417
325.000000 88.197000 -8.000000 1.000000 1.000000 117.810523 -1.553285 1004.185427 373.073066 11.340582 0.000000 0.117356
326.000000 100.643000 -7.000000 1.000000 1.000000 117.854256 -4.281096 1055.569859 370.639821 9.938176 0.000000 0.114975
327.000000 116.960000 -6.000000 1.000000 1.000000 117.735067 -7.897009 1124.290897 369.674204 8.551731 0.000000 0.110020
328.000000 139.100000 -5.000000 1.000000 1.000000 117.237830 -12.869572 1220.902794 372.684962 7.190612 0.000000 0.099652
329.000000 170.302000 -4.000000 1.000000 1.000000 115.824564 -19.998535 1366.707915 386.706491 5.873290 0.000000 0.076685
330.000000 48.540000 -14.000000 2.000000 1.000000 112.081975 0.776194 960.418401 504.316512 20.607893 0.000000 0.139119
331.000000 52.113000 -13.000000 2.000000 1.000000 111.739491 -0.402888 982.568332 511.820325 19.195354 0.000000 0.140024
332.000000 56.232000 -12.000000 2.000000 1.000000 111.312829 -1.761557 1008.101066 520.894211 17.789348 0.000000 0.140786
333.000000 61.027000 -11.000000 2.000000 1.000000 110.772259 -3.342279 1037.855619 532.054760 16.391686 0.000000 0.141293
334.000000 66.668000 -10.000000 2.000000 1.000000 110.073933 -5.201215 1072.973472 546.061203 15.004914 0.000000 0.141365
335.000000 73.380000 -9.000000 2.000000 1.000000 109.151225 -7.413724 1115.048380 564.070690 13.632732 0.000000 0.140706
336.000000 81.460000 -8.000000 2.000000 1.000000 107.899427 -10.082341 1166.374984 587.925845 12.280727 0.000000 0.138818
337.000000 91.298000 -7.000000 2.000000 1.000000 106.147555 -13.348215 1230.381694 620.723361 10.957764 0.000000 0.134851
338.000000 103.366000 -6.000000 2.000000 1.000000 103.604156 -17.406759 1312.429617 668.033907 9.678784 0.000000 0.127380
339.000000 118.110000 -5.000000 2.000000 1.000000 99.748753 -22.526448 1421.397871 740.808906 8.471101 0.000000 0.114389
340.000000 135.392000 -4.000000 2.000000 1.000000 93.608209 -29.062508 1573.135584 863.354117 7.390550 0.000000 0.097485
341.000000 152.283000 -3.000000 2.000000 1.000000 83.306022 -37.436330 1798.971026 1100.088371 6.571864 0.000000 0.122844
344.000000 46.425000 -14.000000 3.000000 1.000000 106.802715 -4.212210 1054.268724 615.111669 21.549201 0.000000 0.150691
345.000000 49.576000 -13.000000 3.000000 1.000000 105.960216 -5.617989 1080.872758 631.700548 20.179770 0.000000 0.150901
346.000000 53.146000 -12.000000 3.000000 1.000000 104.943240 -7.212554 1111.207192 651.459215 18.824499 0.000000 0.150680
347.000000 57.211000 -11.000000 3.000000 1.000000 103.698502 -9.033624 1146.115793 675.362682 17.487414 0.000000 0.149821
348.000000 61.858000 -10.000000 3.000000 1.000000 102.150918 -11.128550 1186.717546 704.820899 16.174229 0.000000 0.148017
349.000000 67.180000 -9.000000 3.000000 1.000000 100.192346 -13.557035 1234.528822 741.946295 14.893331 0.000000 0.144820
350.000000 73.262000 -8.000000 3.000000 1.000000 97.663346 -16.394432 1291.656978 790.042663 13.657554 0.000000 0.139598
351.000000 80.131000 -7.000000 3.000000 1.000000 94.323085 -19.735390 1361.119343 854.559597 12.487565 0.000000 0.131590
352.000000 87.636000 -6.000000 3.000000 1.000000 89.799293 -23.697040 1447.393829 945.117438 11.418939 0.000000 0.120640
353.000000 95.148000 -5.000000 3.000000 1.000000 83.506300 -28.419531 1557.424374 1080.295355 10.518527 0.000000 0.111685
354.000000 100.816000 -4.000000 3.000000 1.000000 74.521356 -34.059227 1702.589549 1300.765302 9.928544 0.000000 0.133384
355.000000 99.969000 -3.000000 3.000000 1.000000 61.450763 -40.765908 1902.915300 1714.159283 10.014416 0.000000 0.255710
357.000000 46.678000 -13.000000 4.000000 1.000000 99.986549 -10.021916 1165.204232 748.544159 21.434952 0.000000 0.152986
358.000000 49.639000 -12.000000 4.000000 1.000000 98.401665 -11.741763 1198.708120 778.637250 20.156990 0.000000 0.150894
359.000000 52.906000 -11.000000 4.000000 1.000000 96.495212 -13.674020 1236.855290 814.888415 18.912776 0.000000 0.147703
360.000000 56.492000 -10.000000 4.000000 1.000000 94.173076 -15.855300 1280.682873 859.364524 17.713235 0.000000 0.143041
361.000000 60.376000 -9.000000 4.000000 1.000000 91.305608 -18.329335 1331.561723 915.159005 16.574580 0.000000 0.136500
362.000000 64.474000 -8.000000 4.000000 1.000000 87.711830 -21.147941 1391.342384 987.111372 15.521949 0.000000 0.127876
363.000000 68.567000 -7.000000 4.000000 1.000000 83.136479 -24.371574 1462.585024 1083.224515 14.596527 0.000000 0.118276
364.000000 72.161000 -6.000000 4.000000 1.000000 77.218200 -28.068841 1548.935650 1217.714979 13.870779 0.000000 0.114303
365.000000 74.234000 -5.000000 4.000000 1.000000 69.450903 -32.313882 1655.770051 1418.394439 13.485116 0.000000 0.137962
366.000000 72.803000 -4.000000 4.000000 1.000000 59.155083 -37.179928 1791.357682 1747.716036 13.751903 0.000000 0.228011
368.000000 45.883000 -12.000000 5.000000 1.000000 91.880900 -15.520492 1273.897400 904.317184 21.809745 0.000000 0.143813
369.000000 48.355000 -11.000000 5.000000 1.000000 89.390462 -17.483279 1314.008984 953.005101 20.695731 0.000000 0.138036
370.000000 50.913000 -10.000000 5.000000 1.000000 86.408759 -19.664442 1359.615728 1012.733013 19.656779 0.000000 0.130713
371.000000 53.461000 -9.000000 5.000000 1.000000 82.802189 -22.095069 1411.929897 1087.699255 18.721093 0.000000 0.122188
372.000000 55.815000 -8.000000 5.000000 1.000000 78.394028 -24.810127 1472.548642 1184.524944 17.933031 0.000000 0.114590
373.000000 57.640000 -7.000000 5.000000 1.000000 72.951291 -27.848061 1543.619902 1314.287603 17.366605 0.000000 0.115264
374.000000 58.356000 -6.000000 5.000000 1.000000 66.171552 -31.249644 1628.102251 1497.009387 17.155221 0.000000 0.141218
375.000000 56.997000 -5.000000 5.000000 1.000000 57.677201 -35.055607 1730.187143 1772.918818 17.566235 0.000000 0.215596
377.000000 46.810000 -9.000000 6.000000 1.000000 74.858001 -25.118064 1479.586921 1262.671945 21.384023 0.000000 0.111763
378.000000 47.761000 -8.000000 6.000000 1.000000 69.873961 -27.696290 1539.978238 1386.461877 20.959875 0.000000 0.116667
379.000000 47.911000 -7.000000 6.000000 1.000000 63.882498 -30.533367 1609.830357 1553.630173 20.895985 0.000000 0.144243
380.000000 46.738000 -6.000000 6.000000 1.000000 56.653648 -33.654151 1691.555387 1791.843473 21.422219 0.000000 0.208854
386.000000 50.500000 -15.000000 -2.000000 2.000000 133.858321 25.581508 459.753230 -205.636781 19.801008 0.000000 0.075589
389.000000 46.929000 -16.000000 -1.000000 2.000000 129.956301 17.001899 645.904803 -1.930896 21.308763 0.000000 0.035143
390.000000 50.271000 -15.000000 -1.000000 2.000000 131.002788 17.011748 645.702486 -37.515461 19.892128 0.000000 0.033556
391.000000 54.111000 -14.000000 -1.000000 2.000000 132.198732 17.023498 645.461083 -79.598408 18.480079 0.000000 0.033401
392.000000 58.567000 -13.000000 -1.000000 2.000000 133.578283 17.037759 645.168057 -130.175453 17.073591 0.000000 0.035470
393.000000 63.796000 -12.000000 -1.000000 2.000000 135.186728 17.055432 644.804865 -192.167652 15.673943 0.000000 0.040412
394.000000 70.008000 -11.000000 -1.000000 2.000000 137.085361 17.077907 644.342878 -270.036361 14.282834 0.000000 0.048537
395.000000 77.494000 -10.000000 -1.000000 2.000000 139.359105 17.107450 643.735440 -370.970068 12.902575 0.000000 0.059914
399.000000 46.329000 -16.000000 0.000000 2.000000 126.467726 9.961712 785.961784 133.345406 21.586141 0.000000 0.066592
400.000000 49.602000 -15.000000 0.000000 2.000000 127.253125 9.392529 796.964823 111.351440 20.161645 0.000000 0.063611
401.000000 53.362000 -14.000000 0.000000 2.000000 128.145534 8.722145 809.878080 85.805373 18.740758 0.000000 0.060126
402.000000 57.724000 -13.000000 0.000000 2.000000 129.167749 7.921180 825.246284 55.757685 17.324267 0.000000 0.056003
403.000000 62.841000 -12.000000 0.000000 2.000000 130.349206 6.947794 843.843036 19.881827 15.913201 0.000000 0.051064
404.000000 68.922000 -11.000000 0.000000 2.000000 131.728345 5.740395 866.805123 -23.736659 14.508941 0.000000 0.045057
405.000000 76.255000 -10.000000 0.000000 2.000000 133.355826 4.204654 895.873990 -77.972716 13.113380 0.000000 0.037634
406.000000 85.252000 -9.000000 0.000000 2.000000 135.298562 2.189024 933.859422 -147.364263 11.729182 0.000000 0.028361
407.000000 96.514000 -8.000000 0.000000 2.000000 137.643552 -0.564649 985.607206 -239.550783 10.360226 0.000000 0.017404
408.000000 110.944000 -7.000000 0.000000 2.000000 140.496115 -4.528836 1060.251257 -368.557806 9.012381 0.000000 0.016203
411.000000 48.504000 -15.000000 1.000000 2.000000 122.801940 2.796945 922.417951 246.496763 20.619299 0.000000 0.094555
412.000000 52.083000 -14.000000 1.000000 2.000000 123.281658 1.648196 944.030295 234.207513 19.202200 0.000000 0.092555
413.000000 56.217000 -13.000000 1.000000 2.000000 123.810711 0.301257 969.340865 220.182394 17.790148 0.000000 0.089971
414.000000 61.040000 -12.000000 1.000000 2.000000 124.393707 -1.298041 999.387716 204.030427 16.384354 0.000000 0.086573
415.000000 66.733000 -11.000000 1.000000 2.000000 125.033490 -3.224586 1035.637500 185.236117 14.986449 0.000000 0.082015
416.000000 73.542000 -10.000000 1.000000 2.000000 125.728253 -5.584210 1080.232124 163.107371 13.598685 0.000000 0.075749
417.000000 81.810000 -9.000000 1.000000 2.000000 126.465262 -8.529921 1136.427921 136.696751 12.224263 0.000000 0.066921
418.000000 92.019000 -8.000000 1.000000 2.000000 127.207016 -12.287737 1209.428804 104.681322 10.867887 0.000000 0.054250
419.000000 104.861000 -7.000000 1.000000 2.000000 127.859970 -17.196578 1308.098292 65.182249 9.536765 0.000000 0.037058
420.000000 121.325000 -6.000000 1.000000 2.000000 128.201964 -23.762571 1448.862713 15.520917 8.242541 0.000000 0.033602
421.000000 142.752000 -5.000000 1.000000 2.000000 127.711631 -32.699848 1665.964602 -47.938483 7.005310 0.000000 0.095506
423.000000 47.012000 -15.000000 2.000000 2.000000 117.845244 -2.827011 1028.148192 371.755020 21.275554 0.000000 0.116388
424.000000 54.109000 -13.000000 2.000000 2.000000 117.824242 -5.954426 1087.257595 369.870908 18.485012 0.000000 0.112942
425.000000 63.569000 -11.000000 2.000000 2.000000 117.555778 -10.173757 1168.147025 370.412698 15.734320 0.000000 0.105802
426.000000 76.649000 -9.000000 2.000000 2.000000 116.703384 -16.095907 1285.573086 377.511394 13.049392 0.000000 0.090528
427.000000 95.400000 -7.000000 2.000000 2.000000 114.385923 -24.764643 1471.512024 403.675652 10.484836 0.000000 0.055188
428.000000 107.743000 -6.000000 2.000000 2.000000 112.015713 -30.623383 1612.111673 435.274017 9.283948 0.000000 0.024303
429.000000 122.307000 -5.000000 2.000000 2.000000 108.061211 -37.825350 1810.622407 496.655012 8.178850 0.000000 0.057063
430.000000 138.227000 -4.000000 2.000000 2.000000 101.376020 -46.573691 2112.102949 625.981640 7.237542 0.000000 0.187597
432.000000 48.147000 -14.000000 3.000000 2.000000 112.082562 -9.223243 1149.769738 498.624409 20.776133 0.000000 0.128537
433.000000 51.500000 -13.000000 3.000000 2.000000 111.481394 -11.067986 1185.536089 509.412601 19.423840 0.000000 0.126207
434.000000 55.303000 -12.000000 3.000000 2.000000 110.717358 -13.167324 1226.795042 522.938338 18.088107 0.000000 0.122861
435.000000 59.639000 -11.000000 3.000000 2.000000 109.733766 -15.570874 1274.917067 540.205598 16.773473 0.000000 0.118107
436.000000 64.597000 -10.000000 3.000000 2.000000 108.449274 -18.339322 1331.769927 562.723471 15.486306 0.000000 0.111396
437.000000 70.273000 -9.000000 3.000000 2.000000 106.745068 -21.546214 1399.966742 592.844699 14.235817 0.000000 0.102028
438.000000 76.744000 -8.000000 3.000000 2.000000 104.444569 -25.278981 1483.278997 634.401955 13.035858 0.000000 0.089435
439.000000 84.015000 -7.000000 3.000000 2.000000 101.281260 -29.637743 1587.358404 693.983977 11.908261 0.000000 0.075130
440.000000 91.881000 -6.000000 3.000000 2.000000 96.848754 -34.729277 1721.075439 783.709975 10.889549 0.000000 0.072709
441.000000 99.608000 -5.000000 3.000000 2.000000 90.528369 -40.651991 1899.191189 927.917250 10.045794 0.000000 0.119051
442.000000 105.232000 -4.000000 3.000000 2.000000 81.404372 -47.467211 2148.220452 1181.661706 9.510087 0.000000 0.247005
444.000000 48.511000 -13.000000 4.000000 2.000000 105.000113 -15.263559 1268.705151 642.060475 20.622947 0.000000 0.131672
445.000000 55.193000 -11.000000 4.000000 2.000000 101.886840 -19.813836 1362.783411 700.191270 18.127045 0.000000 0.121692
446.000000 63.252000 -9.000000 4.000000 2.000000 97.052776 -25.591929 1490.487408 793.356406 15.818859 0.000000 0.105676
447.000000 72.161000 -7.000000 4.000000 2.000000 89.148947 -32.993044 1673.767916 960.062135 13.867465 0.000000 0.097282
448.000000 78.612000 -5.000000 4.000000 2.000000 75.580806 -42.434918 1958.995235 1315.950093 12.732102 0.000000 0.196850
450.000000 47.800000 -12.000000 5.000000 2.000000 96.587233 -20.855647 1385.042447 807.997232 20.933041 0.000000 0.125788
451.000000 50.484000 -11.000000 5.000000 2.000000 94.235298 -23.202600 1436.358138 854.281182 19.820686 0.000000 0.119448
452.000000 53.283000 -10.000000 5.000000 2.000000 91.385227 -25.802392 1495.356407 912.091434 18.780583 0.000000 0.112641
453.000000 56.099000 -9.000000 5.000000 2.000000 87.899179 -28.685589 1563.902111 986.004964 17.838600 0.000000 0.107383
454.000000 58.751000 -8.000000 5.000000 2.000000 83.596329 -31.883983 1644.516807 1083.259822 17.034627 0.000000 0.109228
455.000000 60.905000 -7.000000 5.000000 2.000000 78.241687 -35.428753 1740.695722 1215.941446 16.433568 0.000000 0.129324
456.000000 61.985000 -6.000000 5.000000 2.000000 71.537156 -39.347507 1857.427932 1405.684111 16.148586 0.000000 0.182321
457.000000 61.056000 -5.000000 5.000000 2.000000 63.123860 -43.659927 2002.089924 1694.986691 16.396209 0.000000 0.285839
460.000000 45.733000 -11.000000 6.000000 2.000000 86.921993 -25.953625 1498.865840 1005.367205 21.882917 0.000000 0.115052
461.000000 49.206000 -9.000000 6.000000 2.000000 79.425238 -31.114786 1624.641100 1175.697364 20.340710 0.000000 0.115134
462.000000 50.838000 -7.000000 6.000000 2.000000 68.603757 -37.271231 1794.062810 1470.939105 19.690859 0.000000 0.176431
470.000000 48.070000 -16.000000 -1.000000 3.000000 136.144716 12.851605 729.452300 -207.965958 20.801375 0.000000 0.031948
471.000000 51.500000 -15.000000 -1.000000 3.000000 137.591821 12.444394 737.486953 -265.705583 19.415475 0.000000 0.033869
472.000000 55.432000 -14.000000 -1.000000 3.000000 139.240654 11.946079 747.285035 -335.330766 18.038018 0.000000 0.036983
473.000000 59.977000 -13.000000 -1.000000 3.000000 141.135225 11.322344 759.498658 -421.053464 16.670753 0.000000 0.040879
477.000000 46.516000 -16.000000 1.000000 3.000000 127.704087 -1.147545 996.559384 108.855699 21.499029 0.000000 0.069083
478.000000 49.734000 -15.000000 1.000000 3.000000 128.400389 -2.635597 1024.544317 87.024425 20.107595 0.000000 0.064499
479.000000 53.408000 -14.000000 1.000000 3.000000 129.156987 -4.378934 1057.418281 61.974461 18.724180 0.000000 0.058901
480.000000 57.636000 -13.000000 1.000000 3.000000 129.975632 -6.445174 1096.585089 32.922344 17.350515 0.000000 0.052062
481.000000 62.543000 -12.000000 1.000000 3.000000 130.853530 -8.925962 1144.042880 -1.198838 15.988866 0.000000 0.043905
482.000000 68.294000 -11.000000 1.000000 3.000000 131.778577 -11.947145 1202.735880 -41.884544 14.642261 0.000000 0.035372
483.000000 75.102000 -10.000000 1.000000 3.000000 132.720114 -15.683068 1277.189519 -91.306621 13.314840 0.000000 0.032150
484.000000 83.243000 -9.000000 1.000000 3.000000 133.610886 -20.375036 1374.736547 -152.763882 12.012413 0.000000 0.047363
485.000000 93.074000 -8.000000 1.000000 3.000000 134.311802 -26.349425 1508.093473 -231.569950 10.743403 0.000000 0.087935
488.000000 48.227000 -15.000000 2.000000 3.000000 122.961985 -8.254621 1131.143877 235.754678 20.737968 0.000000 0.085281
489.000000 51.630000 -14.000000 2.000000 3.000000 123.177352 -10.239633 1169.424613 225.910909 19.370848 0.000000 0.079742
490.000000 55.512000 -13.000000 2.000000 3.000000 123.353258 -12.534894 1214.296495 215.275451 18.016071 0.000000 0.072537
491.000000 59.971000 -12.000000 2.000000 3.000000 123.460587 -15.209889 1267.622165 203.859476 16.676572 0.000000 0.063021
492.000000 65.127000 -11.000000 2.000000 3.000000 123.453388 -18.352231 1332.039089 191.768068 15.356295 0.000000 0.050298
493.000000 71.128000 -10.000000 2.000000 3.000000 123.258545 -22.071269 1411.409214 179.301613 14.060669 0.000000 0.033472
494.000000 78.149000 -9.000000 2.000000 3.000000 122.758682 -26.500100 1511.622868 167.170154 12.797380 0.000000 0.018205
495.000000 86.383000 -8.000000 2.000000 3.000000 121.764026 -31.792348 1642.131749 156.971168 11.577680 0.000000 0.043924
496.000000 95.994000 -7.000000 2.000000 3.000000 119.967053 -38.106502 1819.119768 152.333750 10.418729 0.000000 0.106729
497.000000 106.992000 -6.000000 2.000000 3.000000 116.873248 -45.566626 2072.795614 161.940457 9.348050 0.000000 0.217855
499.000000 49.428000 -14.000000 3.000000 3.000000 116.912135 -14.953311 1262.452375 375.529209 20.235842 0.000000 0.093988
500.000000 52.874000 -13.000000 3.000000 3.000000 116.457057 -17.313300 1310.502426 379.966860 18.917121 0.000000 0.086553
501.000000 61.178000 -11.000000 3.000000 3.000000 114.946346 -23.066630 1433.337695 396.836278 16.349773 0.000000 0.063443
502.000000 66.178000 -10.000000 3.000000 3.000000 113.724209 -26.583833 1513.588237 412.080234 15.114706 0.000000 0.045663
503.000000 78.149000 -8.000000 3.000000 3.000000 109.612982 -35.260695 1735.950881 471.299968 12.800073 0.000000 0.032987
504.000000 85.043000 -7.000000 3.000000 3.000000 106.212568 -40.563333 1896.301651 529.056436 11.762883 0.000000 0.089756
507.000000 46.893000 -14.000000 4.000000 3.000000 110.545693 -18.778435 1340.948470 514.932050 21.332315 0.000000 0.102788
508.000000 49.845000 -13.000000 4.000000 3.000000 109.503272 -21.113698 1390.603053 532.362139 20.068937 0.000000 0.095366
509.000000 53.107000 -12.000000 4.000000 3.000000 108.197771 -23.720767 1447.925517 554.528508 18.836713 0.000000 0.086023
510.000000 56.698000 -11.000000 4.000000 3.000000 106.548567 -26.637128 1514.840640 583.221238 17.644096 0.000000 0.074673
511.000000 60.621000 -10.000000 4.000000 3.000000 104.446278 -29.903183 1593.976233 621.145198 16.502902 0.000000 0.062597
512.000000 64.838000 -9.000000 4.000000 3.000000 101.741868 -33.560397 1689.016372 672.538211 15.430164 0.000000 0.056636
513.000000 69.233000 -8.000000 4.000000 3.000000 98.232284 -37.647862 1805.291402 744.334851 14.451372 0.000000 0.073702
514.000000 73.537000 -7.000000 4.000000 3.000000 93.643011 -42.196760 1950.813165 848.502755 13.606464 0.000000 0.125448
515.000000 77.201000 -6.000000 4.000000 3.000000 87.610813 -47.222395 2138.203753 1007.121352 12.961754 0.000000 0.219462
518.000000 46.559000 -13.000000 5.000000 3.000000 102.647625 -24.183360 1458.330166 676.245092 21.488142 0.000000 0.100212
519.000000 49.172000 -12.000000 5.000000 3.000000 100.753859 -26.674028 1515.708471 712.238054 20.346771 0.000000 0.092291
520.000000 51.941000 -11.000000 5.000000 3.000000 98.449972 -29.415086 1581.834086 757.444186 19.262909 0.000000 0.084669
521.000000 54.813000 -10.000000 5.000000 3.000000 95.626039 -32.431686 1658.872351 815.382131 18.254207 0.000000 0.080915
522.000000 57.685000 -9.000000 5.000000 3.000000 92.139729 -35.748126 1749.767573 891.451459 17.346362 0.000000 0.088875
523.000000 60.362000 -8.000000 5.000000 3.000000 87.808208 -39.385688 1858.627920 994.296756 16.578292 0.000000 0.118572
524.000000 62.502000 -7.000000 5.000000 3.000000 82.400872 -43.359580 1991.363573 1138.496486 16.011896 0.000000 0.178076
525.000000 63.539000 -6.000000 5.000000 3.000000 75.637419 -47.675020 2156.796462 1350.300448 15.751946 0.000000 0.278452
528.000000 47.129000 -11.000000 6.000000 3.000000 90.768445 -31.628385 1637.875902 924.045721 21.232398 0.000000 0.095583
529.000000 49.052000 -10.000000 6.000000 3.000000 87.376794 -34.414755 1712.361254 1000.773298 20.401011 0.000000 0.101806
530.000000 52.034000 -8.000000 6.000000 3.000000 78.401582 -40.705162 1900.927847 1232.396421 19.234591 0.000000 0.165367
531.000000 52.536000 -7.000000 6.000000 3.000000 72.481406 -44.228906 2022.707452 1415.124855 19.052463 0.000000 0.236736
536.000000 45.810000 -17.000000 -1.000000 4.000000 140.462182 8.356687 816.897967 -376.887615 21.826430 0.000000 0.027495
537.000000 48.847000 -16.000000 -1.000000 4.000000 142.046292 7.464306 833.985241 -450.683581 20.469079 0.000000 0.027709
542.000000 51.630000 -15.000000 0.000000 4.000000 138.999501 -2.352275 1019.212042 -298.157322 19.366373 0.000000 0.013447
543.000000 59.878000 -13.000000 0.000000 4.000000 142.144726 -7.227830 1111.498738 -454.881739 16.698179 0.000000 0.027863
545.000000 47.303000 -16.000000 1.000000 4.000000 132.624468 -7.056128 1108.222709 -57.111331 21.139895 0.000000 0.038024
546.000000 50.534000 -15.000000 1.000000 4.000000 133.486207 -9.197123 1149.266174 -93.167765 19.788000 0.000000 0.032468
547.000000 54.200000 -14.000000 1.000000 4.000000 134.393812 -11.723536 1198.350955 -135.207860 18.449087 0.000000 0.029824
548.000000 58.387000 -13.000000 1.000000 4.000000 135.333373 -14.736670 1258.096903 -184.929753 17.125878 0.000000 0.035176
549.000000 63.198000 -12.000000 1.000000 4.000000 136.276457 -18.369565 1332.400572 -244.774321 15.821916 0.000000 0.052118
550.000000 68.760000 -11.000000 1.000000 4.000000 137.169175 -22.794950 1427.320826 -318.401129 14.541896 0.000000 0.082172
554.000000 49.029000 -15.000000 2.000000 4.000000 127.554151 -14.571258 1254.777193 86.012789 20.397156 0.000000 0.046086
555.000000 56.282000 -13.000000 2.000000 4.000000 128.092325 -20.232724 1371.697265 41.827437 17.768108 0.000000 0.029883
556.000000 65.661000 -11.000000 2.000000 4.000000 128.113479 -27.882753 1544.453746 -14.227182 15.230046 0.000000 0.055548
557.000000 77.899000 -9.000000 2.000000 4.000000 126.821337 -38.319178 1825.591119 -86.056172 12.837468 0.000000 0.158670
559.000000 47.168000 -15.000000 3.000000 4.000000 121.406304 -18.833057 1342.093543 246.693654 21.203931 0.000000 0.057431
560.000000 50.234000 -14.000000 3.000000 4.000000 121.133681 -21.428447 1397.411690 242.597120 19.909593 0.000000 0.045415
561.000000 53.661000 -13.000000 3.000000 4.000000 120.700668 -24.359602 1462.313999 239.472576 18.638096 0.000000 0.030101
562.000000 57.497000 -12.000000 3.000000 4.000000 120.045274 -27.677474 1539.527464 238.030341 17.394820 0.000000 0.012369
563.000000 61.788000 -11.000000 3.000000 4.000000 119.080608 -31.436799 1632.922032 239.441799 16.186982 0.000000 0.023271
564.000000 66.570000 -10.000000 3.000000 4.000000 117.684684 -35.692402 1748.179499 245.694216 15.024484 0.000000 0.061399
565.000000 71.846000 -9.000000 3.000000 4.000000 115.686666 -40.492373 1893.994411 260.287104 13.921299 0.000000 0.117866
566.000000 77.551000 -8.000000 3.000000 4.000000 112.849312 -45.867150 2084.376108 289.690300 12.897802 0.000000 0.203020
569.000000 50.646000 -13.000000 4.000000 4.000000 113.349486 -27.541787 1536.281400 416.987734 19.750178 0.000000 0.040431
570.000000 57.381000 -11.000000 4.000000 4.000000 110.293369 -34.041363 1702.100723 460.701217 17.432577 0.000000 0.024797
571.000000 65.118000 -9.000000 4.000000 4.000000 105.158790 -41.998800 1944.058914 548.632231 15.362448 0.000000 0.109627
572.000000 72.821000 -7.000000 4.000000 4.000000 96.443643 -51.544037 2330.224063 745.545058 13.739039 0.000000 0.306247
573.000000 47.367000 -13.000000 5.000000 4.000000 106.171211 -30.055991 1597.801960 580.407380 21.119920 0.000000 0.054912
574.000000 49.964000 -12.000000 5.000000 4.000000 104.253155 -32.909285 1671.533437 615.333944 20.022634 0.000000 0.048551
575.000000 52.686000 -11.000000 5.000000 4.000000 101.895224 -36.024553 1757.678487 660.674969 18.988716 0.000000 0.055745
576.000000 55.469000 -10.000000 5.000000 4.000000 98.982928 -39.418500 1859.660229 720.762792 18.036859 0.000000 0.083586
577.000000 58.192000 -9.000000 5.000000 4.000000 95.371835 -43.103105 1982.287779 802.385447 17.193910 0.000000 0.132860
578.000000 60.643000 -8.000000 5.000000 4.000000 90.882702 -47.082878 2132.536723 916.647240 16.499860 0.000000 0.207831
579.000000 62.476000 -7.000000 5.000000 4.000000 85.299609 -51.351741 2320.923924 1082.696665 16.017012 0.000000 0.320275
582.000000 47.922000 -11.000000 6.000000 4.000000 93.973901 -37.581589 1803.307349 846.652331 20.879551 0.000000 0.087507
583.000000 51.442000 -9.000000 6.000000 4.000000 86.387456 -43.946763 2012.434395 1035.378729 19.452874 0.000000 0.170387
591.000000 47.726000 -16.000000 1.000000 5.000000 136.962506 -14.089259 1245.131952 -247.421612 20.950904 0.000000 0.038219
592.000000 50.893000 -15.000000 1.000000 5.000000 137.856035 -17.046675 1305.015162 -302.975068 19.646869 0.000000 0.053874
593.000000 54.455000 -14.000000 1.000000 5.000000 138.740241 -20.539359 1378.252875 -369.140629 18.361587 0.000000 0.077570
597.000000 46.446000 -16.000000 2.000000 5.000000 131.115092 -18.900303 1343.504250 -51.946781 21.530166 0.000000 0.033030
598.000000 49.409000 -15.000000 2.000000 5.000000 131.456421 -21.820861 1405.941635 -83.145815 20.238898 0.000000 0.042356
599.000000 52.718000 -14.000000 2.000000 5.000000 131.706534 -25.166575 1480.698946 -118.760938 18.968383 0.000000 0.061560
600.000000 56.422000 -13.000000 2.000000 5.000000 131.812256 -29.009041 1571.821696 -159.840434 17.722941 0.000000 0.091285
601.000000 60.574000 -12.000000 2.000000 5.000000 131.696180 -33.424445 1685.344337 -207.813398 16.508180 0.000000 0.134399
604.000000 47.570000 -15.000000 3.000000 5.000000 124.935533 -25.471548 1487.710127 108.227612 21.023104 0.000000 0.024218
605.000000 50.558000 -14.000000 3.000000 5.000000 124.598232 -28.606711 1561.978233 95.329726 19.780609 0.000000 0.036859
606.000000 53.861000 -13.000000 3.000000 5.000000 124.045551 -32.119248 1650.662075 82.364906 18.567655 0.000000 0.062789
607.000000 57.506000 -12.000000 3.000000 5.000000 123.198415 -36.050017 1758.410012 69.928131 17.390991 0.000000 0.100960
608.000000 61.508000 -11.000000 3.000000 5.000000 121.949941 -40.434292 1892.109564 59.128799 16.259591 0.000000 0.155023
609.000000 65.859000 -10.000000 3.000000 5.000000 120.156931 -45.294618 2062.420295 52.059225 15.185659 0.000000 0.232979
611.000000 48.063000 -14.000000 4.000000 5.000000 117.554649 -31.247087 1628.036523 284.123602 20.809984 0.000000 0.012396
612.000000 50.910000 -13.000000 4.000000 5.000000 116.416063 -34.454223 1713.451148 292.604144 19.646523 0.000000 0.040095
613.000000 53.984000 -12.000000 4.000000 5.000000 114.929802 -37.976398 1815.179487 306.340051 18.527854 0.000000 0.077158
614.000000 57.270000 -11.000000 4.000000 5.000000 112.994630 -41.831657 1938.388733 328.013702 17.465319 0.000000 0.127168
615.000000 60.716000 -10.000000 4.000000 5.000000 110.480704 -46.029539 2090.685878 361.993624 16.474443 0.000000 0.196444
618.000000 47.693000 -13.000000 5.000000 5.000000 109.024524 -36.266140 1764.637912 480.720528 20.974160 0.000000 0.041544
619.000000 50.178000 -12.000000 5.000000 5.000000 106.991213 -39.447001 1860.557709 515.112512 19.935892 0.000000 0.075619
620.000000 52.738000 -11.000000 5.000000 5.000000 104.480378 -42.881552 1974.508782 561.674376 18.969030 0.000000 0.122846
621.000000 57.701000 -9.000000 5.000000 5.000000 97.537146 -50.519397 2281.550313 717.025527 17.339118 0.000000 0.278109
624.000000 46.246000 -12.000000 6.000000 5.000000 99.449703 -40.605060 1897.660673 705.047046 21.633798 0.000000 0.094240
625.000000 48.118000 -11.000000 6.000000 5.000000 96.470100 -43.698744 2003.484029 772.172470 20.793089 0.000000 0.139312
626.000000 49.851000 -10.000000 6.000000 5.000000 92.900217 -46.992751 2128.891564 861.059337 20.071117 0.000000 0.201785
627.000000 51.298000 -9.000000 6.000000 5.000000 88.621953 -50.483297 2279.874138 981.690407 19.506257 0.000000 0.288285
637.000000 49.379000 -15.000000 2.000000 6.000000 134.512333 -29.943541 1594.985503 -280.125610 20.250314 0.000000 0.120288
639.000000 50.420000 -14.000000 3.000000 6.000000 127.186427 -36.351085 1767.095156 -72.843931 19.833824 0.000000 0.134354
640.000000 53.510000 -13.000000 3.000000 6.000000 126.373800 -40.385876 1890.540845 -99.770879 18.688769 0.000000 0.187123
642.000000 45.505000 -15.000000 4.000000 6.000000 120.991358 -34.812450 1723.390896 153.591851 21.978418 0.000000 0.070926
643.000000 50.666000 -13.000000 4.000000 6.000000 118.622907 -41.688656 1933.561017 154.448415 19.740063 0.000000 0.154107
645.000000 47.559000 -13.000000 5.000000 6.000000 111.150305 -42.688250 1967.767175 374.519662 21.031968 0.000000 0.134594
646.000000 49.853000 -12.000000 5.000000 6.000000 108.921520 -46.131234 2094.656214 408.612068 20.064822 0.000000 0.193053
647.000000 52.159000 -11.000000 5.000000 6.000000 106.177461 -49.798280 2248.544743 457.277783 19.178618 0.000000 0.271541
650.000000 47.764000 -11.000000 6.000000 6.000000 98.234739 -49.844631 2250.636530 699.456199 20.945962 0.000000 0.260730
#UB matrix in q= (UB) B0 G* 
#[[ 0.840248626  0.243131782 -0.483932323]
# [-0.157520599 -0.745791997 -0.648184503]
# [-0.518815484  0.621320586 -0.588788443]]
#B0 matrix in q= UB (B0) G*
#[[ 0.19670273 -0.          0.03056101]
# [ 0.          0.19187965 -0.        ]
# [ 0.          0.          0.18806537]]
#UBB0 matrix in q= (UB B0) G* i.e. recip. basis vectors are columns in LT frame: astar = UBB0[:,0], bstar = UBB0[:,1], cstar = UBB0[:,2]. (abcstar as columns on xyzlab1, xlab1 = ui, ui = unit vector along incident beam)
#[[ 0.1652792   0.04665204 -0.06533207]
# [-0.03098473 -0.14310231 -0.12671505]
# [-0.10205242  0.11921878 -0.12658624]]
#Euler angles phi theta psi (deg)
#[219.895 126.012 143.207]
#deviatoric strain in direct crystal frame (10-3 unit)
#[[ 4.71  0.28 -0.7 ]
# [ 0.28  3.89  0.16]
# [-0.7   0.16 -8.6 ]]
#deviatoric strain in sample2 frame (10-3 unit)
#[[-2.74 -6.1  -2.18]
# [-6.1  -1.25 -1.28]
# [-2.19 -1.29  4.  ]]
#new lattice parameters
#[ 5.1505     5.2073462  5.313897  89.9957457 99.2785244 89.9677988]
#CCDLabel
#sCMOS
#DetectorParameters
#[79.0, 975.0, 941.0, 0.0, 0.0]
#pixelsize
#0.0734
#Frame dimensions
#[2018, 2016]
#
