#Strain and Orientation Refinement from experimental file: /home/micha/LaueProjects/DepthEffects/testZrO2_181.cor
#File created at Wed Jun 28 14:29:03 2023 with indexingSpotsSet.py
#Number of indexed spots: 533
#Element
#ZrO2
#grainIndex
#G_0
#Mean Deviation(pixel): 0.116
##spot_index intensity h k l 2theta Chi Xexp Yexp Energy GrainIndex PixDev
0.000000 45.803000 5.000000 4.000000 -7.000000 57.985054 -42.261187 1953.020487 1850.263260 21.850963 0.000000 0.277098
4.000000 46.148000 4.000000 5.000000 -7.000000 59.199968 -31.781265 1641.843605 1695.767010 21.688907 0.000000 0.162398
5.000000 48.431000 5.000000 5.000000 -7.000000 65.483083 -37.636618 1804.954515 1560.875842 20.663808 0.000000 0.180652
6.000000 49.284000 6.000000 5.000000 -7.000000 70.705135 -43.327152 1990.211838 1458.981732 20.303849 0.000000 0.214370
7.000000 49.023000 7.000000 5.000000 -7.000000 74.921824 -48.754074 2202.454474 1380.815074 20.409952 0.000000 0.279054
10.000000 47.629000 4.000000 6.000000 -7.000000 65.819133 -27.437641 1533.795339 1485.526060 21.012809 0.000000 0.117688
11.000000 49.552000 5.000000 6.000000 -7.000000 71.871111 -33.173197 1678.588378 1362.002821 20.194845 0.000000 0.131615
12.000000 50.223000 6.000000 6.000000 -7.000000 76.927123 -38.837071 1841.509949 1261.855181 19.922900 0.000000 0.145182
13.000000 49.897000 7.000000 6.000000 -7.000000 81.021746 -44.323998 2026.192040 1178.698505 20.051149 0.000000 0.179837
14.000000 48.845000 8.000000 6.000000 -7.000000 84.244514 -49.547725 2237.306279 1108.199170 20.481450 0.000000 0.256115
17.000000 47.864000 4.000000 7.000000 -7.000000 71.366764 -23.354211 1439.733258 1336.293974 20.907989 0.000000 0.110306
18.000000 49.549000 5.000000 7.000000 -7.000000 77.236444 -28.913506 1569.477435 1219.526374 20.194461 0.000000 0.118077
19.000000 50.148000 6.000000 7.000000 -7.000000 82.184880 -34.484664 1714.292487 1120.215491 19.950968 0.000000 0.114345
20.000000 49.861000 2.000000 2.000000 -2.000000 86.225267 -39.963997 1876.966242 1033.649002 5.732624 0.000000 0.119365
21.000000 48.905000 8.000000 7.000000 -7.000000 89.423141 -45.257687 2061.019307 956.394642 20.454506 0.000000 0.162859
22.000000 47.487000 9.000000 7.000000 -7.000000 91.876170 -50.290442 2270.962759 885.816962 21.064373 0.000000 0.254938
24.000000 47.247000 4.000000 8.000000 -7.000000 75.982532 -19.545918 1357.106801 1226.129845 21.179805 0.000000 0.120002
25.000000 48.768000 5.000000 8.000000 -7.000000 81.699089 -24.887478 1474.313289 1114.107256 20.516705 0.000000 0.123279
26.000000 49.354000 6.000000 8.000000 -7.000000 86.574661 -30.311168 1604.217046 1015.622444 20.270726 0.000000 0.110589
27.000000 49.157000 7.000000 8.000000 -7.000000 90.603497 -35.721186 1748.999522 927.035846 20.350210 0.000000 0.092840
28.000000 48.349000 8.000000 8.000000 -7.000000 93.827741 -41.023154 1911.372234 845.551189 20.688523 0.000000 0.101292
29.000000 47.100000 9.000000 8.000000 -7.000000 96.323002 -46.133585 2094.748181 768.900546 21.236057 0.000000 0.163419
30.000000 45.555000 10.000000 8.000000 -7.000000 98.183409 -50.986748 2303.484373 695.125127 21.955122 0.000000 0.270491
31.000000 46.084000 4.000000 9.000000 -7.000000 79.809658 -16.016114 1283.950037 1142.281528 21.713020 0.000000 0.132880
32.000000 47.483000 5.000000 9.000000 -7.000000 85.388123 -21.112746 1390.582513 1034.068512 21.070540 0.000000 0.133887
33.000000 48.082000 6.000000 9.000000 -7.000000 90.207283 -26.347036 1508.037598 936.654838 20.805801 0.000000 0.118970
34.000000 47.993000 7.000000 9.000000 -7.000000 94.246318 -31.635144 1638.051028 847.139976 20.842557 0.000000 0.092058
35.000000 47.350000 8.000000 9.000000 -7.000000 97.526560 -36.887949 1782.750675 763.202439 21.123789 0.000000 0.069645
36.000000 46.291000 9.000000 9.000000 -7.000000 100.102052 -42.019815 1944.773912 682.885133 21.606001 0.000000 0.097792
37.000000 45.900000 5.000000 10.000000 -7.000000 88.427261 -17.596166 1316.341398 972.001672 21.796234 0.000000 0.144171
38.000000 46.518000 6.000000 10.000000 -7.000000 93.194144 -22.611839 1423.279015 875.934623 21.504345 0.000000 0.129877
39.000000 46.535000 7.000000 10.000000 -7.000000 97.249737 -27.736312 1540.937560 786.308917 21.494635 0.000000 0.102543
40.000000 46.054000 8.000000 10.000000 -7.000000 100.598238 -32.889804 1671.014339 701.170566 21.717519 0.000000 0.066822
47.000000 50.681000 3.000000 4.000000 -6.000000 53.147602 -30.304521 1604.049515 1875.385609 19.750751 0.000000 0.187379
48.000000 54.960000 2.000000 2.000000 -3.000000 61.105581 -37.219058 1792.516238 1686.935094 9.105235 0.000000 0.198559
49.000000 56.727000 5.000000 4.000000 -6.000000 67.595573 -43.916769 2011.348017 1556.971292 17.640710 0.000000 0.238696
50.000000 56.568000 3.000000 2.000000 -3.000000 72.681768 -50.237439 2268.526280 1465.703147 8.844185 0.000000 0.322478
52.000000 47.760000 2.000000 5.000000 -6.000000 52.573471 -18.662321 1338.516813 1810.390830 20.959938 0.000000 0.116030
53.000000 53.611000 3.000000 5.000000 -6.000000 61.382661 -25.267509 1483.015451 1590.365503 18.669709 0.000000 0.113568
54.000000 57.108000 4.000000 5.000000 -6.000000 68.963246 -31.988048 1647.231158 1429.049042 17.523865 0.000000 0.132412
55.000000 58.459000 5.000000 5.000000 -6.000000 75.182000 -38.642264 1835.495068 1305.544269 17.116380 0.000000 0.150102
56.000000 58.124000 6.000000 5.000000 -6.000000 80.068844 -45.058838 2053.507062 1207.777801 17.212991 0.000000 0.193483
57.000000 56.619000 7.000000 5.000000 -6.000000 83.764521 -51.101191 2308.922852 1128.272762 17.669059 0.000000 0.293693
59.000000 49.411000 1.000000 3.000000 -3.000000 59.723367 -14.387936 1251.103863 1589.692825 10.128960 0.000000 0.062948
60.000000 54.332000 1.000000 2.000000 -2.000000 68.100961 -20.611370 1379.796193 1403.234304 6.140083 0.000000 0.099648
61.000000 57.303000 2.000000 3.000000 -3.000000 75.381026 -27.053895 1524.675189 1256.226688 8.731367 0.000000 0.117307
62.000000 58.469000 5.000000 6.000000 -6.000000 81.424310 -33.559780 1688.999685 1135.774130 17.112185 0.000000 0.115124
63.000000 56.812000 7.000000 6.000000 -6.000000 89.880779 -46.116308 2094.072574 944.230770 17.607610 0.000000 0.174908
64.000000 54.765000 4.000000 3.000000 -3.000000 92.547477 -51.900309 2347.664207 863.393609 9.132320 0.000000 0.295874
66.000000 49.429000 2.000000 7.000000 -6.000000 65.546697 -10.529322 1175.049140 1438.819097 20.248866 0.000000 0.072515
67.000000 53.623000 3.000000 7.000000 -6.000000 73.532657 -16.348915 1290.728162 1272.551910 18.662293 0.000000 0.113491
68.000000 56.222000 4.000000 7.000000 -6.000000 80.556532 -22.458448 1419.901502 1134.709969 17.797190 0.000000 0.126005
69.000000 57.318000 5.000000 7.000000 -6.000000 86.477180 -28.733687 1565.076646 1016.563922 17.454534 0.000000 0.114601
70.000000 57.155000 6.000000 7.000000 -6.000000 91.259132 -35.028352 1729.423346 912.110798 17.502343 0.000000 0.091295
71.000000 56.038000 7.000000 7.000000 -6.000000 94.957019 -41.193469 1917.007722 816.945155 17.849634 0.000000 0.099505
72.000000 54.265000 8.000000 7.000000 -6.000000 97.687416 -47.097598 2133.133225 727.588831 18.431656 0.000000 0.180627
75.000000 48.452000 1.000000 4.000000 -3.000000 70.288714 -7.058813 1108.273907 1329.553364 10.327968 0.000000 0.097202
76.000000 52.067000 3.000000 8.000000 -6.000000 77.911593 -12.473571 1213.087877 1177.082285 19.218952 0.000000 0.130319
77.000000 54.383000 2.000000 4.000000 -3.000000 84.701780 -18.220854 1329.301694 1046.079957 9.198854 0.000000 0.139089
78.000000 55.456000 5.000000 8.000000 -6.000000 90.521479 -24.207808 1458.882127 930.259325 18.039349 0.000000 0.126066
79.000000 55.455000 3.000000 4.000000 -3.000000 95.313768 -30.313506 1604.275982 825.039884 9.018876 0.000000 0.094937
80.000000 54.605000 7.000000 8.000000 -6.000000 99.097302 -36.401845 1768.566063 726.876693 18.316929 0.000000 0.063653
81.000000 53.139000 4.000000 4.000000 -3.000000 101.949913 -42.338992 1955.692187 632.830960 9.410521 0.000000 0.100664
82.000000 51.265000 9.000000 8.000000 -6.000000 103.987034 -48.010136 2170.771229 540.264633 19.508139 0.000000 0.205698
84.000000 46.912000 2.000000 9.000000 -6.000000 74.164315 -3.942554 1049.177515 1247.008899 21.332421 0.000000 0.117313
85.000000 50.057000 1.000000 3.000000 -2.000000 81.446325 -8.965739 1144.808594 1104.886615 6.663043 0.000000 0.143666
86.000000 52.146000 4.000000 9.000000 -6.000000 88.013194 -14.341872 1250.181802 979.537904 19.185743 0.000000 0.150192
87.000000 53.208000 5.000000 9.000000 -6.000000 93.734759 -20.005952 1366.865708 866.231741 18.800436 0.000000 0.138178
88.000000 53.359000 2.000000 3.000000 -2.000000 98.541188 -25.863989 1496.784723 761.361675 6.248488 0.000000 0.108769
89.000000 52.761000 7.000000 9.000000 -6.000000 102.423513 -31.799821 1642.326062 662.022105 18.956039 0.000000 0.065469
90.000000 51.595000 8.000000 9.000000 -6.000000 105.425637 -37.687768 1806.487775 565.720406 19.383268 0.000000 0.048298
91.000000 50.027000 3.000000 3.000000 -2.000000 107.630645 -43.408052 1993.087473 470.160815 6.663190 0.000000 0.123838
92.000000 48.202000 10.000000 9.000000 -6.000000 109.144915 -48.860484 2207.062918 373.058971 20.745583 0.000000 0.241961
94.000000 47.848000 3.000000 10.000000 -6.000000 84.310817 -5.798294 1084.293601 1048.774648 20.910847 0.000000 0.153058
95.000000 49.745000 2.000000 5.000000 -3.000000 90.659271 -10.809029 1180.489893 928.391415 10.055450 0.000000 0.158225
96.000000 50.793000 5.000000 10.000000 -6.000000 96.276122 -16.134849 1286.365682 817.776243 19.693686 0.000000 0.147835
97.000000 51.069000 3.000000 5.000000 -3.000000 101.085712 -21.706885 1403.459325 714.022789 9.792574 0.000000 0.122305
98.000000 50.692000 7.000000 10.000000 -6.000000 105.059835 -27.431689 1533.653401 614.715606 19.729179 0.000000 0.082022
99.000000 49.797000 4.000000 5.000000 -3.000000 108.215087 -33.198862 1679.276698 517.730246 10.041247 0.000000 0.032862
100.000000 48.517000 9.000000 10.000000 -6.000000 110.605306 -38.893059 1843.244734 421.076857 20.611165 0.000000 0.063938
101.000000 46.972000 5.000000 5.000000 -3.000000 112.310838 -44.407383 2029.256966 322.762140 10.644110 0.000000 0.158987
102.000000 45.594000 3.000000 11.000000 -6.000000 86.644994 -2.940729 1030.289787 1004.178708 21.944002 0.000000 0.159184
103.000000 47.323000 4.000000 11.000000 -6.000000 92.778340 -7.601425 1118.635558 888.305212 21.139356 0.000000 0.163482
104.000000 48.349000 5.000000 11.000000 -6.000000 98.280656 -12.588190 1215.347359 780.498556 20.688574 0.000000 0.154706
105.000000 48.722000 6.000000 11.000000 -6.000000 103.075619 -17.853664 1321.672603 678.373839 20.528141 0.000000 0.133034
106.000000 48.527000 7.000000 11.000000 -6.000000 107.123012 -23.326674 1439.119666 579.899832 20.608888 0.000000 0.098357
107.000000 47.865000 8.000000 11.000000 -6.000000 110.419069 -28.915646 1569.529897 483.256183 20.892153 0.000000 0.050538
108.000000 46.843000 9.000000 11.000000 -6.000000 112.993130 -34.516567 1715.174863 386.718000 21.347118 0.000000 0.020399
109.000000 45.556000 10.000000 11.000000 -6.000000 114.901253 -40.024098 1878.889792 288.551953 21.948916 0.000000 0.097230
110.000000 45.960000 5.000000 12.000000 -6.000000 99.859279 -9.350735 1152.228705 751.425690 21.763303 0.000000 0.159172
111.000000 46.403000 2.000000 4.000000 -2.000000 104.620188 -14.303260 1249.409198 651.259895 7.184509 0.000000 0.140851
112.000000 46.353000 7.000000 12.000000 -6.000000 108.717202 -19.499918 1356.134064 554.145045 21.574728 0.000000 0.111417
113.000000 45.888000 4.000000 6.000000 -3.000000 112.132473 -24.868581 1473.881986 458.512712 10.896063 0.000000 0.070410
117.000000 53.352000 2.000000 3.000000 -5.000000 43.825469 -28.186527 1551.778116 2213.217588 18.764036 0.000000 0.263936
118.000000 62.225000 3.000000 3.000000 -5.000000 54.449544 -36.619118 1774.884010 1899.293642 16.085721 0.000000 0.235243
119.000000 66.234000 4.000000 3.000000 -5.000000 62.954219 -44.756491 2042.184356 1714.804637 15.109665 0.000000 0.279283
122.000000 48.840000 1.000000 4.000000 -5.000000 43.148285 -14.408951 1251.524642 2126.502903 20.498764 0.000000 0.210609
123.000000 59.854000 2.000000 4.000000 -5.000000 54.656576 -22.216883 1414.597557 1765.495306 16.724237 0.000000 0.121621
124.000000 66.832000 3.000000 4.000000 -5.000000 64.616020 -30.306510 1604.099642 1532.533369 14.975187 0.000000 0.133374
125.000000 69.772000 4.000000 4.000000 -5.000000 72.634536 -38.366052 1827.022508 1370.274892 14.341691 0.000000 0.157448
126.000000 69.539000 5.000000 4.000000 -5.000000 78.692336 -46.090454 2093.062357 1251.321189 14.387870 0.000000 0.214433
129.000000 53.004000 1.000000 5.000000 -5.000000 52.411892 -9.652672 1158.059451 1781.400498 18.886906 0.000000 0.078268
130.000000 61.933000 2.000000 5.000000 -5.000000 63.191307 -16.842122 1300.815976 1509.254618 16.161095 0.000000 0.077840
131.000000 67.614000 3.000000 5.000000 -5.000000 72.612805 -24.460094 1464.590538 1311.256617 14.800472 0.000000 0.113246
132.000000 70.038000 4.000000 5.000000 -5.000000 80.316594 -32.261520 1654.393718 1158.181987 14.285810 0.000000 0.116311
133.000000 67.736000 6.000000 5.000000 -5.000000 90.487630 -47.305566 2141.596305 927.490995 14.767694 0.000000 0.194041
135.000000 54.017000 1.000000 6.000000 -5.000000 59.726325 -5.488163 1078.410945 1572.165690 18.531070 0.000000 0.026099
136.000000 61.326000 2.000000 6.000000 -5.000000 69.837852 -12.058237 1204.917063 1345.108426 16.319490 0.000000 0.096827
137.000000 66.083000 3.000000 6.000000 -5.000000 78.794586 -19.137354 1348.486311 1166.690394 15.142122 0.000000 0.127079
138.000000 68.254000 4.000000 6.000000 -5.000000 86.270407 -26.551141 1512.820550 1019.430702 14.657929 0.000000 0.120518
139.000000 68.231000 5.000000 6.000000 -5.000000 92.143526 -34.066037 1702.775950 892.370066 14.660969 0.000000 0.090238
140.000000 66.595000 6.000000 6.000000 -5.000000 96.479123 -41.429038 1924.850939 777.976611 15.019530 0.000000 0.097767
141.000000 63.926000 7.000000 6.000000 -5.000000 99.469986 -48.416072 2187.944545 670.507447 15.645449 0.000000 0.208590
143.000000 45.571000 0.000000 7.000000 -5.000000 55.439734 3.544166 908.338217 1683.805263 21.966933 0.000000 0.037144
144.000000 53.219000 1.000000 7.000000 -5.000000 65.511232 -1.847988 1009.726267 1431.495868 18.807407 0.000000 0.064189
145.000000 59.270000 2.000000 7.000000 -5.000000 75.008445 -7.829164 1122.992139 1231.934068 16.884184 0.000000 0.120885
146.000000 63.331000 3.000000 7.000000 -5.000000 83.540578 -14.350425 1250.352969 1066.780769 15.798777 0.000000 0.143354
147.000000 65.354000 4.000000 7.000000 -5.000000 90.818553 -21.299294 1394.614317 924.495188 15.307339 0.000000 0.135220
148.000000 65.581000 5.000000 7.000000 -5.000000 96.695626 -28.499964 1559.379235 797.224710 15.252285 0.000000 0.100114
149.000000 64.413000 6.000000 7.000000 -5.000000 101.170706 -35.733598 1749.353317 679.167520 15.527244 0.000000 0.056047
150.000000 62.280000 7.000000 7.000000 -5.000000 104.359995 -42.775399 1970.801358 565.609764 16.057819 0.000000 0.107794
151.000000 59.560000 8.000000 7.000000 -5.000000 106.451965 -49.434186 2232.251477 452.269682 16.790412 0.000000 0.246391
153.000000 51.465000 1.000000 8.000000 -5.000000 70.120172 1.336610 949.887394 1330.290486 19.446526 0.000000 0.094943
154.000000 56.533000 2.000000 8.000000 -5.000000 79.052089 -4.102359 1052.194276 1149.729939 17.700229 0.000000 0.137993
155.000000 60.047000 3.000000 8.000000 -5.000000 87.184175 -10.079393 1166.317858 994.767398 16.661727 0.000000 0.155166
156.000000 61.953000 4.000000 8.000000 -5.000000 94.265400 -16.530241 1294.430906 857.265864 16.146656 0.000000 0.147830
157.000000 62.398000 5.000000 8.000000 -5.000000 100.141227 -23.333586 1439.273652 731.336171 16.029566 0.000000 0.117176
158.000000 61.651000 6.000000 8.000000 -5.000000 104.765275 -30.316521 1604.351986 612.391287 16.222131 0.000000 0.065186
159.000000 60.025000 7.000000 8.000000 -5.000000 108.190160 -37.276697 1794.224965 496.543665 16.660360 0.000000 0.042278
160.000000 57.813000 8.000000 8.000000 -5.000000 110.542701 -44.015617 2014.932381 380.165389 17.296759 0.000000 0.144096
163.000000 49.267000 1.000000 9.000000 -5.000000 73.829568 4.129733 897.288851 1253.902609 20.313061 0.000000 0.115112
164.000000 53.558000 2.000000 9.000000 -5.000000 82.242009 -0.819790 990.400713 1087.645133 18.682582 0.000000 0.148859
165.000000 56.627000 3.000000 9.000000 -5.000000 89.993076 -6.285404 1093.546472 941.130861 17.667126 0.000000 0.162493
166.000000 58.423000 4.000000 9.000000 -5.000000 96.868047 -12.237494 1208.440400 808.348877 17.121722 0.000000 0.156426
167.000000 59.029000 5.000000 9.000000 -5.000000 102.716484 -18.599895 1337.210857 684.736308 16.943642 0.000000 0.131131
168.000000 58.628000 6.000000 9.000000 -5.000000 107.465487 -25.246517 1482.533359 566.595646 17.058061 0.000000 0.086545
169.000000 57.441000 7.000000 9.000000 -5.000000 111.120543 -32.010534 1647.818481 450.699285 17.409184 0.000000 0.024834
170.000000 55.693000 8.000000 9.000000 -5.000000 113.754757 -38.706763 1837.482907 333.985872 17.954559 0.000000 0.072743
171.000000 53.581000 9.000000 9.000000 -5.000000 115.489590 -45.160733 2057.349968 213.285895 18.661311 0.000000 0.190442
173.000000 46.911000 1.000000 10.000000 -5.000000 76.848639 6.588285 850.691514 1194.150531 21.331543 0.000000 0.128060
174.000000 50.582000 2.000000 10.000000 -5.000000 84.784533 2.075423 935.996362 1039.307894 19.780676 0.000000 0.155212
175.000000 53.283000 3.000000 10.000000 -5.000000 92.172645 -2.920905 1029.916434 900.114434 18.775008 0.000000 0.166373
176.000000 54.968000 4.000000 10.000000 -5.000000 98.831038 -8.394423 1133.826261 771.972909 18.197184 0.000000 0.161520
177.000000 55.549000 6.000000 10.000000 -5.000000 109.454861 -20.562531 1378.749324 534.948426 18.002914 0.000000 0.104163
178.000000 54.724000 7.000000 10.000000 -5.000000 113.309088 -27.044733 1524.458220 420.338674 18.272944 0.000000 0.050592
179.000000 53.376000 8.000000 10.000000 -5.000000 116.213693 -33.591318 1689.853145 304.843053 18.733166 0.000000 0.022119
180.000000 51.663000 9.000000 10.000000 -5.000000 118.246784 -40.034175 1879.212654 185.788493 19.353449 0.000000 0.116504
183.000000 47.728000 2.000000 11.000000 -5.000000 86.833197 4.635585 887.730604 1000.744083 20.962557 0.000000 0.158429
184.000000 50.121000 3.000000 11.000000 -5.000000 93.876947 0.063505 973.807068 868.060619 19.959081 0.000000 0.167776
185.000000 51.694000 4.000000 11.000000 -5.000000 100.311730 -4.963408 1068.470956 744.439473 19.348986 0.000000 0.163950
186.000000 52.475000 5.000000 11.000000 -5.000000 106.012002 -10.427697 1173.074824 626.946705 19.059182 0.000000 0.147019
187.000000 52.540000 6.000000 11.000000 -5.000000 110.889682 -16.277465 1289.271014 513.072012 19.033633 0.000000 0.116839
188.000000 52.003000 7.000000 11.000000 -5.000000 114.900097 -22.421979 1419.099576 400.539689 19.228652 0.000000 0.072866
189.000000 50.989000 8.000000 11.000000 -5.000000 118.043617 -28.735014 1565.109078 287.153208 19.609679 0.000000 0.014990
190.000000 49.622000 9.000000 11.000000 -5.000000 120.362481 -35.067678 1730.525581 170.650419 20.149018 0.000000 0.063730
191.000000 48.011000 10.000000 11.000000 -5.000000 121.932904 -41.268322 1919.493782 48.548908 20.824209 0.000000 0.161341
193.000000 47.183000 3.000000 12.000000 -5.000000 95.220496 2.715075 923.959429 842.550814 21.201337 0.000000 0.167442
194.000000 48.648000 4.000000 12.000000 -5.000000 101.428982 -1.902522 1010.751779 723.294390 20.560187 0.000000 0.164445
195.000000 49.460000 5.000000 12.000000 -5.000000 107.016458 -6.944750 1106.098928 609.171161 20.220582 0.000000 0.150486
196.000000 49.670000 6.000000 12.000000 -5.000000 111.897707 -12.384390 1211.331264 498.075986 20.133240 0.000000 0.125476
197.000000 49.357000 7.000000 12.000000 -5.000000 116.018649 -18.161682 1328.070115 388.076225 20.259065 0.000000 0.089127
198.000000 48.616000 8.000000 12.000000 -5.000000 119.359533 -24.182550 1458.311877 277.297162 20.566643 0.000000 0.041440
199.000000 47.541000 9.000000 12.000000 -5.000000 121.935266 -30.324104 1604.543137 163.814281 21.030441 0.000000 0.028240
200.000000 46.223000 10.000000 12.000000 -5.000000 123.792302 -36.447853 1769.900952 45.539158 21.629498 0.000000 0.104915
201.000000 45.842000 4.000000 13.000000 -5.000000 102.271772 0.830169 959.404288 706.860734 21.818515 0.000000 0.163562
202.000000 46.661000 5.000000 13.000000 -5.000000 107.728952 -3.819743 1046.859909 596.145269 21.433060 0.000000 0.151965
203.000000 46.973000 6.000000 13.000000 -5.000000 112.580492 -8.863113 1142.833354 488.002692 21.288958 0.000000 0.131055
204.000000 46.833000 7.000000 13.000000 -5.000000 116.769137 -14.264442 1248.632729 380.779897 21.351002 0.000000 0.100684
205.000000 46.310000 8.000000 13.000000 -5.000000 120.263099 -19.958122 1365.848440 272.867457 21.590517 0.000000 0.060892
206.000000 45.479000 9.000000 13.000000 -5.000000 123.057956 -25.848857 1496.433698 162.618280 21.983910 0.000000 0.020682
211.000000 62.936000 1.000000 3.000000 -4.000000 43.513748 -17.648352 1317.420616 2130.622000 15.907471 0.000000 0.214824
212.000000 78.715000 2.000000 3.000000 -4.000000 57.467571 -27.740138 1541.029303 1716.682742 12.716026 0.000000 0.141921
213.000000 86.021000 3.000000 3.000000 -4.000000 68.572328 -37.943958 1814.199202 1476.617738 11.633474 0.000000 0.169970
214.000000 86.346000 4.000000 3.000000 -4.000000 76.533574 -47.642774 2155.461251 1323.527787 11.587568 0.000000 0.250144
216.000000 52.079000 0.000000 2.000000 -2.000000 40.872247 -3.059069 1032.518903 2186.499700 9.612537 0.000000 0.236660
217.000000 69.387000 1.000000 4.000000 -4.000000 55.204320 -11.399183 1192.003016 1703.974094 14.427099 0.000000 0.061421
218.000000 87.139000 3.000000 4.000000 -4.000000 78.560481 -30.309302 1604.170010 1193.274066 11.482670 0.000000 0.117719
219.000000 83.781000 5.000000 4.000000 -4.000000 91.326736 -49.059985 2215.756081 902.959054 11.939350 0.000000 0.227551
220.000000 56.374000 0.000000 5.000000 -4.000000 50.701084 1.281964 950.914443 1822.123200 17.758420 0.000000 0.087583
221.000000 69.865000 1.000000 5.000000 -4.000000 63.869294 -6.081801 1089.676917 1471.975070 14.326521 0.000000 0.055374
222.000000 79.384000 2.000000 5.000000 -4.000000 75.839915 -14.363844 1250.621565 1221.309138 12.605883 0.000000 0.122185
223.000000 84.108000 3.000000 5.000000 -4.000000 85.814166 -23.345064 1439.529422 1026.794104 11.895178 0.000000 0.128853
224.000000 84.555000 4.000000 5.000000 -4.000000 93.399318 -32.640128 1664.381488 865.079422 11.830252 0.000000 0.090647
225.000000 81.961000 5.000000 5.000000 -4.000000 98.641062 -41.776238 1936.515233 721.673460 12.203237 0.000000 0.096970
226.000000 77.607000 6.000000 5.000000 -4.000000 101.890162 -50.325914 2272.596407 586.033270 12.886836 0.000000 0.257719
228.000000 56.833000 0.000000 3.000000 -2.000000 58.206935 4.928224 882.194925 1610.625919 8.806599 0.000000 0.026520
229.000000 67.446000 1.000000 6.000000 -4.000000 70.309968 -1.575477 1004.602611 1326.303568 14.838805 0.000000 0.096274
230.000000 79.200000 3.000000 6.000000 -4.000000 90.985471 -17.143161 1306.999072 921.625431 12.631304 0.000000 0.146435
231.000000 78.358000 5.000000 6.000000 -4.000000 104.030142 -34.757584 1721.862956 613.637380 12.763429 0.000000 0.046119
234.000000 55.367000 0.000000 7.000000 -4.000000 64.011171 8.010689 823.531942 1470.854321 18.077786 0.000000 0.059825
235.000000 63.836000 1.000000 7.000000 -4.000000 75.159432 2.247655 932.756406 1226.404218 15.676554 0.000000 0.121770
236.000000 70.080000 2.000000 7.000000 -4.000000 85.536666 -4.332729 1056.545292 1025.253976 14.276949 0.000000 0.156479
237.000000 73.715000 3.000000 7.000000 -4.000000 94.648277 -11.706635 1198.019812 851.631693 13.570453 0.000000 0.158142
238.000000 74.845000 4.000000 7.000000 -4.000000 102.142709 -19.742102 1361.261642 694.961710 13.363457 0.000000 0.128050
239.000000 73.923000 5.000000 7.000000 -4.000000 107.866567 -28.183840 1551.713152 547.392424 13.528318 0.000000 0.066666
240.000000 71.542000 6.000000 7.000000 -4.000000 111.867384 -36.684629 1776.795968 402.358474 13.977469 0.000000 0.040265
241.000000 68.259000 7.000000 7.000000 -4.000000 114.349375 -44.882817 2046.900722 253.565817 14.648839 0.000000 0.178476
243.000000 53.028000 0.000000 4.000000 -2.000000 68.571915 10.636437 772.868471 1370.788389 9.436882 0.000000 0.088467
244.000000 59.892000 1.000000 8.000000 -4.000000 78.872890 5.504695 871.275627 1153.670211 16.707774 0.000000 0.136288
245.000000 65.074000 1.000000 4.000000 -2.000000 88.559245 -0.361985 981.799934 968.070650 7.687165 0.000000 0.162812
246.000000 68.301000 3.000000 8.000000 -4.000000 97.243341 -6.982899 1106.826246 803.182932 14.645326 0.000000 0.164219
247.000000 69.251000 5.000000 8.000000 -4.000000 110.510051 -22.167982 1413.526094 506.237921 14.440531 0.000000 0.092404
248.000000 67.631000 3.000000 4.000000 -2.000000 114.876166 -30.320557 1604.453730 362.864319 7.392531 0.000000 0.017081
249.000000 65.147000 7.000000 8.000000 -4.000000 117.814562 -38.442021 1829.346327 216.040963 15.347822 0.000000 0.090541
251.000000 50.366000 0.000000 9.000000 -4.000000 72.215509 12.891048 728.672689 1295.165301 19.869816 0.000000 0.106587
252.000000 56.014000 1.000000 9.000000 -4.000000 81.767377 8.295705 818.068033 1098.368583 17.863347 0.000000 0.144011
253.000000 60.374000 2.000000 9.000000 -4.000000 90.826648 3.048091 917.687910 925.448432 16.570574 0.000000 0.164919
254.000000 63.246000 3.000000 9.000000 -4.000000 99.088402 -2.893105 1029.392854 768.609318 15.815412 0.000000 0.166306
255.000000 64.627000 4.000000 9.000000 -4.000000 106.295255 -9.521441 1155.523959 621.971276 15.475302 0.000000 0.148108
256.000000 64.673000 5.000000 9.000000 -4.000000 112.267551 -16.756879 1299.068741 480.747652 15.462304 0.000000 0.110120
257.000000 63.641000 6.000000 9.000000 -4.000000 116.922469 -24.429664 1463.900798 340.687764 15.711685 0.000000 0.051388
258.000000 61.815000 7.000000 9.000000 -4.000000 120.279016 -32.289715 1655.134621 197.637871 16.174734 0.000000 0.033750
259.000000 59.462000 8.000000 9.000000 -4.000000 122.446616 -40.048312 1879.665760 47.121290 16.814096 0.000000 0.145523
261.000000 47.662000 0.000000 5.000000 -2.000000 75.173019 14.842307 689.780410 1235.745839 10.497955 0.000000 0.117727
262.000000 52.375000 1.000000 10.000000 -4.000000 84.062628 10.703244 771.568972 1054.915632 19.103574 0.000000 0.147505
263.000000 56.086000 1.000000 5.000000 -2.000000 92.554117 5.988736 862.090842 892.725963 8.918336 0.000000 0.164355
264.000000 58.648000 3.000000 10.000000 -4.000000 100.406020 0.648168 962.823716 743.333500 17.054862 0.000000 0.165753
265.000000 60.041000 2.000000 5.000000 -2.000000 107.404207 -5.339782 1075.598589 602.152542 8.328432 0.000000 0.151437
266.000000 60.357000 5.000000 10.000000 -4.000000 113.382444 -11.945931 1202.712053 465.336097 16.567764 0.000000 0.121278
267.000000 59.763000 3.000000 5.000000 -2.000000 118.238195 -19.070715 1347.084340 329.405235 8.365474 0.000000 0.074889
268.000000 58.459000 7.000000 10.000000 -4.000000 121.942129 -26.536906 1512.486425 190.946780 17.102843 0.000000 0.018849
269.000000 56.646000 4.000000 5.000000 -2.000000 124.538916 -34.106138 1703.874171 46.322254 8.824681 0.000000 0.082804
272.000000 49.035000 1.000000 11.000000 -4.000000 85.912096 12.794280 730.584942 1019.879817 20.404029 0.000000 0.148336
273.000000 52.227000 2.000000 11.000000 -4.000000 93.890150 8.537942 813.418010 866.991323 19.153954 0.000000 0.162123
274.000000 54.518000 3.000000 11.000000 -4.000000 101.350468 3.722101 904.982261 724.492426 18.346406 0.000000 0.163502
275.000000 55.883000 4.000000 11.000000 -4.000000 108.115930 -1.688901 1006.734992 588.728522 17.896170 0.000000 0.152100
276.000000 56.373000 5.000000 11.000000 -4.000000 114.038939 -7.697711 1120.476915 456.560682 17.738591 0.000000 0.127818
277.000000 56.098000 6.000000 11.000000 -4.000000 119.013185 -14.255787 1248.459652 325.110866 17.823724 0.000000 0.090494
278.000000 55.200000 7.000000 11.000000 -4.000000 122.982908 -21.249461 1393.536296 191.548448 18.112379 0.000000 0.041576
279.000000 53.827000 8.000000 11.000000 -4.000000 125.948372 -28.499857 1559.376624 52.883795 18.573371 0.000000 0.042641
280.000000 52.119000 9.000000 11.000000 -4.000000 127.965076 -35.783675 1750.781828 -94.263454 19.181577 0.000000 0.129238
283.000000 46.001000 1.000000 12.000000 -4.000000 87.424354 14.622762 694.189705 991.036559 21.748860 0.000000 0.147480
284.000000 48.773000 1.000000 6.000000 -2.000000 94.938144 10.760659 770.451693 846.342704 10.254929 0.000000 0.158872
285.000000 50.828000 3.000000 12.000000 -4.000000 102.028663 6.400871 854.257692 710.225182 19.678071 0.000000 0.160188
286.000000 52.140000 2.000000 6.000000 -2.000000 108.549473 1.501643 946.785353 579.719208 9.590367 0.000000 0.150989
287.000000 52.737000 5.000000 12.000000 -4.000000 114.372421 -3.958098 1049.470903 452.229991 18.961447 0.000000 0.131172
288.000000 52.692000 3.000000 6.000000 -2.000000 119.395979 -9.964088 1164.084223 325.352669 9.487906 0.000000 0.100671
289.000000 52.105000 7.000000 12.000000 -4.000000 123.552732 -16.451970 1292.831725 196.718193 19.188408 0.000000 0.060067
290.000000 51.084000 4.000000 6.000000 -2.000000 126.815592 -23.298842 1438.499768 63.843862 9.785315 0.000000 0.027390
291.000000 49.739000 9.000000 12.000000 -4.000000 129.201261 -30.328684 1604.658616 -76.031687 20.099121 0.000000 0.081165
294.000000 45.686000 2.000000 13.000000 -4.000000 95.771003 12.710269 732.243898 829.491826 21.895620 0.000000 0.155025
295.000000 47.535000 3.000000 13.000000 -4.000000 102.515099 8.746351 809.412626 699.282828 21.041288 0.000000 0.156234
296.000000 48.781000 4.000000 13.000000 -4.000000 108.788300 4.297296 894.124099 573.812492 20.501431 0.000000 0.148710
297.000000 49.439000 5.000000 13.000000 -4.000000 114.480598 -0.667582 987.541022 450.911256 20.226393 0.000000 0.132335
298.000000 49.557000 6.000000 13.000000 -4.000000 119.499189 -6.155540 1091.078016 328.551025 20.176447 0.000000 0.107075
299.000000 49.204000 7.000000 13.000000 -4.000000 123.774021 -12.137467 1206.473756 204.731711 20.319437 0.000000 0.073220
300.000000 48.463000 8.000000 13.000000 -4.000000 127.263188 -18.536681 1335.889392 77.370967 20.629051 0.000000 0.035803
301.000000 47.416000 9.000000 13.000000 -4.000000 129.957510 -25.225253 1482.045171 -55.815877 21.083555 0.000000 0.049282
302.000000 46.142000 10.000000 13.000000 -4.000000 131.882739 -32.033313 1648.413743 -197.460703 21.664836 0.000000 0.118776
303.000000 45.767000 2.000000 7.000000 -2.000000 108.890914 6.755980 847.498265 570.117446 10.925717 0.000000 0.145681
304.000000 46.454000 5.000000 14.000000 -4.000000 114.433251 2.231964 933.051614 451.646662 21.525869 0.000000 0.131989
305.000000 46.686000 3.000000 7.000000 -2.000000 119.406346 -2.781336 1027.288146 333.666823 10.708661 0.000000 0.110823
306.000000 46.510000 7.000000 14.000000 -4.000000 123.742540 -8.278425 1131.600472 214.475507 21.496477 0.000000 0.082345
307.000000 45.988000 4.000000 7.000000 -2.000000 127.393465 -14.217584 1247.695821 92.310043 10.869536 0.000000 0.048442
309.000000 87.254000 1.000000 2.000000 -3.000000 43.849557 -23.367870 1440.037719 2161.518165 11.473662 0.000000 0.234717
311.000000 75.783000 0.000000 4.000000 -3.000000 53.426927 2.567615 926.735350 1740.344630 13.209998 0.000000 0.055928
312.000000 55.609000 -1.000000 5.000000 -3.000000 46.695981 13.797385 710.688854 1985.530711 18.003195 0.000000 0.176653
313.000000 74.656000 0.000000 5.000000 -3.000000 62.234131 7.038759 842.108551 1511.949463 13.407546 0.000000 0.047535
314.000000 90.179000 1.000000 5.000000 -3.000000 77.350574 -1.144781 996.507436 1182.603541 11.096663 0.000000 0.131678
316.000000 56.295000 -1.000000 6.000000 -3.000000 54.588474 16.445603 657.298298 1738.849309 17.781963 0.000000 0.103250
317.000000 82.434000 1.000000 6.000000 -3.000000 82.190205 3.632914 906.664550 1088.918666 12.138056 0.000000 0.147902
318.000000 89.929000 2.000000 6.000000 -3.000000 94.481094 -4.693631 1063.367057 856.367333 11.123783 0.000000 0.166520
319.000000 88.064000 5.000000 6.000000 -3.000000 116.983270 -35.758550 1750.064892 265.692001 11.354064 0.000000 0.050838
320.000000 54.827000 -1.000000 7.000000 -3.000000 60.624046 18.625795 612.247440 1580.351919 18.256430 0.000000 0.088400
321.000000 65.948000 0.000000 7.000000 -3.000000 73.268308 13.572266 715.168425 1273.847641 15.174876 0.000000 0.110933
322.000000 75.052000 1.000000 7.000000 -3.000000 85.610222 7.522625 832.870764 1024.340462 13.331031 0.000000 0.153973
323.000000 81.193000 2.000000 7.000000 -3.000000 96.967956 0.330841 968.785125 809.456463 12.320065 0.000000 0.167918
324.000000 84.069000 3.000000 7.000000 -3.000000 106.718260 -8.064176 1127.492846 614.493686 11.896340 0.000000 0.149583
325.000000 84.015000 4.000000 7.000000 -3.000000 114.418391 -17.543483 1315.252525 428.518321 11.902166 0.000000 0.098565
326.000000 81.743000 5.000000 7.000000 -3.000000 119.887953 -27.732449 1540.844914 242.124798 12.231675 0.000000 0.016138
327.000000 78.040000 6.000000 7.000000 -3.000000 123.229184 -38.036097 1816.985773 45.786522 12.811144 0.000000 0.121779
329.000000 52.444000 -1.000000 8.000000 -3.000000 65.345301 20.447029 573.723820 1468.227081 19.084536 0.000000 0.095111
330.000000 61.209000 0.000000 8.000000 -3.000000 76.846930 16.001587 666.345322 1202.650540 16.348522 0.000000 0.122521
331.000000 68.446000 1.000000 8.000000 -3.000000 88.101230 10.723323 771.178284 977.315406 14.616947 0.000000 0.154610
332.000000 73.551000 2.000000 8.000000 -3.000000 98.614090 4.472788 890.808128 777.456972 13.599564 0.000000 0.165447
333.000000 76.295000 3.000000 8.000000 -3.000000 107.914624 -2.851298 1028.605541 592.631740 13.108129 0.000000 0.152113
334.000000 76.829000 4.000000 8.000000 -3.000000 115.624749 -11.247997 1189.049120 414.644245 13.015211 0.000000 0.114264
335.000000 75.565000 5.000000 8.000000 -3.000000 121.515914 -20.537886 1378.221308 236.240537 13.231468 0.000000 0.051934
336.000000 73.016000 6.000000 8.000000 -3.000000 125.545416 -30.326238 1604.596953 50.090722 13.692409 0.000000 0.053653
339.000000 49.749000 -1.000000 9.000000 -3.000000 69.116453 21.988292 540.404703 1383.855897 20.116887 0.000000 0.103837
340.000000 56.795000 0.000000 3.000000 -1.000000 79.642737 18.038215 624.496958 1147.875100 5.872650 0.000000 0.127932
341.000000 62.668000 1.000000 9.000000 -3.000000 89.966463 13.387635 718.835981 941.647579 15.963955 0.000000 0.152332
342.000000 66.968000 2.000000 9.000000 -3.000000 99.721517 7.912308 825.416157 754.837335 14.936224 0.000000 0.160909
343.000000 70.385000 4.000000 9.000000 -3.000000 116.139859 -5.901424 1086.251230 409.985874 14.206638 0.000000 0.122193
344.000000 69.806000 5.000000 9.000000 -3.000000 122.266016 -14.242166 1248.187285 239.940809 14.323053 0.000000 0.074557
345.000000 65.647000 7.000000 9.000000 -3.000000 129.810641 -32.677187 1665.363640 -124.754761 15.228270 0.000000 0.108697
347.000000 47.032000 -1.000000 10.000000 -3.000000 72.185336 23.307737 511.302141 1317.597154 21.277852 0.000000 0.110246
348.000000 52.798000 0.000000 10.000000 -3.000000 81.875109 19.766148 588.228384 1104.276572 18.950978 0.000000 0.129753
349.000000 57.649000 1.000000 10.000000 -3.000000 91.397860 15.630877 673.867909 913.727547 17.353266 0.000000 0.148520
350.000000 61.311000 2.000000 10.000000 -3.000000 100.476581 10.794652 769.789994 738.390410 16.313839 0.000000 0.155340
351.000000 63.653000 3.000000 10.000000 -3.000000 108.835310 5.151672 877.964825 572.370133 15.711346 0.000000 0.147768
352.000000 64.691000 4.000000 10.000000 -3.000000 116.223038 -1.378516 1000.900259 410.706427 15.457228 0.000000 0.125362
353.000000 64.566000 5.000000 10.000000 -3.000000 122.435734 -8.811412 1141.838666 248.852093 15.485345 0.000000 0.088139
354.000000 63.495000 6.000000 10.000000 -3.000000 127.337406 -17.048228 1305.047082 82.236995 15.745303 0.000000 0.040111
355.000000 61.717000 7.000000 10.000000 -3.000000 130.880103 -25.841226 1496.256714 -94.173079 16.198031 0.000000 0.059249
358.000000 49.218000 0.000000 11.000000 -3.000000 83.691614 21.248088 556.493387 1068.661912 20.328386 0.000000 0.129458
359.000000 53.287000 1.000000 11.000000 -3.000000 92.520287 17.540058 634.818244 891.316185 18.773080 0.000000 0.143950
360.000000 56.440000 2.000000 11.000000 -3.000000 100.996338 13.233474 721.893966 726.155863 17.721800 0.000000 0.149340
361.000000 58.573000 3.000000 11.000000 -3.000000 108.904498 8.232840 819.273863 568.569558 17.073818 0.000000 0.143389
362.000000 59.685000 4.000000 11.000000 -3.000000 116.042521 2.452497 928.901991 414.584908 16.753570 0.000000 0.125597
363.000000 59.859000 5.000000 11.000000 -3.000000 122.234735 -4.157964 1053.244262 260.518669 16.703259 0.000000 0.095942
364.000000 59.234000 6.000000 11.000000 -3.000000 127.345515 -11.576739 1195.476149 102.677313 16.877925 0.000000 0.055739
365.000000 57.979000 7.000000 11.000000 -3.000000 131.294195 -19.671143 1359.757688 -62.944417 17.242065 0.000000 0.034390
366.000000 56.263000 8.000000 11.000000 -3.000000 134.069811 -28.181109 1551.647120 -241.020244 17.767276 0.000000 0.100310
368.000000 46.025000 0.000000 4.000000 -1.000000 85.194155 22.531454 528.491924 1038.967442 7.245997 0.000000 0.127916
369.000000 49.484000 1.000000 12.000000 -3.000000 93.417228 19.181195 600.590716 872.953930 20.215612 0.000000 0.139070
370.000000 52.222000 2.000000 12.000000 -3.000000 101.355866 15.316728 680.221424 716.883064 19.152870 0.000000 0.143255
371.000000 54.161000 1.000000 4.000000 -1.000000 108.839879 10.854260 768.629345 567.073621 6.154920 0.000000 0.138422
372.000000 55.288000 4.000000 12.000000 -3.000000 115.705822 5.711661 867.350311 420.294705 18.086021 0.000000 0.124023
373.000000 55.653000 5.000000 12.000000 -3.000000 121.805478 -0.175708 978.300666 273.523673 17.965715 0.000000 0.099993
374.000000 55.347000 2.000000 4.000000 -1.000000 127.014256 -6.829526 1103.902892 123.735125 6.021170 0.000000 0.066866
375.000000 54.488000 7.000000 12.000000 -3.000000 131.241075 -14.196007 1247.264516 -32.310712 18.347043 0.000000 0.033105
376.000000 53.201000 8.000000 12.000000 -3.000000 134.440271 -22.118319 1412.438695 -198.312110 18.790062 0.000000 0.060870
379.000000 46.150000 1.000000 13.000000 -3.000000 94.145965 20.604828 570.344057 857.650458 21.675518 0.000000 0.134139
380.000000 48.548000 2.000000 13.000000 -3.000000 101.604359 17.112414 643.633371 709.745379 20.601946 0.000000 0.137285
381.000000 50.309000 3.000000 13.000000 -3.000000 108.693718 13.102817 724.482691 567.091223 19.878246 0.000000 0.133215
382.000000 51.418000 4.000000 13.000000 -3.000000 115.281127 8.501112 814.125386 427.024644 19.447470 0.000000 0.121348
383.000000 51.901000 5.000000 13.000000 -3.000000 121.242509 3.239655 914.078540 287.036014 19.264393 0.000000 0.101576
384.000000 51.821000 6.000000 13.000000 -3.000000 126.467866 -2.725111 1026.229515 144.617299 19.292645 0.000000 0.074136
385.000000 51.260000 7.000000 13.000000 -3.000000 130.867483 -9.388440 1152.956256 -2.890029 19.502643 0.000000 0.041762
386.000000 50.309000 8.000000 13.000000 -3.000000 134.380208 -16.670400 1297.297767 -158.466835 19.870080 0.000000 0.037314
387.000000 49.061000 9.000000 13.000000 -3.000000 136.983361 -24.398775 1463.200986 -325.632281 20.374798 0.000000 0.092670
390.000000 46.930000 3.000000 14.000000 -3.000000 108.499264 15.047128 685.658743 568.106819 21.309884 0.000000 0.127979
391.000000 48.000000 4.000000 14.000000 -3.000000 114.811473 10.904815 767.644591 434.270560 20.832559 0.000000 0.118022
392.000000 48.553000 5.000000 14.000000 -3.000000 120.607585 6.181389 858.430741 300.565521 20.592924 0.000000 0.101524
393.000000 48.632000 6.000000 14.000000 -3.000000 125.792353 0.824304 959.514478 164.890122 20.558031 0.000000 0.078584
394.000000 48.293000 7.000000 14.000000 -3.000000 130.282848 -5.189584 1072.753176 25.035206 20.700750 0.000000 0.050242
395.000000 47.606000 8.000000 14.000000 -3.000000 134.013783 -11.832125 1200.479466 -121.439901 20.998542 0.000000 0.028860
396.000000 46.640000 9.000000 14.000000 -3.000000 136.944850 -19.003131 1345.663637 -277.358864 21.432528 0.000000 0.059684
398.000000 45.560000 5.000000 15.000000 -3.000000 119.940535 8.728932 809.747580 313.825392 21.946349 0.000000 0.100388
399.000000 45.749000 2.000000 5.000000 -1.000000 125.046033 3.901805 901.591548 184.327349 7.284636 0.000000 0.081017
400.000000 45.577000 7.000000 15.000000 -3.000000 129.566157 -1.528048 1003.711003 51.365862 21.934895 0.000000 0.056661
402.000000 73.121000 -1.000000 4.000000 -2.000000 47.736937 18.960951 605.222461 1975.200289 13.691282 0.000000 0.187638
404.000000 72.657000 -1.000000 5.000000 -2.000000 57.162656 21.649332 547.792630 1688.335229 13.776820 0.000000 0.117577
405.000000 51.446000 -1.000000 3.000000 -1.000000 48.727656 28.239642 396.936950 2013.250825 9.729253 0.000000 0.239344
406.000000 68.927000 -1.000000 6.000000 -2.000000 63.883871 23.737778 501.693203 1517.412925 14.520735 0.000000 0.108019
407.000000 51.019000 -2.000000 7.000000 -2.000000 55.283332 29.323350 370.434928 1796.316759 19.619361 0.000000 0.184587
408.000000 64.313000 -1.000000 7.000000 -2.000000 68.868460 25.402856 463.872163 1401.513482 15.561203 0.000000 0.111555
409.000000 76.436000 0.000000 7.000000 -2.000000 82.828129 20.534602 571.849030 1085.619861 13.090011 0.000000 0.129805
410.000000 85.844000 1.000000 7.000000 -2.000000 96.440854 14.430411 698.045591 815.538933 11.652473 0.000000 0.150856
411.000000 88.322000 5.000000 7.000000 -2.000000 132.567225 -27.035456 1524.238550 -168.845567 11.318389 0.000000 0.079798
413.000000 49.367000 -1.000000 4.000000 -1.000000 60.426815 30.221990 348.028643 1647.824557 10.137340 0.000000 0.158442
414.000000 59.706000 -1.000000 8.000000 -2.000000 72.689974 26.759325 432.283325 1316.666730 16.760482 0.000000 0.114914
415.000000 76.424000 1.000000 8.000000 -2.000000 97.432792 17.318388 639.392692 793.919503 13.088427 0.000000 0.142219
416.000000 83.341000 3.000000 8.000000 -2.000000 118.859881 2.863798 921.159054 347.094823 11.997532 0.000000 0.113205
417.000000 80.835000 5.000000 8.000000 -2.000000 132.969869 -18.101833 1326.825301 -113.809967 12.366707 0.000000 0.036248
419.000000 47.207000 -2.000000 9.000000 -2.000000 64.551819 30.978890 328.836740 1538.384384 21.200800 0.000000 0.145438
420.000000 55.423000 -1.000000 9.000000 -2.000000 75.701888 27.884530 405.503519 1251.339059 18.054697 0.000000 0.116365
421.000000 62.801000 0.000000 9.000000 -2.000000 87.011412 24.161389 492.165708 1002.586443 15.930511 0.000000 0.124358
422.000000 68.745000 1.000000 9.000000 -2.000000 98.113118 19.639416 590.914336 778.092307 14.550145 0.000000 0.133780
423.000000 72.848000 2.000000 9.000000 -2.000000 108.600977 14.109321 704.467413 567.498872 13.728016 0.000000 0.130590
424.000000 74.980000 3.000000 9.000000 -2.000000 118.068222 7.336637 836.423958 362.341806 13.335537 0.000000 0.111627
425.000000 75.279000 4.000000 9.000000 -2.000000 126.142064 -0.886411 991.652443 154.847645 13.280799 0.000000 0.076656
426.000000 74.070000 5.000000 9.000000 -2.000000 132.517878 -10.624769 1176.904620 -63.074126 13.496361 0.000000 0.032870
427.000000 71.751000 6.000000 9.000000 -2.000000 137.006935 -21.631683 1401.823661 -300.930108 13.931617 0.000000 0.074644
429.000000 51.550000 -1.000000 10.000000 -2.000000 78.130975 28.832283 382.512246 1199.212435 19.410179 0.000000 0.116286
430.000000 57.516000 0.000000 5.000000 -1.000000 88.445869 25.514983 461.288430 973.357012 8.696880 0.000000 0.120147
431.000000 62.398000 1.000000 10.000000 -2.000000 98.594757 21.539716 550.174352 766.113013 16.029984 0.000000 0.125885
432.000000 65.920000 1.000000 5.000000 -1.000000 108.277813 16.741339 651.249604 569.777715 7.585452 0.000000 0.122843
433.000000 67.974000 3.000000 10.000000 -2.000000 117.191137 10.927319 767.206135 377.859723 14.710147 0.000000 0.108046
434.000000 68.056000 5.000000 10.000000 -2.000000 131.586354 -4.472077 1059.178428 -17.037249 14.689165 0.000000 0.043376
435.000000 66.533000 3.000000 5.000000 -1.000000 136.612541 -14.159903 1246.543020 -233.328293 7.512216 0.000000 0.037759
438.000000 48.087000 -1.000000 11.000000 -2.000000 80.128186 29.641078 362.558672 1156.497794 20.807494 0.000000 0.115217
439.000000 53.002000 0.000000 11.000000 -2.000000 89.604049 26.655829 434.719613 949.322554 18.874525 0.000000 0.115791
440.000000 57.081000 1.000000 11.000000 -2.000000 98.944856 23.120929 515.456830 756.797977 17.523051 0.000000 0.118657
441.000000 60.128000 2.000000 11.000000 -2.000000 107.923597 18.905063 606.395847 573.027183 16.632295 0.000000 0.115485
442.000000 62.058000 3.000000 11.000000 -2.000000 116.308631 13.852005 709.600686 392.920907 16.112759 0.000000 0.103513
443.000000 62.894000 4.000000 11.000000 -2.000000 123.875066 7.791305 827.732424 211.707426 15.896719 0.000000 0.082120
444.000000 62.748000 5.000000 11.000000 -2.000000 130.413984 0.570551 964.281907 24.503280 15.931979 0.000000 0.051686
445.000000 61.791000 6.000000 11.000000 -2.000000 135.743987 -7.877663 1123.920516 -174.138619 16.177663 0.000000 0.023872
446.000000 60.211000 7.000000 11.000000 -2.000000 139.732828 -17.436596 1313.045290 -390.794858 16.601305 0.000000 0.067379
448.000000 49.115000 0.000000 6.000000 -1.000000 90.557022 27.629703 411.616297 929.189224 10.184076 0.000000 0.111545
449.000000 52.571000 1.000000 12.000000 -2.000000 99.205034 24.455295 485.518261 749.391028 19.026070 0.000000 0.112116
450.000000 55.229000 1.000000 6.000000 -1.000000 107.565742 20.710448 568.077981 576.749469 9.053949 0.000000 0.108648
451.000000 57.018000 3.000000 12.000000 -2.000000 115.459243 16.268511 660.911529 407.199760 17.537271 0.000000 0.098605
452.000000 57.943000 2.000000 6.000000 -1.000000 122.708470 10.985929 766.063875 236.903384 8.627564 0.000000 0.081280
453.000000 58.072000 5.000000 12.000000 -2.000000 129.144417 4.718571 886.161281 61.953779 17.215074 0.000000 0.056683
454.000000 57.516000 3.000000 6.000000 -1.000000 134.611634 -2.640342 1024.633652 -121.929906 8.690077 0.000000 0.027184
455.000000 56.408000 7.000000 12.000000 -2.000000 138.978843 -11.094199 1186.047386 -319.773111 17.720574 0.000000 0.035901
458.000000 45.738000 0.000000 13.000000 -2.000000 91.353809 28.470304 391.341961 912.064838 21.871498 0.000000 0.107533
459.000000 48.704000 1.000000 13.000000 -2.000000 99.402031 25.595270 459.435434 743.389581 20.536764 0.000000 0.106235
460.000000 51.038000 2.000000 13.000000 -2.000000 107.218132 22.236862 534.964450 580.658399 19.594655 0.000000 0.102376
461.000000 52.686000 3.000000 13.000000 -2.000000 114.659991 18.291960 619.217242 420.572773 18.979232 0.000000 0.093646
462.000000 53.643000 4.000000 13.000000 -2.000000 121.586473 13.641188 713.797872 259.999709 18.638541 0.000000 0.079294
463.000000 53.949000 5.000000 13.000000 -2.000000 127.860605 8.156934 820.729334 95.764513 18.531088 0.000000 0.059194
464.000000 53.678000 6.000000 13.000000 -2.000000 133.352235 1.724277 942.599875 -75.562897 18.623335 0.000000 0.033766
465.000000 52.923000 7.000000 13.000000 -2.000000 137.942907 -5.718279 1082.775247 -257.919214 18.887881 0.000000 0.018380
468.000000 47.419000 1.000000 7.000000 -1.000000 106.887431 23.542586 506.062398 584.588195 10.545162 0.000000 0.096667
469.000000 48.933000 3.000000 14.000000 -2.000000 113.916773 20.007024 583.111481 433.018692 20.435323 0.000000 0.088816
470.000000 49.887000 2.000000 7.000000 -1.000000 120.527700 15.874056 668.936342 281.149919 10.021218 0.000000 0.076654
471.000000 50.304000 5.000000 14.000000 -2.000000 126.608487 11.033992 765.126846 126.366478 19.874352 0.000000 0.059996
472.000000 50.234000 3.000000 7.000000 -1.000000 132.050925 5.377768 873.681575 -34.125384 9.950258 0.000000 0.038831
473.000000 49.743000 7.000000 14.000000 -2.000000 136.752416 -1.178877 997.148193 -203.473439 20.095672 0.000000 0.015744
474.000000 48.905000 4.000000 7.000000 -1.000000 140.621363 -8.654727 1138.825916 -385.402256 10.219380 0.000000 0.032599
477.000000 45.654000 3.000000 15.000000 -2.000000 113.229830 21.476733 551.541223 444.567080 21.903014 0.000000 0.084216
478.000000 46.585000 4.000000 15.000000 -2.000000 119.538987 17.772479 630.009892 300.529058 21.463322 0.000000 0.073674
479.000000 47.069000 5.000000 15.000000 -2.000000 125.411986 13.465314 717.293629 154.148840 21.240427 0.000000 0.059654
480.000000 47.141000 6.000000 15.000000 -2.000000 130.758794 8.457323 814.966243 3.118812 21.206395 0.000000 0.042067
481.000000 46.848000 7.000000 15.000000 -2.000000 135.492045 2.659809 924.999894 -155.121759 21.337894 0.000000 0.020972
482.000000 46.244000 8.000000 15.000000 -2.000000 139.529453 -3.980812 1049.899638 -323.542097 21.615281 0.000000 0.014761
486.000000 89.790000 -1.000000 5.000000 -1.000000 67.923823 31.624922 312.213814 1453.644878 11.145639 0.000000 0.138259
487.000000 61.386000 -2.000000 6.000000 -1.000000 56.365367 36.448823 180.070886 1831.150621 16.305147 0.000000 0.244930
488.000000 80.828000 -1.000000 6.000000 -1.000000 73.088847 32.668932 284.855217 1329.727331 12.380276 0.000000 0.130195
489.000000 58.576000 -2.000000 7.000000 -1.000000 62.120558 36.781294 170.376915 1651.894027 17.086072 0.000000 0.206192
490.000000 72.906000 -1.000000 7.000000 -1.000000 76.846056 33.475642 263.274182 1242.551165 13.724503 0.000000 0.124713
491.000000 85.564000 0.000000 7.000000 -1.000000 92.029205 29.202940 373.406973 897.312938 11.691185 0.000000 0.103810
492.000000 55.214000 -2.000000 8.000000 -1.000000 66.573224 37.052644 162.402554 1525.340073 18.124915 0.000000 0.183433
493.000000 66.130000 -1.000000 8.000000 -1.000000 79.694799 34.117468 245.815348 1177.380323 15.130087 0.000000 0.120059
494.000000 75.722000 0.000000 8.000000 -1.000000 93.110599 30.417377 343.103032 873.174866 13.210391 0.000000 0.097278
495.000000 82.987000 1.000000 8.000000 -1.000000 106.285717 25.655592 458.041579 592.170676 12.051046 0.000000 0.086828
496.000000 87.332000 2.000000 8.000000 -1.000000 118.620865 19.402991 595.913802 318.311335 11.449228 0.000000 0.070547
497.000000 88.719000 3.000000 8.000000 -1.000000 129.505242 11.074119 764.344297 36.768865 11.268361 0.000000 0.043839
498.000000 87.583000 4.000000 8.000000 -1.000000 138.343022 0.012842 974.758768 -268.834014 11.413109 0.000000 0.007390
500.000000 51.820000 -2.000000 9.000000 -1.000000 70.110501 37.278299 155.727519 1430.366039 19.310974 0.000000 0.168538
501.000000 60.368000 -1.000000 9.000000 -1.000000 81.925698 34.640151 231.400606 1126.583779 16.573477 0.000000 0.115916
502.000000 67.874000 0.000000 9.000000 -1.000000 93.936793 31.382392 318.481084 854.239035 14.737494 0.000000 0.091897
503.000000 73.715000 1.000000 9.000000 -1.000000 105.763031 27.288416 419.758642 599.144204 13.566951 0.000000 0.078855
504.000000 77.502000 2.000000 9.000000 -1.000000 116.983982 22.051948 539.013328 349.724152 12.901582 0.000000 0.064321
505.000000 79.164000 3.000000 9.000000 -1.000000 127.168967 15.253501 681.497836 95.169034 12.628763 0.000000 0.044449
506.000000 78.916000 4.000000 9.000000 -1.000000 135.890063 6.375932 854.732033 -176.174271 12.667029 0.000000 0.017976
509.000000 48.601000 -2.000000 10.000000 -1.000000 72.983153 37.468900 150.058168 1356.029677 20.588972 0.000000 0.157897
510.000000 55.453000 -1.000000 10.000000 -1.000000 83.718408 35.073981 219.297653 1085.761043 18.041809 0.000000 0.112218
511.000000 61.480000 0.000000 10.000000 -1.000000 94.587679 32.167255 298.080043 838.975335 16.270039 0.000000 0.087514
512.000000 66.275000 1.000000 10.000000 -1.000000 105.310809 28.586090 388.524227 605.435342 15.090007 0.000000 0.072456
513.000000 69.575000 2.000000 10.000000 -1.000000 115.582024 24.105490 493.426530 376.515463 14.371816 0.000000 0.058535
514.000000 71.306000 3.000000 10.000000 -1.000000 125.087482 18.419629 616.554967 144.091590 14.020995 0.000000 0.042798
515.000000 71.572000 4.000000 10.000000 -1.000000 133.513017 11.137313 763.111459 -100.443373 13.967194 0.000000 0.025020
516.000000 70.606000 5.000000 10.000000 -1.000000 140.542540 1.836719 940.485628 -367.298393 14.156949 0.000000 0.003888
518.000000 45.631000 -2.000000 11.000000 -1.000000 75.359552 37.632022 145.183143 1296.029616 21.928227 0.000000 0.149780
519.000000 51.233000 -1.000000 11.000000 -1.000000 85.189575 35.439802 208.991639 1052.173888 19.527460 0.000000 0.108934
520.000000 56.174000 0.000000 11.000000 -1.000000 95.113201 32.817879 280.900221 826.403449 17.806490 0.000000 0.083960
521.000000 60.180000 1.000000 11.000000 -1.000000 104.918553 29.641193 362.555807 611.072580 16.618343 0.000000 0.067365
522.000000 63.066000 2.000000 11.000000 -1.000000 114.376547 25.740197 456.084240 399.578499 15.855567 0.000000 0.053408
523.000000 64.763000 3.000000 11.000000 -1.000000 123.251933 20.887229 564.278032 185.660721 15.437782 0.000000 0.040072
524.000000 65.323000 4.000000 11.000000 -1.000000 131.308449 14.787601 690.879934 -37.229159 15.303660 0.000000 0.027867
525.000000 64.885000 5.000000 11.000000 -1.000000 138.306906 7.095584 841.024698 -276.624615 15.405595 0.000000 0.014883
528.000000 47.581000 -1.000000 12.000000 -1.000000 86.418066 35.752418 200.110028 1024.018980 21.025627 0.000000 0.106029
529.000000 51.704000 0.000000 12.000000 -1.000000 95.546106 33.365858 266.234521 815.865203 19.345841 0.000000 0.081089
530.000000 55.100000 1.000000 12.000000 -1.000000 104.576554 30.515373 340.625179 616.118172 18.150689 0.000000 0.063357
531.000000 57.635000 2.000000 12.000000 -1.000000 113.333479 27.070336 424.935365 419.609656 17.349785 0.000000 0.049010
532.000000 59.253000 3.000000 12.000000 -1.000000 121.636239 22.857733 521.290868 221.413017 16.873906 0.000000 0.036925
533.000000 59.974000 4.000000 12.000000 -1.000000 129.303136 17.653561 632.471628 16.424479 16.669139 0.000000 0.028253
534.000000 59.883000 5.000000 12.000000 -1.000000 136.150205 11.184820 762.184319 -201.090711 16.692869 0.000000 0.021920
535.000000 59.107000 6.000000 12.000000 -1.000000 141.987453 3.165089 915.483641 -438.075848 16.910968 0.000000 0.011181
538.000000 47.888000 0.000000 13.000000 -1.000000 95.908720 33.833626 253.568690 806.901761 20.887405 0.000000 0.078772
539.000000 50.803000 1.000000 13.000000 -1.000000 104.276559 31.251170 321.858531 620.641281 19.686151 0.000000 0.060241
540.000000 53.042000 2.000000 13.000000 -1.000000 112.424580 28.172662 398.557081 437.151735 18.852273 0.000000 0.045339
541.000000 54.560000 3.000000 13.000000 -1.000000 120.211189 24.464071 485.319307 252.486394 18.325532 0.000000 0.033722
542.000000 55.362000 4.000000 13.000000 -1.000000 127.493835 19.952788 584.264973 62.586807 18.058176 0.000000 0.027214
543.000000 55.499000 5.000000 13.000000 -1.000000 134.128446 14.424992 698.154125 -137.023497 18.011864 0.000000 0.025281
544.000000 55.056000 6.000000 13.000000 -1.000000 139.966240 7.638863 830.648589 -351.614918 18.155456 0.000000 0.020194
547.000000 47.121000 1.000000 14.000000 -1.000000 104.011761 31.878838 305.617221 624.707637 21.224083 0.000000 0.057856
548.000000 49.112000 2.000000 14.000000 -1.000000 111.627003 29.100443 375.931387 452.630441 20.361410 0.000000 0.042365
549.000000 50.524000 3.000000 14.000000 -1.000000 118.949513 25.796701 454.775478 279.740990 19.789776 0.000000 0.030680
550.000000 51.358000 4.000000 14.000000 -1.000000 125.865487 21.832627 543.801891 102.756835 19.466600 0.000000 0.025366
551.000000 51.643000 5.000000 14.000000 -1.000000 132.260130 17.040133 645.119281 -81.889362 19.357225 0.000000 0.026385
552.000000 51.438000 6.000000 14.000000 -1.000000 138.015395 11.221835 761.461717 -278.303778 19.433149 0.000000 0.026314
556.000000 45.712000 2.000000 15.000000 -1.000000 110.922378 29.891704 356.310691 466.382562 21.875971 0.000000 0.040036
557.000000 47.021000 3.000000 15.000000 -1.000000 117.827395 26.918950 428.517080 303.838775 21.264425 0.000000 0.027931
558.000000 47.857000 4.000000 15.000000 -1.000000 124.399400 23.395094 509.355286 138.050923 20.891172 0.000000 0.023081
559.000000 48.237000 5.000000 15.000000 -1.000000 130.545494 19.186855 600.471528 -33.873640 20.724740 0.000000 0.026090
560.000000 48.200000 6.000000 15.000000 -1.000000 136.170629 14.134772 703.959051 -215.203437 20.738967 0.000000 0.029579
561.000000 47.799000 7.000000 15.000000 -1.000000 141.175188 8.063458 822.520920 -409.808656 20.911923 0.000000 0.025526
566.000000 139.228000 -1.000000 3.000000 0.000000 63.335824 45.800889 -131.812056 1716.261623 7.187906 0.000000 0.324347
567.000000 119.832000 -1.000000 4.000000 0.000000 72.106442 44.633800 -87.623426 1429.328024 8.350234 0.000000 0.243779
568.000000 160.970000 0.000000 4.000000 0.000000 99.963348 39.730686 80.469083 695.153720 6.213339 0.000000 0.081189
569.000000 182.265000 1.000000 4.000000 0.000000 127.068200 30.810570 333.130691 -5.663265 5.485038 0.000000 0.067489
573.000000 103.149000 -1.000000 5.000000 0.000000 77.538631 43.842475 -58.661815 1270.772576 9.699941 0.000000 0.203145
574.000000 144.013000 1.000000 5.000000 0.000000 121.921177 33.117048 272.916156 140.473129 6.942474 0.000000 0.053694
576.000000 89.903000 -1.000000 6.000000 0.000000 81.216559 43.270801 -38.213347 1169.396642 11.128368 0.000000 0.178701
577.000000 118.635000 1.000000 6.000000 0.000000 118.391152 34.478469 235.878781 235.300805 8.428005 0.000000 0.046626
578.000000 122.571000 2.000000 6.000000 0.000000 135.160400 26.080422 448.184833 -264.036854 8.155452 0.000000 0.087742
580.000000 64.706000 -2.000000 7.000000 0.000000 68.300227 45.155466 -107.151008 1548.364397 15.465013 0.000000 0.276153
581.000000 79.417000 -1.000000 7.000000 0.000000 83.866131 42.838550 -23.005403 1098.739716 12.597261 0.000000 0.162379
582.000000 100.686000 1.000000 7.000000 0.000000 115.828482 35.375971 210.796614 302.074379 9.930863 0.000000 0.043961
583.000000 104.724000 2.000000 7.000000 0.000000 130.618015 28.935270 379.988888 -113.750811 9.545889 0.000000 0.077267
586.000000 71.002000 -1.000000 8.000000 0.000000 85.863467 42.500297 -11.252250 1046.577548 14.089697 0.000000 0.150708
587.000000 87.367000 1.000000 8.000000 0.000000 113.886656 36.011875 192.685565 351.741773 11.445158 0.000000 0.043773
589.000000 55.518000 -2.000000 9.000000 0.000000 75.110623 44.203477 -71.777531 1340.189221 18.022459 0.000000 0.220578
590.000000 64.139000 -1.000000 9.000000 0.000000 87.421985 42.228403 -1.896726 1006.445337 15.597035 0.000000 0.141948
591.000000 77.113000 1.000000 9.000000 0.000000 112.365796 36.485899 178.993989 390.175108 12.967399 0.000000 0.044812
592.000000 80.506000 2.000000 9.000000 0.000000 124.232346 32.134039 298.950496 76.176932 12.418510 0.000000 0.059618
594.000000 58.451000 -1.000000 10.000000 0.000000 88.671479 42.005096 5.726930 974.590471 17.114401 0.000000 0.135134
595.000000 68.986000 1.000000 10.000000 0.000000 111.143041 36.852830 168.280129 420.820484 14.495384 0.000000 0.046381
596.000000 73.412000 3.000000 10.000000 0.000000 132.004836 28.124321 399.725117 -158.030168 13.617088 0.000000 0.080815
597.000000 48.067000 -2.000000 11.000000 0.000000 79.539824 43.535315 -47.626645 1215.095706 20.814945 0.000000 0.189570
598.000000 53.669000 -1.000000 11.000000 0.000000 89.695298 41.818425 12.058877 948.680317 18.638838 0.000000 0.129683
599.000000 62.391000 1.000000 11.000000 0.000000 110.138900 37.145256 159.667845 445.838797 16.027656 0.000000 0.048123
600.000000 65.072000 2.000000 11.000000 0.000000 120.004578 33.875588 252.425727 192.413945 15.365120 0.000000 0.049465
601.000000 66.531000 3.000000 11.000000 0.000000 129.340448 29.641396 362.550757 -74.036031 15.026136 0.000000 0.073827
602.000000 66.842000 4.000000 11.000000 0.000000 137.923478 24.016823 495.424209 -364.130515 14.954626 0.000000 0.091781
605.000000 49.598000 -1.000000 12.000000 0.000000 90.549365 41.660061 17.401765 927.186521 20.168447 0.000000 0.125223
606.000000 56.937000 1.000000 12.000000 0.000000 109.299741 37.383765 152.594016 466.656002 17.563213 0.000000 0.049865
608.000000 46.093000 -1.000000 13.000000 0.000000 91.272575 41.524021 21.970544 909.064897 21.701955 0.000000 0.121508
609.000000 52.353000 1.000000 13.000000 0.000000 108.588097 37.582005 146.680209 484.252109 19.101340 0.000000 0.051530
610.000000 54.473000 2.000000 13.000000 0.000000 117.015204 34.969047 222.236834 271.342007 18.355423 0.000000 0.044879
611.000000 55.852000 3.000000 13.000000 0.000000 125.111449 31.738491 309.267834 51.180957 17.900159 0.000000 0.062018
612.000000 56.505000 4.000000 13.000000 0.000000 132.743253 27.672077 410.601819 -182.146619 17.691350 0.000000 0.082600
616.000000 48.447000 1.000000 14.000000 0.000000 107.977021 37.749375 141.662703 499.323374 20.641520 0.000000 0.053087
617.000000 51.646000 3.000000 14.000000 0.000000 123.411065 32.492480 289.523499 99.250606 19.358347 0.000000 0.057437
618.000000 52.528000 5.000000 14.000000 0.000000 137.340343 24.476844 485.029664 -342.354650 19.029635 0.000000 0.091133
619.000000 46.782000 2.000000 15.000000 0.000000 114.794827 35.718925 201.064903 328.602491 21.373677 0.000000 0.043651
620.000000 48.745000 4.000000 15.000000 0.000000 128.738961 29.961242 354.571593 -55.667881 20.508910 0.000000 0.072169
623.000000 45.925000 5.000000 16.000000 0.000000 133.201719 27.383677 417.490999 -197.321296 21.766929 0.000000 0.083663
642.000000 73.792000 -1.000000 8.000000 1.000000 90.710861 51.711294 -388.377365 919.448027 13.555333 0.000000 0.314615
643.000000 82.805000 0.000000 8.000000 1.000000 105.117092 50.278048 -320.392551 486.035224 12.076996 0.000000 0.278593
647.000000 57.993000 -2.000000 9.000000 1.000000 79.277603 51.623632 -384.096609 1269.279096 17.251592 0.000000 0.351513
648.000000 66.410000 -1.000000 9.000000 1.000000 91.840067 50.502394 -330.760528 886.637059 15.061943 0.000000 0.279687
649.000000 73.489000 0.000000 9.000000 1.000000 104.644679 49.059381 -265.729651 511.791751 13.608175 0.000000 0.245383
653.000000 53.612000 -2.000000 10.000000 1.000000 81.380488 50.644217 -337.365697 1198.278661 18.660806 0.000000 0.315682
654.000000 60.335000 -1.000000 10.000000 1.000000 92.728872 49.512937 -285.755015 861.988457 16.578358 0.000000 0.253445
655.000000 66.038000 0.000000 10.000000 1.000000 104.247763 48.091362 -224.185837 531.835644 15.143632 0.000000 0.220990
656.000000 70.350000 1.000000 10.000000 1.000000 115.685934 46.253982 -149.468092 192.355206 14.213015 0.000000 0.222381
659.000000 49.773000 -2.000000 11.000000 1.000000 83.103456 49.812297 -299.176903 1142.737652 20.099722 0.000000 0.287919
660.000000 55.257000 -1.000000 11.000000 1.000000 93.445626 48.688603 -249.628680 842.834882 18.101785 0.000000 0.233061
661.000000 59.948000 0.000000 11.000000 1.000000 103.910639 47.304292 -191.544262 547.892513 16.682237 0.000000 0.202395
662.000000 63.593000 1.000000 11.000000 1.000000 114.307237 45.559168 -122.509789 246.700684 15.723364 0.000000 0.199881
666.000000 46.401000 -2.000000 12.000000 1.000000 84.539389 49.097172 -267.384200 1098.135106 21.560017 0.000000 0.265822
667.000000 50.953000 -1.000000 12.000000 1.000000 94.035274 47.991511 -219.989784 827.546484 19.630400 0.000000 0.216801
668.000000 54.879000 0.000000 12.000000 1.000000 103.621304 46.652000 -165.220407 561.052323 18.223226 0.000000 0.187804
669.000000 57.999000 1.000000 12.000000 1.000000 113.148563 44.997741 -101.209429 290.265341 17.240234 0.000000 0.182542
670.000000 60.205000 2.000000 12.000000 1.000000 122.464935 42.907080 -25.402225 6.135922 16.606349 0.000000 0.197836
673.000000 47.263000 -1.000000 13.000000 1.000000 94.528503 47.394477 -195.234818 815.074391 21.162960 0.000000 0.203552
674.000000 50.596000 0.000000 13.000000 1.000000 103.370589 46.102731 -143.541936 572.038792 19.766064 0.000000 0.176086
675.000000 53.295000 1.000000 13.000000 1.000000 112.161620 44.534739 -83.954967 326.001170 18.762245 0.000000 0.168857
676.000000 55.279000 2.000000 13.000000 1.000000 120.780792 42.594601 -14.516149 70.115329 18.086570 0.000000 0.180215
680.000000 46.930000 0.000000 14.000000 1.000000 103.151435 45.633945 -125.378890 581.351965 21.310364 0.000000 0.166494
681.000000 49.287000 1.000000 14.000000 1.000000 111.311154 44.146412 -69.693638 355.864786 20.288383 0.000000 0.157845
682.000000 51.074000 2.000000 14.000000 1.000000 119.328614 42.338057 -5.660037 122.942200 19.575925 0.000000 0.165985
683.000000 52.266000 3.000000 14.000000 1.000000 127.107867 40.097653 68.751424 -123.422075 19.127404 0.000000 0.184419
686.000000 45.832000 1.000000 15.000000 1.000000 110.570870 43.816071 -57.708774 381.206461 21.817881 0.000000 0.148841
687.000000 47.447000 2.000000 15.000000 1.000000 118.064021 42.123671 1.685488 167.344474 21.072802 0.000000 0.154329
688.000000 48.579000 3.000000 15.000000 1.000000 125.358926 40.064215 69.824331 -56.907181 20.579886 0.000000 0.170131
#UB matrix in q= (UB) B0 G* 
#[[-0.617159239 -0.765435056 -0.17875104 ]
# [-0.684425482  0.411102408  0.602586209]
# [-0.388170365  0.494667734 -0.778380313]]
#B0 matrix in q= UB (B0) G*
#[[ 0.19670273 -0.          0.03056101]
# [ 0.          0.19187965 -0.        ]
# [ 0.          0.          0.18806537]]
#UBB0 matrix in q= (UB B0) G* i.e. recip. basis vectors are columns in LT frame: astar = UBB0[:,0], bstar = UBB0[:,1], cstar = UBB0[:,2]. (abcstar as columns on xyzlab1, xlab1 = ui, ui = unit vector along incident beam)
#[[-0.12139691 -0.14687141 -0.05247789]
# [-0.13462836  0.07888219  0.09240887]
# [-0.07635417  0.09491667 -0.15824926]]
#Euler angles phi theta psi (deg)
#[218.138 141.056  16.548]
#deviatoric strain in direct crystal frame (10-3 unit)
#[[-0.54  0.45  0.11]
# [ 0.45 -0.33  0.61]
# [ 0.11  0.61  0.87]]
#deviatoric strain in sample2 frame (10-3 unit)
#[[ 0.53 -0.87 -0.14]
# [-0.87 -0.03 -0.34]
# [-0.14 -0.34 -0.5 ]]
#new lattice parameters
#[ 5.1505     5.2126967  5.3148397 89.9717815 99.2277642 89.9485814]
#CCDLabel
#sCMOS
#DetectorParameters
#[79.0, 975.0, 941.0, 0.0, 0.0]
#pixelsize
#0.0734
#Frame dimensions
#[2018, 2016]
#
