#Strain and Orientation Refinement from experimental file: /home/micha/LaueProjects/DepthEffects/testZrO2_62.cor
#File created at Wed Jun 28 14:22:16 2023 with indexingSpotsSet.py
#Number of indexed spots: 514
#Element
#ZrO2
#grainIndex
#G_0
#Mean Deviation(pixel): 0.117
##spot_index intensity h k l 2theta Chi Xexp Yexp Energy GrainIndex PixDev
5.000000 47.310000 12.000000 0.000000 -10.000000 109.550482 49.630957 -291.026780 350.914436 21.133088 0.000000 0.274052
8.000000 46.632000 13.000000 1.000000 -10.000000 116.383211 44.173252 -70.673293 196.636789 21.438263 0.000000 0.183624
10.000000 48.076000 13.000000 2.000000 -10.000000 123.703965 42.951094 -26.944454 -39.833141 20.791709 0.000000 0.210650
13.000000 46.318000 14.000000 3.000000 -10.000000 128.758458 36.446163 180.148116 -133.169765 21.579528 0.000000 0.147948
21.000000 48.882000 11.000000 -1.000000 -9.000000 100.828040 49.224136 -272.961347 625.796293 20.456246 0.000000 0.239210
22.000000 46.116000 12.000000 -1.000000 -9.000000 100.660873 44.828257 -94.861206 655.325759 21.683447 0.000000 0.146045
25.000000 51.026000 12.000000 1.000000 -9.000000 116.793104 42.553336 -13.086746 203.181271 19.592004 0.000000 0.155583
26.000000 47.859000 13.000000 1.000000 -9.000000 115.310325 38.034287 133.069034 294.768386 20.888880 0.000000 0.075917
28.000000 52.678000 12.000000 2.000000 -9.000000 124.737625 40.999694 39.401761 -47.862688 18.975261 0.000000 0.183905
29.000000 49.381000 13.000000 2.000000 -9.000000 122.716607 36.112602 189.790036 85.147451 20.242712 0.000000 0.096650
30.000000 46.314000 14.000000 2.000000 -9.000000 120.624925 32.010858 302.173063 189.596561 21.584228 0.000000 0.035636
33.000000 50.418000 13.000000 3.000000 -9.000000 129.925082 33.725954 256.496332 -141.986194 19.824700 0.000000 0.123855
34.000000 47.307000 14.000000 3.000000 -9.000000 127.336277 29.407384 368.356594 -1.424914 21.129220 0.000000 0.060350
37.000000 47.891000 14.000000 4.000000 -9.000000 133.776560 26.198365 445.435703 -208.356459 20.869720 0.000000 0.083223
47.000000 49.337000 5.000000 -1.000000 -4.000000 90.343800 48.824345 -255.495620 931.190449 10.135696 0.000000 0.234198
48.000000 46.517000 11.000000 -2.000000 -8.000000 90.768278 44.488182 -82.235140 920.768745 21.500364 0.000000 0.153370
50.000000 53.750000 10.000000 -1.000000 -8.000000 99.760137 48.159072 -227.040473 663.459902 18.603971 0.000000 0.212835
51.000000 50.350000 11.000000 -1.000000 -8.000000 99.543392 43.439221 -44.197439 691.796159 19.860638 0.000000 0.123185
52.000000 47.132000 12.000000 -1.000000 -8.000000 99.036376 39.310200 93.743325 719.773770 21.216852 0.000000 0.075679
54.000000 57.531000 5.000000 0.000000 -4.000000 109.299188 47.337099 -192.885317 384.847059 8.689289 0.000000 0.216051
55.000000 53.654000 11.000000 0.000000 -8.000000 108.403774 42.164142 0.302644 457.861597 18.634695 0.000000 0.111762
56.000000 50.030000 6.000000 0.000000 -4.000000 107.256355 37.719863 142.549073 518.339693 9.992582 0.000000 0.050152
57.000000 46.690000 13.000000 0.000000 -8.000000 105.975576 33.903825 251.655956 569.752757 21.415525 0.000000 0.039750
60.000000 56.299000 11.000000 1.000000 -8.000000 117.230962 40.582790 53.064878 211.704644 17.756963 0.000000 0.124645
61.000000 52.384000 12.000000 1.000000 -8.000000 115.425278 35.786885 199.126548 310.273193 19.084454 0.000000 0.047219
62.000000 48.792000 13.000000 1.000000 -8.000000 113.540667 31.756958 308.788112 389.546215 20.490263 0.000000 0.013056
63.000000 45.521000 14.000000 1.000000 -8.000000 111.660059 28.354710 394.148869 455.285380 21.963486 0.000000 0.047817
65.000000 58.199000 11.000000 2.000000 -8.000000 125.901765 38.573323 116.625728 -55.606340 17.175029 0.000000 0.154688
66.000000 54.128000 6.000000 1.000000 -4.000000 123.433848 33.393396 265.492662 89.894075 9.233664 0.000000 0.069719
67.000000 50.392000 13.000000 2.000000 -8.000000 120.944824 29.159360 374.480925 202.059546 19.837649 0.000000 0.014236
68.000000 46.988000 7.000000 1.000000 -4.000000 118.521900 25.669419 457.721879 292.040190 10.637802 0.000000 0.033550
71.000000 55.236000 12.000000 3.000000 -8.000000 131.169181 30.364883 344.428327 -149.839655 18.095031 0.000000 0.098655
72.000000 51.464000 13.000000 3.000000 -8.000000 128.087289 25.967389 450.814308 2.739392 19.422078 0.000000 0.040577
73.000000 48.017000 14.000000 3.000000 -8.000000 125.137540 22.449752 530.289756 121.400164 20.817620 0.000000 0.025122
76.000000 52.017000 13.000000 4.000000 -8.000000 134.861831 21.979291 540.601340 -214.066995 19.213884 0.000000 0.062304
77.000000 48.609000 7.000000 2.000000 -4.000000 131.413991 18.546432 613.906840 -60.352269 10.280970 0.000000 0.028776
78.000000 45.493000 15.000000 4.000000 -8.000000 128.203228 15.838978 669.648441 60.511833 21.971523 0.000000 0.036678
81.000000 48.788000 14.000000 5.000000 -8.000000 137.251369 13.766466 711.304615 -257.822083 20.485215 0.000000 0.036651
82.000000 45.752000 15.000000 5.000000 -8.000000 133.651495 11.371223 758.543496 -106.346404 21.845378 0.000000 0.024219
85.000000 45.685000 15.000000 6.000000 -8.000000 138.616027 6.035849 861.196001 -287.314243 21.876032 0.000000 0.016101
91.000000 47.798000 9.000000 -3.000000 -7.000000 77.744723 48.431443 -238.600222 1293.350659 20.928623 0.000000 0.269088
94.000000 53.979000 9.000000 -2.000000 -7.000000 87.905191 47.731531 -209.140421 999.531009 18.528824 0.000000 0.216930
95.000000 50.551000 10.000000 -2.000000 -7.000000 88.440923 43.082687 -31.568543 981.108928 19.785526 0.000000 0.141413
96.000000 47.267000 11.000000 -2.000000 -7.000000 88.598309 39.014491 102.983285 974.894854 21.160625 0.000000 0.106024
98.000000 59.647000 9.000000 -1.000000 -7.000000 98.407092 46.868704 -173.894637 708.330944 16.765217 0.000000 0.184527
99.000000 55.379000 10.000000 -1.000000 -7.000000 98.132094 41.783274 13.247064 734.750056 18.057703 0.000000 0.101950
100.000000 51.398000 11.000000 -1.000000 -7.000000 97.534463 37.411955 151.754999 761.775950 19.456690 0.000000 0.070355
101.000000 47.751000 12.000000 -1.000000 -7.000000 96.747554 33.655530 258.407227 788.016335 20.943126 0.000000 0.075843
103.000000 68.138000 9.000000 1.000000 -7.000000 119.723577 44.361256 -77.560412 81.501742 14.670981 0.000000 0.208857
104.000000 62.728000 10.000000 1.000000 -7.000000 117.683635 38.140576 129.845980 223.038675 15.936803 0.000000 0.090487
105.000000 57.787000 11.000000 1.000000 -7.000000 115.457719 33.069653 274.184620 329.560079 17.300361 0.000000 0.016801
106.000000 53.333000 12.000000 1.000000 -7.000000 113.206952 28.917470 380.425398 413.814026 18.746001 0.000000 0.035844
107.000000 49.347000 13.000000 1.000000 -7.000000 111.020862 25.488743 461.893504 482.803271 20.261241 0.000000 0.070773
108.000000 45.790000 14.000000 1.000000 -7.000000 108.945141 22.628722 526.348782 540.741568 21.836009 0.000000 0.096071
110.000000 64.923000 10.000000 2.000000 -7.000000 127.203338 35.487481 207.641517 -62.448957 15.396015 0.000000 0.122989
111.000000 59.796000 11.000000 2.000000 -7.000000 124.150360 30.045193 352.468758 97.584390 16.716867 0.000000 0.042387
112.000000 55.168000 12.000000 2.000000 -7.000000 121.165192 25.742870 456.022365 218.344477 18.120053 0.000000 0.021099
113.000000 51.022000 13.000000 2.000000 -7.000000 118.335873 22.292442 533.745386 313.722872 19.593646 0.000000 0.056547
114.000000 47.319000 14.000000 2.000000 -7.000000 115.698932 19.482652 594.230919 391.580909 21.127916 0.000000 0.084462
117.000000 60.953000 11.000000 3.000000 -7.000000 132.453071 26.140001 446.796800 -155.802124 16.397502 0.000000 0.072883
118.000000 56.314000 12.000000 3.000000 -7.000000 128.760156 21.790791 544.713654 10.371199 17.749489 0.000000 0.027119
119.000000 52.134000 13.000000 3.000000 -7.000000 125.318749 18.428288 616.374257 137.193115 19.173423 0.000000 0.041061
120.000000 48.386000 14.000000 3.000000 -7.000000 122.152516 15.767884 671.090926 238.013312 20.659792 0.000000 0.068732
123.000000 56.788000 12.000000 4.000000 -7.000000 135.843699 16.791394 650.223994 -216.834667 17.599662 0.000000 0.041882
124.000000 52.693000 13.000000 4.000000 -7.000000 131.844878 13.711376 712.401338 -51.109228 18.968494 0.000000 0.027384
125.000000 48.993000 14.000000 4.000000 -7.000000 128.202002 11.356257 758.835999 77.064708 20.401831 0.000000 0.049281
126.000000 45.661000 15.000000 4.000000 -7.000000 124.894691 9.502855 794.834972 179.870262 21.891829 0.000000 0.072790
129.000000 52.734000 13.000000 5.000000 -7.000000 137.780424 7.914567 825.372908 -256.580070 18.952096 0.000000 0.019409
130.000000 49.165000 14.000000 5.000000 -7.000000 133.738945 6.101191 859.954701 -94.796748 20.328969 0.000000 0.026473
131.000000 45.924000 15.000000 5.000000 -7.000000 130.087519 4.714231 886.243354 32.001566 21.764742 0.000000 0.049596
134.000000 48.943000 14.000000 6.000000 -7.000000 138.649835 -0.146754 977.756764 -281.962934 20.419975 0.000000 0.000400
135.000000 45.848000 15.000000 6.000000 -7.000000 134.745912 -0.840758 990.794670 -125.905184 21.799359 0.000000 0.022649
138.000000 45.472000 15.000000 7.000000 -7.000000 138.781094 -7.230152 1111.543073 -297.470370 21.978463 0.000000 0.019962
143.000000 51.275000 8.000000 -3.000000 -6.000000 73.423215 47.312167 -191.866020 1413.538020 19.510848 0.000000 0.268956
144.000000 48.396000 3.000000 -1.000000 -2.000000 75.054315 42.732914 -19.321138 1332.135696 6.890465 0.000000 0.190136
145.000000 45.486000 10.000000 -3.000000 -6.000000 76.168610 38.724251 111.977489 1280.656749 21.994047 0.000000 0.147199
147.000000 63.626000 7.000000 -2.000000 -6.000000 83.402803 52.199025 -412.501451 1144.090195 15.720553 0.000000 0.337893
148.000000 59.397000 4.000000 -1.000000 -3.000000 84.788292 46.410412 -155.631663 1083.384232 8.419833 0.000000 0.202151
149.000000 55.176000 9.000000 -2.000000 -6.000000 85.499931 41.410501 25.768332 1053.944860 18.128076 0.000000 0.133889
150.000000 51.172000 5.000000 -1.000000 -3.000000 85.760383 37.110378 160.698529 1041.048770 9.773311 0.000000 0.107816
151.000000 47.479000 11.000000 -2.000000 -6.000000 85.726626 33.412122 264.987917 1037.347159 21.067354 0.000000 0.105074
153.000000 72.704000 7.000000 -1.000000 -6.000000 96.364900 51.785593 -392.018626 746.921466 13.754604 0.000000 0.304623
154.000000 66.909000 8.000000 -1.000000 -6.000000 96.642245 45.274928 -111.673143 762.891800 14.946169 0.000000 0.155267
155.000000 61.417000 9.000000 -1.000000 -6.000000 96.303164 39.779073 78.931212 786.307122 16.283029 0.000000 0.086290
156.000000 56.393000 10.000000 -1.000000 -6.000000 95.606991 35.157974 216.939609 811.757871 17.733934 0.000000 0.075942
157.000000 51.884000 11.000000 -1.000000 -6.000000 94.721356 31.265786 321.482788 837.005348 19.275997 0.000000 0.091155
158.000000 47.872000 12.000000 -1.000000 -6.000000 93.750511 27.971246 403.416833 861.114302 20.892070 0.000000 0.108020
160.000000 73.228000 8.000000 0.000000 -6.000000 108.737496 43.802685 -57.225932 435.143421 13.653521 0.000000 0.141197
161.000000 60.855000 10.000000 0.000000 -6.000000 105.533572 32.754400 282.587397 585.277068 16.430988 0.000000 0.046453
162.000000 55.677000 11.000000 0.000000 -6.000000 103.746052 28.681495 386.197820 640.887657 17.959755 0.000000 0.078418
163.000000 51.125000 4.000000 0.000000 -2.000000 101.990865 25.312171 465.958286 688.128152 6.519940 0.000000 0.103546
164.000000 47.128000 13.000000 0.000000 -6.000000 100.317519 22.496842 529.253808 728.925461 21.219250 0.000000 0.121551
166.000000 77.885000 8.000000 1.000000 -6.000000 120.784880 41.820980 11.972464 80.576177 12.834721 0.000000 0.168545
167.000000 70.714000 9.000000 1.000000 -6.000000 118.118126 35.047420 220.042350 238.494326 14.136981 0.000000 0.052857
168.000000 64.319000 10.000000 1.000000 -6.000000 115.338367 29.735146 360.217271 354.073911 15.543585 0.000000 0.017792
169.000000 58.687000 11.000000 1.000000 -6.000000 112.632632 25.524546 461.067860 443.729334 17.036022 0.000000 0.063387
170.000000 53.756000 12.000000 1.000000 -6.000000 110.087335 22.139098 537.106422 516.072798 18.599911 0.000000 0.094429
171.000000 49.441000 13.000000 1.000000 -6.000000 107.734880 19.375859 596.486610 576.122879 20.223916 0.000000 0.116124
172.000000 45.661000 14.000000 1.000000 -6.000000 105.580050 17.087668 644.142206 627.037716 21.898979 0.000000 0.131582
173.000000 73.250000 9.000000 2.000000 -6.000000 128.628219 31.458954 316.506138 -67.262959 13.645518 0.000000 0.089203
174.000000 66.642000 5.000000 1.000000 -3.000000 124.801356 25.854339 453.439144 109.710809 7.499696 0.000000 0.021300
175.000000 60.805000 11.000000 2.000000 -6.000000 121.197876 21.608204 548.686679 239.961169 16.440291 0.000000 0.046017
176.000000 55.681000 6.000000 1.000000 -3.000000 117.888527 18.313462 618.769140 341.019406 8.977197 0.000000 0.079662
177.000000 51.190000 13.000000 2.000000 -6.000000 114.884558 15.698587 672.495955 422.409101 19.530657 0.000000 0.104381
178.000000 47.250000 7.000000 1.000000 -3.000000 112.170958 13.581020 714.994384 489.792431 10.580077 0.000000 0.122496
180.000000 67.798000 10.000000 3.000000 -6.000000 133.687454 20.738531 567.474918 -158.306716 14.741941 0.000000 0.047814
181.000000 62.000000 11.000000 3.000000 -6.000000 129.246451 16.674730 652.613588 23.145268 16.121459 0.000000 0.030311
182.000000 56.871000 4.000000 1.000000 -2.000000 125.234434 13.658009 713.463249 158.666293 5.858916 0.000000 0.059441
183.000000 52.347000 13.000000 3.000000 -6.000000 121.635861 11.341704 759.120376 264.723907 19.096917 0.000000 0.086134
184.000000 48.358000 14.000000 3.000000 -6.000000 118.413857 9.512782 794.643263 350.594607 20.673063 0.000000 0.106897
187.000000 62.315000 11.000000 4.000000 -6.000000 136.568245 10.379102 777.868806 -214.798525 16.038513 0.000000 0.023226
188.000000 57.346000 6.000000 2.000000 -3.000000 131.957151 7.956053 824.578449 -36.047765 8.714602 0.000000 0.034451
189.000000 52.921000 13.000000 4.000000 -6.000000 127.854262 6.164565 858.750473 99.641675 18.887777 0.000000 0.061512
190.000000 48.988000 7.000000 2.000000 -3.000000 124.200091 4.788663 884.835514 206.986510 10.202659 0.000000 0.084743
191.000000 45.493000 15.000000 4.000000 -6.000000 120.936967 3.699926 905.400564 294.560271 21.974411 0.000000 0.103485
194.000000 57.173000 12.000000 5.000000 -6.000000 137.879781 0.969215 956.791677 -249.484104 17.480769 0.000000 0.004498
195.000000 52.955000 13.000000 5.000000 -6.000000 133.402933 0.023798 974.552949 -76.905368 18.874313 0.000000 0.031069
196.000000 49.166000 14.000000 5.000000 -6.000000 129.421637 -0.682059 987.813006 56.178328 20.329859 0.000000 0.056262
197.000000 45.769000 15.000000 5.000000 -6.000000 125.867724 -1.229019 998.090516 162.637440 21.839915 0.000000 0.077818
199.000000 52.512000 13.000000 6.000000 -6.000000 138.145987 -7.191920 1110.813385 -270.016034 19.032363 0.000000 0.018155
200.000000 48.936000 7.000000 3.000000 -3.000000 133.974332 -6.965876 1106.501691 -105.156038 10.211949 0.000000 0.025299
201.000000 45.697000 5.000000 2.000000 -2.000000 130.236269 -6.793942 1103.224916 23.852143 7.290944 0.000000 0.046752
204.000000 48.356000 14.000000 7.000000 -6.000000 137.763951 -14.072337 1244.794072 -281.165211 20.668111 0.000000 0.039947
210.000000 54.644000 7.000000 -3.000000 -5.000000 67.837111 45.961955 -138.055354 1571.688999 18.309669 0.000000 0.277142
211.000000 51.468000 8.000000 -3.000000 -5.000000 70.024216 41.045596 37.886862 1459.735917 19.439279 0.000000 0.194781
212.000000 48.179000 9.000000 -3.000000 -5.000000 71.550529 36.814957 169.390726 1389.512522 20.766118 0.000000 0.150699
214.000000 70.887000 6.000000 -2.000000 -5.000000 78.809718 51.168233 -362.121309 1280.569595 14.111360 0.000000 0.327957
215.000000 65.655000 7.000000 -2.000000 -5.000000 80.680149 44.783070 -93.174983 1189.856189 15.235822 0.000000 0.192241
216.000000 60.409000 8.000000 -2.000000 -5.000000 81.684970 39.391620 91.185517 1144.542113 16.558917 0.000000 0.131916
217.000000 55.490000 9.000000 -2.000000 -5.000000 82.134282 34.854303 225.442163 1122.197179 18.027188 0.000000 0.113165
218.000000 51.025000 10.000000 -2.000000 -5.000000 82.235404 31.028172 327.576669 1112.261647 19.604779 0.000000 0.113006
219.000000 47.038000 11.000000 -2.000000 -5.000000 82.122822 27.785371 407.885545 1109.318328 21.266745 0.000000 0.118261
220.000000 83.852000 6.000000 -1.000000 -5.000000 93.901937 50.524916 -331.806810 825.527272 11.926405 0.000000 0.270441
221.000000 76.008000 7.000000 -1.000000 -5.000000 94.254606 43.260099 -37.834200 831.052245 13.157458 0.000000 0.127909
222.000000 68.733000 8.000000 -1.000000 -5.000000 93.857586 37.310734 154.764771 849.753291 14.550493 0.000000 0.082392
223.000000 62.254000 9.000000 -1.000000 -5.000000 93.068254 32.447325 290.715187 872.635317 16.065437 0.000000 0.090699
224.000000 56.588000 10.000000 -1.000000 -5.000000 92.097723 28.451230 391.805556 896.161445 17.674430 0.000000 0.108582
225.000000 51.670000 11.000000 -1.000000 -5.000000 91.065563 25.139567 469.920278 918.886535 19.357500 0.000000 0.123190
226.000000 47.404000 12.000000 -1.000000 -5.000000 90.037104 22.367714 532.092869 940.246300 21.099956 0.000000 0.133698
227.000000 90.720000 7.000000 1.000000 -5.000000 122.028919 38.355416 123.302453 82.393737 11.018693 0.000000 0.122200
228.000000 80.842000 8.000000 1.000000 -5.000000 118.457233 31.030918 327.506431 260.234865 12.365986 0.000000 0.012164
229.000000 72.317000 9.000000 1.000000 -5.000000 114.941793 25.578560 459.821308 386.058778 13.824722 0.000000 0.052099
230.000000 65.039000 10.000000 1.000000 -5.000000 111.676205 21.431258 552.527375 481.432102 15.372742 0.000000 0.091935
231.000000 58.839000 11.000000 1.000000 -5.000000 108.719397 18.201816 621.094641 557.077666 16.993393 0.000000 0.117924
232.000000 53.547000 12.000000 1.000000 -5.000000 106.071292 15.631022 673.864969 619.019895 18.673925 0.000000 0.135355
233.000000 49.008000 13.000000 1.000000 -5.000000 103.708373 13.543835 715.733556 670.951326 20.404405 0.000000 0.147241
234.000000 83.749000 8.000000 2.000000 -5.000000 130.105100 26.043651 449.040799 -67.935136 11.934614 0.000000 0.055037
235.000000 75.006000 9.000000 2.000000 -5.000000 125.253227 20.523969 572.076789 128.699217 13.326866 0.000000 0.032424
236.000000 67.494000 10.000000 2.000000 -5.000000 120.890742 16.562173 654.916319 269.215675 14.811232 0.000000 0.072191
237.000000 61.066000 11.000000 2.000000 -5.000000 117.030355 13.606288 714.491980 376.026343 16.371519 0.000000 0.102155
238.000000 55.559000 12.000000 2.000000 -5.000000 113.630384 11.327549 759.396962 460.743485 17.995121 0.000000 0.123294
239.000000 50.826000 13.000000 2.000000 -5.000000 110.634564 9.522466 794.456232 530.043742 19.672076 0.000000 0.138300
240.000000 46.737000 14.000000 2.000000 -5.000000 107.987162 8.059958 822.587977 588.071125 21.394407 0.000000 0.149032
242.000000 76.047000 9.000000 3.000000 -5.000000 134.678831 13.738700 711.857434 -154.642677 13.142640 0.000000 0.026994
243.000000 68.686000 10.000000 3.000000 -5.000000 129.353954 10.377617 777.897631 43.691297 14.552272 0.000000 0.044984
244.000000 62.312000 11.000000 3.000000 -5.000000 124.709049 7.996125 823.810930 188.167553 16.041985 0.000000 0.076977
245.000000 56.803000 12.000000 3.000000 -5.000000 120.656958 6.226061 857.581679 299.251113 17.599166 0.000000 0.101941
246.000000 52.033000 13.000000 3.000000 -5.000000 117.110042 4.861144 883.464262 388.005220 19.213719 0.000000 0.120690
247.000000 47.889000 14.000000 3.000000 -5.000000 113.990505 3.777696 903.933427 460.973616 20.877465 0.000000 0.134729
250.000000 68.706000 10.000000 4.000000 -5.000000 136.768062 2.480332 928.378132 -204.931030 14.546522 0.000000 0.010998
251.000000 62.627000 11.000000 4.000000 -5.000000 131.531358 1.144272 953.502122 -12.465534 15.959622 0.000000 0.042780
252.000000 57.300000 12.000000 4.000000 -5.000000 126.978933 0.188931 971.450937 130.569957 17.444541 0.000000 0.071302
253.000000 52.638000 13.000000 4.000000 -5.000000 123.000117 -0.527763 984.914248 242.013543 18.991030 0.000000 0.094243
254.000000 48.551000 14.000000 4.000000 -5.000000 119.502551 -1.085143 995.386720 331.889507 20.590705 0.000000 0.112281
256.000000 62.122000 11.000000 5.000000 -5.000000 137.273912 -7.141194 1109.845439 -233.414025 16.088111 0.000000 0.016721
257.000000 57.122000 12.000000 5.000000 -5.000000 132.430484 -6.891781 1105.089276 -50.002785 17.497471 0.000000 0.033657
258.000000 52.684000 13.000000 5.000000 -5.000000 128.177350 -6.709215 1101.611019 88.893319 18.972528 0.000000 0.059334
259.000000 48.751000 14.000000 5.000000 -5.000000 124.422744 -6.569800 1098.956634 198.542653 20.504714 0.000000 0.081610
262.000000 56.369000 12.000000 6.000000 -5.000000 136.863341 -15.036853 1264.134301 -248.405360 17.730207 0.000000 0.039478
263.000000 52.242000 13.000000 6.000000 -5.000000 132.529238 -13.694910 1237.270968 -75.141625 19.132098 0.000000 0.026880
264.000000 48.534000 14.000000 6.000000 -5.000000 128.662614 -12.683210 1217.221996 58.340289 20.594885 0.000000 0.044434
267.000000 51.391000 13.000000 7.000000 -5.000000 135.969773 -21.406000 1396.925131 -254.852057 19.447898 0.000000 0.065551
268.000000 47.959000 14.000000 7.000000 -5.000000 132.152843 -19.377561 1353.549328 -91.817435 20.840477 0.000000 0.033792
271.000000 47.091000 14.000000 8.000000 -5.000000 134.851913 -26.534011 1512.418468 -255.805319 21.223880 0.000000 0.092837
276.000000 57.141000 6.000000 -3.000000 -4.000000 60.394375 44.303209 -75.429299 1795.547504 17.511589 0.000000 0.300558
277.000000 53.970000 7.000000 -3.000000 -4.000000 63.461531 39.013363 103.018376 1632.793661 18.540045 0.000000 0.207244
278.000000 50.451000 8.000000 -3.000000 -4.000000 65.639632 34.557520 233.691444 1532.739558 19.833013 0.000000 0.156570
279.000000 46.964000 9.000000 -3.000000 -4.000000 67.197424 30.795655 333.510456 1467.763765 21.305585 0.000000 0.129786
280.000000 78.950000 5.000000 -2.000000 -4.000000 72.357082 49.834902 -300.197113 1471.716740 12.671586 0.000000 0.328537
281.000000 66.095000 7.000000 -2.000000 -4.000000 76.578189 36.912757 166.520596 1262.233398 15.135995 0.000000 0.134732
282.000000 60.057000 4.000000 -1.000000 -2.000000 77.381158 32.148132 298.581271 1225.586011 8.328866 0.000000 0.118607
283.000000 54.675000 9.000000 -2.000000 -4.000000 77.747714 28.226477 397.255554 1206.276760 18.297717 0.000000 0.117571
284.000000 49.961000 5.000000 -1.000000 -2.000000 77.852029 24.970802 473.783331 1196.570140 10.012314 0.000000 0.120578
285.000000 45.856000 11.000000 -2.000000 -4.000000 77.800082 22.241253 534.868185 1192.406528 21.817307 0.000000 0.123924
286.000000 87.586000 6.000000 -1.000000 -4.000000 90.868854 40.639668 51.210880 919.489557 11.419044 0.000000 0.109150
287.000000 77.624000 7.000000 -1.000000 -4.000000 90.459110 34.209251 243.297109 930.571204 12.884839 0.000000 0.092959
288.000000 69.075000 8.000000 -1.000000 -4.000000 89.620614 29.142348 374.899905 949.159745 14.479968 0.000000 0.109376
289.000000 61.857000 9.000000 -1.000000 -4.000000 88.618178 25.105511 470.700684 969.670993 16.170113 0.000000 0.124704
290.000000 55.781000 10.000000 -1.000000 -4.000000 87.584359 21.843730 543.559833 989.916542 17.932109 0.000000 0.135226
291.000000 50.649000 11.000000 -1.000000 -4.000000 86.582527 19.169501 600.836965 1009.046126 19.749757 0.000000 0.141983
292.000000 46.287000 12.000000 -1.000000 -4.000000 85.640563 16.946235 647.047868 1026.774327 21.611385 0.000000 0.146162
293.000000 87.276000 7.000000 0.000000 -4.000000 104.640412 30.619140 337.995938 614.281866 11.457062 0.000000 0.062812
294.000000 67.974000 9.000000 0.000000 -4.000000 99.519168 21.259701 556.242243 747.340744 14.712138 0.000000 0.128518
295.000000 60.783000 5.000000 0.000000 -2.000000 97.289900 18.093222 623.353732 796.154088 8.226821 0.000000 0.143634
296.000000 54.803000 11.000000 0.000000 -4.000000 95.306642 15.565124 675.199333 837.223462 18.249847 0.000000 0.152832
297.000000 49.785000 6.000000 0.000000 -2.000000 93.549969 13.507483 716.455930 872.329320 10.045010 0.000000 0.158369
298.000000 45.534000 13.000000 0.000000 -4.000000 91.993693 11.804255 750.066999 902.724146 21.966059 0.000000 0.161577
299.000000 82.214000 8.000000 1.000000 -4.000000 114.034661 20.317965 576.482971 429.176960 12.160662 0.000000 0.087760
300.000000 72.583000 9.000000 1.000000 -4.000000 110.102075 16.453509 657.136840 530.268526 13.775396 0.000000 0.120125
301.000000 64.667000 10.000000 1.000000 -4.000000 106.700925 13.556136 715.489060 608.823103 15.462683 0.000000 0.140082
302.000000 58.111000 11.000000 1.000000 -4.000000 103.764541 11.313775 759.666073 672.117892 17.208265 0.000000 0.152647
303.000000 52.629000 12.000000 1.000000 -4.000000 101.221320 9.531917 794.273708 724.482418 19.001389 0.000000 0.160602
304.000000 48.003000 13.000000 1.000000 -4.000000 99.006958 8.084515 822.117413 768.685240 20.833794 0.000000 0.165577
305.000000 75.435000 9.000000 2.000000 -4.000000 119.980404 10.376190 777.925325 309.769026 13.252323 0.000000 0.097195
306.000000 67.255000 5.000000 1.000000 -2.000000 115.526287 8.034853 823.069003 421.932116 7.432614 0.000000 0.122849
307.000000 60.442000 11.000000 2.000000 -4.000000 111.733785 6.285759 856.446779 509.360221 16.542071 0.000000 0.140161
308.000000 54.724000 6.000000 1.000000 -2.000000 108.481991 4.931750 882.128190 579.916310 9.135863 0.000000 0.151908
309.000000 49.884000 13.000000 2.000000 -4.000000 105.672116 3.853664 902.500039 638.348123 20.045509 0.000000 0.159887
310.000000 45.753000 7.000000 1.000000 -2.000000 103.225254 2.975533 919.054663 687.715442 10.928272 0.000000 0.165265
311.000000 86.003000 8.000000 3.000000 -4.000000 135.029899 4.637771 887.689267 -139.957442 11.621208 0.000000 0.020216
312.000000 76.517000 9.000000 3.000000 -4.000000 128.749143 2.652627 925.135085 76.282435 13.063044 0.000000 0.059596
313.000000 68.515000 10.000000 3.000000 -4.000000 123.467625 1.312939 950.332290 229.303765 14.589982 0.000000 0.091428
314.000000 61.759000 11.000000 3.000000 -4.000000 118.989776 0.348896 968.445953 344.640337 16.187199 0.000000 0.114821
315.000000 56.031000 12.000000 3.000000 -4.000000 115.159372 -0.377691 982.094987 435.455260 17.843128 0.000000 0.131798
316.000000 51.146000 13.000000 3.000000 -4.000000 111.853997 -0.944767 992.748937 509.277279 19.548606 0.000000 0.144099
317.000000 46.951000 14.000000 3.000000 -4.000000 108.977978 -1.399580 1001.296177 570.754373 21.296285 0.000000 0.153012
318.000000 76.021000 9.000000 4.000000 -4.000000 136.002025 -7.070655 1108.499772 -182.155669 13.147008 0.000000 0.017617
319.000000 62.113000 11.000000 4.000000 -4.000000 125.319056 -6.601470 1099.559489 173.313729 16.093379 0.000000 0.076427
320.000000 56.576000 6.000000 2.000000 -2.000000 121.090737 -6.459855 1096.864400 287.828039 8.834756 0.000000 0.099873
321.000000 51.798000 13.000000 4.000000 -4.000000 117.425521 -6.351293 1094.799377 379.044563 19.300691 0.000000 0.117830
322.000000 47.656000 7.000000 2.000000 -2.000000 114.224183 -6.265423 1093.166596 453.838223 10.489563 0.000000 0.131487
325.000000 67.541000 10.000000 5.000000 -4.000000 135.577912 -16.330669 1290.355937 -203.399131 14.797761 0.000000 0.038384
326.000000 61.620000 11.000000 5.000000 -4.000000 130.535811 -14.589205 1255.137128 -10.071949 16.220607 0.000000 0.031350
327.000000 56.430000 12.000000 5.000000 -4.000000 126.134462 -13.328330 1229.987172 133.408205 17.713742 0.000000 0.056600
328.000000 51.883000 13.000000 5.000000 -4.000000 122.275493 -12.374076 1211.128170 245.072304 19.267211 0.000000 0.080773
329.000000 47.895000 14.000000 5.000000 -4.000000 118.874619 -11.627103 1196.462110 335.041307 20.872856 0.000000 0.100302
332.000000 60.439000 11.000000 6.000000 -4.000000 134.505271 -23.488553 1442.730412 -212.440493 16.536660 0.000000 0.068456
333.000000 55.697000 6.000000 3.000000 -2.000000 130.183772 -20.911686 1386.248374 -32.114147 8.972780 0.000000 0.030534
334.000000 51.472000 13.000000 6.000000 -4.000000 126.317305 -18.969512 1344.957349 104.451098 19.419728 0.000000 0.035979
335.000000 47.714000 7.000000 3.000000 -2.000000 122.857818 -17.456459 1313.455284 212.276233 10.475355 0.000000 0.059490
338.000000 54.497000 12.000000 7.000000 -4.000000 133.182742 -29.026672 1572.254808 -214.197514 18.340064 0.000000 0.100890
339.000000 50.648000 13.000000 7.000000 -4.000000 129.498369 -26.026375 1500.557236 -46.296721 19.734616 0.000000 0.049906
340.000000 47.172000 14.000000 7.000000 -4.000000 126.126073 -23.682324 1447.064193 83.160625 21.190272 0.000000 0.023786
343.000000 49.499000 13.000000 8.000000 -4.000000 131.808523 -33.363817 1683.710515 -211.552294 20.192090 0.000000 0.133482
344.000000 46.333000 7.000000 4.000000 -2.000000 128.660780 -30.187310 1601.099141 -55.158169 10.786310 0.000000 0.075946
349.000000 54.677000 2.000000 -1.000000 -1.000000 54.652432 36.525519 177.842037 1890.986165 6.100982 0.000000 0.239108
350.000000 51.474000 7.000000 -3.000000 -3.000000 57.899428 31.856535 306.198090 1735.908291 19.441646 0.000000 0.171527
351.000000 48.009000 8.000000 -3.000000 -3.000000 60.266775 28.007047 402.554376 1637.275843 20.844429 0.000000 0.132636
354.000000 79.265000 5.000000 -2.000000 -3.000000 66.971526 40.078605 69.362739 1538.901215 12.622855 0.000000 0.199678
355.000000 71.559000 6.000000 -2.000000 -3.000000 69.479949 33.809914 254.214045 1425.829724 13.982159 0.000000 0.139271
356.000000 64.354000 7.000000 -2.000000 -3.000000 70.965921 28.858839 381.862066 1364.965727 15.547458 0.000000 0.118622
357.000000 58.016000 8.000000 -2.000000 -3.000000 71.847221 24.904343 475.301676 1330.063038 17.246086 0.000000 0.113390
358.000000 52.561000 9.000000 -2.000000 -3.000000 72.365528 21.701435 546.659272 1309.232621 19.035958 0.000000 0.113162
359.000000 47.894000 10.000000 -2.000000 -3.000000 72.661836 19.069776 602.935417 1296.525704 20.891015 0.000000 0.114210
360.000000 88.248000 6.000000 -1.000000 -3.000000 85.506004 30.222754 348.009427 1038.899748 11.334895 0.000000 0.110968
361.000000 76.764000 7.000000 -1.000000 -3.000000 84.768425 25.054712 471.863939 1049.784754 13.031000 0.000000 0.125108
362.000000 67.504000 8.000000 -1.000000 -3.000000 83.878982 21.093292 559.837368 1064.711218 14.819073 0.000000 0.134728
363.000000 60.000000 9.000000 -1.000000 -3.000000 82.979873 17.987556 625.549218 1080.346897 16.672799 0.000000 0.140238
364.000000 53.857000 10.000000 -1.000000 -3.000000 82.128840 15.500832 676.500348 1095.412537 18.575027 0.000000 0.143097
365.000000 48.767000 11.000000 -1.000000 -3.000000 81.346085 13.471938 717.162073 1109.445212 20.514102 0.000000 0.144333
366.000000 81.456000 8.000000 1.000000 -3.000000 107.511452 10.374819 777.951955 595.764843 12.275467 0.000000 0.145880
367.000000 71.219000 9.000000 1.000000 -3.000000 103.695791 8.072304 822.351409 676.086655 14.041067 0.000000 0.158946
368.000000 63.050000 10.000000 1.000000 -3.000000 100.537622 6.343737 855.344320 739.556095 15.861209 0.000000 0.166203
369.000000 56.425000 11.000000 1.000000 -3.000000 97.892157 5.000554 880.825962 791.231945 17.724564 0.000000 0.170035
370.000000 50.969000 12.000000 1.000000 -3.000000 95.650131 3.927890 901.099249 834.266874 19.622739 0.000000 0.171782
371.000000 46.414000 13.000000 1.000000 -3.000000 93.729317 3.052069 917.612970 870.746478 21.549381 0.000000 0.172232
372.000000 84.763000 8.000000 2.000000 -3.000000 118.013046 2.817540 922.030141 367.716779 11.794415 0.000000 0.118433
373.000000 74.244000 9.000000 2.000000 -3.000000 113.008751 1.475554 947.275761 483.794569 13.466696 0.000000 0.139795
374.000000 65.770000 10.000000 2.000000 -3.000000 108.899041 0.503929 965.533515 572.507984 15.202752 0.000000 0.153337
375.000000 58.855000 11.000000 2.000000 -3.000000 105.474866 -0.231674 979.351995 643.023139 16.990180 0.000000 0.161891
376.000000 53.137000 12.000000 2.000000 -3.000000 102.584137 -0.807765 990.174780 700.708699 18.819595 0.000000 0.167206
377.000000 48.350000 13.000000 2.000000 -3.000000 100.114889 -1.271067 998.880755 748.946952 20.683769 0.000000 0.170372
378.000000 85.534000 8.000000 3.000000 -3.000000 126.874472 -6.658769 1100.650377 128.161898 11.686372 0.000000 0.067214
379.000000 67.136000 10.000000 3.000000 -3.000000 116.311123 -6.320526 1094.214294 405.547515 14.891445 0.000000 0.122804
380.000000 60.264000 11.000000 3.000000 -3.000000 112.308138 -6.217498 1092.255561 496.788065 16.590853 0.000000 0.138715
381.000000 54.520000 4.000000 1.000000 -1.000000 108.914525 -6.138219 1090.748868 570.070645 6.113334 0.000000 0.149740
382.000000 49.672000 13.000000 3.000000 -3.000000 106.005800 -6.075327 1089.553919 630.515865 20.130779 0.000000 0.157360
383.000000 45.544000 14.000000 3.000000 -3.000000 103.488042 -6.024216 1088.583032 681.408613 21.956751 0.000000 0.162583
384.000000 84.166000 8.000000 4.000000 -3.000000 133.599716 -18.154777 1327.926453 -137.626912 11.875103 0.000000 0.035959
385.000000 74.994000 9.000000 4.000000 -3.000000 127.598687 -15.783296 1279.221710 79.708118 13.328625 0.000000 0.041103
386.000000 67.248000 10.000000 4.000000 -3.000000 122.524259 -14.156138 1246.467802 233.189923 14.864997 0.000000 0.073838
387.000000 60.700000 11.000000 4.000000 -3.000000 118.203848 -12.972166 1222.931444 348.686706 16.469924 0.000000 0.099684
388.000000 55.138000 12.000000 4.000000 -3.000000 114.495714 -12.072723 1205.201616 439.510184 18.132216 0.000000 0.118746
389.000000 50.388000 13.000000 4.000000 -3.000000 111.287009 -11.366568 1191.365519 513.261999 19.842997 0.000000 0.132725
390.000000 46.302000 14.000000 4.000000 -3.000000 108.488608 -10.797600 1180.267383 574.628336 21.595129 0.000000 0.142993
392.000000 73.255000 9.000000 5.000000 -3.000000 132.300682 -26.278678 1506.439484 -151.259512 13.643880 0.000000 0.071780
393.000000 66.305000 10.000000 5.000000 -3.000000 127.358635 -22.890061 1429.424495 49.107505 15.075183 0.000000 0.025737
394.000000 60.281000 11.000000 5.000000 -3.000000 123.019676 -20.431057 1375.934485 194.564636 16.582824 0.000000 0.044941
395.000000 55.064000 12.000000 5.000000 -3.000000 119.213217 -18.571574 1336.618692 306.091725 18.154977 0.000000 0.073392
396.000000 50.538000 13.000000 5.000000 -3.000000 115.865176 -17.119008 1306.502258 394.997322 19.782138 0.000000 0.095748
397.000000 46.597000 14.000000 5.000000 -3.000000 112.908195 -15.954349 1282.694577 467.952770 21.456581 0.000000 0.112786
398.000000 64.550000 10.000000 6.000000 -3.000000 130.737013 -32.224178 1653.413140 -154.749764 15.484077 0.000000 0.112270
399.000000 59.167000 11.000000 6.000000 -3.000000 126.677763 -28.423525 1557.521386 29.529785 16.894018 0.000000 0.046615
400.000000 54.401000 4.000000 2.000000 -1.000000 122.995167 -25.530682 1489.073706 166.554360 6.124989 0.000000 0.019969
401.000000 50.192000 13.000000 6.000000 -3.000000 119.676231 -23.265763 1437.763316 273.396410 19.916946 0.000000 0.045835
402.000000 46.474000 14.000000 6.000000 -3.000000 116.690528 -21.449598 1397.870258 359.637926 21.511758 0.000000 0.071188
404.000000 57.527000 11.000000 7.000000 -3.000000 129.178677 -36.675436 1776.527458 -152.644212 17.374823 0.000000 0.152428
405.000000 53.268000 12.000000 7.000000 -3.000000 125.821271 -32.778693 1668.057994 17.016812 18.764998 0.000000 0.079213
406.000000 49.433000 13.000000 7.000000 -3.000000 122.691370 -29.695321 1588.790922 145.832493 20.221655 0.000000 0.028350
407.000000 45.991000 14.000000 7.000000 -3.000000 119.804222 -27.208099 1528.332461 247.792973 21.736242 0.000000 0.019045
410.000000 48.348000 13.000000 8.000000 -3.000000 124.920056 -36.258377 1764.413595 9.164030 20.674831 0.000000 0.112727
416.000000 49.496000 6.000000 -3.000000 -2.000000 47.528889 28.583449 388.588569 2062.991036 20.221425 0.000000 0.228262
417.000000 46.979000 7.000000 -3.000000 -2.000000 51.230594 24.708455 479.767492 1892.533187 21.304488 0.000000 0.162962
419.000000 74.618000 5.000000 -2.000000 -2.000000 59.173563 29.840946 357.578583 1681.449596 13.411384 0.000000 0.149413
420.000000 66.957000 3.000000 -1.000000 -1.000000 62.025936 24.805752 477.551106 1570.755161 7.472785 0.000000 0.110527
421.000000 60.070000 7.000000 -2.000000 -2.000000 63.904903 20.931806 563.318448 1505.404040 16.658735 0.000000 0.094894
422.000000 54.147000 4.000000 -1.000000 -1.000000 65.194022 17.884702 627.683748 1463.713433 9.240495 0.000000 0.089679
423.000000 49.114000 9.000000 -2.000000 -2.000000 66.110735 15.438089 677.769248 1435.550791 20.374644 0.000000 0.088755
424.000000 84.567000 6.000000 -1.000000 -2.000000 77.656554 19.929682 584.756158 1191.528926 11.830474 0.000000 0.126644
425.000000 72.865000 7.000000 -1.000000 -2.000000 77.238469 16.247084 661.348250 1194.908292 13.730607 0.000000 0.129945
426.000000 63.790000 8.000000 -1.000000 -2.000000 76.766109 13.460264 717.393941 1201.263318 15.684325 0.000000 0.131205
427.000000 56.606000 9.000000 -1.000000 -2.000000 76.303530 11.287311 760.183046 1208.475516 17.674991 0.000000 0.131309
428.000000 50.808000 10.000000 -1.000000 -2.000000 75.873673 9.550149 793.921546 1215.679089 19.692210 0.000000 0.130800
429.000000 46.046000 11.000000 -1.000000 -2.000000 75.482826 8.132051 821.206329 1222.523654 21.729152 0.000000 0.129979
430.000000 83.801000 7.000000 0.000000 -2.000000 90.611518 10.373499 777.977579 929.321391 11.935871 0.000000 0.163267
431.000000 72.084000 8.000000 0.000000 -2.000000 88.276892 8.108540 821.656971 973.705100 13.876794 0.000000 0.163966
432.000000 63.098000 9.000000 0.000000 -2.000000 86.391235 6.400070 854.272930 1009.305699 15.853668 0.000000 0.162792
433.000000 56.020000 10.000000 0.000000 -2.000000 84.842710 5.067623 879.556307 1038.522757 17.857230 0.000000 0.160789
434.000000 50.318000 11.000000 0.000000 -2.000000 83.551480 4.000435 899.729957 1062.945868 19.881146 0.000000 0.158456
435.000000 45.637000 12.000000 0.000000 -2.000000 82.460034 3.127030 916.200719 1083.673101 21.920941 0.000000 0.156043
436.000000 78.225000 8.000000 1.000000 -2.000000 99.182607 1.632437 944.326567 766.942995 12.784662 0.000000 0.171074
437.000000 68.090000 9.000000 1.000000 -2.000000 95.989628 0.654253 962.709411 828.066527 14.688518 0.000000 0.173036
438.000000 60.149000 10.000000 1.000000 -2.000000 93.409872 -0.089552 976.682220 876.870163 16.628559 0.000000 0.172966
439.000000 53.785000 11.000000 1.000000 -2.000000 91.285220 -0.674020 987.661974 916.851578 18.596816 0.000000 0.171807
440.000000 48.586000 12.000000 1.000000 -2.000000 89.506691 -1.145308 996.517332 950.268822 20.587500 0.000000 0.170077
441.000000 71.292000 9.000000 2.000000 -2.000000 104.702978 -6.048516 1089.044600 656.998655 14.026476 0.000000 0.160223
442.000000 62.994000 5.000000 1.000000 -1.000000 101.289403 -5.981861 1087.778590 724.965871 7.937581 0.000000 0.166098
443.000000 56.303000 11.000000 2.000000 -2.000000 98.471308 -5.930382 1086.801048 779.835181 17.762683 0.000000 0.169170
444.000000 50.816000 6.000000 1.000000 -1.000000 96.108058 -5.889427 1086.023464 825.213074 9.840786 0.000000 0.170498
445.000000 46.248000 13.000000 2.000000 -2.000000 94.099363 -5.856067 1085.390178 863.457626 21.626160 0.000000 0.170725
446.000000 82.773000 8.000000 3.000000 -2.000000 116.968041 -15.256481 1268.562304 373.351355 12.078015 0.000000 0.097905
447.000000 72.669000 9.000000 3.000000 -2.000000 112.175628 -13.737000 1238.108726 489.388503 13.758654 0.000000 0.123029
448.000000 64.504000 10.000000 3.000000 -2.000000 108.221393 -12.626005 1216.093237 577.906625 15.501228 0.000000 0.139343
449.000000 57.822000 11.000000 3.000000 -2.000000 104.914209 -11.778878 1199.435539 648.168166 17.293815 0.000000 0.149998
450.000000 52.282000 12.000000 3.000000 -2.000000 102.113454 -11.111862 1186.391960 705.584768 19.127366 0.000000 0.156944
451.000000 47.634000 13.000000 3.000000 -2.000000 99.714729 -10.573171 1175.901410 753.558371 20.994892 0.000000 0.161412
452.000000 72.414000 9.000000 4.000000 -2.000000 118.143902 -22.310087 1416.641825 318.666018 13.805468 0.000000 0.059210
453.000000 64.773000 5.000000 2.000000 -1.000000 114.002815 -19.963617 1365.965272 431.099432 7.717538 0.000000 0.091187
454.000000 58.384000 11.000000 4.000000 -2.000000 110.455074 -18.183413 1328.522317 518.450595 17.125380 0.000000 0.113334
455.000000 53.000000 6.000000 2.000000 -1.000000 107.396717 -16.789048 1299.727923 588.763365 9.433005 0.000000 0.128806
456.000000 48.427000 13.000000 4.000000 -2.000000 104.741559 -15.668577 1276.895860 646.875239 20.648832 0.000000 0.139728
458.000000 78.843000 8.000000 5.000000 -2.000000 126.884609 -36.443032 1769.761002 -62.983737 12.677744 0.000000 0.130581
459.000000 70.858000 9.000000 5.000000 -2.000000 122.480224 -31.491763 1634.341165 137.504451 14.107406 0.000000 0.041882
460.000000 63.993000 10.000000 5.000000 -2.000000 118.513892 -27.835807 1543.325489 279.770675 15.622010 0.000000 0.019742
461.000000 58.102000 11.000000 5.000000 -2.000000 114.988450 -25.046588 1477.950122 387.313277 17.207030 0.000000 0.057411
462.000000 53.038000 12.000000 5.000000 -2.000000 111.867253 -22.858132 1428.717975 472.234480 18.851072 0.000000 0.084962
463.000000 48.667000 13.000000 5.000000 -2.000000 109.102702 -21.099971 1390.306769 541.454829 20.545077 0.000000 0.104950
464.000000 68.374000 9.000000 6.000000 -2.000000 125.216785 -40.850316 1905.682946 -63.354003 14.619076 0.000000 0.182540
465.000000 62.400000 5.000000 3.000000 -1.000000 121.734446 -35.983492 1756.499879 118.411794 8.009784 0.000000 0.085617
466.000000 57.128000 11.000000 6.000000 -2.000000 118.473575 -32.206075 1652.938054 251.114354 17.499073 0.000000 0.021523
467.000000 52.492000 6.000000 3.000000 -1.000000 115.477973 -29.213198 1576.845952 353.405446 9.522724 0.000000 0.023475
468.000000 48.419000 13.000000 6.000000 -2.000000 112.751143 -26.795695 1518.573867 435.350288 20.648917 0.000000 0.055880
471.000000 55.629000 11.000000 7.000000 -2.000000 120.937274 -39.450175 1860.657692 105.570007 17.969796 0.000000 0.127967
472.000000 51.479000 12.000000 7.000000 -2.000000 118.228644 -35.711106 1748.712298 229.401539 19.419124 0.000000 0.058895
473.000000 47.761000 13.000000 7.000000 -2.000000 115.673021 -32.656711 1664.820862 326.497201 20.931971 0.000000 0.010446
476.000000 50.114000 6.000000 4.000000 -1.000000 120.163425 -42.188205 1950.520395 96.807006 9.973781 0.000000 0.167563
477.000000 46.778000 13.000000 8.000000 -2.000000 117.887284 -38.564827 1833.113203 212.568907 21.370804 0.000000 0.094739
479.000000 45.551000 13.000000 9.000000 -2.000000 119.441715 -44.396105 2028.841902 90.788266 21.945897 0.000000 0.204235
481.000000 68.854000 4.000000 -2.000000 -1.000000 43.522196 24.644298 481.227083 2187.870395 14.537027 0.000000 0.247556
482.000000 64.278000 5.000000 -2.000000 -1.000000 49.179507 19.746518 588.644716 1928.789715 15.571440 0.000000 0.150761
483.000000 58.676000 6.000000 -2.000000 -1.000000 52.986618 16.148966 663.346922 1785.773345 17.057487 0.000000 0.097221
484.000000 53.339000 7.000000 -2.000000 -1.000000 55.682007 13.414415 718.304367 1696.299995 18.764017 0.000000 0.067028
485.000000 48.596000 8.000000 -2.000000 -1.000000 57.672194 11.274593 760.431461 1635.539925 20.594630 0.000000 0.051717
486.000000 89.676000 5.000000 -1.000000 -1.000000 66.783083 13.437172 717.852526 1415.670476 11.158788 0.000000 0.089441
487.000000 76.095000 6.000000 -1.000000 -1.000000 67.679593 10.372228 778.002254 1390.208925 13.150329 0.000000 0.091928
488.000000 65.907000 7.000000 -1.000000 -1.000000 68.231222 8.143618 820.984585 1375.185103 15.182999 0.000000 0.094218
489.000000 58.039000 8.000000 -1.000000 -1.000000 68.593539 6.454824 853.231314 1365.626925 17.241062 0.000000 0.095989
490.000000 51.805000 9.000000 -1.000000 -1.000000 68.843829 5.133021 878.318020 1359.197248 19.315902 0.000000 0.097322
491.000000 46.754000 10.000000 -1.000000 -1.000000 69.023782 4.071355 898.391113 1354.682142 21.402406 0.000000 0.098332
492.000000 84.792000 7.000000 1.000000 -1.000000 92.372003 -5.828370 1084.864434 896.185076 11.796034 0.000000 0.170253
493.000000 72.549000 8.000000 1.000000 -1.000000 89.556043 -5.785031 1084.041904 949.382536 13.787397 0.000000 0.168144
494.000000 63.291000 9.000000 1.000000 -1.000000 87.360000 -5.752676 1083.427906 990.878403 15.804843 0.000000 0.165330
495.000000 56.068000 10.000000 1.000000 -1.000000 85.600663 -5.727598 1082.952061 1024.219257 17.841742 0.000000 0.162326
496.000000 50.286000 11.000000 1.000000 -1.000000 84.160181 -5.707590 1082.572455 1051.630208 19.893536 0.000000 0.159361
497.000000 45.562000 12.000000 1.000000 -1.000000 82.959429 -5.691257 1082.262574 1074.584481 21.956986 0.000000 0.156537
498.000000 89.018000 7.000000 2.000000 -1.000000 102.419926 -14.749171 1258.347980 695.892537 11.233689 0.000000 0.147483
499.000000 76.366000 8.000000 2.000000 -1.000000 98.564614 -13.331171 1230.043536 774.416844 13.095877 0.000000 0.156880
500.000000 66.659000 9.000000 2.000000 -1.000000 95.502225 -12.289457 1209.462644 834.890948 15.003909 0.000000 0.161403
501.000000 59.019000 10.000000 2.000000 -1.000000 93.016713 -11.492279 1193.823508 883.118549 16.947023 0.000000 0.163237
502.000000 52.873000 11.000000 2.000000 -1.000000 90.962093 -10.862802 1181.537032 922.595722 18.917583 0.000000 0.163540
503.000000 47.837000 12.000000 2.000000 -1.000000 89.236907 -10.353259 1171.629493 955.572721 20.910018 0.000000 0.162958
504.000000 89.666000 7.000000 3.000000 -1.000000 110.278400 -24.808786 1472.518062 502.896701 11.150761 0.000000 0.079934
505.000000 77.727000 8.000000 3.000000 -1.000000 106.006102 -21.747899 1404.352131 608.593906 12.864538 0.000000 0.112006
506.000000 68.287000 9.000000 3.000000 -1.000000 102.479057 -19.508890 1356.323742 688.296220 14.643897 0.000000 0.131150
507.000000 60.703000 10.000000 3.000000 -1.000000 99.538591 -17.804707 1320.657816 751.046860 16.474542 0.000000 0.142889
508.000000 54.513000 11.000000 3.000000 -1.000000 97.059987 -16.466352 1293.125478 802.002921 18.346049 0.000000 0.150150
509.000000 49.388000 12.000000 3.000000 -1.000000 94.947978 -15.388539 1271.229217 844.356265 20.250641 0.000000 0.154591
510.000000 87.486000 7.000000 4.000000 -1.000000 115.692619 -35.530893 1743.589170 304.709450 11.427215 0.000000 0.042342
511.000000 76.984000 8.000000 4.000000 -1.000000 111.645287 -30.779710 1616.083677 443.853034 12.987202 0.000000 0.030914
512.000000 68.342000 9.000000 4.000000 -1.000000 108.092350 -27.263052 1529.638227 545.428986 14.630479 0.000000 0.072927
513.000000 61.195000 10.000000 4.000000 -1.000000 105.003950 -24.573757 1467.169821 623.798278 16.340095 0.000000 0.100376
514.000000 55.238000 11.000000 4.000000 -1.000000 102.321646 -22.459189 1419.917784 686.608820 18.103407 0.000000 0.118691
515.000000 50.226000 12.000000 4.000000 -1.000000 99.984670 -20.757196 1382.926012 738.364243 19.910792 0.000000 0.131165
516.000000 45.971000 13.000000 4.000000 -1.000000 97.938531 -19.360060 1353.179940 781.918597 21.754799 0.000000 0.139772
518.000000 74.673000 8.000000 5.000000 -1.000000 115.462764 -40.019395 1878.739167 271.778587 13.388023 0.000000 0.102373
519.000000 67.125000 9.000000 5.000000 -1.000000 112.274150 -35.307165 1737.260909 400.781868 14.894439 0.000000 0.026972
520.000000 60.668000 10.000000 5.000000 -1.000000 109.332195 -31.645675 1638.323967 497.457170 16.480470 0.000000 0.036216
521.000000 55.146000 11.000000 5.000000 -1.000000 106.668074 -28.740716 1565.248383 573.472127 18.131833 0.000000 0.068623
522.000000 50.407000 12.000000 5.000000 -1.000000 104.274786 -26.390994 1509.066281 635.300934 19.837466 0.000000 0.092231
523.000000 46.320000 13.000000 5.000000 -1.000000 102.130150 -24.457271 1464.526528 686.866724 21.588674 0.000000 0.109259
525.000000 64.985000 9.000000 6.000000 -1.000000 115.086545 -43.335212 1990.497974 248.260439 15.383843 0.000000 0.156445
526.000000 59.343000 10.000000 6.000000 -1.000000 112.529349 -38.817623 1840.907993 367.985200 16.847293 0.000000 0.070775
527.000000 54.379000 11.000000 6.000000 -1.000000 110.078969 -35.173743 1733.503665 459.698859 18.386308 0.000000 0.025004
528.000000 50.021000 12.000000 6.000000 -1.000000 107.786721 -32.194912 1652.645195 532.977508 19.988765 0.000000 0.039977
529.000000 46.196000 13.000000 6.000000 -1.000000 105.669588 -29.726746 1589.573486 593.330371 21.645004 0.000000 0.065890
531.000000 57.446000 10.000000 7.000000 -1.000000 114.678064 -45.869176 2084.454602 230.757879 17.402912 0.000000 0.204852
532.000000 53.091000 11.000000 7.000000 -1.000000 112.589839 -41.599809 1930.572343 342.184872 18.831259 0.000000 0.113408
533.000000 49.176000 12.000000 7.000000 -1.000000 110.529419 -38.054645 1817.547579 429.153331 20.331137 0.000000 0.054033
534.000000 45.671000 13.000000 7.000000 -1.000000 108.551163 -35.085134 1731.015167 499.606213 21.892168 0.000000 0.027753
536.000000 51.431000 11.000000 8.000000 -1.000000 114.281438 -47.861457 2164.548855 217.304561 19.438207 0.000000 0.248177
537.000000 47.979000 12.000000 8.000000 -1.000000 112.547512 -43.849200 2008.904713 321.361895 20.837394 0.000000 0.152986
542.000000 47.625000 3.000000 -1.000000 0.000000 42.982726 8.177595 820.333218 2107.745727 10.509192 0.000000 0.186449
543.000000 83.601000 4.000000 -1.000000 0.000000 49.628561 5.196811 877.109950 1859.850479 11.972746 0.000000 0.087731
544.000000 72.692000 5.000000 -1.000000 0.000000 53.680837 3.272422 913.461012 1733.463272 13.768968 0.000000 0.037300
545.000000 63.753000 6.000000 -1.000000 0.000000 56.394736 1.930166 938.728335 1656.636787 15.699056 0.000000 0.010125
546.000000 56.556000 7.000000 -1.000000 0.000000 58.334207 0.941598 957.310607 1604.935191 17.696300 0.000000 0.016024
547.000000 50.720000 8.000000 -1.000000 0.000000 59.787287 0.183610 971.550897 1567.741188 19.732001 0.000000 0.028943
548.000000 45.925000 9.000000 -1.000000 0.000000 60.915628 -0.415851 982.811844 1539.689018 21.791775 0.000000 0.038932
549.000000 156.431000 3.000000 0.000000 0.000000 69.806310 -5.529688 1079.198241 1338.715419 6.396693 0.000000 0.103399
550.000000 187.696000 3.000000 1.000000 0.000000 92.432035 -24.111863 1456.717153 890.917320 5.328676 0.000000 0.127509
551.000000 137.873000 4.000000 1.000000 0.000000 87.598310 -19.066419 1346.994000 988.762105 7.255076 0.000000 0.144278
552.000000 108.142000 5.000000 1.000000 0.000000 84.397856 -16.150704 1286.688462 1050.910013 9.250317 0.000000 0.147203
553.000000 88.650000 6.000000 1.000000 0.000000 82.150040 -14.260377 1248.551430 1094.108023 11.284811 0.000000 0.146125
554.000000 74.973000 7.000000 1.000000 0.000000 80.492725 -12.938067 1222.257003 1125.945655 13.343801 0.000000 0.143858
555.000000 64.884000 8.000000 1.000000 0.000000 79.223223 -11.962148 1203.030353 1150.409407 15.419102 0.000000 0.141332
556.000000 57.151000 9.000000 1.000000 0.000000 78.220945 -11.212674 1188.359431 1169.806418 17.505813 0.000000 0.138875
557.000000 51.043000 10.000000 1.000000 0.000000 77.410160 -10.619211 1176.796541 1185.568469 19.600815 0.000000 0.136598
558.000000 46.102000 11.000000 1.000000 0.000000 76.741089 -10.137735 1167.448627 1198.632629 21.702033 0.000000 0.134527
559.000000 181.776000 3.000000 2.000000 0.000000 104.965065 -45.197103 2058.724980 532.739537 5.500642 0.000000 0.152889
560.000000 141.226000 4.000000 2.000000 0.000000 100.055221 -34.646113 1718.764867 709.014667 7.080840 0.000000 0.060715
561.000000 113.394000 5.000000 2.000000 0.000000 95.815568 -28.277649 1553.983277 816.523840 8.819673 0.000000 0.103996
562.000000 79.631000 7.000000 2.000000 0.000000 89.749423 -21.202795 1392.527437 946.048875 12.560779 0.000000 0.138889
563.000000 60.651000 9.000000 2.000000 0.000000 85.846570 -17.435146 1313.015368 1022.922419 16.492894 0.000000 0.146572
564.000000 48.733000 11.000000 2.000000 0.000000 83.182576 -15.114077 1265.690188 1074.282730 20.527587 0.000000 0.146917
565.000000 132.598000 4.000000 3.000000 0.000000 106.513351 -50.261958 2269.652727 441.865896 7.540411 0.000000 0.274404
566.000000 111.025000 5.000000 3.000000 0.000000 103.309182 -41.020736 1911.292422 603.535806 9.006298 0.000000 0.083431
567.000000 81.041000 7.000000 3.000000 0.000000 97.129539 -30.087392 1598.589593 785.413463 12.340304 0.000000 0.091660
568.000000 70.756000 8.000000 3.000000 0.000000 94.598545 -26.704806 1516.432747 844.094354 14.134886 0.000000 0.113778
569.000000 55.938000 10.000000 3.000000 0.000000 90.576877 -22.068695 1411.352908 929.306322 17.880613 0.000000 0.135974
570.000000 50.494000 11.000000 3.000000 0.000000 88.980680 -20.421098 1375.721444 961.434032 19.809296 0.000000 0.141164
572.000000 79.798000 7.000000 4.000000 0.000000 102.476738 -39.207995 1853.054308 633.652319 12.530928 0.000000 0.064149
573.000000 63.015000 9.000000 4.000000 0.000000 97.823976 -31.097211 1624.190767 768.286945 15.870063 0.000000 0.084447
574.000000 51.402000 11.000000 4.000000 0.000000 94.024710 -25.993822 1499.800141 856.748993 19.457281 0.000000 0.117856
576.000000 76.729000 7.000000 5.000000 0.000000 105.916751 -48.116511 2175.245210 481.260009 13.031093 0.000000 0.217799
577.000000 68.964000 8.000000 5.000000 0.000000 103.976169 -42.596976 1964.598502 577.105251 14.498910 0.000000 0.106155
578.000000 62.255000 9.000000 5.000000 0.000000 101.981163 -38.196932 1821.866770 650.369516 16.062329 0.000000 0.057556
579.000000 51.538000 11.000000 5.000000 0.000000 98.252676 -31.741096 1640.799815 757.438938 19.403819 0.000000 0.079810
580.000000 47.271000 12.000000 5.000000 0.000000 96.592045 -29.331954 1579.777706 798.328969 21.156487 0.000000 0.096926
582.000000 51.026000 11.000000 6.000000 0.000000 101.653283 -37.552415 1802.435098 661.010255 19.596914 0.000000 0.055188
584.000000 53.966000 10.000000 7.000000 0.000000 105.650504 -47.247287 2139.217974 496.813337 18.527635 0.000000 0.197080
585.000000 50.005000 11.000000 7.000000 0.000000 104.260855 -43.309735 1989.593757 565.051873 19.995982 0.000000 0.117896
586.000000 46.434000 12.000000 7.000000 0.000000 102.832819 -39.964565 1876.984409 621.110795 21.534732 0.000000 0.071154
587.000000 48.610000 11.000000 8.000000 0.000000 106.144927 -48.901385 2208.839510 467.024916 20.568881 0.000000 0.237577
590.000000 52.767000 5.000000 -1.000000 1.000000 40.135330 -5.241597 1073.738369 2222.902573 18.970413 0.000000 0.226103
591.000000 49.559000 6.000000 -1.000000 1.000000 44.790065 -5.282125 1074.506147 2029.834299 20.197848 0.000000 0.152511
592.000000 45.971000 7.000000 -1.000000 1.000000 48.197481 -5.312657 1075.084614 1907.555378 21.773367 0.000000 0.104934
594.000000 155.576000 2.000000 1.000000 1.000000 57.899371 -43.244534 1987.283037 1867.882111 6.431979 0.000000 0.295658
595.000000 125.384000 3.000000 1.000000 1.000000 63.423030 -33.368471 1683.835838 1585.706456 7.980614 0.000000 0.153573
596.000000 102.002000 4.000000 1.000000 1.000000 65.912810 -27.378886 1532.394865 1482.857122 9.809922 0.000000 0.116296
597.000000 85.112000 5.000000 1.000000 1.000000 67.208540 -23.438836 1441.620518 1433.916607 11.756675 0.000000 0.105616
598.000000 72.701000 6.000000 1.000000 1.000000 67.958975 -20.674101 1381.141840 1406.739744 13.763663 0.000000 0.102469
599.000000 63.309000 7.000000 1.000000 1.000000 68.429430 -18.635766 1337.961163 1390.039205 15.805641 0.000000 0.101623
600.000000 55.996000 8.000000 1.000000 1.000000 68.742634 -17.074433 1305.585699 1379.013064 17.869745 0.000000 0.101519
601.000000 50.160000 9.000000 1.000000 1.000000 68.961146 -15.841893 1280.410734 1371.332933 19.948726 0.000000 0.101656
602.000000 132.338000 3.000000 2.000000 1.000000 76.365549 -48.732063 2201.503648 1336.808941 7.559106 0.000000 0.275133
603.000000 109.680000 4.000000 2.000000 1.000000 77.669680 -39.890141 1874.607054 1247.626225 9.120884 0.000000 0.146697
604.000000 92.046000 5.000000 2.000000 1.000000 77.786233 -33.787883 1695.186634 1221.319076 10.868524 0.000000 0.119514
605.000000 78.626000 6.000000 2.000000 1.000000 77.478457 -29.414195 1581.812012 1215.406445 12.723917 0.000000 0.117453
606.000000 68.303000 7.000000 2.000000 1.000000 77.036200 -26.160627 1503.684049 1217.043419 14.647341 0.000000 0.119472
607.000000 60.210000 8.000000 2.000000 1.000000 76.571458 -23.660588 1446.577405 1221.560346 16.616464 0.000000 0.121345
608.000000 53.738000 9.000000 2.000000 1.000000 76.126936 -21.686420 1403.014033 1227.066738 18.617763 0.000000 0.122517
609.000000 48.468000 10.000000 2.000000 1.000000 75.717333 -20.091505 1368.686830 1232.751749 20.642572 0.000000 0.123095
610.000000 107.368000 4.000000 3.000000 1.000000 85.224570 -51.948234 2350.031325 1086.876178 9.315640 0.000000 0.317822
611.000000 92.658000 5.000000 3.000000 1.000000 85.436346 -44.208962 2021.978043 1060.851083 10.794830 0.000000 0.160733
612.000000 80.440000 6.000000 3.000000 1.000000 84.911020 -38.415750 1828.542152 1063.329632 12.434900 0.000000 0.112742
613.000000 70.528000 7.000000 3.000000 1.000000 84.111889 -33.999996 1700.969537 1074.888355 14.182920 0.000000 0.107575
614.000000 62.493000 8.000000 3.000000 1.000000 83.244897 -30.560403 1610.515100 1089.050136 16.006883 0.000000 0.113051
615.000000 55.928000 9.000000 3.000000 1.000000 82.398325 -27.823777 1543.036540 1103.417903 17.886298 0.000000 0.119059
616.000000 50.505000 10.000000 3.000000 1.000000 81.607188 -25.604007 1490.766366 1117.086655 19.807437 0.000000 0.123674
617.000000 45.972000 11.000000 3.000000 1.000000 80.882455 -23.772428 1449.083777 1129.746926 21.760759 0.000000 0.126885
619.000000 79.036000 6.000000 4.000000 1.000000 90.201873 -47.247985 2139.246454 935.413624 12.654046 0.000000 0.195792
620.000000 70.383000 7.000000 4.000000 1.000000 89.532902 -41.872852 1939.783484 952.783848 14.210381 0.000000 0.120257
621.000000 63.022000 8.000000 4.000000 1.000000 88.628153 -37.587915 1803.496573 973.526898 15.870496 0.000000 0.098040
622.000000 56.803000 9.000000 4.000000 1.000000 87.649933 -34.128041 1704.474465 994.359814 17.608659 0.000000 0.099709
623.000000 51.541000 10.000000 4.000000 1.000000 86.678972 -31.295114 1629.271461 1014.089333 19.406993 0.000000 0.107381
624.000000 47.066000 11.000000 4.000000 1.000000 85.753238 -28.943622 1570.215951 1032.328601 21.252693 0.000000 0.114907
626.000000 68.502000 7.000000 5.000000 1.000000 93.385451 -49.491067 2234.780893 842.981731 14.599196 0.000000 0.238825
627.000000 62.148000 8.000000 5.000000 1.000000 92.724904 -44.535693 2033.990214 869.136028 16.092133 0.000000 0.144163
628.000000 56.559000 9.000000 5.000000 1.000000 91.848155 -40.450883 1892.647617 895.361205 17.682835 0.000000 0.100814
629.000000 51.686000 10.000000 5.000000 1.000000 90.884434 -37.058028 1787.756256 920.179473 19.350469 0.000000 0.089835
630.000000 47.448000 11.000000 5.000000 1.000000 89.906278 -34.213730 1706.825931 943.128991 21.079727 0.000000 0.094030
632.000000 60.274000 8.000000 6.000000 1.000000 95.647888 -51.209841 2314.111044 771.095795 16.591192 0.000000 0.281935
633.000000 55.450000 9.000000 6.000000 1.000000 95.040390 -46.641374 2114.796873 802.734209 18.035256 0.000000 0.176238
634.000000 51.101000 10.000000 6.000000 1.000000 94.234224 -42.777654 1970.879985 832.437231 19.570723 0.000000 0.116936
635.000000 47.218000 11.000000 6.000000 1.000000 93.332377 -39.495378 1862.082720 859.788467 21.180514 0.000000 0.089873
638.000000 49.958000 10.000000 7.000000 1.000000 96.786523 -48.343932 2184.872686 748.293928 20.017022 0.000000 0.210460
639.000000 46.496000 11.000000 7.000000 1.000000 96.059742 -44.700050 2040.083809 780.254312 21.507821 0.000000 0.140986
645.000000 47.022000 6.000000 0.000000 2.000000 44.426486 -18.216511 1329.211279 2096.995841 21.286937 0.000000 0.194670
648.000000 67.528000 4.000000 1.000000 2.000000 46.719085 -32.955393 1672.762947 2148.935410 14.821283 0.000000 0.269786
649.000000 62.029000 5.000000 1.000000 2.000000 51.344867 -28.759514 1565.707799 1923.027585 16.134797 0.000000 0.187443
650.000000 56.367000 6.000000 1.000000 2.000000 54.532153 -25.630084 1491.368837 1791.485362 17.755109 0.000000 0.141154
651.000000 51.225000 7.000000 1.000000 2.000000 56.834278 -23.219624 1436.736734 1706.383765 19.536981 0.000000 0.113938
652.000000 46.734000 8.000000 1.000000 2.000000 58.562368 -21.312140 1394.892332 1647.240314 21.414356 0.000000 0.097788
654.000000 69.962000 5.000000 2.000000 2.000000 61.253311 -37.642281 1805.124176 1686.598817 14.302834 0.000000 0.200620
655.000000 56.377000 7.000000 2.000000 2.000000 64.887008 -30.034975 1597.275104 1523.718086 17.749136 0.000000 0.129196
656.000000 46.440000 9.000000 2.000000 2.000000 66.655501 -25.221382 1481.956324 1454.466574 21.546689 0.000000 0.109372
659.000000 73.107000 5.000000 3.000000 2.000000 69.046786 -46.395883 2105.057713 1538.592556 13.685308 0.000000 0.270568
660.000000 65.799000 6.000000 3.000000 2.000000 70.730812 -41.162662 1915.986206 1440.789128 15.205126 0.000000 0.187859
661.000000 59.297000 7.000000 3.000000 2.000000 71.730929 -36.990377 1785.762544 1385.834872 16.872566 0.000000 0.148225
662.000000 53.675000 8.000000 3.000000 2.000000 72.321306 -33.619351 1690.612301 1352.954177 18.639993 0.000000 0.129629
663.000000 48.857000 9.000000 3.000000 2.000000 72.661808 -30.856816 1618.047575 1332.420422 20.478277 0.000000 0.121192
665.000000 60.196000 7.000000 4.000000 2.000000 77.248190 -43.884866 2010.193697 1278.955742 16.618498 0.000000 0.189402
666.000000 50.132000 9.000000 4.000000 2.000000 77.811902 -36.571374 1773.492653 1230.459133 19.955305 0.000000 0.127177
668.000000 59.509000 7.000000 5.000000 2.000000 81.476953 -50.527645 2281.933657 1194.727251 16.808516 0.000000 0.293257
669.000000 54.740000 8.000000 5.000000 2.000000 81.946357 -46.043688 2091.237402 1160.404818 18.273277 0.000000 0.200737
670.000000 50.400000 9.000000 5.000000 2.000000 82.070855 -42.252894 1952.736116 1143.525606 19.846951 0.000000 0.150455
671.000000 46.515000 10.000000 5.000000 2.000000 81.981393 -39.032596 1847.580214 1136.188118 21.504893 0.000000 0.125543
673.000000 49.858000 9.000000 6.000000 2.000000 85.467983 -47.793010 2161.696243 1067.987201 20.061134 0.000000 0.219193
676.000000 45.607000 10.000000 7.000000 2.000000 88.193345 -49.236745 2223.516786 992.994535 21.930124 0.000000 0.241814
681.000000 47.898000 6.000000 2.000000 3.000000 50.749600 -36.404125 1768.632200 2033.601946 20.894210 0.000000 0.265385
684.000000 48.368000 7.000000 3.000000 3.000000 60.299539 -39.338398 1857.141829 1734.776230 20.688439 0.000000 0.224967
688.000000 50.108000 7.000000 4.000000 3.000000 65.872274 -45.454189 2068.494752 1628.226072 19.967629 0.000000 0.274180
689.000000 46.649000 8.000000 4.000000 3.000000 67.387545 -41.735393 1935.136508 1541.745536 21.448132 0.000000 0.211488
693.000000 47.232000 8.000000 5.000000 3.000000 71.808774 -47.248605 2139.271719 1462.030079 21.181165 0.000000 0.269943
#UB matrix in q= (UB) B0 G* 
#[[-0.571870589 -0.574470286  0.584221256]
# [-0.079033131 -0.671109716 -0.737268064]
# [ 0.816527889 -0.468367979  0.338809182]]
#B0 matrix in q= UB (B0) G*
#[[ 0.19670273 -0.          0.03056101]
# [ 0.          0.19187965 -0.        ]
# [ 0.          0.          0.18806537]]
#UBB0 matrix in q= (UB B0) G* i.e. recip. basis vectors are columns in LT frame: astar = UBB0[:,0], bstar = UBB0[:,1], cstar = UBB0[:,2]. (abcstar as columns on xyzlab1, xlab1 = ui, ui = unit vector along incident beam)
#[[-0.11248851 -0.11022916  0.09239485]
# [-0.01554603 -0.1287723  -0.14106992]
# [ 0.16061327 -0.08987029  0.08867219]]
#Euler angles phi theta psi (deg)
#[ 60.196  70.219 141.556]
#deviatoric strain in direct crystal frame (10-3 unit)
#[[ 4.69  0.47 -0.78]
# [ 0.47  4.67 -0.32]
# [-0.78 -0.32 -9.37]]
#deviatoric strain in sample2 frame (10-3 unit)
#[[-1.38  6.94  0.21]
# [ 6.95 -3.31 -0.98]
# [ 0.2  -0.97  4.69]]
#new lattice parameters
#[ 5.1505     5.2114942  5.3174646 90.0277016 99.277116  89.9461662]
#CCDLabel
#sCMOS
#DetectorParameters
#[79.0, 975.0, 941.0, 0.0, 0.0]
#pixelsize
#0.0734
#Frame dimensions
#[2018, 2016]
#
