#Strain and Orientation Refinement from experimental file: /home/micha/LaueProjects/DepthEffects/testZrO2_93.cor
#File created at Wed Jun 28 14:24:03 2023 with indexingSpotsSet.py
#Number of indexed spots: 540
#Element
#ZrO2
#grainIndex
#G_0
#Mean Deviation(pixel): 0.113
##spot_index intensity h k l 2theta Chi Xexp Yexp Energy GrainIndex PixDev
7.000000 51.085000 4.000000 -7.000000 -1.000000 58.907928 -43.785153 2006.593861 1840.049119 19.579751 0.000000 0.296019
8.000000 45.500000 5.000000 -7.000000 -1.000000 55.743625 -37.248015 1793.374352 1861.825149 21.985082 0.000000 0.235677
11.000000 53.438000 4.000000 -6.000000 -1.000000 54.839078 -39.905407 1875.094300 1929.317960 18.719012 0.000000 0.273571
12.000000 46.326000 5.000000 -6.000000 -1.000000 51.257968 -33.163974 1678.341111 1972.612380 21.594724 0.000000 0.230729
15.000000 54.577000 4.000000 -5.000000 -1.000000 49.434715 -35.231456 1735.127375 2068.979006 18.330243 0.000000 0.267671
16.000000 45.714000 5.000000 -5.000000 -1.000000 45.518618 -28.409190 1557.173274 2142.702499 21.885885 0.000000 0.250260
27.000000 47.978000 2.000000 -5.000000 0.000000 76.160771 -49.682043 2243.316622 1350.788166 10.420836 0.000000 0.294680
29.000000 51.771000 4.000000 -9.000000 0.000000 75.034236 -46.992392 2128.877068 1362.792870 19.315346 0.000000 0.248306
30.000000 47.670000 5.000000 -9.000000 0.000000 71.921694 -40.841469 1905.392546 1405.409799 20.978979 0.000000 0.182691
32.000000 60.901000 3.000000 -8.000000 0.000000 76.754325 -51.251776 2316.120014 1345.774240 16.418822 0.000000 0.328278
33.000000 55.972000 2.000000 -4.000000 0.000000 73.521124 -43.814724 2007.660162 1382.226585 8.933131 0.000000 0.208566
34.000000 50.658000 5.000000 -8.000000 0.000000 69.844997 -37.405027 1798.038754 1438.304900 19.742304 0.000000 0.162072
36.000000 67.281000 3.000000 -7.000000 0.000000 75.446213 -47.938006 2167.748024 1358.095907 14.862539 0.000000 0.263129
37.000000 60.515000 4.000000 -7.000000 0.000000 71.453029 -40.028957 1879.045477 1412.588387 16.525868 0.000000 0.177076
38.000000 53.572000 5.000000 -7.000000 0.000000 67.119640 -33.419451 1685.209677 1485.184812 18.669920 0.000000 0.145037
39.000000 47.012000 6.000000 -7.000000 0.000000 62.803336 -27.950334 1546.079640 1567.091879 21.277116 0.000000 0.125530
40.000000 65.175000 2.000000 -3.000000 0.000000 68.576393 -35.486634 1742.334477 1459.644463 7.672682 0.000000 0.153284
41.000000 56.074000 5.000000 -6.000000 0.000000 63.511208 -28.790911 1566.475477 1553.012810 17.838121 0.000000 0.128440
42.000000 47.968000 2.000000 -2.000000 0.000000 58.709789 -23.427166 1441.360111 1653.913505 6.951634 0.000000 0.111476
43.000000 82.766000 3.000000 -5.000000 0.000000 70.599693 -38.607064 1834.411711 1426.037636 12.083425 0.000000 0.168425
44.000000 69.393000 4.000000 -5.000000 0.000000 64.511704 -30.013534 1596.737820 1533.553281 14.414107 0.000000 0.132717
45.000000 47.762000 6.000000 -5.000000 0.000000 53.524027 -18.342835 1331.843177 1779.311850 20.946805 0.000000 0.109984
46.000000 90.791000 3.000000 -4.000000 0.000000 66.028627 -31.952767 1646.310236 1505.008863 11.016553 0.000000 0.139621
47.000000 57.028000 5.000000 -4.000000 0.000000 52.334880 -17.256637 1309.334957 1810.969821 17.543531 0.000000 0.114096
48.000000 45.705000 3.000000 -2.000000 0.000000 47.011585 -12.681662 1217.191443 1969.340369 10.945811 0.000000 0.156002
49.000000 70.521000 4.000000 -3.000000 0.000000 50.447485 -15.583934 1275.181469 1863.811066 14.187298 0.000000 0.124660
50.000000 53.020000 5.000000 -3.000000 0.000000 43.989108 -10.259569 1169.811348 2074.076256 18.871995 0.000000 0.194667
51.000000 61.490000 2.000000 -1.000000 0.000000 38.982303 -6.468828 1097.035116 2279.474125 8.136544 0.000000 0.276719
55.000000 48.407000 4.000000 -11.000000 1.000000 85.922444 -49.601113 2239.691258 1059.385087 20.653732 0.000000 0.253888
56.000000 45.578000 5.000000 -11.000000 1.000000 83.166220 -43.837479 2008.481418 1119.819685 21.937026 0.000000 0.166810
58.000000 52.403000 4.000000 -10.000000 1.000000 85.722883 -46.956829 2127.442174 1058.932453 19.079007 0.000000 0.202824
59.000000 48.810000 5.000000 -10.000000 1.000000 82.462299 -40.919823 1907.967338 1129.475798 20.485020 0.000000 0.140511
61.000000 61.145000 3.000000 -9.000000 1.000000 88.722243 -51.114506 2309.557357 979.241155 16.350057 0.000000 0.282532
62.000000 56.949000 4.000000 -9.000000 1.000000 85.330333 -43.843047 2008.682500 1062.892677 17.556391 0.000000 0.158748
63.000000 52.330000 5.000000 -9.000000 1.000000 81.456066 -37.555963 1802.541121 1144.967689 19.107743 0.000000 0.124012
64.000000 47.630000 6.000000 -9.000000 1.000000 77.387696 -32.188505 1652.477161 1225.559788 20.995233 0.000000 0.119691
66.000000 67.760000 3.000000 -8.000000 1.000000 88.843620 -47.868510 2164.843214 973.385666 14.754171 0.000000 0.210104
67.000000 62.093000 4.000000 -8.000000 1.000000 84.640359 -40.146843 1882.828884 1073.097897 16.102260 0.000000 0.126883
68.000000 56.088000 5.000000 -8.000000 1.000000 80.024645 -33.664414 1691.833663 1168.445316 17.828454 0.000000 0.117473
69.000000 50.199000 6.000000 -8.000000 1.000000 75.345886 -28.274877 1553.916144 1260.568728 19.922020 0.000000 0.116861
71.000000 75.634000 3.000000 -7.000000 1.000000 88.739169 -43.852225 2009.013976 973.849021 13.218284 0.000000 0.147175
72.000000 67.832000 4.000000 -7.000000 1.000000 83.489789 -35.729137 1749.226139 1092.299049 14.740653 0.000000 0.112736
73.000000 59.949000 5.000000 -7.000000 1.000000 77.994353 -29.156066 1575.437930 1203.092466 16.681182 0.000000 0.116925
74.000000 52.565000 6.000000 -7.000000 1.000000 72.651825 -23.858256 1451.010129 1308.636284 19.026640 0.000000 0.111368
75.000000 45.957000 7.000000 -7.000000 1.000000 67.669943 -19.565844 1357.528344 1410.171434 21.764351 0.000000 0.094994
76.000000 95.115000 2.000000 -6.000000 1.000000 94.074723 -49.523021 2236.204471 822.886521 10.509883 0.000000 0.235755
77.000000 84.969000 3.000000 -6.000000 1.000000 88.207749 -38.812126 1840.737920 984.221212 11.766540 0.000000 0.107051
78.000000 74.024000 4.000000 -6.000000 1.000000 81.623926 -30.426832 1607.135829 1124.785694 13.508351 0.000000 0.114481
79.000000 63.628000 5.000000 -6.000000 1.000000 75.124205 -23.942524 1452.903958 1253.809238 15.717775 0.000000 0.115123
80.000000 54.424000 6.000000 -6.000000 1.000000 69.108744 -18.898448 1343.465321 1375.215374 18.378102 0.000000 0.097894
81.000000 46.584000 7.000000 -6.000000 1.000000 63.721251 -14.919919 1261.780477 1490.982918 21.473412 0.000000 0.071810
82.000000 111.510000 2.000000 -5.000000 1.000000 94.882609 -43.870202 2009.663539 813.464419 8.964654 0.000000 0.131050
83.000000 95.788000 3.000000 -5.000000 1.000000 86.878992 -32.416111 1658.461731 1010.518367 10.438048 0.000000 0.105061
84.000000 80.229000 4.000000 -5.000000 1.000000 78.651653 -24.067740 1455.722619 1177.576458 12.464609 0.000000 0.119844
85.000000 66.584000 5.000000 -5.000000 1.000000 71.093019 -17.952984 1323.733036 1328.512490 15.021320 0.000000 0.103263
86.000000 55.307000 6.000000 -5.000000 1.000000 64.484931 -13.377398 1230.960826 1469.040757 18.086427 0.000000 0.070449
87.000000 46.231000 7.000000 -5.000000 1.000000 58.823937 -9.866143 1162.188114 1601.988080 21.639346 0.000000 0.041958
89.000000 132.707000 2.000000 -4.000000 1.000000 95.071428 -35.959878 1755.822626 822.996079 7.532913 0.000000 0.078099
90.000000 107.511000 3.000000 -4.000000 1.000000 84.078490 -24.273326 1460.362412 1063.458574 9.300600 0.000000 0.124258
91.000000 85.398000 4.000000 -4.000000 1.000000 73.999750 -16.511008 1294.037840 1262.901051 11.711413 0.000000 0.112814
92.000000 67.891000 5.000000 -4.000000 1.000000 65.505669 -11.162033 1187.370929 1440.821766 14.733850 0.000000 0.070726
93.000000 54.553000 6.000000 -4.000000 1.000000 58.537101 -7.314087 1113.145455 1604.998545 18.338431 0.000000 0.030144
94.000000 158.873000 2.000000 -3.000000 1.000000 93.438699 -24.673212 1469.430531 869.829139 6.292703 0.000000 0.120700
95.000000 117.891000 3.000000 -3.000000 1.000000 78.644063 -14.046892 1244.286103 1163.820665 8.482855 0.000000 0.129181
96.000000 87.433000 4.000000 -3.000000 1.000000 66.914248 -7.725034 1120.999590 1403.963705 11.440478 0.000000 0.074515
97.000000 66.167000 5.000000 -3.000000 1.000000 57.949209 -3.625728 1043.199921 1616.222202 15.119870 0.000000 0.014231
98.000000 51.365000 6.000000 -3.000000 1.000000 51.064664 -0.778986 989.634060 1810.636873 19.478890 0.000000 0.085520
99.000000 184.657000 2.000000 -2.000000 1.000000 87.108429 -8.913188 1143.797011 996.028489 5.414910 0.000000 0.154140
100.000000 121.060000 3.000000 -2.000000 1.000000 68.870245 -1.738602 1007.669447 1357.141274 8.262458 0.000000 0.084330
101.000000 82.958000 4.000000 -2.000000 1.000000 56.625909 2.108803 935.368496 1650.467718 12.059740 0.000000 0.024938
102.000000 59.790000 5.000000 -2.000000 1.000000 48.137590 4.487532 890.529464 1908.395446 16.734661 0.000000 0.131910
103.000000 186.613000 2.000000 -1.000000 1.000000 70.984847 10.770323 770.263590 1318.567428 5.359760 0.000000 0.098277
104.000000 106.781000 3.000000 -1.000000 1.000000 53.185634 11.938314 747.437422 1764.401416 9.369508 0.000000 0.094785
105.000000 68.450000 4.000000 -1.000000 1.000000 42.822259 12.534160 735.717986 2130.742083 14.617898 0.000000 0.235420
110.000000 51.389000 4.000000 -11.000000 2.000000 94.517002 -46.922619 2126.063643 816.506046 19.452367 0.000000 0.181018
111.000000 48.347000 5.000000 -11.000000 2.000000 91.242246 -40.995389 1910.456275 910.077548 20.677927 0.000000 0.109984
112.000000 59.195000 3.000000 -10.000000 2.000000 98.266021 -50.983264 2303.319218 692.627047 16.885908 0.000000 0.271616
113.000000 51.904000 5.000000 -10.000000 2.000000 90.999328 -37.701166 1806.889752 917.271618 19.261431 0.000000 0.093757
115.000000 65.257000 3.000000 -9.000000 2.000000 99.269507 -47.802402 2162.087222 679.477638 15.317227 0.000000 0.196151
116.000000 60.725000 4.000000 -9.000000 2.000000 95.103947 -40.259445 1886.454985 815.029402 16.461936 0.000000 0.092238
117.000000 55.796000 5.000000 -9.000000 2.000000 90.480808 -33.899493 1698.225904 930.118128 17.918221 0.000000 0.094571
118.000000 50.810000 6.000000 -9.000000 2.000000 85.721752 -28.587742 1561.516001 1032.695029 19.678856 0.000000 0.114305
119.000000 46.004000 7.000000 -9.000000 2.000000 81.044241 -24.156320 1457.719905 1126.894827 21.736835 0.000000 0.122292
120.000000 72.424000 3.000000 -8.000000 2.000000 100.242655 -43.887690 2010.295840 671.146798 13.801369 0.000000 0.124611
121.000000 59.981000 5.000000 -8.000000 2.000000 89.557484 -29.505682 1584.078915 950.551547 16.668625 0.000000 0.107823
122.000000 47.951000 7.000000 -8.000000 2.000000 78.855890 -20.012198 1366.998585 1166.645711 20.855268 0.000000 0.124262
123.000000 88.231000 2.000000 -7.000000 2.000000 106.711016 -49.374780 2229.616015 444.724191 11.327435 0.000000 0.246244
124.000000 80.904000 3.000000 -7.000000 2.000000 101.067959 -39.004788 1846.714857 670.073016 12.354785 0.000000 0.067038
125.000000 72.637000 4.000000 -7.000000 2.000000 94.608971 -30.818633 1617.074651 839.967322 13.762962 0.000000 0.093560
126.000000 64.335000 5.000000 -7.000000 2.000000 88.045806 -24.435058 1464.023028 981.336449 15.541249 0.000000 0.124622
127.000000 56.562000 6.000000 -7.000000 2.000000 81.786508 -19.433046 1354.720929 1105.740186 17.679331 0.000000 0.130584
128.000000 49.590000 7.000000 -7.000000 2.000000 76.021855 -15.464043 1272.755558 1218.977639 20.167269 0.000000 0.119952
129.000000 101.572000 2.000000 -6.000000 2.000000 109.078945 -43.921280 2011.511341 424.186483 9.839323 0.000000 0.137435
130.000000 90.857000 3.000000 -6.000000 2.000000 101.515269 -32.848528 1669.915231 679.993811 11.001551 0.000000 0.063078
131.000000 68.592000 5.000000 -6.000000 2.000000 85.692543 -18.617891 1337.587234 1026.544489 14.577680 0.000000 0.137620
132.000000 50.674000 7.000000 -6.000000 2.000000 72.393476 -10.515560 1174.781699 1288.389827 19.737354 0.000000 0.106058
134.000000 118.311000 2.000000 -5.000000 2.000000 111.380876 -36.389316 1768.202819 417.548528 8.447064 0.000000 0.036340
135.000000 102.225000 3.000000 -5.000000 2.000000 101.149291 -25.058695 1478.227243 706.836999 9.778354 0.000000 0.105649
136.000000 86.325000 4.000000 -5.000000 2.000000 91.137918 -17.386240 1312.006334 918.598045 11.581822 0.000000 0.144131
137.000000 72.250000 5.000000 -5.000000 2.000000 82.166407 -12.024226 1204.249099 1092.398658 13.840784 0.000000 0.140756
138.000000 60.471000 6.000000 -5.000000 2.000000 74.418006 -8.128422 1128.724123 1244.188115 16.539331 0.000000 0.115523
139.000000 50.872000 7.000000 -5.000000 2.000000 67.817280 -5.194749 1072.850997 1381.658864 19.662289 0.000000 0.078547
141.000000 138.906000 2.000000 -4.000000 2.000000 112.931495 -25.789332 1495.053767 435.289251 7.194623 0.000000 0.060525
142.000000 114.324000 3.000000 -4.000000 2.000000 99.191591 -15.312223 1269.687594 760.430458 8.744011 0.000000 0.145792
143.000000 74.466000 5.000000 -4.000000 2.000000 77.073416 -4.696830 1063.427546 1188.862264 13.430314 0.000000 0.127621
144.000000 49.784000 7.000000 -4.000000 2.000000 62.158934 0.440835 966.718803 1509.468668 20.094131 0.000000 0.033867
145.000000 162.303000 2.000000 -3.000000 2.000000 112.050992 -11.102836 1186.215871 496.718686 6.157702 0.000000 0.127179
146.000000 124.984000 3.000000 -3.000000 2.000000 94.398481 -3.560613 1041.971925 858.052256 7.999106 0.000000 0.165203
147.000000 95.594000 4.000000 -3.000000 2.000000 80.614421 0.603925 963.654917 1118.910933 10.461237 0.000000 0.141197
148.000000 74.011000 5.000000 -3.000000 2.000000 70.022939 3.218649 914.474391 1332.869322 13.514620 0.000000 0.091508
149.000000 58.393000 6.000000 -3.000000 2.000000 61.812015 5.006103 880.720938 1520.022093 17.131618 0.000000 0.037944
150.000000 47.000000 7.000000 -3.000000 2.000000 55.340179 6.302952 856.119880 1689.670889 21.286288 0.000000 0.051159
151.000000 182.441000 2.000000 -2.000000 2.000000 105.486845 7.452765 834.205757 640.242530 5.478694 0.000000 0.151131
152.000000 129.340000 3.000000 -2.000000 2.000000 85.203221 9.633670 792.307802 1032.609917 7.731064 0.000000 0.148764
153.000000 69.461000 5.000000 -2.000000 2.000000 60.767809 11.467336 756.664368 1555.582553 14.401851 0.000000 0.056405
154.000000 183.085000 2.000000 -1.000000 2.000000 89.509362 26.886201 429.290637 951.333820 5.460852 0.000000 0.113240
155.000000 120.015000 3.000000 -1.000000 2.000000 70.533749 23.035124 517.361291 1354.383540 8.333686 0.000000 0.106806
156.000000 82.611000 4.000000 -1.000000 2.000000 58.032074 20.988112 562.105528 1660.437050 12.109544 0.000000 0.110939
157.000000 59.828000 5.000000 -1.000000 2.000000 49.397323 19.721114 589.183317 1921.067626 16.723081 0.000000 0.174906
158.000000 145.270000 2.000000 0.000000 2.000000 64.181065 43.361324 -41.425544 1657.248192 6.884859 0.000000 0.277922
159.000000 92.637000 3.000000 0.000000 2.000000 51.168831 35.294821 213.087220 2002.428634 10.799066 0.000000 0.284064
165.000000 46.007000 4.000000 -13.000000 3.000000 100.920238 -49.447623 2232.848464 621.599601 21.725603 0.000000 0.234968
166.000000 49.518000 4.000000 -12.000000 3.000000 101.799021 -46.889686 2124.738218 612.014497 20.184890 0.000000 0.178948
167.000000 46.980000 5.000000 -12.000000 3.000000 98.587736 -41.068311 1912.863580 725.410682 21.277080 0.000000 0.090288
169.000000 53.491000 4.000000 -11.000000 3.000000 102.667594 -43.896258 2010.605732 605.286668 18.685619 0.000000 0.124942
170.000000 50.333000 5.000000 -11.000000 3.000000 98.879592 -37.840957 1811.092390 728.074982 19.859850 0.000000 0.067264
171.000000 46.983000 6.000000 -11.000000 3.000000 94.825492 -32.635992 1664.271917 833.103390 21.277759 0.000000 0.086065
173.000000 61.563000 3.000000 -10.000000 3.000000 107.487570 -47.739440 2159.468896 436.768084 16.234013 0.000000 0.209601
174.000000 57.987000 4.000000 -10.000000 3.000000 103.478677 -40.367109 1889.933390 602.414440 17.236730 0.000000 0.076009
175.000000 54.020000 5.000000 -10.000000 3.000000 98.992095 -34.125264 1704.398352 735.257831 18.504395 0.000000 0.067508
176.000000 49.906000 6.000000 -10.000000 3.000000 94.315002 -28.889530 1568.889772 848.246739 20.031815 0.000000 0.102266
177.000000 45.834000 7.000000 -10.000000 3.000000 89.652024 -24.503641 1465.578154 948.183785 21.813928 0.000000 0.124002
179.000000 63.061000 4.000000 -9.000000 3.000000 104.153117 -36.179687 1762.142506 604.754164 15.849938 0.000000 0.045319
180.000000 58.033000 5.000000 -9.000000 3.000000 98.826090 -29.840706 1592.415421 748.333753 17.224978 0.000000 0.087124
181.000000 48.062000 7.000000 -9.000000 3.000000 88.207952 -20.444212 1376.215905 976.938021 20.803502 0.000000 0.135513
183.000000 74.875000 3.000000 -8.000000 3.000000 110.649410 -39.186138 1852.370669 417.695353 13.347369 0.000000 0.068272
184.000000 68.738000 4.000000 -8.000000 3.000000 104.561390 -31.190537 1626.584046 614.178608 14.540894 0.000000 0.060052
185.000000 62.320000 5.000000 -8.000000 3.000000 98.239175 -24.906183 1474.740342 769.172144 16.040614 0.000000 0.112667
186.000000 56.043000 6.000000 -8.000000 3.000000 92.063706 -19.947710 1365.627072 899.741434 17.839532 0.000000 0.137372
187.000000 50.169000 7.000000 -8.000000 3.000000 86.241835 -15.990629 1283.431915 1014.543740 19.930863 0.000000 0.143214
188.000000 90.486000 2.000000 -7.000000 3.000000 118.918410 -43.968463 2013.221014 114.851003 11.043112 0.000000 0.187873
189.000000 83.165000 3.000000 -7.000000 3.000000 112.036746 -33.252969 1680.729197 420.043069 12.016762 0.000000 0.015423
190.000000 74.978000 4.000000 -7.000000 3.000000 104.496952 -25.246266 1482.527600 633.324160 13.330989 0.000000 0.095537
191.000000 66.747000 5.000000 -7.000000 3.000000 97.032230 -19.253274 1350.927796 800.367524 14.977238 0.000000 0.136458
192.000000 58.997000 6.000000 -7.000000 3.000000 90.021361 -14.691428 1257.188418 940.585172 16.947238 0.000000 0.149403
193.000000 51.992000 7.000000 -7.000000 3.000000 83.620948 -11.144348 1187.025817 1063.639892 19.232989 0.000000 0.145095
194.000000 45.819000 8.000000 -7.000000 3.000000 77.865059 -8.327334 1132.538788 1174.890057 21.826753 0.000000 0.129783
195.000000 102.942000 2.000000 -6.000000 3.000000 122.028000 -36.780717 1779.606186 100.386693 9.706501 0.000000 0.095541
196.000000 81.595000 4.000000 -6.000000 3.000000 103.642669 -18.213482 1329.148219 665.990016 12.250257 0.000000 0.129322
197.000000 71.049000 5.000000 -6.000000 3.000000 94.938665 -12.848420 1220.484766 845.608913 14.071165 0.000000 0.154246
198.000000 53.303000 7.000000 -6.000000 3.000000 80.199111 -5.929342 1086.781289 1127.925548 18.761383 0.000000 0.138958
199.000000 46.278000 8.000000 -6.000000 3.000000 74.151969 -3.600740 1042.728654 1247.139657 21.611896 0.000000 0.114484
201.000000 117.723000 2.000000 -5.000000 3.000000 124.750073 -26.794109 1518.536469 104.536826 8.487541 0.000000 0.025438
202.000000 102.936000 3.000000 -5.000000 3.000000 112.781488 -16.487124 1293.549820 469.594131 9.708901 0.000000 0.108418
203.000000 88.132000 4.000000 -5.000000 3.000000 101.540871 -10.037731 1165.510607 717.809460 11.342223 0.000000 0.154466
204.000000 74.753000 5.000000 -5.000000 3.000000 91.625878 -5.722955 1082.863979 910.296843 13.374856 0.000000 0.162417
205.000000 63.312000 6.000000 -5.000000 3.000000 83.099447 -2.665413 1025.105610 1071.397539 15.794664 0.000000 0.148699
206.000000 53.799000 7.000000 -5.000000 3.000000 75.830566 -0.397358 982.464433 1212.740001 18.589994 0.000000 0.122405
207.000000 45.989000 8.000000 -5.000000 3.000000 69.636782 1.346991 949.692282 1340.594350 21.749661 0.000000 0.089031
209.000000 134.443000 2.000000 -4.000000 3.000000 125.967881 -13.070119 1224.869886 139.175868 7.431958 0.000000 0.058953
210.000000 113.288000 3.000000 -4.000000 3.000000 110.697863 -5.260856 1074.103214 532.627924 8.822123 0.000000 0.141259
211.000000 93.671000 4.000000 -4.000000 3.000000 97.596948 -0.827737 990.550029 797.435047 10.672443 0.000000 0.165828
212.000000 77.112000 5.000000 -4.000000 3.000000 86.724998 1.997807 937.456230 1002.625067 12.967021 0.000000 0.157054
213.000000 63.738000 6.000000 -4.000000 3.000000 77.777114 3.947256 900.733734 1174.707491 15.690682 0.000000 0.130084
214.000000 53.122000 7.000000 -4.000000 3.000000 70.393981 5.370361 873.821952 1326.068824 18.828937 0.000000 0.093956
216.000000 151.105000 2.000000 -3.000000 3.000000 123.567811 4.404697 892.094914 224.667321 6.612697 0.000000 0.087912
217.000000 96.652000 4.000000 -3.000000 3.000000 91.168938 9.076978 803.049124 918.760088 10.344458 0.000000 0.157861
218.000000 77.096000 5.000000 -3.000000 3.000000 79.906769 10.084594 783.581363 1135.592424 12.971373 0.000000 0.134620
219.000000 50.908000 7.000000 -3.000000 3.000000 63.826007 11.267034 760.579098 1480.391304 19.649673 0.000000 0.064109
220.000000 162.396000 2.000000 -2.000000 3.000000 114.868842 23.283493 511.841996 397.880587 6.153726 0.000000 0.065063
221.000000 124.300000 3.000000 -2.000000 3.000000 96.011353 20.580811 570.858919 819.934565 8.042598 0.000000 0.130606
222.000000 94.947000 4.000000 -2.000000 3.000000 81.788046 19.132800 601.609532 1105.407226 10.531968 0.000000 0.128591
223.000000 73.574000 5.000000 -2.000000 3.000000 71.006933 18.231452 620.477638 1331.031573 13.594172 0.000000 0.102057
224.000000 58.147000 6.000000 -2.000000 3.000000 62.695455 17.616635 633.235387 1523.964414 17.203215 0.000000 0.082910
225.000000 46.892000 7.000000 -2.000000 3.000000 56.158047 17.170552 642.437355 1696.322605 21.334654 0.000000 0.098912
226.000000 159.067000 2.000000 -1.000000 3.000000 98.516411 39.959739 73.169905 730.733477 6.284090 0.000000 0.087254
227.000000 116.771000 3.000000 -1.000000 3.000000 81.905681 32.834884 280.447850 1123.175441 8.563076 0.000000 0.113043
228.000000 86.591000 4.000000 -1.000000 3.000000 69.469324 28.746226 384.616962 1400.723963 11.550381 0.000000 0.122157
229.000000 65.781000 5.000000 -1.000000 3.000000 60.164790 26.118876 447.289118 1628.482106 15.206839 0.000000 0.132902
230.000000 51.314000 6.000000 -1.000000 3.000000 53.072501 24.295250 489.141917 1828.513129 19.496118 0.000000 0.166874
236.000000 47.261000 4.000000 -13.000000 4.000000 107.882035 -46.857959 2123.462888 433.167027 21.146771 0.000000 0.191389
238.000000 48.205000 5.000000 -12.000000 4.000000 105.438516 -37.975630 1815.156265 563.923060 20.733771 0.000000 0.050966
239.000000 57.564000 3.000000 -11.000000 4.000000 114.069071 -47.679405 2156.978173 226.952640 17.359960 0.000000 0.237295
240.000000 54.737000 4.000000 -11.000000 4.000000 110.265720 -40.470153 1893.272943 418.614857 18.257954 0.000000 0.085119
241.000000 51.556000 5.000000 -11.000000 4.000000 105.982643 -34.342265 1710.362151 567.648710 19.386405 0.000000 0.038859
242.000000 48.192000 6.000000 -11.000000 4.000000 101.472710 -29.180804 1576.047398 690.806011 20.741399 0.000000 0.082795
243.000000 62.739000 3.000000 -10.000000 4.000000 116.003062 -43.953140 2012.665503 211.719019 15.927849 0.000000 0.169482
244.000000 55.204000 5.000000 -10.000000 4.000000 106.329355 -30.162012 1600.463263 576.292409 18.105225 0.000000 0.059300
245.000000 47.057000 7.000000 -10.000000 4.000000 96.043709 -20.862520 1385.190301 819.051466 21.244254 0.000000 0.132036
247.000000 68.653000 3.000000 -9.000000 4.000000 117.969540 -39.357140 1857.730560 201.817349 14.555412 0.000000 0.104273
248.000000 64.066000 4.000000 -9.000000 4.000000 112.323196 -31.543993 1635.691257 422.448625 15.599286 0.000000 0.021441
249.000000 59.127000 5.000000 -9.000000 4.000000 106.364855 -25.357205 1485.077290 591.250103 16.904241 0.000000 0.088944
250.000000 54.135000 6.000000 -9.000000 4.000000 100.435635 -20.443458 1376.199776 729.446820 18.465223 0.000000 0.127408
251.000000 49.303000 7.000000 -9.000000 4.000000 94.739171 -16.500425 1293.821581 847.939203 20.277305 0.000000 0.146092
252.000000 75.378000 3.000000 -8.000000 4.000000 119.842480 -33.632028 1690.955740 199.406222 13.256430 0.000000 0.043940
253.000000 63.254000 5.000000 -8.000000 4.000000 105.929613 -19.860910 1363.782768 614.380735 15.801717 0.000000 0.117295
254.000000 51.422000 7.000000 -8.000000 4.000000 92.894580 -11.753331 1198.934815 885.413927 19.442500 0.000000 0.156077
255.000000 89.835000 2.000000 -7.000000 4.000000 129.406990 -37.138890 1790.143949 -168.290645 11.121567 0.000000 0.157255
256.000000 82.929000 3.000000 -7.000000 4.000000 121.384801 -26.470549 1510.929948 207.524022 12.049285 0.000000 0.019604
257.000000 75.226000 4.000000 -7.000000 4.000000 112.959272 -18.996260 1345.519252 458.781116 13.285065 0.000000 0.097574
258.000000 67.437000 5.000000 -7.000000 4.000000 104.808699 -13.636754 1236.113934 648.201972 14.821917 0.000000 0.140969
259.000000 60.031000 6.000000 -7.000000 4.000000 97.245174 -9.669688 1158.388358 802.198158 16.653060 0.000000 0.159000
260.000000 53.262000 7.000000 -7.000000 4.000000 90.379035 -6.641566 1100.322827 933.831669 18.771917 0.000000 0.160566
261.000000 47.230000 8.000000 -7.000000 4.000000 84.216886 -4.266574 1055.295538 1050.308452 21.172104 0.000000 0.151184
262.000000 100.540000 2.000000 -6.000000 4.000000 132.521244 -27.702879 1540.136111 -173.761155 9.936985 0.000000 0.082945
263.000000 91.179000 3.000000 -6.000000 4.000000 122.181468 -17.580067 1316.008580 230.525254 10.959048 0.000000 0.062202
264.000000 71.411000 5.000000 -6.000000 4.000000 102.729358 -6.706261 1101.554752 696.192036 13.997790 0.000000 0.157615
265.000000 54.613000 7.000000 -6.000000 4.000000 87.053975 -1.211531 997.761849 996.401926 18.308935 0.000000 0.158009
266.000000 112.420000 2.000000 -5.000000 4.000000 134.581031 -14.843271 1260.238978 -156.283857 8.886768 0.000000 0.031921
267.000000 99.717000 3.000000 -5.000000 4.000000 121.573607 -6.848431 1104.263131 274.789204 10.020826 0.000000 0.095469
268.000000 86.756000 4.000000 -5.000000 4.000000 109.738277 -2.189739 1016.154019 554.537241 11.520291 0.000000 0.146224
269.000000 74.740000 5.000000 -5.000000 4.000000 99.375721 0.823375 959.531939 763.270828 13.375242 0.000000 0.164781
270.000000 64.190000 6.000000 -5.000000 4.000000 90.445175 2.921250 920.077082 932.626392 15.576115 0.000000 0.162403
271.000000 55.206000 7.000000 -5.000000 4.000000 82.788435 4.462116 891.009821 1077.602345 18.113684 0.000000 0.146822
272.000000 47.672000 8.000000 -5.000000 4.000000 76.220680 5.640244 868.705115 1206.235461 20.979049 0.000000 0.123158
274.000000 124.629000 2.000000 -4.000000 4.000000 134.116578 1.609823 944.751719 -103.017797 8.016223 0.000000 0.030054
275.000000 107.621000 3.000000 -4.000000 4.000000 118.667808 5.391719 873.417179 349.916615 9.285353 0.000000 0.110668
276.000000 76.785000 5.000000 -4.000000 4.000000 94.431996 8.746655 809.406799 856.597479 13.020196 0.000000 0.159832
277.000000 54.733000 7.000000 -4.000000 4.000000 77.482093 10.279370 779.804493 1183.859681 18.271995 0.000000 0.126232
279.000000 135.132000 2.000000 -3.000000 4.000000 129.223939 19.851111 586.425307 6.943422 7.393602 0.000000 0.027387
280.000000 113.197000 3.000000 -3.000000 4.000000 112.535008 18.217689 620.764208 470.847551 8.828760 0.000000 0.100746
281.000000 93.313000 4.000000 -3.000000 4.000000 98.820693 17.333569 639.079763 766.037091 10.712895 0.000000 0.138574
282.000000 76.731000 5.000000 -3.000000 4.000000 87.659046 16.779603 650.465626 986.955708 13.030834 0.000000 0.141248
283.000000 63.422000 6.000000 -3.000000 4.000000 78.561922 16.400021 658.228941 1167.999175 15.768082 0.000000 0.124944
284.000000 52.890000 7.000000 -3.000000 4.000000 71.093883 16.123700 663.861265 1324.720160 18.910780 0.000000 0.100927
285.000000 140.212000 2.000000 -2.000000 4.000000 118.634898 36.592268 175.898666 209.069613 7.126741 0.000000 0.076203
286.000000 113.964000 3.000000 -2.000000 4.000000 102.608061 30.419041 343.061012 661.831979 8.770748 0.000000 0.068994
287.000000 73.747000 5.000000 -2.000000 4.000000 78.991599 24.614330 481.908349 1171.301211 13.560089 0.000000 0.117262
288.000000 49.456000 7.000000 -2.000000 4.000000 63.669668 21.875327 542.870760 1514.974963 20.225949 0.000000 0.100461
289.000000 135.128000 2.000000 -1.000000 4.000000 102.643273 49.811279 -299.130950 566.862113 7.396617 0.000000 0.263408
290.000000 107.374000 3.000000 -1.000000 4.000000 89.059922 41.090958 36.387718 964.433215 9.310963 0.000000 0.125776
291.000000 84.691000 4.000000 -1.000000 4.000000 77.742267 35.646710 203.121016 1228.756646 11.807432 0.000000 0.130981
292.000000 67.306000 5.000000 -1.000000 4.000000 68.619712 31.985511 302.835071 1437.789583 14.859978 0.000000 0.139203
293.000000 54.234000 6.000000 -1.000000 4.000000 61.291650 29.374275 369.175858 1617.422653 18.444087 0.000000 0.149676
295.000000 92.514000 3.000000 0.000000 4.000000 72.900397 49.919822 -304.038400 1455.248008 10.809103 0.000000 0.345599
296.000000 57.563000 5.000000 0.000000 4.000000 57.004643 38.716069 112.229992 1836.642666 17.377375 0.000000 0.269234
302.000000 47.979000 4.000000 -13.000000 5.000000 114.419460 -43.945330 2012.382458 262.294406 20.828073 0.000000 0.160621
303.000000 45.864000 5.000000 -13.000000 5.000000 110.948790 -38.105460 1819.088137 417.350535 21.790162 0.000000 0.055129
305.000000 51.411000 4.000000 -12.000000 5.000000 115.840939 -40.568868 1896.481796 254.805893 19.437415 0.000000 0.110393
306.000000 48.848000 5.000000 -12.000000 5.000000 111.785972 -34.550990 1716.127706 418.695507 20.458905 0.000000 0.020399
307.000000 46.098000 6.000000 -12.000000 5.000000 107.482450 -29.462089 1582.998245 551.659087 21.681252 0.000000 0.059133
308.000000 58.001000 3.000000 -11.000000 5.000000 121.537594 -43.983400 2013.762854 23.017934 17.227550 0.000000 0.206464
309.000000 55.209000 4.000000 -11.000000 5.000000 117.226349 -36.589450 1774.019235 251.316146 18.099927 0.000000 0.062259
310.000000 52.085000 5.000000 -11.000000 5.000000 112.478066 -30.470405 1608.237179 424.307122 19.187384 0.000000 0.028533
311.000000 48.787000 6.000000 -11.000000 5.000000 107.555941 -25.430507 1486.764552 563.957155 20.486515 0.000000 0.084388
313.000000 62.874000 3.000000 -10.000000 5.000000 123.700992 -39.518652 1862.817162 10.471461 15.891826 0.000000 0.145908
314.000000 59.391000 4.000000 -10.000000 5.000000 118.492805 -31.880316 1644.421271 253.014458 16.825420 0.000000 0.017936
315.000000 51.596000 6.000000 -10.000000 5.000000 107.317145 -20.921242 1386.454103 581.732596 19.371415 0.000000 0.108633
316.000000 47.654000 7.000000 -10.000000 5.000000 101.840758 -16.994146 1303.935951 705.048329 20.976258 0.000000 0.137021
318.000000 68.324000 3.000000 -9.000000 5.000000 125.811940 -33.987990 1700.641457 4.396897 14.623850 0.000000 0.090178
319.000000 63.948000 4.000000 -9.000000 5.000000 119.509536 -26.304612 1507.045563 261.459621 15.626275 0.000000 0.026656
320.000000 59.239000 5.000000 -9.000000 5.000000 113.015520 -20.442449 1376.178187 453.067794 16.870239 0.000000 0.090662
321.000000 54.465000 6.000000 -9.000000 5.000000 106.648738 -15.910426 1281.802237 606.324662 18.351423 0.000000 0.129965
322.000000 49.818000 7.000000 -9.000000 5.000000 100.586796 -12.343298 1210.522266 735.073575 20.065610 0.000000 0.151230
324.000000 74.352000 3.000000 -8.000000 5.000000 127.679925 -27.107023 1525.934087 7.173071 13.437968 0.000000 0.044330
325.000000 68.828000 4.000000 -8.000000 5.000000 120.078664 -19.737793 1361.170287 278.719043 14.518347 0.000000 0.062636
326.000000 63.029000 5.000000 -8.000000 5.000000 112.554305 -14.391238 1251.169963 479.507616 15.856096 0.000000 0.116423
327.000000 57.292000 6.000000 -8.000000 5.000000 105.405774 -10.399171 1172.520875 639.469545 17.446292 0.000000 0.147090
328.000000 51.839000 7.000000 -8.000000 5.000000 98.768936 -7.332218 1113.491661 773.609539 19.284139 0.000000 0.161226
329.000000 46.796000 8.000000 -8.000000 5.000000 92.688014 -4.915004 1067.554901 890.282419 21.364961 0.000000 0.163710
331.000000 80.882000 3.000000 -7.000000 5.000000 128.979688 -18.598619 1337.184153 22.075859 12.352882 0.000000 0.031295
332.000000 73.898000 4.000000 -7.000000 5.000000 119.917162 -12.112415 1205.981447 307.572790 13.522275 0.000000 0.092281
333.000000 66.775000 5.000000 -7.000000 5.000000 111.323828 -7.648827 1119.541966 517.082851 14.967085 0.000000 0.136252
334.000000 59.921000 6.000000 -7.000000 5.000000 103.418714 -4.425377 1058.295877 683.451173 16.681654 0.000000 0.158740
335.000000 53.574000 7.000000 -7.000000 5.000000 96.262273 -2.002387 1012.629920 822.821117 18.660477 0.000000 0.165934
336.000000 47.844000 8.000000 -7.000000 5.000000 89.837254 -0.120836 977.269891 944.057175 20.898200 0.000000 0.162391
337.000000 95.830000 2.000000 -6.000000 5.000000 140.362351 -16.446735 1292.724821 -413.707122 10.424425 0.000000 0.062827
338.000000 87.693000 3.000000 -6.000000 5.000000 129.204602 -8.331968 1132.627703 53.686330 11.393446 0.000000 0.052305
339.000000 78.900000 4.000000 -6.000000 5.000000 118.652306 -3.485611 1040.557678 351.820116 12.665429 0.000000 0.112992
340.000000 70.219000 5.000000 -6.000000 5.000000 109.060223 -0.306311 980.754073 569.130974 14.233597 0.000000 0.148458
341.000000 62.123000 6.000000 -6.000000 5.000000 100.504246 1.927205 938.784021 741.325197 16.091378 0.000000 0.163525
342.000000 54.836000 7.000000 -6.000000 5.000000 92.941470 3.577715 907.705573 885.588257 18.232389 0.000000 0.164197
343.000000 48.421000 8.000000 -6.000000 5.000000 86.280469 4.845198 883.765965 1011.220197 20.650435 0.000000 0.154941
344.000000 104.821000 2.000000 -5.000000 5.000000 140.880160 -0.950406 992.854895 -382.625317 9.530248 0.000000 0.004394
345.000000 94.318000 3.000000 -5.000000 5.000000 127.670352 3.445825 910.192435 108.529459 10.593412 0.000000 0.066302
346.000000 83.384000 4.000000 -5.000000 5.000000 115.850589 5.895990 863.851941 416.752860 11.984904 0.000000 0.121963
347.000000 63.590000 6.000000 -5.000000 5.000000 96.486474 8.527970 813.609562 817.261023 15.721173 0.000000 0.160001
348.000000 55.392000 7.000000 -5.000000 5.000000 88.696444 9.314616 798.468119 965.818618 18.050734 0.000000 0.154960
349.000000 48.360000 8.000000 -5.000000 5.000000 81.950782 9.914915 786.867851 1095.513955 20.678169 0.000000 0.140760
350.000000 113.192000 2.000000 -4.000000 5.000000 138.116097 16.600080 654.141100 -311.426154 8.825704 0.000000 0.051349
351.000000 99.922000 3.000000 -4.000000 5.000000 123.641880 15.948354 667.427241 196.106116 9.999812 0.000000 0.059631
352.000000 86.663000 4.000000 -4.000000 5.000000 111.096266 15.591303 674.669336 509.910553 11.532257 0.000000 0.116141
353.000000 74.524000 5.000000 -4.000000 5.000000 100.363317 15.365940 679.227404 736.878548 13.413480 0.000000 0.142537
354.000000 63.950000 6.000000 -4.000000 5.000000 91.228509 15.210759 682.360282 917.081120 15.634255 0.000000 0.147210
355.000000 54.986000 7.000000 -4.000000 5.000000 83.452994 15.097394 684.646029 1068.938652 18.185682 0.000000 0.138088
356.000000 47.489000 8.000000 -4.000000 5.000000 76.812100 15.010951 686.387320 1202.112884 21.059165 0.000000 0.120921
357.000000 119.314000 2.000000 -3.000000 5.000000 131.021627 33.281162 268.513243 -179.018510 8.373479 0.000000 0.126304
358.000000 103.232000 3.000000 -3.000000 5.000000 116.586753 28.054450 401.411513 330.624723 9.680199 0.000000 0.023401
359.000000 87.822000 4.000000 -3.000000 5.000000 104.109857 25.064492 471.640052 642.331548 11.381318 0.000000 0.094842
360.000000 74.246000 5.000000 -3.000000 5.000000 93.550032 23.138341 515.070079 868.386486 13.465189 0.000000 0.123431
361.000000 62.806000 6.000000 -3.000000 5.000000 84.670042 21.796789 544.582961 1049.144007 15.920615 0.000000 0.127235
362.000000 53.374000 7.000000 -3.000000 5.000000 77.195213 20.809753 565.944495 1202.694193 18.736835 0.000000 0.117774
363.000000 45.663000 8.000000 -3.000000 5.000000 70.872540 20.053521 582.121962 1338.369532 21.903498 0.000000 0.103367
365.000000 102.664000 3.000000 -2.000000 5.000000 106.411926 38.832322 108.637068 534.041794 9.735209 0.000000 0.065616
366.000000 85.871000 4.000000 -2.000000 5.000000 94.863892 33.847675 253.186139 830.722595 11.641669 0.000000 0.080740
367.000000 71.562000 5.000000 -2.000000 5.000000 85.070173 30.504774 340.893425 1048.749340 13.972181 0.000000 0.108710
368.000000 59.836000 6.000000 -2.000000 5.000000 76.861334 28.122126 399.778143 1225.856017 16.712873 0.000000 0.115614
369.000000 50.385000 7.000000 -2.000000 5.000000 69.984063 26.343596 442.042878 1378.514439 19.850472 0.000000 0.113839
371.000000 96.850000 3.000000 -1.000000 5.000000 93.540943 47.875797 -215.147436 841.705182 10.321640 0.000000 0.217180
372.000000 80.095000 4.000000 -1.000000 5.000000 83.645206 41.657724 17.480420 1101.435458 12.483270 0.000000 0.151571
373.000000 66.138000 5.000000 -1.000000 5.000000 75.144997 37.277498 155.751276 1299.766826 15.120240 0.000000 0.149244
374.000000 54.909000 6.000000 -1.000000 5.000000 67.980731 34.059825 247.394087 1466.403487 18.214913 0.000000 0.154414
375.000000 45.988000 7.000000 -1.000000 5.000000 61.965101 31.610330 312.591818 1613.962848 21.750512 0.000000 0.162869
381.000000 48.215000 4.000000 -13.000000 6.000000 120.481705 -40.663519 1899.567474 105.823061 20.724518 0.000000 0.140512
382.000000 46.133000 5.000000 -13.000000 6.000000 116.657254 -34.751899 1721.704740 283.386231 21.661263 0.000000 0.037164
383.000000 48.975000 5.000000 -12.000000 6.000000 117.580783 -30.766633 1615.750921 286.698821 20.403894 0.000000 0.003700
385.000000 55.022000 4.000000 -11.000000 6.000000 123.487167 -32.200700 1652.797044 99.534346 18.159844 0.000000 0.054656
386.000000 52.018000 5.000000 -11.000000 6.000000 118.314698 -26.203680 1504.688305 294.698654 19.210437 0.000000 0.032604
387.000000 48.846000 6.000000 -11.000000 6.000000 113.034031 -21.381959 1396.404220 449.560048 20.459676 0.000000 0.085900
388.000000 45.629000 7.000000 -11.000000 6.000000 107.820040 -17.472471 1313.785823 578.289432 21.904628 0.000000 0.121328
389.000000 62.168000 3.000000 -10.000000 6.000000 130.500873 -34.322880 1709.828146 -172.089176 16.070893 0.000000 0.130920
390.000000 55.234000 5.000000 -10.000000 6.000000 118.749646 -20.999425 1388.138265 308.527085 18.091829 0.000000 0.062559
391.000000 47.710000 7.000000 -10.000000 6.000000 107.014150 -12.915008 1221.801019 603.105318 20.949740 0.000000 0.137688
393.000000 62.955000 4.000000 -9.000000 6.000000 125.653799 -20.441029 1376.147800 117.036112 15.871200 0.000000 0.034571
394.000000 58.569000 5.000000 -9.000000 6.000000 118.739345 -15.113761 1265.683813 329.638114 17.061655 0.000000 0.088359
395.000000 49.723000 7.000000 -9.000000 6.000000 105.730127 -8.002071 1126.302967 634.875864 20.101902 0.000000 0.150521
396.000000 45.554000 8.000000 -9.000000 6.000000 99.840089 -5.546546 1079.517892 753.437900 21.944471 0.000000 0.162209
397.000000 72.242000 3.000000 -8.000000 6.000000 134.087605 -19.549542 1357.183459 -165.327317 13.829218 0.000000 0.044657
398.000000 61.926000 5.000000 -8.000000 6.000000 118.097775 -8.552655 1136.864612 359.904082 16.136996 0.000000 0.108876
399.000000 51.573000 7.000000 -8.000000 6.000000 103.857703 -2.770626 1027.086473 675.176413 19.381550 0.000000 0.159035
401.000000 77.682000 3.000000 -7.000000 6.000000 134.798827 -9.719563 1159.352604 -143.327227 12.860760 0.000000 0.026177
402.000000 71.507000 4.000000 -7.000000 6.000000 125.390400 -4.718823 1063.843483 173.788305 13.973297 0.000000 0.078279
403.000000 65.147000 5.000000 -7.000000 6.000000 116.604543 -1.392931 1001.171199 401.765884 15.339639 0.000000 0.122787
404.000000 58.949000 6.000000 -7.000000 6.000000 108.562879 0.964225 956.885449 579.511892 16.954990 0.000000 0.149619
405.000000 53.130000 7.000000 -7.000000 6.000000 101.282697 2.716636 923.930045 726.031579 18.814676 0.000000 0.162366
406.000000 47.803000 8.000000 -7.000000 6.000000 94.730310 4.068241 898.449900 851.714278 20.914139 0.000000 0.164598
407.000000 67.995000 5.000000 -6.000000 6.000000 114.023441 6.202040 858.038242 458.450896 14.697810 0.000000 0.128541
408.000000 54.228000 7.000000 -6.000000 6.000000 97.898018 8.372513 816.594244 790.081335 18.434854 0.000000 0.159640
410.000000 88.010000 3.000000 -5.000000 6.000000 131.452859 13.774027 711.154043 -37.795083 11.352026 0.000000 0.030489
411.000000 78.964000 4.000000 -5.000000 6.000000 120.149396 13.906407 708.516372 296.977159 12.654625 0.000000 0.084461
412.000000 70.142000 5.000000 -5.000000 6.000000 110.136178 13.990629 706.836675 534.296695 14.248746 0.000000 0.124533
413.000000 61.980000 6.000000 -5.000000 6.000000 101.332533 14.048927 705.673271 718.648784 16.128009 0.000000 0.144787
414.000000 54.673000 7.000000 -5.000000 6.000000 93.618441 14.091674 704.819827 870.825789 18.286220 0.000000 0.150243
415.000000 48.263000 8.000000 -5.000000 6.000000 86.861624 14.124360 704.167035 1001.852728 20.717363 0.000000 0.145388
417.000000 91.773000 3.000000 -4.000000 6.000000 126.347641 25.747277 455.920323 61.707435 10.887228 0.000000 0.028790
418.000000 71.178000 5.000000 -4.000000 6.000000 104.786733 21.692005 546.864453 635.245097 14.042602 0.000000 0.110057
419.000000 54.257000 7.000000 -4.000000 6.000000 88.397457 19.761562 588.325661 972.995727 18.427981 0.000000 0.134794
421.000000 81.600000 4.000000 -3.000000 6.000000 107.622933 32.070316 300.618639 537.535265 12.248137 0.000000 0.039399
422.000000 70.653000 5.000000 -3.000000 6.000000 97.925126 29.043338 377.335649 769.620185 14.148587 0.000000 0.090387
423.000000 52.791000 7.000000 -3.000000 6.000000 82.243069 25.275266 466.806354 1103.131148 18.941448 0.000000 0.118570
424.000000 45.839000 8.000000 -3.000000 6.000000 75.968397 24.028210 495.167816 1235.500900 21.816956 0.000000 0.114393
425.000000 92.140000 3.000000 -2.000000 6.000000 108.490584 45.824016 -132.706281 424.505990 10.846602 0.000000 0.183841
426.000000 68.174000 5.000000 -2.000000 6.000000 89.637565 35.848455 197.367546 949.399510 14.664954 0.000000 0.096261
427.000000 50.149000 7.000000 -2.000000 6.000000 75.228479 30.542847 339.929591 1270.517777 19.941412 0.000000 0.120053
429.000000 74.595000 4.000000 -1.000000 6.000000 87.862378 46.832695 -172.448437 999.722093 13.402456 0.000000 0.210037
430.000000 63.543000 5.000000 -1.000000 6.000000 80.152862 41.998090 5.965261 1192.384013 15.736034 0.000000 0.169783
431.000000 54.141000 6.000000 -1.000000 6.000000 73.376605 38.340596 123.755067 1350.691032 18.471245 0.000000 0.164563
432.000000 46.314000 7.000000 -1.000000 6.000000 67.493602 35.498365 207.333090 1488.769228 21.595358 0.000000 0.167226
434.000000 56.877000 5.000000 0.000000 6.000000 69.819756 47.461766 -197.996655 1526.103368 17.582825 0.000000 0.311069
439.000000 48.034000 4.000000 -13.000000 7.000000 126.029241 -36.963689 1784.976989 -38.720539 20.800923 0.000000 0.127718
440.000000 46.017000 5.000000 -13.000000 7.000000 121.867244 -31.051386 1623.017335 160.006844 21.714312 0.000000 0.032983
442.000000 51.059000 4.000000 -12.000000 7.000000 127.597970 -32.506234 1660.839711 -41.764141 19.568233 0.000000 0.088226
443.000000 48.668000 5.000000 -12.000000 7.000000 122.788830 -26.601284 1513.998188 165.591071 20.531210 0.000000 0.018688
444.000000 46.108000 6.000000 -12.000000 7.000000 117.835609 -21.826451 1406.063467 328.792746 21.672805 0.000000 0.062384
446.000000 54.304000 4.000000 -11.000000 7.000000 129.005983 -27.259645 1529.557227 -39.664585 18.398431 0.000000 0.054316
447.000000 51.464000 5.000000 -11.000000 7.000000 123.461890 -21.533262 1399.685539 176.270883 19.415734 0.000000 0.038081
448.000000 48.462000 6.000000 -11.000000 7.000000 117.885104 -17.043348 1304.946779 345.329848 20.620171 0.000000 0.084969
450.000000 60.827000 3.000000 -10.000000 7.000000 136.346482 -28.261767 1553.598669 -339.786549 16.424005 0.000000 0.116407
451.000000 57.746000 4.000000 -10.000000 7.000000 130.116525 -21.108662 1390.494350 -31.082209 17.301652 0.000000 0.032665
452.000000 54.368000 5.000000 -10.000000 7.000000 123.762854 -15.806095 1279.684251 193.219535 18.378730 0.000000 0.061299
453.000000 50.850000 6.000000 -10.000000 7.000000 117.530367 -11.781828 1199.493352 367.917861 19.652310 0.000000 0.104084
454.000000 47.322000 7.000000 -10.000000 7.000000 111.556396 -8.651876 1138.771112 510.918082 21.119519 0.000000 0.133844
456.000000 65.051000 3.000000 -9.000000 7.000000 138.048446 -20.438881 1376.101858 -336.825585 15.357290 0.000000 0.071850
457.000000 61.331000 4.000000 -9.000000 7.000000 130.738366 -13.979349 1242.938308 -14.307224 16.290332 0.000000 0.034686
458.000000 57.316000 5.000000 -9.000000 7.000000 123.535248 -9.419662 1153.558853 217.913707 17.433491 0.000000 0.080847
459.000000 53.203000 6.000000 -9.000000 7.000000 116.647400 -6.068176 1089.418079 397.874599 18.783508 0.000000 0.119005
460.000000 49.144000 7.000000 -9.000000 7.000000 110.174773 -3.516938 1041.148359 544.792596 20.337189 0.000000 0.144279
462.000000 69.445000 3.000000 -8.000000 7.000000 139.050307 -11.018753 1184.576017 -322.628115 14.385319 0.000000 0.033504
463.000000 64.962000 4.000000 -8.000000 7.000000 130.622614 -5.892748 1086.086521 12.862677 15.379899 0.000000 0.047720
464.000000 60.207000 5.000000 -8.000000 7.000000 122.593498 -2.438163 1020.828268 252.229635 16.596494 0.000000 0.094777
465.000000 55.423000 6.000000 -8.000000 7.000000 115.098555 0.031392 974.410298 436.859940 18.031454 0.000000 0.128891
466.000000 50.784000 7.000000 -8.000000 7.000000 108.184617 1.878343 939.702912 587.262556 19.681209 0.000000 0.150281
467.000000 46.402000 8.000000 -8.000000 7.000000 101.851606 3.309039 912.770894 714.761292 21.542265 0.000000 0.161357
469.000000 73.855000 3.000000 -7.000000 7.000000 138.918659 -0.121878 977.289467 -293.593488 13.526403 0.000000 0.005677
470.000000 68.481000 4.000000 -7.000000 7.000000 129.477161 2.976737 919.031998 53.294014 14.589736 0.000000 0.056260
471.000000 62.892000 5.000000 -7.000000 7.000000 120.736515 4.993490 880.959673 298.576871 15.888411 0.000000 0.101520
472.000000 57.376000 6.000000 -7.000000 7.000000 112.743151 6.407538 854.130872 486.987518 17.418315 0.000000 0.132791
473.000000 47.252000 8.000000 -7.000000 7.000000 98.927288 8.256329 818.823370 770.160949 21.155826 0.000000 0.159134
475.000000 78.024000 3.000000 -6.000000 7.000000 137.174386 11.694736 752.213299 -244.867221 12.803893 0.000000 0.028289
476.000000 71.652000 4.000000 -6.000000 7.000000 127.006754 12.278863 740.745790 110.762713 13.944526 0.000000 0.054260
477.000000 65.163000 5.000000 -6.000000 7.000000 117.772395 12.653649 733.361352 360.087786 15.335536 0.000000 0.099455
478.000000 58.888000 6.000000 -6.000000 7.000000 109.453457 12.914509 728.208841 550.982223 16.972248 0.000000 0.129761
479.000000 53.029000 7.000000 -6.000000 7.000000 101.996078 13.106528 724.409209 706.186738 18.850106 0.000000 0.146197
480.000000 47.686000 8.000000 -6.000000 7.000000 95.327284 13.253777 721.491459 837.891864 20.964664 0.000000 0.151888
482.000000 81.568000 3.000000 -5.000000 7.000000 133.424217 23.502650 506.954744 -169.814318 12.248046 0.000000 0.060437
483.000000 74.146000 4.000000 -5.000000 7.000000 122.973147 21.545177 550.055772 190.311378 13.476208 0.000000 0.037359
484.000000 66.750000 5.000000 -5.000000 7.000000 113.550665 20.276224 577.374333 440.891509 14.971834 0.000000 0.087229
485.000000 59.746000 6.000000 -5.000000 7.000000 105.134118 19.387654 596.237605 632.406820 16.729571 0.000000 0.119286
486.000000 53.332000 7.000000 -5.000000 7.000000 97.653202 18.731016 610.044978 788.286118 18.744208 0.000000 0.135347
487.000000 47.585000 8.000000 -5.000000 7.000000 91.016696 18.226107 620.588925 920.890597 21.010670 0.000000 0.139798
489.000000 83.969000 3.000000 -4.000000 7.000000 127.488270 34.377312 238.671774 -59.221084 11.898785 0.000000 0.110930
490.000000 75.550000 4.000000 -4.000000 7.000000 117.252554 30.317599 345.620847 298.781917 13.226843 0.000000 0.000656
491.000000 67.340000 5.000000 -4.000000 7.000000 107.993863 27.602693 412.262543 546.519147 14.841965 0.000000 0.066318
492.000000 59.721000 6.000000 -4.000000 7.000000 99.741429 25.667315 457.770537 735.995625 16.737954 0.000000 0.102980
493.000000 52.873000 7.000000 -4.000000 7.000000 92.437707 24.220910 490.821977 890.757501 18.908795 0.000000 0.120322
494.000000 46.836000 8.000000 -4.000000 7.000000 85.990281 23.100269 515.915615 1023.021833 21.348640 0.000000 0.124976
495.000000 84.610000 3.000000 -3.000000 7.000000 119.435778 43.769713 -56.037526 99.946697 11.809889 0.000000 0.196261
496.000000 75.409000 4.000000 -3.000000 7.000000 109.867050 38.270305 125.899357 445.630732 13.252979 0.000000 0.062246
497.000000 66.611000 5.000000 -3.000000 7.000000 101.119876 34.430604 237.201203 684.519247 15.005840 0.000000 0.057901
498.000000 58.596000 6.000000 -3.000000 7.000000 93.298303 31.620981 312.315933 868.158883 17.061222 0.000000 0.091026
499.000000 51.507000 7.000000 -3.000000 7.000000 86.377421 29.485406 366.423848 1019.279159 19.412099 0.000000 0.108962
501.000000 73.320000 4.000000 -2.000000 7.000000 100.985373 45.254272 -110.889862 644.215027 13.632465 0.000000 0.159866
502.000000 64.306000 5.000000 -2.000000 7.000000 93.050203 40.638069 51.263042 865.421506 15.545755 0.000000 0.108444
503.000000 56.212000 6.000000 -2.000000 7.000000 85.901393 37.156642 159.331180 1037.768722 17.786839 0.000000 0.111584
504.000000 49.144000 7.000000 -2.000000 7.000000 79.553239 34.455768 236.506159 1181.666920 20.347407 0.000000 0.121420
506.000000 69.060000 4.000000 -1.000000 7.000000 90.902713 51.266283 -366.815878 913.896410 14.475539 0.000000 0.304199
507.000000 60.311000 5.000000 -1.000000 7.000000 84.002959 46.180837 -146.598130 1104.300717 16.577908 0.000000 0.212163
508.000000 52.524000 6.000000 -1.000000 7.000000 77.717886 42.225113 -1.784014 1257.428061 19.037968 0.000000 0.183358
509.000000 45.778000 7.000000 -1.000000 7.000000 72.096907 39.088012 100.693221 1388.961143 21.845730 0.000000 0.177021
514.000000 47.509000 4.000000 -13.000000 8.000000 131.032087 -32.797910 1668.568755 -173.302007 21.029382 0.000000 0.118274
515.000000 45.579000 5.000000 -13.000000 8.000000 126.554966 -26.983102 1522.999554 45.501468 21.921208 0.000000 0.036407
517.000000 48.009000 5.000000 -12.000000 8.000000 127.389698 -22.045287 1410.841020 53.532507 20.811404 0.000000 0.027855
519.000000 53.183000 4.000000 -11.000000 8.000000 133.757938 -21.743162 1404.248988 -168.553994 18.785315 0.000000 0.052948
520.000000 50.532000 5.000000 -11.000000 8.000000 127.907401 -16.469905 1293.198046 67.045019 19.772431 0.000000 0.039507
521.000000 47.727000 6.000000 -11.000000 8.000000 122.104595 -12.437241 1212.372126 249.493653 20.936435 0.000000 0.080670
523.000000 53.104000 5.000000 -10.000000 8.000000 127.974829 -10.251679 1169.658275 87.238051 18.814974 0.000000 0.055375
524.000000 46.588000 7.000000 -10.000000 8.000000 115.478427 -4.242008 1054.831521 426.722461 21.451023 0.000000 0.125673
527.000000 59.287000 4.000000 -9.000000 8.000000 134.782156 -7.010645 1107.355303 -135.187011 16.850904 0.000000 0.026007
528.000000 55.657000 5.000000 -9.000000 8.000000 127.434105 -3.443671 1039.766947 115.604894 17.951980 0.000000 0.068019
529.000000 51.917000 6.000000 -9.000000 8.000000 120.469177 -0.872213 991.385683 307.720491 19.247480 0.000000 0.105765
530.000000 48.199000 7.000000 -9.000000 8.000000 113.947571 1.062287 955.042773 462.900366 20.734586 0.000000 0.132995
532.000000 58.094000 5.000000 -8.000000 8.000000 126.113128 3.826038 903.021311 154.020940 17.199295 0.000000 0.074732
533.000000 49.615000 7.000000 -8.000000 8.000000 111.796420 6.555042 851.324267 507.758753 20.143554 0.000000 0.135740
535.000000 69.777000 3.000000 -7.000000 8.000000 141.510371 9.709505 790.841884 -432.261458 14.316423 0.000000 0.035562
536.000000 65.143000 4.000000 -7.000000 8.000000 132.333779 10.708287 771.470847 -56.890289 15.336773 0.000000 0.031461
537.000000 60.278000 5.000000 -7.000000 8.000000 123.844510 11.354818 758.864114 204.863743 16.576513 0.000000 0.073568
538.000000 55.420000 6.000000 -7.000000 8.000000 116.054009 11.807405 750.005241 403.425169 18.032074 0.000000 0.109251
539.000000 50.734000 7.000000 -7.000000 8.000000 108.944177 12.141895 743.439206 563.121467 19.699964 0.000000 0.133309
540.000000 46.327000 8.000000 -7.000000 8.000000 102.478135 12.399162 738.377861 697.134119 21.576766 0.000000 0.147144
541.000000 72.926000 3.000000 -6.000000 8.000000 138.730478 21.324658 554.836703 -375.574744 13.698652 0.000000 0.081494
542.000000 62.034000 5.000000 -6.000000 8.000000 120.490231 18.891713 606.676017 271.179630 16.108166 0.000000 0.062638
543.000000 51.439000 7.000000 -6.000000 8.000000 105.328508 17.718324 631.131377 631.292297 19.431339 0.000000 0.125335
545.000000 69.323000 4.000000 -5.000000 8.000000 124.662704 28.592220 388.374878 93.409132 14.413369 0.000000 0.034636
546.000000 63.147000 5.000000 -5.000000 8.000000 115.965540 26.184177 445.766698 356.919059 15.825377 0.000000 0.040748
547.000000 57.178000 6.000000 -5.000000 8.000000 108.055288 24.466197 485.271103 555.529143 17.479906 0.000000 0.085460
548.000000 51.599000 7.000000 -5.000000 8.000000 100.915038 23.180954 514.123121 715.217120 19.372509 0.000000 0.112396
549.000000 46.501000 8.000000 -5.000000 8.000000 94.495148 22.184161 536.119489 849.621196 21.498852 0.000000 0.126163
551.000000 63.381000 5.000000 -4.000000 8.000000 110.255516 33.025527 275.364381 467.275689 15.768231 0.000000 0.023822
552.000000 51.087000 7.000000 -4.000000 8.000000 95.705255 28.438575 392.113038 818.715568 19.568203 0.000000 0.098301
554.000000 69.604000 4.000000 -3.000000 8.000000 111.233324 43.675223 -52.639038 362.806833 14.357711 0.000000 0.150970
555.000000 62.511000 5.000000 -3.000000 8.000000 103.421393 39.282778 94.603460 609.185989 15.989259 0.000000 0.072014
556.000000 55.854000 6.000000 -3.000000 8.000000 96.241667 35.979252 193.621754 795.534547 17.897585 0.000000 0.074703
557.000000 49.797000 7.000000 -3.000000 8.000000 89.741426 33.420078 264.773400 946.819554 20.076840 0.000000 0.095809
559.000000 60.369000 5.000000 -2.000000 8.000000 95.597564 44.898567 -97.490209 792.084558 16.558667 0.000000 0.157427
560.000000 47.667000 7.000000 -2.000000 8.000000 83.107422 38.077915 131.747207 1106.280687 20.976194 0.000000 0.125409
562.000000 56.893000 5.000000 -1.000000 8.000000 86.981011 49.875169 -302.016871 1029.080435 17.572456 0.000000 0.277886
563.000000 50.460000 6.000000 -1.000000 8.000000 81.216063 45.734970 -129.267295 1179.274162 19.815145 0.000000 0.216400
568.000000 46.711000 4.000000 -13.000000 9.000000 135.468037 -28.125327 1550.299175 -299.504007 21.387473 0.000000 0.108554
569.000000 49.195000 4.000000 -12.000000 9.000000 136.778934 -22.346791 1417.447604 -297.288928 20.307055 0.000000 0.075383
570.000000 47.080000 5.000000 -12.000000 9.000000 131.375327 -17.106749 1306.250138 -50.942787 21.221048 0.000000 0.030758
572.000000 51.771000 4.000000 -11.000000 9.000000 137.733969 -15.664824 1276.819812 -288.923866 19.296641 0.000000 0.046229
573.000000 49.322000 5.000000 -11.000000 9.000000 131.655647 -11.050451 1185.194110 -34.537352 20.256274 0.000000 0.035669
574.000000 46.726000 6.000000 -11.000000 9.000000 125.703160 -7.602686 1118.659665 160.654330 21.383616 0.000000 0.072742
576.000000 54.393000 4.000000 -10.000000 9.000000 138.156387 -8.075637 1127.712467 -272.965452 18.366245 0.000000 0.022295
577.000000 51.565000 5.000000 -10.000000 9.000000 131.411110 -4.411091 1058.025910 -11.072178 19.375500 0.000000 0.044593
578.000000 48.599000 6.000000 -10.000000 9.000000 124.939306 -1.747515 1007.837048 188.718624 20.559960 0.000000 0.082737
579.000000 45.594000 7.000000 -10.000000 9.000000 118.806175 0.267915 969.967216 349.144678 21.917348 0.000000 0.113481
580.000000 56.995000 4.000000 -9.000000 9.000000 137.838499 0.301581 969.334777 -247.607655 17.527885 0.000000 0.010481
581.000000 53.741000 5.000000 -9.000000 9.000000 130.493243 2.698545 924.270642 20.957082 18.591286 0.000000 0.050528
582.000000 46.992000 7.000000 -9.000000 9.000000 117.091325 5.678987 867.970190 387.722472 21.265795 0.000000 0.117159
584.000000 59.479000 4.000000 -8.000000 9.000000 136.565556 9.193977 800.794470 -210.573776 16.796114 0.000000 0.021595
585.000000 55.759000 5.000000 -8.000000 9.000000 128.755790 10.093802 783.402901 63.420638 17.918827 0.000000 0.050249
586.000000 51.952000 6.000000 -8.000000 9.000000 121.485317 10.727436 771.098253 270.100561 19.233947 0.000000 0.087272
587.000000 48.188000 7.000000 -8.000000 9.000000 114.755225 11.197672 761.933443 435.071173 20.738711 0.000000 0.116076
589.000000 61.713000 4.000000 -7.000000 9.000000 134.152773 18.202473 621.080963 -158.969783 16.188723 0.000000 0.038399
590.000000 57.500000 5.000000 -7.000000 9.000000 126.074303 17.539011 634.839881 118.663068 17.376682 0.000000 0.041512
591.000000 53.247000 6.000000 -7.000000 9.000000 118.605187 17.071192 644.480933 327.006819 18.766980 0.000000 0.079840
592.000000 49.095000 7.000000 -7.000000 9.000000 111.736847 16.723640 651.612127 492.937164 20.356557 0.000000 0.109753
593.000000 63.524000 4.000000 -6.000000 9.000000 130.481847 26.896598 429.045095 -89.082370 15.727698 0.000000 0.062863
594.000000 58.820000 5.000000 -6.000000 9.000000 122.365107 24.788984 477.933311 189.651265 16.987758 0.000000 0.022332
595.000000 49.615000 7.000000 -6.000000 9.000000 107.996072 22.155777 536.741201 563.498382 20.144541 0.000000 0.098217
597.000000 64.710000 4.000000 -5.000000 9.000000 125.520559 34.928357 223.374516 3.903390 15.440528 0.000000 0.102445
598.000000 59.550000 5.000000 -5.000000 9.000000 117.598153 31.634718 311.960003 280.179285 16.780669 0.000000 0.013932
599.000000 54.474000 6.000000 -5.000000 9.000000 110.254613 29.229929 372.741418 485.884459 18.346463 0.000000 0.045546
600.000000 49.644000 7.000000 -5.000000 9.000000 103.519928 27.402884 417.033305 649.500097 20.134074 0.000000 0.083431
602.000000 65.046000 4.000000 -4.000000 9.000000 119.320844 42.097943 2.563665 126.305625 15.362048 0.000000 0.164349
603.000000 59.516000 5.000000 -4.000000 9.000000 111.801460 37.933697 136.110702 395.156915 16.791626 0.000000 0.062600
604.000000 54.142000 6.000000 -4.000000 9.000000 104.782759 34.809359 226.695233 595.076248 18.460658 0.000000 0.043603
605.000000 49.086000 7.000000 -4.000000 9.000000 98.326780 32.391898 292.176356 754.444505 20.364807 0.000000 0.074008
606.000000 64.320000 4.000000 -3.000000 9.000000 112.004506 48.349822 -235.123151 286.527974 15.537063 0.000000 0.255745
607.000000 58.561000 5.000000 -3.000000 9.000000 105.058638 43.616241 -50.523106 541.024102 17.067136 0.000000 0.133646
608.000000 47.862000 7.000000 -3.000000 9.000000 92.467912 37.072024 161.830833 882.860672 20.887522 0.000000 0.089511
610.000000 56.576000 5.000000 -2.000000 9.000000 97.502186 48.673198 -248.964895 726.359347 17.667947 0.000000 0.231375
611.000000 51.045000 6.000000 -2.000000 9.000000 91.558748 44.655378 -88.424181 899.827255 19.584556 0.000000 0.162179
612.000000 45.929000 7.000000 -2.000000 9.000000 86.026208 41.414741 25.626696 1040.697353 21.768333 0.000000 0.139892
615.000000 48.203000 6.000000 -1.000000 9.000000 84.046664 48.899103 -258.740293 1111.731849 20.741583 0.000000 0.265434
619.000000 45.952000 5.000000 -12.000000 10.000000 134.749238 -11.817640 1200.195444 -149.017822 21.741267 0.000000 0.027543
621.000000 50.166000 4.000000 -11.000000 10.000000 140.941312 -9.090708 1147.215393 -402.204012 19.913407 0.000000 0.032371
622.000000 47.921000 5.000000 -11.000000 10.000000 134.726573 -5.342026 1075.641105 -129.720903 20.847926 0.000000 0.026512
623.000000 45.535000 6.000000 -11.000000 10.000000 128.704685 -2.595434 1023.788288 77.695594 21.941884 0.000000 0.061278
626.000000 54.584000 4.000000 -9.000000 10.000000 139.992951 7.734966 828.810403 -353.132112 18.301819 0.000000 0.023220
627.000000 51.682000 5.000000 -9.000000 10.000000 132.790777 8.870144 807.031356 -67.397736 19.331305 0.000000 0.031692
628.000000 48.659000 6.000000 -9.000000 10.000000 126.009268 9.674357 791.521384 147.475525 20.534358 0.000000 0.066146
629.000000 45.611000 7.000000 -9.000000 10.000000 119.659803 10.273714 779.914229 318.106059 21.908739 0.000000 0.097231
631.000000 53.329000 5.000000 -8.000000 10.000000 130.637398 16.218489 661.930936 -20.999144 18.734709 0.000000 0.029293
632.000000 46.602000 7.000000 -8.000000 10.000000 117.131778 15.747074 671.512950 367.972690 21.443696 0.000000 0.091846
634.000000 58.333000 4.000000 -7.000000 10.000000 135.139053 25.232859 467.780220 -254.613358 17.126222 0.000000 0.084069
635.000000 54.692000 5.000000 -7.000000 10.000000 127.576995 23.418155 508.840911 38.489081 18.268331 0.000000 0.026949
636.000000 50.980000 6.000000 -7.000000 10.000000 120.510582 22.119769 537.529574 256.355778 19.600886 0.000000 0.045554
637.000000 47.316000 7.000000 -7.000000 10.000000 113.951499 21.145709 558.705821 428.377284 21.121180 0.000000 0.081122
639.000000 55.654000 5.000000 -6.000000 10.000000 123.572979 30.259573 347.082706 113.960117 17.953585 0.000000 0.040167
640.000000 47.672000 7.000000 -6.000000 10.000000 110.098510 26.378821 441.218664 501.390033 20.964395 0.000000 0.065876
642.000000 60.411000 4.000000 -5.000000 10.000000 125.792519 40.524814 54.951398 -79.930341 16.539139 0.000000 0.184022
643.000000 51.766000 6.000000 -5.000000 10.000000 111.874614 33.647856 258.615285 421.918802 19.305544 0.000000 0.019625
644.000000 47.590000 7.000000 -5.000000 10.000000 105.576849 31.371799 318.754070 589.588066 21.001871 0.000000 0.052157
645.000000 55.857000 5.000000 -4.000000 10.000000 112.815824 42.335142 -5.559817 328.484942 17.891011 0.000000 0.133254
646.000000 46.996000 7.000000 -4.000000 10.000000 100.416545 36.070929 190.988882 696.213395 21.269083 0.000000 0.060195
648.000000 54.861000 5.000000 -3.000000 10.000000 106.206787 47.467842 -198.246367 478.235440 18.217566 0.000000 0.213345
649.000000 50.234000 6.000000 -3.000000 10.000000 100.268193 43.575919 -49.078946 671.864075 19.898004 0.000000 0.130935
650.000000 45.833000 7.000000 -3.000000 10.000000 94.673247 40.444132 57.571354 825.392812 21.810706 0.000000 0.101812
653.000000 45.908000 6.000000 -1.000000 10.000000 86.350289 51.749534 -390.249957 1051.890360 21.777715 0.000000 0.328979
659.000000 46.397000 5.000000 -11.000000 11.000000 137.154868 0.558652 964.505466 -219.512341 21.531782 0.000000 0.013827
662.000000 48.043000 5.000000 -10.000000 11.000000 136.152653 7.683275 829.799212 -189.644957 20.794371 0.000000 0.020177
663.000000 45.609000 6.000000 -10.000000 11.000000 129.820926 8.647861 811.306046 33.279483 21.905922 0.000000 0.047286
666.000000 49.565000 5.000000 -9.000000 11.000000 134.419195 14.930366 688.009333 -150.542667 20.156160 0.000000 0.029683
667.000000 46.865000 6.000000 -9.000000 11.000000 127.868437 14.849287 689.640073 75.163503 21.319693 0.000000 0.042390
670.000000 50.893000 5.000000 -8.000000 11.000000 131.880204 22.072585 538.561994 -100.355024 19.631040 0.000000 0.042921
671.000000 47.920000 6.000000 -8.000000 11.000000 125.231950 20.975506 562.377165 126.912001 20.850904 0.000000 0.031109
674.000000 51.941000 5.000000 -7.000000 11.000000 128.496687 28.901386 380.819661 -36.804253 19.235626 0.000000 0.064034
675.000000 48.703000 6.000000 -7.000000 11.000000 121.880032 26.893341 429.122020 190.409875 20.516731 0.000000 0.014343
676.000000 45.475000 7.000000 -7.000000 11.000000 115.673221 25.366835 464.701152 368.428574 21.975300 0.000000 0.047907
678.000000 52.616000 5.000000 -6.000000 11.000000 124.267655 35.259883 214.072006 42.934494 18.989952 0.000000 0.097175
679.000000 49.134000 6.000000 -6.000000 11.000000 117.807797 32.495596 289.441214 267.973240 20.337869 0.000000 0.023791
680.000000 45.693000 7.000000 -6.000000 11.000000 111.728838 30.360327 344.543267 443.891278 21.871673 0.000000 0.030334
682.000000 52.818000 5.000000 -5.000000 11.000000 119.227492 41.056545 37.525216 142.393705 18.918405 0.000000 0.145811
683.000000 49.133000 6.000000 -5.000000 11.000000 113.037264 37.709556 142.858488 362.471731 20.339484 0.000000 0.063700
684.000000 45.521000 7.000000 -5.000000 11.000000 107.183178 35.075202 219.263423 534.324671 21.955717 0.000000 0.035797
686.000000 52.455000 5.000000 -4.000000 11.000000 113.440739 46.260154 -149.710645 266.031686 19.050968 0.000000 0.213400
687.000000 48.628000 6.000000 -4.000000 11.000000 107.615792 42.497357 -11.150674 477.493634 20.552492 0.000000 0.119136
690.000000 47.561000 6.000000 -3.000000 11.000000 101.613382 46.850551 -173.165317 617.572203 21.015296 0.000000 0.191948
692.000000 45.904000 6.000000 -2.000000 11.000000 95.119225 50.782112 -343.826291 788.500986 21.776202 0.000000 0.285627
697.000000 46.199000 5.000000 -10.000000 12.000000 137.593476 13.674719 713.130811 -271.801792 21.624186 0.000000 0.036380
699.000000 47.453000 5.000000 -9.000000 12.000000 135.478178 20.753025 567.163600 -229.347146 21.053142 0.000000 0.057586
700.000000 48.509000 5.000000 -8.000000 12.000000 132.603506 27.561342 413.251292 -175.533622 20.595238 0.000000 0.083517
702.000000 49.299000 5.000000 -7.000000 12.000000 128.962243 33.937875 250.727052 -108.116030 20.266187 0.000000 0.117361
703.000000 46.472000 6.000000 -7.000000 12.000000 122.813911 31.353391 319.228327 128.335970 21.501164 0.000000 0.044668
704.000000 49.747000 5.000000 -6.000000 12.000000 124.576933 39.781712 78.847277 -24.332629 20.084755 0.000000 0.162557
706.000000 49.778000 5.000000 -5.000000 12.000000 119.494922 45.051206 -103.219786 79.239191 20.073537 0.000000 0.222709
707.000000 46.621000 6.000000 -5.000000 12.000000 113.843412 41.420455 25.435827 306.658509 21.434844 0.000000 0.122241
714.000000 46.216000 5.000000 -8.000000 13.000000 132.916593 32.627515 285.952620 -247.248657 21.617213 0.000000 0.134334
#UB matrix in q= (UB) B0 G* 
#[[-0.057682054  0.642239014 -0.762719058]
# [ 0.247677757  0.75000747   0.612788343]
# [ 0.967123833 -0.153769072 -0.202705339]]
#B0 matrix in q= UB (B0) G*
#[[ 0.19670273 -0.          0.03056101]
# [ 0.          0.19187965 -0.        ]
# [ 0.          0.          0.18806537]]
#UBB0 matrix in q= (UB B0) G* i.e. recip. basis vectors are columns in LT frame: astar = UBB0[:,0], bstar = UBB0[:,1], cstar = UBB0[:,2]. (abcstar as columns on xyzlab1, xlab1 = ui, ui = unit vector along incident beam)
#[[-0.01134622  0.1232326  -0.14520386]
# [ 0.04871889  0.14391117  0.12281355]
# [ 0.1902359  -0.02950516 -0.00856558]]
#Euler angles phi theta psi (deg)
#[ 80.96  101.681  51.271]
#deviatoric strain in direct crystal frame (10-3 unit)
#[[-0.5   0.07 -0.  ]
# [ 0.07  0.21 -0.86]
# [-0.   -0.86  0.29]]
#deviatoric strain in sample2 frame (10-3 unit)
#[[ 0.53  0.16 -0.77]
# [ 0.16 -0.57 -0.03]
# [-0.77 -0.03  0.03]]
#new lattice parameters
#[ 5.1505     5.2152965  5.3218384 90.0526608 99.2223536 89.9916037]
#CCDLabel
#sCMOS
#DetectorParameters
#[79.0, 975.0, 941.0, 0.0, 0.0]
#pixelsize
#0.0734
#Frame dimensions
#[2018, 2016]
#
