#Strain and Orientation Refinement from experimental file: /home/micha/LaueProjects/DepthEffects/testZrO2_107.cor
#File created at Wed Jun 28 14:24:51 2023 with indexingSpotsSet.py
#Number of indexed spots: 547
#Element
#ZrO2
#grainIndex
#G_0
#Mean Deviation(pixel): 0.115
##spot_index intensity h k l 2theta Chi Xexp Yexp Energy GrainIndex PixDev
3.000000 45.763000 3.000000 -11.000000 -8.000000 95.770280 -49.630100 2240.988380 773.084837 21.845221 0.000000 0.235184
5.000000 46.798000 3.000000 -10.000000 -8.000000 91.188191 -51.533856 2329.729705 905.113577 21.363742 0.000000 0.288616
12.000000 47.416000 2.000000 -13.000000 -7.000000 112.338709 -45.948246 2087.522528 304.921829 21.078416 0.000000 0.184270
13.000000 45.456000 3.000000 -13.000000 -7.000000 106.599403 -41.226923 1918.118113 514.404104 21.989602 0.000000 0.084330
15.000000 49.472000 2.000000 -12.000000 -7.000000 109.224790 -47.999976 2170.344885 380.082023 20.202990 0.000000 0.216561
16.000000 47.230000 3.000000 -12.000000 -7.000000 103.309037 -43.021676 1979.422190 592.749485 21.164672 0.000000 0.108178
18.000000 51.528000 2.000000 -11.000000 -7.000000 105.618785 -50.141417 2264.126041 471.520243 19.398090 0.000000 0.257862
19.000000 48.950000 3.000000 -11.000000 -7.000000 99.526443 -44.899754 2047.534628 686.009682 20.422188 0.000000 0.138475
20.000000 45.907000 4.000000 -11.000000 -7.000000 93.172201 -40.397120 1890.904945 862.674563 21.778393 0.000000 0.098288
22.000000 50.523000 3.000000 -10.000000 -7.000000 95.159668 -46.862773 2123.656305 798.861990 19.787794 0.000000 0.177350
23.000000 47.019000 4.000000 -10.000000 -7.000000 88.608729 -42.117100 1948.090154 976.239763 21.264884 0.000000 0.127967
25.000000 51.806000 3.000000 -9.000000 -7.000000 90.099412 -48.911704 2209.288160 938.158589 19.299004 0.000000 0.227957
26.000000 47.770000 4.000000 -9.000000 -7.000000 83.363578 -43.916165 2011.326159 1114.837649 20.932642 0.000000 0.167570
28.000000 52.590000 3.000000 -8.000000 -7.000000 84.217981 -51.046724 2306.331154 1114.353090 19.012958 0.000000 0.295090
29.000000 47.949000 4.000000 -8.000000 -7.000000 77.319798 -45.796100 2081.626967 1288.329024 20.856393 0.000000 0.221166
32.000000 47.269000 4.000000 -7.000000 -7.000000 70.347929 -47.758156 2160.246555 1512.732469 21.158478 0.000000 0.295393
38.000000 47.428000 1.000000 -7.000000 -3.000000 118.375739 -38.364884 1826.986819 199.537720 10.535523 0.000000 0.086554
39.000000 45.529000 3.000000 -14.000000 -6.000000 112.256137 -34.071892 1702.936233 409.260952 21.952563 0.000000 0.016369
41.000000 49.821000 2.000000 -13.000000 -6.000000 115.990573 -40.334670 1888.884173 252.635092 20.059773 0.000000 0.101770
42.000000 47.637000 3.000000 -13.000000 -6.000000 109.634994 -35.751434 1749.861920 467.846663 20.981844 0.000000 0.028311
44.000000 52.352000 1.000000 -6.000000 -3.000000 113.213600 -42.416238 1958.351227 315.745872 9.545456 0.000000 0.121785
45.000000 49.824000 1.000000 -4.000000 -2.000000 106.612504 -37.526597 1801.663709 536.101601 6.687305 0.000000 0.044023
46.000000 46.857000 2.000000 -6.000000 -3.000000 99.835468 -33.446045 1685.926998 717.374213 10.667488 0.000000 0.069017
48.000000 54.989000 2.000000 -11.000000 -6.000000 109.961169 -44.613402 2036.867020 391.857986 18.176129 0.000000 0.148184
49.000000 52.044000 3.000000 -11.000000 -6.000000 103.106842 -39.402072 1859.143271 616.690981 19.207237 0.000000 0.064362
50.000000 48.592000 4.000000 -11.000000 -6.000000 96.054504 -35.051263 1730.065366 801.550967 20.574436 0.000000 0.076538
52.000000 57.671000 1.000000 -5.000000 -3.000000 106.128761 -46.929053 2126.322749 485.237546 8.665902 0.000000 0.183233
53.000000 54.218000 3.000000 -10.000000 -6.000000 99.016730 -41.382238 1923.288205 713.375347 18.438329 0.000000 0.090840
54.000000 50.183000 2.000000 -5.000000 -3.000000 91.685238 -36.745889 1778.586789 901.481401 9.961816 0.000000 0.089500
55.000000 45.797000 5.000000 -10.000000 -6.000000 84.364646 -32.860615 1670.236992 1067.432152 21.835089 0.000000 0.108278
57.000000 60.284000 2.000000 -9.000000 -6.000000 101.585901 -49.364850 2229.176095 602.176342 16.581673 0.000000 0.230267
58.000000 56.212000 1.000000 -3.000000 -2.000000 94.217145 -43.470971 1995.329252 831.644334 5.928444 0.000000 0.125773
59.000000 51.481000 4.000000 -9.000000 -6.000000 86.610507 -38.534386 1832.178249 1022.491685 19.422853 0.000000 0.110545
60.000000 46.395000 5.000000 -9.000000 -6.000000 79.035628 -34.397095 1711.873909 1193.703048 21.555456 0.000000 0.119401
61.000000 62.632000 1.000000 -4.000000 -3.000000 96.170711 -51.920897 2348.680493 752.322979 7.980741 0.000000 0.294403
62.000000 57.813000 3.000000 -8.000000 -6.000000 88.555085 -45.671430 2076.820030 979.851449 17.294376 0.000000 0.172757
63.000000 52.261000 2.000000 -4.000000 -3.000000 80.690036 -40.420986 1891.678210 1172.764020 9.567432 0.000000 0.143346
64.000000 46.379000 5.000000 -8.000000 -6.000000 72.888981 -36.017289 1757.469892 1350.646056 21.565098 0.000000 0.142719
66.000000 58.683000 3.000000 -7.000000 -6.000000 81.846769 -47.985801 2169.750343 1171.384416 17.039814 0.000000 0.237581
67.000000 52.189000 4.000000 -7.000000 -6.000000 73.759912 -42.409551 1958.120804 1365.611877 19.163112 0.000000 0.193576
69.000000 58.314000 1.000000 -2.000000 -2.000000 73.879346 -50.415018 2276.710819 1429.176382 5.716569 0.000000 0.330101
70.000000 50.796000 2.000000 -3.000000 -3.000000 65.636975 -44.503385 2032.796447 1624.378168 9.845535 0.000000 0.270968
76.000000 45.633000 1.000000 -16.000000 -5.000000 130.555651 -32.598453 1663.277957 -152.279244 21.896547 0.000000 0.106891
78.000000 48.138000 1.000000 -15.000000 -5.000000 129.279296 -34.611263 1717.797979 -128.575864 20.757222 0.000000 0.118623
79.000000 46.688000 2.000000 -15.000000 -5.000000 123.060897 -30.119517 1599.395876 131.061342 21.404079 0.000000 0.028241
81.000000 50.889000 1.000000 -14.000000 -5.000000 127.776958 -36.769011 1779.263456 -100.334368 19.635461 0.000000 0.132971
82.000000 49.230000 2.000000 -14.000000 -5.000000 121.302777 -31.899779 1644.928425 170.106135 20.299222 0.000000 0.030681
83.000000 47.149000 3.000000 -14.000000 -5.000000 114.619527 -27.979077 1546.771768 382.513796 21.197410 0.000000 0.042857
85.000000 53.911000 1.000000 -13.000000 -5.000000 125.997055 -39.081119 1849.091874 -66.259027 18.535266 0.000000 0.150809
86.000000 51.998000 2.000000 -13.000000 -5.000000 119.253647 -33.804449 1695.637266 215.504972 19.219191 0.000000 0.035986
87.000000 49.583000 3.000000 -13.000000 -5.000000 112.259309 -29.564060 1585.527569 434.532501 20.157591 0.000000 0.042080
88.000000 46.768000 4.000000 -13.000000 -5.000000 105.193827 -26.117149 1502.670629 615.463166 21.373694 0.000000 0.093223
90.000000 57.226000 1.000000 -12.000000 -5.000000 123.873625 -41.556384 1929.114605 -24.545401 17.461956 0.000000 0.173375
91.000000 55.002000 2.000000 -12.000000 -5.000000 116.847953 -35.842363 1752.458283 268.923040 18.170299 0.000000 0.045188
92.000000 52.176000 3.000000 -12.000000 -5.000000 109.521629 -31.255827 1628.261187 494.618722 19.156947 0.000000 0.042470
93.000000 48.884000 4.000000 -12.000000 -5.000000 102.112432 -27.537423 1536.177129 680.506681 20.449596 0.000000 0.094085
94.000000 60.849000 1.000000 -11.000000 -5.000000 121.321659 -44.202446 2021.739851 27.382924 16.422752 0.000000 0.202469
95.000000 58.238000 2.000000 -11.000000 -5.000000 114.001718 -38.022280 1816.567444 332.656235 17.161196 0.000000 0.059313
96.000000 54.901000 3.000000 -11.000000 -5.000000 106.322717 -33.062280 1675.618162 564.908841 18.206741 0.000000 0.045493
97.000000 51.025000 4.000000 -11.000000 -5.000000 98.549169 -29.049594 1572.818122 755.919135 19.592990 0.000000 0.094969
98.000000 46.814000 5.000000 -11.000000 -5.000000 90.882134 -25.766520 1494.525318 922.598281 21.358629 0.000000 0.120691
100.000000 61.681000 2.000000 -10.000000 -5.000000 110.606575 -40.352572 1889.463058 409.958254 16.204064 0.000000 0.079684
101.000000 57.706000 3.000000 -10.000000 -5.000000 102.555854 -34.991510 1728.391706 648.398823 17.323020 0.000000 0.053254
102.000000 53.107000 4.000000 -10.000000 -5.000000 94.400466 -30.660557 1613.055034 844.714493 18.826211 0.000000 0.096465
103.000000 48.162000 2.000000 -4.000000 -2.000000 86.382570 -27.126494 1526.395775 1017.453107 8.304915 0.000000 0.117750
105.000000 65.259000 2.000000 -9.000000 -5.000000 106.521884 -42.840810 1973.084352 505.593313 15.316625 0.000000 0.108347
106.000000 60.481000 3.000000 -9.000000 -5.000000 98.084594 -37.051628 1787.567486 749.438204 16.529439 0.000000 0.068158
107.000000 54.991000 4.000000 -9.000000 -5.000000 89.536724 -32.377506 1657.444531 951.304780 18.182678 0.000000 0.100078
108.000000 49.168000 5.000000 -9.000000 -5.000000 81.169528 -28.571818 1561.128105 1131.391528 20.339350 0.000000 0.115054
110.000000 68.818000 2.000000 -8.000000 -5.000000 101.564625 -45.493239 2069.986532 626.818658 14.525688 0.000000 0.148597
111.000000 63.029000 3.000000 -8.000000 -5.000000 92.734533 -39.250525 1854.385770 874.615987 15.862386 0.000000 0.092934
112.000000 56.449000 4.000000 -8.000000 -5.000000 83.796603 -34.207850 1706.664431 1082.459535 17.714728 0.000000 0.109233
113.000000 49.592000 5.000000 -8.000000 -5.000000 75.099383 -30.108763 1599.125909 1272.060620 20.167496 0.000000 0.116836
115.000000 72.058000 2.000000 -7.000000 -5.000000 95.497392 -48.314137 2183.606465 785.242513 13.873837 0.000000 0.205894
116.000000 65.009000 3.000000 -7.000000 -5.000000 86.284411 -41.595550 1930.429295 1034.461169 15.380882 0.000000 0.131586
117.000000 57.118000 4.000000 -7.000000 -5.000000 76.982060 -36.159081 1761.548559 1249.202490 17.509220 0.000000 0.130678
118.000000 49.083000 5.000000 -7.000000 -5.000000 68.002968 -31.743891 1640.872427 1452.267645 20.378935 0.000000 0.133870
119.000000 74.431000 2.000000 -6.000000 -5.000000 88.016571 -51.305077 2318.678841 1000.620830 13.433032 0.000000 0.289620
120.000000 65.846000 3.000000 -6.000000 -5.000000 78.459207 -44.093096 2017.750249 1247.000500 15.187412 0.000000 0.191278
121.000000 56.440000 4.000000 -6.000000 -5.000000 68.857165 -38.238585 1823.134368 1470.934804 17.721618 0.000000 0.175754
122.000000 47.147000 5.000000 -6.000000 -5.000000 59.689268 -33.483989 1686.951193 1695.407508 21.218463 0.000000 0.184713
124.000000 64.623000 3.000000 -5.000000 -5.000000 68.932140 -46.748094 2119.058256 1546.092744 15.476972 0.000000 0.285905
125.000000 53.608000 4.000000 -5.000000 -5.000000 59.157170 -40.453396 1892.729146 1785.608244 18.660389 0.000000 0.262804
133.000000 46.759000 1.000000 -16.000000 -4.000000 132.826144 -24.994388 1476.755925 -159.648729 21.368586 0.000000 0.061370
135.000000 49.499000 1.000000 -15.000000 -4.000000 131.871655 -26.834776 1519.495574 -140.172210 20.186112 0.000000 0.066904
136.000000 47.924000 2.000000 -15.000000 -4.000000 125.101802 -22.981490 1431.449525 119.299635 20.851523 0.000000 0.029400
137.000000 45.977000 3.000000 -15.000000 -4.000000 118.246594 -19.956925 1365.822981 325.827243 21.736823 0.000000 0.075999
139.000000 52.547000 1.000000 -14.000000 -4.000000 130.739141 -28.836803 1567.598383 -117.267370 19.015197 0.000000 0.073645
140.000000 50.732000 1.000000 -7.000000 -2.000000 123.630614 -24.587695 1467.486414 153.693981 9.848840 0.000000 0.026412
141.000000 48.475000 3.000000 -14.000000 -4.000000 116.414113 -21.272738 1394.039748 367.302963 20.617496 0.000000 0.077723
142.000000 45.862000 2.000000 -7.000000 -2.000000 109.225870 -18.630779 1337.856814 544.892441 10.897407 0.000000 0.118035
144.000000 55.952000 1.000000 -13.000000 -4.000000 129.384301 -31.017151 1622.141417 -90.004447 17.858496 0.000000 0.082061
145.000000 53.840000 2.000000 -13.000000 -4.000000 121.909429 -26.326840 1507.565244 193.263955 18.561153 0.000000 0.022275
146.000000 51.198000 3.000000 -13.000000 -4.000000 114.298239 -22.688938 1424.979521 414.315571 19.521601 0.000000 0.079307
147.000000 48.142000 4.000000 -13.000000 -4.000000 106.719001 -19.806494 1362.627588 597.379373 20.763579 0.000000 0.120541
148.000000 59.764000 1.000000 -12.000000 -4.000000 127.748954 -33.393526 1684.510841 -57.101087 16.719545 0.000000 0.092840
149.000000 57.282000 1.000000 -6.000000 -2.000000 119.877997 -28.212506 1552.406440 239.290305 8.723192 0.000000 0.016704
150.000000 54.158000 3.000000 -12.000000 -4.000000 111.835366 -24.215527 1459.056450 468.134265 18.455345 0.000000 0.080710
151.000000 50.552000 2.000000 -6.000000 -2.000000 103.830380 -21.066693 1389.588725 657.053334 9.887389 0.000000 0.122456
152.000000 46.639000 5.000000 -12.000000 -4.000000 96.016920 -18.536125 1335.877757 821.348431 21.436963 0.000000 0.143214
154.000000 64.042000 1.000000 -11.000000 -4.000000 125.755793 -35.984241 1756.521365 -16.744306 15.603158 0.000000 0.107010
155.000000 61.090000 2.000000 -11.000000 -4.000000 117.457244 -30.259381 1602.912451 293.519866 16.359479 0.000000 0.009865
156.000000 57.355000 3.000000 -11.000000 -4.000000 108.943276 -25.863491 1496.773160 530.473661 17.427340 0.000000 0.081920
157.000000 53.060000 4.000000 -11.000000 -4.000000 100.476036 -22.419459 1419.044190 725.714193 18.841194 0.000000 0.123476
158.000000 48.442000 5.000000 -11.000000 -4.000000 92.244022 -19.666772 1359.665090 896.212091 20.640767 0.000000 0.140779
159.000000 68.840000 1.000000 -10.000000 -4.000000 123.300828 -38.807530 1840.595736 33.704027 14.516067 0.000000 0.126129
160.000000 65.284000 1.000000 -5.000000 -2.000000 114.542107 -32.483110 1660.229112 358.401170 7.654530 0.000000 0.008514
161.000000 60.767000 3.000000 -10.000000 -4.000000 105.514591 -27.644827 1538.745701 603.718180 16.449892 0.000000 0.083029
162.000000 55.601000 2.000000 -5.000000 -2.000000 96.548590 -23.873695 1451.356917 805.886748 8.990660 0.000000 0.123214
163.000000 50.114000 5.000000 -10.000000 -4.000000 87.875787 -20.875795 1385.475911 983.726124 19.953414 0.000000 0.135649
164.000000 74.201000 1.000000 -9.000000 -4.000000 120.242430 -41.880501 1940.042669 98.215513 13.467971 0.000000 0.152619
165.000000 69.857000 2.000000 -9.000000 -4.000000 110.991271 -34.900012 1725.833631 437.480322 14.307724 0.000000 0.021893
166.000000 64.324000 3.000000 -9.000000 -4.000000 101.407724 -29.572513 1585.737463 691.302340 15.541220 0.000000 0.084428
167.000000 58.054000 4.000000 -9.000000 -4.000000 91.910013 -25.439159 1486.963842 901.253617 17.222945 0.000000 0.121290
168.000000 51.501000 5.000000 -9.000000 -4.000000 82.783174 -22.170438 1413.579886 1088.169635 19.417922 0.000000 0.127121
169.000000 80.121000 1.000000 -8.000000 -4.000000 116.385361 -45.217651 2059.502596 183.017895 12.473388 0.000000 0.190350
170.000000 67.874000 3.000000 -8.000000 -4.000000 96.434569 -31.660413 1638.706027 798.393027 14.729492 0.000000 0.087335
171.000000 52.354000 5.000000 -8.000000 -4.000000 76.806101 -23.558656 1444.296822 1216.264561 19.103416 0.000000 0.115537
172.000000 86.495000 1.000000 -7.000000 -4.000000 111.457721 -48.828890 2205.692611 298.375053 11.555060 0.000000 0.245783
173.000000 79.715000 2.000000 -7.000000 -4.000000 101.142048 -40.378812 1890.312146 662.728715 12.540306 0.000000 0.076711
174.000000 71.110000 3.000000 -7.000000 -4.000000 90.344427 -33.923075 1698.869100 933.202714 14.060689 0.000000 0.095016
175.000000 61.675000 4.000000 -7.000000 -4.000000 79.738522 -28.947213 1570.304041 1163.667069 16.215118 0.000000 0.114799
176.000000 52.292000 5.000000 -7.000000 -4.000000 69.748857 -25.049156 1478.008896 1379.316210 19.128474 0.000000 0.106938
177.000000 73.446000 3.000000 -6.000000 -4.000000 82.805039 -36.375392 1767.799283 1109.753216 13.615336 0.000000 0.115024
178.000000 61.852000 2.000000 -3.000000 -2.000000 71.690981 -30.913634 1619.496742 1356.107285 8.085483 0.000000 0.122437
179.000000 50.743000 5.000000 -6.000000 -4.000000 61.379439 -26.651417 1515.176633 1598.135090 19.714997 0.000000 0.125940
180.000000 87.550000 2.000000 -5.000000 -4.000000 85.344402 -46.814285 2121.709799 1069.071682 11.420832 0.000000 0.202451
181.000000 73.819000 3.000000 -5.000000 -4.000000 73.386151 -39.032060 1847.563526 1354.418069 13.548427 0.000000 0.161998
182.000000 59.747000 4.000000 -5.000000 -4.000000 61.892781 -33.038747 1674.988946 1626.745538 16.743095 0.000000 0.167623
183.000000 46.902000 5.000000 -5.000000 -4.000000 51.439177 -28.375688 1556.360071 1916.154717 21.332070 0.000000 0.213117
184.000000 70.437000 3.000000 -4.000000 -4.000000 61.562941 -41.906791 1940.933934 1724.156104 14.201429 0.000000 0.263021
185.000000 53.916000 2.000000 -2.000000 -2.000000 49.959158 -35.335962 1738.073481 2049.671638 9.278284 0.000000 0.293681
193.000000 47.602000 1.000000 -16.000000 -3.000000 134.322992 -16.564622 1295.133754 -155.668196 20.990033 0.000000 0.033430
194.000000 46.128000 2.000000 -16.000000 -3.000000 127.459161 -13.986057 1243.072130 91.154504 21.662870 0.000000 0.053216
197.000000 50.530000 1.000000 -15.000000 -3.000000 133.643046 -18.096084 1326.705770 -138.899287 19.773788 0.000000 0.035025
198.000000 48.835000 2.000000 -15.000000 -3.000000 126.395404 -15.203777 1267.498881 118.844586 20.462020 0.000000 0.054912
199.000000 46.759000 1.000000 -5.000000 -1.000000 119.156264 -12.986314 1223.211326 324.797051 7.124322 0.000000 0.099277
201.000000 53.822000 1.000000 -14.000000 -3.000000 132.835025 -19.785452 1362.181110 -119.486178 18.564349 0.000000 0.036701
202.000000 51.856000 2.000000 -14.000000 -3.000000 125.163066 -16.533005 1294.487401 150.097380 19.270426 0.000000 0.056534
203.000000 49.434000 3.000000 -14.000000 -3.000000 117.495489 -14.064031 1244.628237 363.514082 20.217058 0.000000 0.103497
204.000000 46.654000 4.000000 -14.000000 -3.000000 109.945250 -12.132491 1206.375966 541.502125 21.424857 0.000000 0.137269
206.000000 57.546000 1.000000 -13.000000 -3.000000 131.865142 -21.655032 1402.331335 -96.765224 17.363292 0.000000 0.038535
207.000000 55.240000 2.000000 -13.000000 -3.000000 123.722495 -17.988144 1324.462990 185.670071 18.090294 0.000000 0.058033
208.000000 52.385000 3.000000 -13.000000 -3.000000 115.578323 -15.232998 1268.088408 407.067229 19.078798 0.000000 0.107793
209.000000 49.113000 4.000000 -13.000000 -3.000000 107.573919 -13.096265 1225.387569 591.015670 20.353098 0.000000 0.141321
210.000000 45.566000 5.000000 -13.000000 -3.000000 99.815026 -11.395124 1191.923669 751.056844 21.940601 0.000000 0.158691
211.000000 61.783000 1.000000 -12.000000 -3.000000 130.687992 -23.730591 1448.145701 -69.835030 16.172721 0.000000 0.040691
212.000000 59.046000 2.000000 -12.000000 -3.000000 122.021497 -19.585800 1357.950610 226.557836 16.924594 0.000000 0.059342
213.000000 55.642000 1.000000 -4.000000 -1.000000 113.345278 -16.504209 1293.898888 456.504035 5.987635 0.000000 0.112066
214.000000 51.750000 4.000000 -12.000000 -3.000000 104.838061 -14.135862 1246.062718 646.962099 19.316721 0.000000 0.144793
215.000000 47.566000 5.000000 -12.000000 -3.000000 96.629302 -12.264733 1208.976206 812.989012 21.019180 0.000000 0.158880
217.000000 66.635000 1.000000 -11.000000 -3.000000 129.241559 -26.041698 1500.913760 -37.441427 14.995508 0.000000 0.043515
218.000000 63.341000 2.000000 -11.000000 -3.000000 119.990290 -21.345100 1395.605890 274.098280 15.777414 0.000000 0.060383
219.000000 59.228000 3.000000 -11.000000 -3.000000 110.718293 -17.890258 1322.431495 513.225204 16.875947 0.000000 0.116148
220.000000 54.549000 4.000000 -11.000000 -3.000000 101.654247 -15.259823 1268.629748 710.893287 18.326500 0.000000 0.147255
221.000000 49.572000 5.000000 -11.000000 -3.000000 92.957637 -13.198193 1227.406728 883.883065 20.169943 0.000000 0.156810
223.000000 72.222000 1.000000 -10.000000 -3.000000 127.439632 -28.621908 1562.348668 2.210405 13.835680 0.000000 0.047690
224.000000 68.197000 2.000000 -10.000000 -3.000000 117.533977 -23.288006 1438.258476 330.137735 14.654551 0.000000 0.061078
225.000000 63.155000 3.000000 -10.000000 -3.000000 107.593453 -19.405579 1354.140838 579.158603 15.827340 0.000000 0.119759
226.000000 57.464000 4.000000 -10.000000 -3.000000 97.914011 -16.477871 1293.360785 784.975529 17.398077 0.000000 0.148044
227.000000 51.495000 5.000000 -10.000000 -3.000000 88.693051 -14.202250 1247.389297 966.329308 19.418413 0.000000 0.151367
228.000000 45.565000 6.000000 -10.000000 -3.000000 80.050801 -12.387988 1211.402094 1134.296374 21.949338 0.000000 0.134448
229.000000 78.689000 1.000000 -9.000000 -3.000000 125.160028 -31.508618 1634.776682 51.776089 12.699063 0.000000 0.054500
230.000000 73.681000 2.000000 -9.000000 -3.000000 114.521129 -25.439595 1486.973876 397.307918 13.564502 0.000000 0.061416
231.000000 60.395000 4.000000 -9.000000 -3.000000 93.474989 -17.801085 1320.582771 872.356176 16.555068 0.000000 0.146139
232.000000 53.183000 5.000000 -9.000000 -3.000000 83.699691 -15.284536 1269.128579 1064.187181 18.803755 0.000000 0.140945
233.000000 46.182000 2.000000 -3.000000 -1.000000 74.640199 -13.292943 1229.285219 1244.787888 7.219442 0.000000 0.113414
235.000000 86.189000 1.000000 -8.000000 -3.000000 122.225935 -34.742325 1721.438380 115.345829 11.594413 0.000000 0.066206
236.000000 79.831000 2.000000 -8.000000 -3.000000 110.766135 -27.828238 1543.143681 479.511219 12.520245 0.000000 0.061650
237.000000 71.877000 3.000000 -8.000000 -3.000000 99.236672 -22.892466 1429.477738 751.006835 13.908934 0.000000 0.123552
238.000000 63.149000 4.000000 -8.000000 -3.000000 88.148934 -19.242086 1350.692003 977.842360 15.834871 0.000000 0.140023
239.000000 54.388000 5.000000 -8.000000 -3.000000 77.805172 -16.453691 1292.866880 1183.533359 18.389294 0.000000 0.123508
240.000000 46.129000 6.000000 -8.000000 -3.000000 68.352358 -14.263791 1248.619707 1381.758504 21.685338 0.000000 0.084997
241.000000 86.600000 2.000000 -7.000000 -3.000000 106.001644 -30.485567 1608.620650 582.829610 11.542641 0.000000 0.062930
242.000000 76.343000 3.000000 -7.000000 -3.000000 93.545263 -24.904340 1474.698269 867.481171 13.096644 0.000000 0.122132
243.000000 65.362000 4.000000 -7.000000 -3.000000 81.686212 -20.815244 1384.173551 1109.261087 15.300454 0.000000 0.127803
244.000000 54.706000 5.000000 -7.000000 -3.000000 70.792572 -17.719511 1318.893214 1334.636732 18.284543 0.000000 0.098542
245.000000 66.385000 4.000000 -6.000000 -3.000000 73.757822 -22.536882 1421.627587 1280.476559 15.066700 0.000000 0.109691
246.000000 53.508000 5.000000 -6.000000 -3.000000 62.394851 -19.093099 1347.555133 1536.558913 18.696697 0.000000 0.084247
247.000000 82.558000 3.000000 -5.000000 -3.000000 77.227926 -29.585868 1586.069155 1221.556297 12.114162 0.000000 0.115254
248.000000 65.095000 4.000000 -5.000000 -3.000000 63.940565 -24.425467 1463.805683 1519.063252 15.367810 0.000000 0.106621
249.000000 49.851000 5.000000 -5.000000 -3.000000 52.298568 -20.587027 1379.274331 1829.647491 20.070820 0.000000 0.152862
250.000000 81.042000 3.000000 -4.000000 -3.000000 65.376864 -32.311921 1655.718466 1524.673228 12.342986 0.000000 0.145988
251.000000 59.674000 4.000000 -4.000000 -3.000000 51.722724 -26.501758 1511.661764 1890.037328 16.766539 0.000000 0.196206
256.000000 46.454000 0.000000 -17.000000 -2.000000 142.071317 -8.274118 1131.517856 -454.661503 21.506522 0.000000 0.033460
259.000000 48.120000 1.000000 -16.000000 -2.000000 134.888319 -7.579734 1118.220871 -140.556989 20.763903 0.000000 0.027644
260.000000 46.558000 1.000000 -8.000000 -1.000000 127.741253 -6.138964 1090.763028 103.101747 10.731355 0.000000 0.068829
263.000000 51.177000 1.000000 -15.000000 -2.000000 134.395686 -8.674286 1139.201850 -125.019963 19.523668 0.000000 0.029191
264.000000 49.373000 2.000000 -15.000000 -2.000000 126.807502 -7.013148 1107.403026 129.537974 20.239168 0.000000 0.072948
265.000000 47.184000 3.000000 -15.000000 -2.000000 119.305453 -5.758299 1083.534623 333.813253 21.180483 0.000000 0.113994
268.000000 54.639000 1.000000 -14.000000 -2.000000 133.816282 -9.894607 1162.739031 -107.309472 18.286827 0.000000 0.030703
269.000000 52.534000 1.000000 -7.000000 -1.000000 125.732031 -7.974068 1125.766575 159.131440 9.510795 0.000000 0.077420
270.000000 49.970000 3.000000 -14.000000 -2.000000 117.749029 -6.542136 1098.430114 371.046122 20.000469 0.000000 0.119907
271.000000 47.050000 2.000000 -7.000000 -1.000000 109.955908 -5.434668 1077.396862 548.433987 10.622277 0.000000 0.149279
274.000000 58.588000 1.000000 -13.000000 -2.000000 133.127224 -11.262373 1189.329868 -86.932783 17.054171 0.000000 0.032119
275.000000 56.105000 2.000000 -13.000000 -2.000000 124.481611 -9.034677 1146.136084 192.505705 17.811408 0.000000 0.082274
276.000000 53.065000 3.000000 -13.000000 -2.000000 115.956275 -7.397093 1114.730692 412.675714 18.834277 0.000000 0.126103
277.000000 49.613000 4.000000 -13.000000 -2.000000 107.661386 -6.144449 1090.867250 596.329694 20.147685 0.000000 0.154387
278.000000 45.903000 5.000000 -13.000000 -2.000000 99.682116 -5.156163 1072.120222 756.625320 21.779750 0.000000 0.167564
280.000000 63.133000 1.000000 -12.000000 -2.000000 132.297403 -12.804140 1219.609845 -63.235251 15.826760 0.000000 0.033343
281.000000 60.162000 1.000000 -6.000000 -1.000000 123.012211 -10.210484 1168.859228 230.467590 8.305277 0.000000 0.087535
282.000000 56.514000 3.000000 -12.000000 -2.000000 113.871706 -8.332870 1132.645012 459.605580 17.685641 0.000000 0.132501
283.000000 52.387000 2.000000 -6.000000 -1.000000 105.014693 -6.913547 1105.504134 650.197513 9.540937 0.000000 0.158966
284.000000 47.991000 5.000000 -12.000000 -2.000000 96.544091 -5.804230 1084.406275 816.896437 20.833328 0.000000 0.168137
286.000000 68.410000 1.000000 -11.000000 -2.000000 131.283667 -14.552643 1254.403920 -35.327499 14.606046 0.000000 0.034222
287.000000 64.802000 2.000000 -11.000000 -2.000000 121.264395 -11.520160 1194.368953 274.083190 15.421701 0.000000 0.093211
288.000000 60.359000 3.000000 -11.000000 -2.000000 111.421869 -9.360919 1152.425191 513.031799 16.559768 0.000000 0.138936
289.000000 55.365000 4.000000 -11.000000 -2.000000 101.933496 -7.749408 1121.465895 711.435431 18.056681 0.000000 0.162546
290.000000 50.108000 5.000000 -11.000000 -2.000000 92.924196 -6.502492 1097.675656 885.665622 19.954577 0.000000 0.166280
291.000000 74.601000 1.000000 -10.000000 -2.000000 130.024751 -16.548436 1294.802827 -1.969184 13.394068 0.000000 0.034515
292.000000 64.638000 3.000000 -10.000000 -2.000000 108.507832 -10.494822 1174.378750 574.583731 15.464152 0.000000 0.145106
293.000000 58.514000 2.000000 -5.000000 -1.000000 98.309626 -8.660712 1138.940944 781.987813 8.543021 0.000000 0.164369
294.000000 52.169000 5.000000 -10.000000 -2.000000 88.713485 -7.256779 1112.051339 965.366269 19.167729 0.000000 0.160689
295.000000 45.936000 3.000000 -5.000000 -1.000000 79.805578 -6.148796 1090.949865 1135.667641 10.886209 0.000000 0.137646
297.000000 81.946000 1.000000 -9.000000 -2.000000 128.431371 -18.841924 1342.279490 38.624333 12.193790 0.000000 0.033828
298.000000 76.310000 2.000000 -9.000000 -2.000000 116.572305 -14.636456 1256.085065 384.627445 13.096974 0.000000 0.105641
299.000000 69.371000 3.000000 -9.000000 -2.000000 104.993844 -11.750775 1198.884719 646.561107 14.409984 0.000000 0.150461
300.000000 61.753000 4.000000 -9.000000 -2.000000 93.999175 -9.657626 1158.155197 864.672011 16.191089 0.000000 0.163193
301.000000 54.028000 5.000000 -9.000000 -2.000000 83.772020 -8.073823 1127.677696 1059.630677 18.510156 0.000000 0.149324
302.000000 46.628000 6.000000 -9.000000 -2.000000 74.401251 -6.835363 1104.014116 1243.632467 21.451683 0.000000 0.113554
303.000000 90.762000 1.000000 -8.000000 -2.000000 126.369450 -21.495801 1398.872485 89.119882 11.009685 0.000000 0.031502
304.000000 74.524000 3.000000 -8.000000 -2.000000 100.689928 -13.148176 1226.415702 732.358513 13.414747 0.000000 0.153999
305.000000 64.909000 2.000000 -4.000000 -1.000000 88.808467 -10.752109 1179.381891 963.786079 7.702743 0.000000 0.156953
306.000000 55.434000 5.000000 -8.000000 -2.000000 77.919632 -8.961416 1144.725360 1174.198345 18.042667 0.000000 0.128983
307.000000 46.648000 3.000000 -4.000000 -1.000000 68.104088 -7.574901 1118.128465 1377.386515 10.722359 0.000000 0.077019
308.000000 79.939000 3.000000 -7.000000 -2.000000 95.324834 -14.710366 1257.568652 837.285076 12.507369 0.000000 0.153879
309.000000 67.635000 4.000000 -7.000000 -2.000000 82.474619 -11.958292 1202.954664 1086.335888 14.786337 0.000000 0.142169
310.000000 55.972000 5.000000 -7.000000 -2.000000 70.925287 -9.928621 1163.397486 1318.827014 17.871299 0.000000 0.095136
311.000000 45.602000 6.000000 -7.000000 -2.000000 60.726111 -8.373507 1133.424825 1550.844457 21.939386 0.000000 0.038155
312.000000 85.179000 3.000000 -6.000000 -2.000000 88.504136 -16.465528 1293.108655 970.307919 11.739409 0.000000 0.146714
313.000000 54.972000 5.000000 -6.000000 -2.000000 62.497431 -10.986019 1183.937878 1511.805412 18.198981 0.000000 0.052338
314.000000 89.196000 3.000000 -5.000000 -2.000000 79.647445 -18.447780 1334.032601 1148.266756 11.212589 0.000000 0.126763
315.000000 68.610000 4.000000 -5.000000 -2.000000 64.825374 -14.776030 1258.887571 1464.185227 14.580788 0.000000 0.071668
316.000000 51.394000 5.000000 -5.000000 -2.000000 52.282110 -12.146012 1206.641704 1792.451790 19.468951 0.000000 0.114059
317.000000 89.639000 3.000000 -4.000000 -2.000000 67.905550 -20.698437 1381.664168 1408.063590 11.159377 0.000000 0.094617
318.000000 63.541000 2.000000 -2.000000 -1.000000 52.413607 -16.431413 1292.411942 1804.726488 7.873450 0.000000 0.130385
319.000000 81.660000 3.000000 -3.000000 -2.000000 52.097629 -23.267397 1437.799684 1853.125748 12.252557 0.000000 0.170757
323.000000 46.637000 0.000000 -17.000000 -1.000000 141.695116 1.890589 939.472617 -422.328256 21.422041 0.000000 0.006996
324.000000 45.523000 1.000000 -17.000000 -1.000000 134.801877 2.074376 936.016065 -128.577362 21.948468 0.000000 0.029354
326.000000 49.550000 0.000000 -16.000000 -1.000000 141.751276 1.260650 951.315016 -424.665893 20.162898 0.000000 0.006517
327.000000 48.284000 1.000000 -16.000000 -1.000000 134.431093 1.552121 945.836459 -114.517288 20.693289 0.000000 0.031783
328.000000 46.646000 2.000000 -16.000000 -1.000000 127.160259 1.765270 941.829128 124.836857 21.422138 0.000000 0.076037
330.000000 52.849000 0.000000 -15.000000 -1.000000 141.809699 0.545000 964.761940 -427.264482 18.904362 0.000000 0.006725
331.000000 51.399000 1.000000 -15.000000 -1.000000 134.007185 0.970403 956.769363 -98.775291 19.439269 0.000000 0.034533
332.000000 49.502000 2.000000 -15.000000 -1.000000 126.263727 1.275944 951.027589 151.235984 20.186674 0.000000 0.081391
333.000000 47.223000 3.000000 -15.000000 -1.000000 118.648679 1.506014 946.703192 352.795324 21.163284 0.000000 0.120477
335.000000 56.615000 0.000000 -14.000000 -1.000000 141.869647 -0.274856 980.163182 -430.168189 17.646561 0.000000 0.007875
336.000000 54.940000 1.000000 -14.000000 -1.000000 133.518113 0.318595 969.015174 -81.027774 18.186663 0.000000 0.037652
337.000000 52.718000 2.000000 -14.000000 -1.000000 125.237862 0.736340 961.167179 180.629447 18.955437 0.000000 0.087318
338.000000 50.041000 3.000000 -14.000000 -1.000000 117.113897 1.046320 955.342816 389.811021 19.972247 0.000000 0.127248
339.000000 47.019000 4.000000 -14.000000 -1.000000 109.221222 1.285458 950.848772 565.653159 21.258702 0.000000 0.154085
341.000000 60.957000 0.000000 -13.000000 -1.000000 141.929749 -1.223041 997.978176 -433.430836 16.389664 0.000000 0.010009
342.000000 58.998000 1.000000 -13.000000 -1.000000 132.947975 -0.416578 982.825496 -60.861567 16.935801 0.000000 0.041202
343.000000 56.365000 2.000000 -13.000000 -1.000000 124.053081 0.138403 972.400119 213.576531 17.729452 0.000000 0.093893
344.000000 53.182000 3.000000 -13.000000 -1.000000 115.350860 0.543594 964.788338 431.045700 18.793319 0.000000 0.134406
345.000000 49.601000 4.000000 -13.000000 -1.000000 106.932583 0.852400 958.986579 613.291840 20.152970 0.000000 0.159613
346.000000 45.783000 5.000000 -13.000000 -1.000000 98.871017 1.095544 954.417832 772.983857 21.837301 0.000000 0.170119
348.000000 66.015000 0.000000 -12.000000 -1.000000 141.987554 -2.331578 1018.822609 -437.118128 15.133894 0.000000 0.013092
349.000000 63.695000 1.000000 -12.000000 -1.000000 132.275358 -1.251904 998.520609 -37.740226 15.687131 0.000000 0.045257
350.000000 60.529000 2.000000 -12.000000 -1.000000 122.670217 -0.527714 984.913331 250.791878 16.510104 0.000000 0.101192
351.000000 56.693000 3.000000 -12.000000 -1.000000 113.306143 -0.008413 975.158036 477.337637 17.629802 0.000000 0.141874
352.000000 52.402000 4.000000 -12.000000 -1.000000 104.295468 0.382116 967.821887 666.740587 19.076940 0.000000 0.164598
353.000000 47.869000 5.000000 -12.000000 -1.000000 95.723960 0.686461 962.104289 833.109210 20.886622 0.000000 0.170591
354.000000 71.981000 0.000000 -11.000000 -1.000000 142.038743 -3.643813 1043.541022 -441.310022 13.879558 0.000000 0.017175
355.000000 69.191000 1.000000 -11.000000 -1.000000 131.470769 -2.208907 1016.514616 -10.953653 14.441265 0.000000 0.049910
356.000000 65.321000 2.000000 -11.000000 -1.000000 121.036373 -1.274162 998.938922 293.206681 15.299312 0.000000 0.109291
357.000000 60.628000 3.000000 -11.000000 -1.000000 110.908810 -0.617202 986.594522 529.789677 16.486315 0.000000 0.149493
358.000000 55.417000 4.000000 -11.000000 -1.000000 101.227967 -0.130338 977.448384 727.341430 18.039857 0.000000 0.168533
359.000000 49.986000 5.000000 -11.000000 -1.000000 92.094725 0.244870 970.400118 901.632944 20.003473 0.000000 0.168453
360.000000 79.121000 0.000000 -10.000000 -1.000000 142.075670 -5.219723 1073.324035 -446.102471 12.627079 0.000000 0.022445
361.000000 75.703000 1.000000 -10.000000 -1.000000 130.492529 -3.315587 1037.352515 20.459669 13.199065 0.000000 0.055282
362.000000 70.880000 2.000000 -10.000000 -1.000000 119.078481 -2.116097 1014.768710 342.063190 14.099816 0.000000 0.118243
363.000000 65.037000 3.000000 -10.000000 -1.000000 108.062895 -1.291849 999.271342 589.894878 15.369532 0.000000 0.156951
364.000000 58.621000 4.000000 -10.000000 -1.000000 97.622015 -0.690806 987.977328 796.960281 17.055248 0.000000 0.170595
365.000000 52.049000 5.000000 -10.000000 -1.000000 87.873395 -0.233206 979.380776 980.966697 19.212348 0.000000 0.162270
366.000000 45.656000 6.000000 -10.000000 -1.000000 78.878508 0.126783 972.618387 1152.580356 21.906503 0.000000 0.135106
367.000000 87.814000 0.000000 -9.000000 -1.000000 142.084590 -7.144360 1109.905854 -451.606297 11.377070 0.000000 0.029274
368.000000 83.535000 1.000000 -9.000000 -1.000000 129.279916 -4.608980 1061.766358 57.837284 11.961792 0.000000 0.061525
369.000000 77.382000 2.000000 -9.000000 -1.000000 116.692947 -3.072650 1032.774753 399.067257 12.915663 0.000000 0.128043
370.000000 69.958000 3.000000 -9.000000 -1.000000 104.635857 -2.043429 1013.401845 659.748097 14.289460 0.000000 0.163663
371.000000 61.936000 4.000000 -9.000000 -1.000000 93.333013 -1.306243 999.541862 878.302737 16.143723 0.000000 0.169407
372.000000 53.909000 5.000000 -9.000000 -1.000000 82.918165 -0.752408 989.134713 1074.724553 18.551215 0.000000 0.149746
373.000000 46.308000 6.000000 -9.000000 -1.000000 73.444464 -0.321162 981.033046 1260.953007 21.600173 0.000000 0.108589
374.000000 85.040000 2.000000 -8.000000 -1.000000 113.728417 -4.168274 1053.438960 466.648309 11.753096 0.000000 0.138549
375.000000 75.385000 3.000000 -8.000000 -1.000000 100.440466 -2.885587 1029.251285 742.425402 13.261820 0.000000 0.168524
376.000000 65.195000 4.000000 -8.000000 -1.000000 88.164844 -1.984987 1012.302672 975.505674 15.338309 0.000000 0.162617
377.000000 55.314000 5.000000 -8.000000 -1.000000 77.045407 -1.318184 999.766298 1188.649393 18.082259 0.000000 0.127065
378.000000 46.275000 6.000000 -8.000000 -1.000000 67.109850 -0.804724 990.117643 1395.471293 21.618155 0.000000 0.066711
379.000000 81.203000 3.000000 -7.000000 -1.000000 95.205786 -3.835310 1047.153632 842.719854 12.312805 0.000000 0.169413
380.000000 68.055000 4.000000 -7.000000 -1.000000 81.848497 -2.737114 1026.455503 1095.342644 14.695467 0.000000 0.146021
381.000000 55.838000 5.000000 -7.000000 -1.000000 70.017862 -1.936967 1011.399565 1332.582881 17.914852 0.000000 0.087634
382.000000 87.033000 3.000000 -6.000000 -1.000000 88.530152 -4.913972 1067.535361 968.718859 11.489539 0.000000 0.162097
383.000000 69.848000 4.000000 -6.000000 -1.000000 74.012878 -3.574896 1042.241270 1249.961819 14.320345 0.000000 0.111754
384.000000 54.788000 5.000000 -6.000000 -1.000000 61.533069 -2.616407 1024.183078 1525.185031 18.260796 0.000000 0.021741
385.000000 69.312000 4.000000 -5.000000 -1.000000 64.149641 -4.513421 1059.959883 1464.090681 14.433696 0.000000 0.045799
386.000000 51.076000 5.000000 -5.000000 -1.000000 51.218678 -3.365658 1038.296304 1807.279450 19.590877 0.000000 0.107290
387.000000 64.179000 4.000000 -4.000000 -1.000000 51.586316 -5.571416 1079.989488 1798.529950 15.590963 0.000000 0.105153
388.000000 85.848000 3.000000 -3.000000 -1.000000 52.048200 -9.238202 1150.058164 1791.467115 11.655452 0.000000 0.107461
393.000000 49.412000 0.000000 -4.000000 0.000000 140.226056 11.663679 752.821616 -379.265654 5.054899 0.000000 0.033772
394.000000 48.080000 1.000000 -16.000000 0.000000 132.954269 10.382190 777.808842 -77.734991 20.781371 0.000000 0.032135
395.000000 46.382000 1.000000 -8.000000 0.000000 125.726097 9.434255 796.159468 156.246201 10.772249 0.000000 0.074700
397.000000 51.177000 1.000000 -15.000000 0.000000 132.470307 10.310248 779.205304 -60.385685 19.524210 0.000000 0.034681
398.000000 49.206000 2.000000 -15.000000 0.000000 124.769067 9.326214 798.244374 183.808631 20.308354 0.000000 0.080259
399.000000 46.865000 1.000000 -5.000000 0.000000 117.197006 8.578912 812.630971 381.672856 7.108466 0.000000 0.119116
401.000000 54.696000 1.000000 -14.000000 0.000000 131.917472 10.229750 780.767093 -40.905056 18.268013 0.000000 0.037732
402.000000 52.385000 1.000000 -7.000000 0.000000 123.677813 9.207176 800.540019 214.442129 9.538184 0.000000 0.086450
403.000000 49.632000 3.000000 -14.000000 0.000000 115.597637 8.441601 815.268100 419.733358 20.137059 0.000000 0.125961
404.000000 46.553000 2.000000 -7.000000 0.000000 107.754021 7.847149 826.663607 593.134729 10.736129 0.000000 0.151976
406.000000 58.732000 1.000000 -13.000000 0.000000 131.279974 10.139073 782.525418 -18.871275 17.013008 0.000000 0.041389
407.000000 55.987000 2.000000 -13.000000 0.000000 122.422235 9.075372 803.080058 248.710548 17.849557 0.000000 0.093352
408.000000 52.712000 3.000000 -13.000000 0.000000 113.764065 8.291511 818.148510 462.097895 18.961390 0.000000 0.133178
409.000000 49.062000 4.000000 -13.000000 0.000000 105.398212 7.690103 829.668616 641.885150 20.374791 0.000000 0.157287
411.000000 63.404000 1.000000 -12.000000 0.000000 130.536808 10.036158 784.519866 6.257939 15.759501 0.000000 0.045774
412.000000 60.096000 1.000000 -6.000000 0.000000 120.962601 8.928633 805.905712 287.332089 8.314650 0.000000 0.101048
413.000000 56.147000 1.000000 -4.000000 0.000000 111.642016 8.126773 821.307492 509.619656 5.933960 0.000000 0.140670
414.000000 51.774000 2.000000 -6.000000 0.000000 102.687637 7.519600 832.928580 696.588725 9.654448 0.000000 0.161950
415.000000 47.193000 5.000000 -12.000000 0.000000 94.183228 7.043986 842.008871 861.679964 21.186581 0.000000 0.166417
417.000000 68.874000 1.000000 -11.000000 0.000000 129.659418 9.918346 786.801425 35.192289 14.507916 0.000000 0.051051
418.000000 64.822000 2.000000 -11.000000 0.000000 119.245418 8.764271 809.068024 331.239487 15.417511 0.000000 0.109618
419.000000 59.986000 3.000000 -11.000000 0.000000 109.159533 7.945137 824.787514 563.422409 16.663425 0.000000 0.148254
420.000000 54.677000 4.000000 -11.000000 0.000000 99.539575 7.333839 836.477380 758.633889 18.284510 0.000000 0.165411
421.000000 49.195000 5.000000 -11.000000 0.000000 90.482153 6.860281 845.511052 931.877292 20.325847 0.000000 0.163450
422.000000 75.364000 1.000000 -10.000000 0.000000 128.607984 9.782155 789.436899 68.880128 13.258852 0.000000 0.057428
423.000000 64.271000 3.000000 -10.000000 0.000000 106.219420 7.743866 828.640135 625.030433 15.553124 0.000000 0.155568
424.000000 57.739000 2.000000 -5.000000 0.000000 95.845082 7.130679 840.355186 829.959525 8.658115 0.000000 0.166769
425.000000 51.115000 2.000000 -4.000000 0.000000 86.183483 6.661400 849.299519 1013.287031 7.825531 0.000000 0.156132
426.000000 83.180000 1.000000 -9.000000 0.000000 127.325285 9.622920 792.515562 108.620405 12.013185 0.000000 0.065188
427.000000 76.695000 2.000000 -9.000000 0.000000 114.713173 8.368262 816.675838 440.329517 13.031633 0.000000 0.129527
428.000000 60.872000 4.000000 -9.000000 0.000000 91.458672 6.907561 844.609972 913.392721 16.426403 0.000000 0.164529
429.000000 52.799000 5.000000 -9.000000 0.000000 81.145580 6.445386 853.410874 1109.732589 18.941859 0.000000 0.142028
430.000000 74.244000 3.000000 -8.000000 0.000000 98.375105 7.268169 837.731234 781.260990 13.465960 0.000000 0.166156
431.000000 53.984000 5.000000 -8.000000 0.000000 75.185637 6.209933 857.888232 1227.338034 18.528092 0.000000 0.117152
432.000000 79.771000 3.000000 -7.000000 0.000000 93.008582 6.984329 843.146484 884.009245 12.534336 0.000000 0.165804
433.000000 66.444000 4.000000 -7.000000 0.000000 79.750238 6.388444 854.494053 1136.837171 15.052296 0.000000 0.137023
434.000000 54.239000 5.000000 -7.000000 0.000000 68.068437 5.952301 862.782744 1376.705467 18.443467 0.000000 0.075018
435.000000 67.830000 2.000000 -3.000000 0.000000 71.788758 6.084080 860.279783 1297.107365 7.373497 0.000000 0.098755
436.000000 52.866000 5.000000 -6.000000 0.000000 59.495694 5.669216 868.155558 1578.211478 18.925076 0.000000 0.024821
437.000000 89.445000 3.000000 -5.000000 0.000000 77.288046 6.290736 856.352139 1185.260119 11.182168 0.000000 0.126981
438.000000 66.767000 4.000000 -5.000000 0.000000 61.794207 5.742577 866.763725 1521.155567 14.984438 0.000000 0.030569
439.000000 48.789000 2.000000 -2.000000 0.000000 49.102740 5.356723 874.080386 1877.314357 8.203874 0.000000 0.141595
440.000000 90.011000 3.000000 -4.000000 0.000000 65.389272 5.860948 864.517184 1436.600458 11.114235 0.000000 0.055870
443.000000 46.057000 0.000000 -17.000000 1.000000 137.777062 20.558328 571.340729 -325.702377 21.693117 0.000000 0.062585
445.000000 48.894000 0.000000 -16.000000 1.000000 137.595437 21.078111 560.164938 -322.010921 20.434094 0.000000 0.064427
446.000000 47.510000 1.000000 -16.000000 1.000000 130.552547 18.543175 613.974911 -30.380526 21.031414 0.000000 0.027510
447.000000 45.770000 2.000000 -16.000000 1.000000 123.511147 16.624190 653.647895 197.226859 21.833222 0.000000 0.065018
449.000000 52.103000 0.000000 -15.000000 1.000000 137.385886 21.661759 547.522388 -317.778747 19.175702 0.000000 0.066526
450.000000 50.511000 1.000000 -15.000000 1.000000 129.893963 18.908802 606.317358 -10.052006 19.782216 0.000000 0.028010
451.000000 48.492000 2.000000 -15.000000 1.000000 122.406044 16.854460 648.931005 227.139254 20.608138 0.000000 0.069881
452.000000 46.120000 3.000000 -15.000000 1.000000 115.015683 15.266508 681.235334 420.385323 21.670983 0.000000 0.110440
454.000000 55.760000 0.000000 -14.000000 1.000000 137.141666 22.321665 533.104043 -312.878936 17.918078 0.000000 0.068941
455.000000 53.910000 1.000000 -14.000000 1.000000 129.140217 19.315232 597.765857 12.819802 18.535167 0.000000 0.028799
456.000000 51.542000 2.000000 -14.000000 1.000000 121.146440 17.107082 643.743020 260.436992 19.388925 0.000000 0.075306
457.000000 48.756000 3.000000 -14.000000 1.000000 113.274584 15.421143 678.111816 460.750064 20.499727 0.000000 0.116681
458.000000 45.665000 4.000000 -14.000000 1.000000 105.614512 14.093879 704.775799 630.863653 21.890351 0.000000 0.143495
460.000000 59.966000 0.000000 -13.000000 1.000000 136.853735 23.073605 516.507495 -307.141883 16.661400 0.000000 0.071751
461.000000 57.790000 1.000000 -13.000000 1.000000 128.269313 19.769648 588.154164 38.751132 17.290780 0.000000 0.029978
462.000000 54.980000 2.000000 -13.000000 1.000000 119.697974 17.385465 638.009656 297.757217 18.177035 0.000000 0.081350
463.000000 51.670000 3.000000 -13.000000 1.000000 111.281055 15.589626 674.703285 505.768697 19.344153 0.000000 0.123178
464.000000 48.017000 4.000000 -13.000000 1.000000 103.126913 14.190809 702.839382 682.105233 20.819205 0.000000 0.148041
466.000000 64.853000 0.000000 -12.000000 1.000000 136.509718 23.937954 497.198815 -300.335890 15.405907 0.000000 0.075062
467.000000 62.260000 1.000000 -12.000000 1.000000 127.251988 20.281013 577.272091 68.410687 16.049748 0.000000 0.031675
468.000000 58.877000 2.000000 -12.000000 1.000000 118.015445 17.693745 631.640143 339.917557 16.974434 0.000000 0.088067
469.000000 54.895000 3.000000 -12.000000 1.000000 108.977492 15.773901 670.968867 556.391404 18.208622 0.000000 0.129803
470.000000 50.530000 4.000000 -12.000000 1.000000 100.269940 14.295786 700.740322 739.755694 19.785003 0.000000 0.151770
471.000000 45.991000 5.000000 -12.000000 1.000000 91.986086 13.124118 724.060839 902.675643 21.741041 0.000000 0.156296
473.000000 70.600000 0.000000 -11.000000 1.000000 136.092260 24.941453 474.454046 -292.136207 14.151926 0.000000 0.079028
474.000000 67.459000 1.000000 -11.000000 1.000000 126.048482 20.860649 564.849956 102.681727 14.813027 0.000000 0.034046
475.000000 63.320000 2.000000 -11.000000 1.000000 116.038262 18.036992 624.522387 387.989494 15.783866 0.000000 0.095489
476.000000 58.459000 3.000000 -11.000000 1.000000 106.287949 15.976293 666.859479 613.880476 17.099274 0.000000 0.136313
477.000000 53.182000 4.000000 -11.000000 1.000000 96.959254 14.409857 698.457228 805.357285 18.799506 0.000000 0.154076
478.000000 47.774000 5.000000 -11.000000 1.000000 88.160061 13.180597 722.941959 976.510400 20.931345 0.000000 0.152137
479.000000 77.453000 0.000000 -10.000000 1.000000 135.576325 26.119851 447.266398 -282.073726 12.899914 0.000000 0.083871
480.000000 73.575000 1.000000 -10.000000 1.000000 124.603421 21.523060 550.535932 142.758043 13.581976 0.000000 0.037286
481.000000 68.414000 2.000000 -10.000000 1.000000 113.683435 18.421481 616.516312 443.413389 14.609273 0.000000 0.103606
482.000000 62.382000 3.000000 -10.000000 1.000000 103.110545 16.199605 662.315660 679.965439 16.025041 0.000000 0.142278
483.000000 55.921000 4.000000 -10.000000 1.000000 93.084613 14.534253 695.964789 881.082384 17.880055 0.000000 0.153999
484.000000 49.423000 5.000000 -10.000000 1.000000 83.728580 13.241619 721.732499 1062.511255 20.234338 0.000000 0.143441
485.000000 85.759000 0.000000 -9.000000 1.000000 134.924587 27.521921 414.193181 -269.445950 11.650536 0.000000 0.089925
486.000000 80.860000 1.000000 -9.000000 1.000000 122.837455 22.287119 533.862193 190.298270 12.358590 0.000000 0.041628
487.000000 74.278000 2.000000 -9.000000 1.000000 110.834487 18.855081 607.444553 508.187530 13.456527 0.000000 0.112301
488.000000 66.652000 3.000000 -9.000000 1.000000 99.306026 16.447249 657.264675 757.109161 14.999445 0.000000 0.146932
489.000000 58.637000 4.000000 -9.000000 1.000000 88.500183 14.670444 693.232826 970.129996 17.053334 0.000000 0.149992
490.000000 50.774000 5.000000 -9.000000 1.000000 78.552601 13.307755 720.420996 1164.959554 19.697914 0.000000 0.127951
491.000000 96.028000 0.000000 -8.000000 1.000000 134.079167 29.215744 373.091268 -253.153845 10.404793 0.000000 0.097728
492.000000 89.661000 1.000000 -8.000000 1.000000 120.632968 23.177819 514.192810 247.686257 11.145922 0.000000 0.047348
493.000000 81.038000 2.000000 -8.000000 1.000000 107.323297 19.347782 597.079160 585.197574 12.334784 0.000000 0.121240
494.000000 71.193000 3.000000 -8.000000 1.000000 94.680215 16.723422 651.616593 848.995325 14.043965 0.000000 0.148899
495.000000 61.119000 4.000000 -8.000000 1.000000 83.011006 14.820187 690.225072 1077.482798 16.362641 0.000000 0.139536
496.000000 51.556000 5.000000 -8.000000 1.000000 72.454835 13.379675 718.993968 1290.781024 19.401596 0.000000 0.102670
497.000000 109.028000 0.000000 -7.000000 1.000000 132.945972 31.298816 320.633277 -231.382151 9.164268 0.000000 0.108189
498.000000 100.453000 1.000000 -7.000000 1.000000 117.808427 24.228931 490.640799 318.497725 9.948901 0.000000 0.054760
499.000000 88.787000 2.000000 -7.000000 1.000000 102.899354 19.912459 585.122181 678.834683 11.259143 0.000000 0.129618
500.000000 75.782000 3.000000 -7.000000 1.000000 88.956798 17.033339 645.258885 961.497733 13.194918 0.000000 0.145673
501.000000 62.971000 4.000000 -7.000000 1.000000 76.354562 14.985609 686.897542 1211.485677 15.883194 0.000000 0.118695
502.000000 51.334000 5.000000 -7.000000 1.000000 65.210669 13.458174 717.435446 1452.109618 19.487789 0.000000 0.068115
503.000000 125.975000 0.000000 -6.000000 1.000000 131.362874 33.914733 251.358461 -200.918151 7.931615 0.000000 0.122979
504.000000 113.885000 1.000000 -6.000000 1.000000 114.069589 25.487132 461.930657 408.404567 8.776019 0.000000 0.064175
505.000000 97.478000 2.000000 -6.000000 1.000000 97.175737 20.565990 571.176554 796.271639 10.256412 0.000000 0.135598
506.000000 79.885000 3.000000 -6.000000 1.000000 81.735167 17.383564 638.048850 1104.822158 12.518932 0.000000 0.132710
507.000000 63.480000 4.000000 -6.000000 1.000000 68.177429 15.169306 683.196379 1387.537696 15.758203 0.000000 0.084040
508.000000 49.435000 5.000000 -6.000000 1.000000 56.540965 13.544196 715.726379 1672.624316 20.239263 0.000000 0.077375
509.000000 148.877000 0.000000 -5.000000 1.000000 129.029361 37.281364 155.636573 -155.533651 6.711662 0.000000 0.145495
510.000000 130.774000 1.000000 -5.000000 1.000000 108.909995 27.018643 426.159479 527.121070 7.643276 0.000000 0.075750
511.000000 106.610000 2.000000 -5.000000 1.000000 89.531091 21.330919 554.701162 950.456409 9.379178 0.000000 0.135074
512.000000 82.305000 3.000000 -5.000000 1.000000 72.427273 17.782477 629.802778 1298.959133 12.152909 0.000000 0.103271
513.000000 61.387000 4.000000 -5.000000 1.000000 58.011141 15.374478 679.054908 1638.202707 16.298118 0.000000 0.077026
514.000000 181.216000 0.000000 -4.000000 1.000000 125.333480 41.738771 14.749549 -81.535276 5.514193 0.000000 0.183678
515.000000 151.815000 1.000000 -4.000000 1.000000 101.390985 28.920255 380.357115 693.262820 6.584820 0.000000 0.089028
516.000000 114.343000 2.000000 -4.000000 1.000000 78.929124 22.238024 534.938986 1168.515117 8.746607 0.000000 0.119734
517.000000 80.488000 3.000000 -4.000000 1.000000 60.174190 18.240939 620.280073 1590.691442 12.429868 0.000000 0.082917
518.000000 54.605000 4.000000 -4.000000 1.000000 45.263957 15.605119 674.389589 2048.237265 18.325423 0.000000 0.229488
519.000000 175.762000 1.000000 -3.000000 1.000000 89.611099 31.338341 319.615932 949.553417 5.688860 0.000000 0.102914
520.000000 115.004000 2.000000 -3.000000 1.000000 63.602456 23.330392 510.797493 1522.788728 8.698612 0.000000 0.100864
521.000000 69.365000 3.000000 -3.000000 1.000000 43.782397 18.773288 609.159394 2127.143283 14.426051 0.000000 0.267405
522.000000 189.625000 1.000000 -2.000000 1.000000 69.352284 34.502902 235.203171 1433.145322 5.274767 0.000000 0.145250
527.000000 46.592000 1.000000 -16.000000 2.000000 127.383036 25.822409 454.179602 27.390406 21.446776 0.000000 0.027366
529.000000 51.062000 0.000000 -15.000000 2.000000 133.556530 30.200988 348.556926 -243.108915 19.567492 0.000000 0.102547
530.000000 49.426000 1.000000 -15.000000 2.000000 126.465833 26.519450 437.923210 52.043466 20.217123 0.000000 0.025395
531.000000 47.386000 2.000000 -15.000000 2.000000 119.313137 23.680771 502.970605 281.124039 21.090076 0.000000 0.050821
533.000000 52.614000 1.000000 -14.000000 2.000000 125.413014 27.286882 419.795120 79.931695 18.992548 0.000000 0.023005
534.000000 47.449000 3.000000 -14.000000 2.000000 110.269178 21.833462 543.783697 512.810163 21.065235 0.000000 0.100512
536.000000 58.454000 0.000000 -13.000000 2.000000 132.224933 32.528733 288.565886 -217.525049 17.093453 0.000000 0.114889
537.000000 56.221000 1.000000 -13.000000 2.000000 124.193163 28.135615 399.452337 111.749630 17.774278 0.000000 0.020093
538.000000 53.396000 2.000000 -13.000000 2.000000 116.078254 24.828566 477.030905 360.586697 18.717382 0.000000 0.059200
539.000000 50.110000 3.000000 -13.000000 2.000000 108.049298 22.264910 534.349397 562.009904 19.947481 0.000000 0.105814
540.000000 46.515000 4.000000 -13.000000 2.000000 100.231758 20.226866 578.427718 733.960222 21.492496 0.000000 0.133089
542.000000 60.330000 1.000000 -12.000000 2.000000 122.764654 29.078848 376.462606 148.410481 16.563968 0.000000 0.016546
543.000000 53.010000 3.000000 -12.000000 2.000000 105.489124 22.734111 524.023270 617.612630 18.857049 0.000000 0.111072
544.000000 68.255000 0.000000 -11.000000 2.000000 130.317590 35.486564 207.667496 -180.682872 14.639219 0.000000 0.132938
545.000000 65.044000 1.000000 -11.000000 2.000000 121.071269 30.132689 350.273356 191.141687 15.363911 0.000000 0.012314
546.000000 60.922000 2.000000 -11.000000 2.000000 111.711970 26.213562 445.081074 463.300441 16.406266 0.000000 0.069699
547.000000 56.154000 3.000000 -11.000000 2.000000 102.507833 23.246176 512.672585 681.140930 17.802398 0.000000 0.116024
548.000000 51.028000 4.000000 -11.000000 2.000000 93.645669 20.932837 563.296235 867.578132 19.594115 0.000000 0.136551
549.000000 45.809000 5.000000 -11.000000 2.000000 85.248527 19.084355 602.628790 1035.663919 21.830077 0.000000 0.136527
550.000000 70.490000 1.000000 -10.000000 2.000000 119.035417 31.316947 320.166709 241.636670 14.177371 0.000000 0.007978
551.000000 59.522000 3.000000 -10.000000 2.000000 98.998387 23.807164 500.136896 754.711338 16.795890 0.000000 0.120236
552.000000 47.093000 5.000000 -10.000000 2.000000 80.649789 19.370130 596.607519 1128.851802 21.236698 0.000000 0.127231
553.000000 81.781000 0.000000 -9.000000 2.000000 127.411377 39.345797 92.625769 -123.518219 12.218314 0.000000 0.161785
554.000000 76.823000 1.000000 -9.000000 2.000000 116.547327 32.656200 285.192669 302.306584 13.009165 0.000000 0.008096
555.000000 70.382000 2.000000 -9.000000 2.000000 105.531804 27.915501 404.758638 602.483581 14.202606 0.000000 0.082249
556.000000 63.054000 3.000000 -9.000000 2.000000 94.816872 24.424315 486.220415 841.387365 15.856315 0.000000 0.123009
557.000000 55.434000 4.000000 -9.000000 2.000000 84.688282 21.764357 545.289474 1048.747407 18.039547 0.000000 0.129932
558.000000 48.003000 5.000000 -9.000000 2.000000 75.305688 19.678649 590.083297 1240.753077 20.836179 0.000000 0.112709
559.000000 84.223000 1.000000 -8.000000 2.000000 113.447257 34.181210 244.067044 376.720676 11.866706 0.000000 0.016635
560.000000 66.599000 3.000000 -8.000000 2.000000 89.766886 25.106339 470.681704 945.835942 15.013707 0.000000 0.123287
561.000000 48.264000 5.000000 -8.000000 2.000000 69.049580 20.012717 582.990359 1379.564405 20.725732 0.000000 0.094455
563.000000 92.874000 1.000000 -7.000000 2.000000 109.495157 35.930816 195.010335 470.429277 10.762026 0.000000 0.031052
564.000000 81.861000 2.000000 -7.000000 2.000000 96.217585 30.052873 352.276226 805.530801 12.212920 0.000000 0.095866
565.000000 69.837000 3.000000 -7.000000 2.000000 83.576845 25.863805 453.219555 1075.654014 14.319228 0.000000 0.119787
566.000000 58.097000 4.000000 -7.000000 2.000000 72.007165 22.757718 523.501859 1320.071555 17.216644 0.000000 0.104985
567.000000 47.456000 5.000000 -7.000000 2.000000 61.675718 20.375621 575.250954 1559.833557 21.081099 0.000000 0.089951
569.000000 102.881000 1.000000 -6.000000 2.000000 104.316966 37.954463 135.483442 592.637964 9.716033 0.000000 0.052634
570.000000 72.121000 3.000000 -6.000000 2.000000 75.868046 26.709648 433.453271 1244.353798 13.867717 0.000000 0.112895
572.000000 114.011000 1.000000 -5.000000 2.000000 97.306274 40.315545 61.733944 760.019581 8.768565 0.000000 0.086161
573.000000 92.992000 2.000000 -5.000000 2.000000 80.964867 32.808240 281.156571 1144.625409 10.753989 0.000000 0.113279
574.000000 72.189000 3.000000 -5.000000 2.000000 66.113983 27.659851 410.894592 1479.131945 13.856934 0.000000 0.117033
575.000000 54.234000 4.000000 -5.000000 2.000000 53.311307 23.964448 496.602921 1818.562608 18.448203 0.000000 0.163205
577.000000 124.890000 1.000000 -4.000000 2.000000 87.441001 43.095703 -32.026967 1006.874541 8.006048 0.000000 0.143049
578.000000 67.697000 3.000000 -4.000000 2.000000 53.603417 28.734363 384.906820 1845.836935 14.779169 0.000000 0.194337
579.000000 130.600000 1.000000 -3.000000 2.000000 72.955709 46.400060 -155.222715 1419.476178 7.657769 0.000000 0.255528
580.000000 87.936000 2.000000 -3.000000 2.000000 53.396958 36.474372 179.328900 1935.145806 11.377085 0.000000 0.269090
584.000000 46.802000 0.000000 -16.000000 3.000000 129.918785 36.057971 191.361387 -172.925125 21.349356 0.000000 0.136790
586.000000 47.968000 1.000000 -15.000000 3.000000 122.402400 33.082165 273.849900 125.736129 20.832880 0.000000 0.046651
587.000000 45.933000 2.000000 -15.000000 3.000000 115.655101 29.733772 360.251488 345.671596 21.758343 0.000000 0.025159
589.000000 52.791000 0.000000 -14.000000 3.000000 127.994243 38.624343 115.056609 -135.113126 18.927830 0.000000 0.155845
590.000000 50.870000 1.000000 -14.000000 3.000000 120.996654 34.086993 246.650272 160.238099 19.644724 0.000000 0.047789
591.000000 48.499000 2.000000 -14.000000 3.000000 113.859904 30.496440 341.104282 388.523656 20.607841 0.000000 0.028467
592.000000 45.771000 3.000000 -14.000000 3.000000 106.732018 27.605426 412.197159 575.874562 21.838736 0.000000 0.080041
594.000000 56.360000 0.000000 -13.000000 3.000000 126.777979 40.103628 68.559582 -110.832122 17.729597 0.000000 0.168337
595.000000 54.110000 1.000000 -13.000000 3.000000 119.369207 35.185155 216.175454 199.897510 18.468842 0.000000 0.049880
596.000000 51.318000 2.000000 -13.000000 3.000000 111.798892 31.323675 319.993535 437.089151 19.476294 0.000000 0.032780
597.000000 48.111000 3.000000 -13.000000 3.000000 104.247524 28.237534 396.987980 630.788463 20.777461 0.000000 0.084489
598.000000 57.739000 1.000000 -12.000000 3.000000 117.466635 36.389357 181.795985 245.988576 17.308489 0.000000 0.053461
599.000000 54.414000 2.000000 -12.000000 3.000000 109.411720 32.223644 296.600884 492.675476 18.368897 0.000000 0.038281
600.000000 46.503000 4.000000 -12.000000 3.000000 93.567375 26.253019 444.159884 866.183158 21.500233 0.000000 0.116790
602.000000 61.814000 1.000000 -11.000000 3.000000 115.217882 37.714501 142.710060 300.251652 16.168182 0.000000 0.059295
603.000000 57.802000 2.000000 -11.000000 3.000000 106.619367 33.205872 270.535204 557.050805 17.292935 0.000000 0.045243
604.000000 53.229000 3.000000 -11.000000 3.000000 98.078139 29.659702 362.095451 765.207177 18.781716 0.000000 0.093590
605.000000 48.355000 4.000000 -11.000000 3.000000 89.791665 26.817733 430.906467 945.385214 20.678036 0.000000 0.117473
607.000000 66.390000 1.000000 -10.000000 3.000000 112.526757 39.178113 97.880215 365.132086 15.054379 0.000000 0.068426
608.000000 61.482000 2.000000 -10.000000 3.000000 103.316824 34.281514 241.310572 632.679722 16.258948 0.000000 0.054105
609.000000 55.927000 3.000000 -10.000000 3.000000 94.199452 30.462973 341.950751 849.315889 17.876806 0.000000 0.098150
610.000000 50.090000 4.000000 -10.000000 3.000000 85.415124 27.426773 416.463829 1038.240453 19.963369 0.000000 0.116734
611.000000 71.513000 1.000000 -9.000000 3.000000 109.260563 40.800849 45.939881 444.185363 13.976643 0.000000 0.082289
612.000000 65.413000 2.000000 -9.000000 3.000000 99.362399 35.463680 208.315686 723.127238 15.282784 0.000000 0.065612
613.000000 51.547000 4.000000 -9.000000 3.000000 80.300245 28.085416 400.664388 1149.523995 19.400961 0.000000 0.114847
615.000000 77.188000 1.000000 -8.000000 3.000000 105.232482 42.607067 -14.948359 542.803552 12.949769 0.000000 0.102975
616.000000 69.480000 2.000000 -8.000000 3.000000 94.561988 36.767847 170.770639 833.795601 14.389415 0.000000 0.081110
617.000000 60.996000 3.000000 -8.000000 3.000000 84.122692 32.295500 294.713298 1072.069313 16.394212 0.000000 0.108908
618.000000 52.463000 4.000000 -8.000000 3.000000 74.272183 28.799783 383.307524 1286.878847 19.064338 0.000000 0.114267
620.000000 83.319000 1.000000 -7.000000 3.000000 100.173983 44.625476 -87.314665 669.610842 11.997928 0.000000 0.133805
621.000000 73.409000 2.000000 -7.000000 3.000000 88.646051 38.212340 127.664491 973.375900 13.620612 0.000000 0.103188
622.000000 62.765000 3.000000 -7.000000 3.000000 77.481250 33.345858 266.773013 1227.075545 15.933827 0.000000 0.119651
623.000000 52.417000 4.000000 -7.000000 3.000000 67.110253 29.577004 364.151016 1463.503334 19.083459 0.000000 0.124262
624.000000 89.556000 1.000000 -6.000000 3.000000 93.691465 46.889789 -174.742387 839.391221 11.163481 0.000000 0.180577
625.000000 76.617000 2.000000 -6.000000 3.000000 81.236937 39.818928 77.662869 1157.006748 13.051927 0.000000 0.137195
626.000000 50.753000 4.000000 -6.000000 3.000000 58.541610 30.425427 342.899668 1704.641056 19.711689 0.000000 0.167310
627.000000 94.974000 1.000000 -5.000000 3.000000 85.199983 49.439324 -282.479714 1079.990955 10.528080 0.000000 0.254531
628.000000 77.921000 2.000000 -5.000000 3.000000 71.806630 41.613507 18.967382 1414.127212 12.835488 0.000000 0.195036
629.000000 61.149000 3.000000 -5.000000 3.000000 59.303398 35.782651 199.247404 1728.645738 16.359715 0.000000 0.209256
630.000000 46.498000 4.000000 -5.000000 3.000000 48.244005 31.354880 319.189984 2066.147296 21.517900 0.000000 0.278369
632.000000 75.043000 2.000000 -4.000000 3.000000 59.636764 43.626903 -50.905285 1812.080873 13.329960 0.000000 0.305748
640.000000 46.195000 1.000000 -15.000000 4.000000 117.910506 38.660826 113.933231 210.878259 21.633554 0.000000 0.085760
641.000000 48.760000 1.000000 -14.000000 4.000000 116.136082 39.804014 78.137648 253.567997 20.496406 0.000000 0.092656
643.000000 51.570000 1.000000 -13.000000 4.000000 114.089817 41.039357 38.092889 302.995933 19.379996 0.000000 0.101693
644.000000 48.855000 2.000000 -13.000000 4.000000 107.090178 36.904795 166.754549 527.174153 20.459669 0.000000 0.040739
645.000000 45.772000 3.000000 -13.000000 4.000000 100.056817 33.503406 262.524340 712.086278 21.840405 0.000000 0.069214
646.000000 54.646000 1.000000 -12.000000 4.000000 111.709865 42.377165 -7.005396 360.913022 18.289876 0.000000 0.113623
647.000000 47.815000 3.000000 -12.000000 4.000000 96.897007 34.334135 239.861830 783.341002 20.908450 0.000000 0.076624
649.000000 57.997000 1.000000 -11.000000 4.000000 108.915676 43.829080 -58.178241 429.740785 17.233774 0.000000 0.129498
650.000000 54.174000 2.000000 -11.000000 4.000000 101.091836 39.088207 100.687140 669.152864 18.452458 0.000000 0.067425
651.000000 49.874000 3.000000 -11.000000 4.000000 93.253199 35.226833 215.002780 866.108852 20.046542 0.000000 0.085807
652.000000 61.614000 1.000000 -10.000000 4.000000 105.601021 45.408227 -116.741602 512.929231 16.222773 0.000000 0.150822
653.000000 51.862000 3.000000 -10.000000 4.000000 89.017790 36.188215 187.611579 963.863248 19.279484 0.000000 0.097745
655.000000 65.448000 1.000000 -9.000000 4.000000 101.624067 47.129352 -184.421127 615.573174 15.273361 0.000000 0.179830
656.000000 59.829000 2.000000 -9.000000 4.000000 92.818314 41.647285 17.831635 870.094105 16.710682 0.000000 0.110478
657.000000 53.631000 3.000000 -9.000000 4.000000 84.053608 37.225917 157.280576 1081.790130 18.645353 0.000000 0.114223
658.000000 47.277000 4.000000 -9.000000 4.000000 75.603593 33.624539 259.247166 1272.786627 21.154450 0.000000 0.124029
659.000000 69.369000 1.000000 -8.000000 4.000000 96.793322 49.008937 -263.525048 745.535732 14.411175 0.000000 0.219990
660.000000 54.931000 3.000000 -8.000000 4.000000 78.185747 38.348632 123.509656 1228.062834 18.205759 0.000000 0.138546
661.000000 73.093000 1.000000 -7.000000 4.000000 90.848119 51.065265 -357.212693 915.646574 13.678374 0.000000 0.276989
662.000000 64.486000 2.000000 -7.000000 4.000000 80.927721 44.674714 -89.142220 1182.679065 15.507057 0.000000 0.188512
663.000000 55.358000 3.000000 -7.000000 4.000000 71.192725 39.566277 85.678446 1416.494286 18.067343 0.000000 0.176919
664.000000 46.491000 4.000000 -7.000000 4.000000 62.023089 35.450224 208.696657 1642.823918 21.517022 0.000000 0.187621
666.000000 54.269000 3.000000 -6.000000 4.000000 62.799648 40.890169 43.007854 1672.710972 18.432111 0.000000 0.241258
674.000000 46.374000 1.000000 -14.000000 5.000000 111.036412 44.588011 -85.926191 359.770911 21.552462 0.000000 0.150150
676.000000 48.724000 1.000000 -13.000000 5.000000 108.593173 45.883587 -135.013094 420.872631 20.513462 0.000000 0.167139
677.000000 46.122000 2.000000 -13.000000 5.000000 102.151486 41.666715 17.177779 630.770152 21.673621 0.000000 0.090274
679.000000 51.220000 1.000000 -12.000000 5.000000 105.771801 47.271432 -190.202679 492.986915 19.514950 0.000000 0.188641
680.000000 48.180000 2.000000 -12.000000 5.000000 99.017261 42.797742 -21.580628 708.224384 20.748880 0.000000 0.108236
682.000000 53.832000 1.000000 -11.000000 5.000000 102.488486 48.759950 -252.708441 579.385511 18.568955 0.000000 0.216191
683.000000 50.254000 2.000000 -11.000000 5.000000 95.399789 44.007848 -64.650257 799.551927 19.893793 0.000000 0.130902
684.000000 46.276000 3.000000 -11.000000 5.000000 88.251500 40.018953 71.275005 983.901806 21.606620 0.000000 0.113348
685.000000 56.501000 1.000000 -10.000000 5.000000 98.635973 50.358265 -324.088453 684.778512 17.692788 0.000000 0.252008
686.000000 52.257000 2.000000 -10.000000 5.000000 91.193606 45.304429 -112.792799 909.116426 19.132287 0.000000 0.159906
687.000000 47.580000 3.000000 -10.000000 5.000000 83.705704 41.073022 36.980731 1098.474220 21.016213 0.000000 0.137492
689.000000 59.113000 1.000000 -9.000000 5.000000 94.076301 52.076206 -406.377004 816.202293 16.912309 0.000000 0.299424
690.000000 54.046000 2.000000 -9.000000 5.000000 86.265553 46.695614 -166.960599 1043.424995 18.500667 0.000000 0.197757
691.000000 48.525000 3.000000 -9.000000 5.000000 78.434103 42.200690 -0.947667 1238.333951 20.608620 0.000000 0.169711
693.000000 55.379000 2.000000 -8.000000 5.000000 80.447940 48.190317 -228.360300 1212.676397 18.056803 0.000000 0.248492
694.000000 48.858000 3.000000 -8.000000 5.000000 72.284355 43.408971 -43.120161 1414.267381 20.469987 0.000000 0.214403
696.000000 55.874000 2.000000 -7.000000 5.000000 73.531840 49.798259 -298.543785 1433.907552 17.898939 0.000000 0.318959
697.000000 48.203000 3.000000 -7.000000 5.000000 65.073672 44.705631 -90.291328 1644.783699 20.750678 0.000000 0.279316
704.000000 45.695000 1.000000 -13.000000 6.000000 103.059061 49.904587 -303.348229 553.380754 21.875161 0.000000 0.244744
705.000000 47.623000 1.000000 -12.000000 6.000000 99.853921 51.291817 -368.041730 642.046845 20.990794 0.000000 0.277266
708.000000 46.232000 2.000000 -11.000000 6.000000 89.743247 48.126216 -225.654319 948.225717 21.626293 0.000000 0.213087
711.000000 48.383000 2.000000 -9.000000 6.000000 79.943593 50.834959 -346.312376 1243.225516 20.667912 0.000000 0.308435
#UB matrix in q= (UB) B0 G* 
#[[ 0.336345835  0.939360123  0.047434362]
# [ 0.051535607 -0.068749195  0.996080482]
# [ 0.940327369 -0.332992728 -0.071632491]]
#B0 matrix in q= UB (B0) G*
#[[ 0.19670273 -0.          0.03056101]
# [ 0.          0.19187965 -0.        ]
# [ 0.          0.          0.18806537]]
#UBB0 matrix in q= (UB B0) G* i.e. recip. basis vectors are columns in LT frame: astar = UBB0[:,0], bstar = UBB0[:,1], cstar = UBB0[:,2]. (abcstar as columns on xyzlab1, xlab1 = ui, ui = unit vector along incident beam)
#[[ 0.06616014  0.18024409  0.01919983]
# [ 0.01013719 -0.01319157  0.18890323]
# [ 0.18496496 -0.06389453  0.01526576]]
#Euler angles phi theta psi (deg)
#[70.518 94.106  2.731]
#deviatoric strain in direct crystal frame (10-3 unit)
#[[-0.39  0.35 -0.  ]
# [ 0.35  0.61  0.17]
# [-0.    0.17 -0.21]]
#deviatoric strain in sample2 frame (10-3 unit)
#[[ 0.16  0.04 -0.61]
# [ 0.04 -0.24 -0.13]
# [-0.61 -0.13  0.07]]
#new lattice parameters
#[ 5.1505     5.2168266  5.3185041 89.996057  99.2280923 89.9601363]
#CCDLabel
#sCMOS
#DetectorParameters
#[79.0, 975.0, 941.0, 0.0, 0.0]
#pixelsize
#0.0734
#Frame dimensions
#[2018, 2016]
#
