#Strain and Orientation Refinement from experimental file: /home/micha/LaueProjects/DepthEffects/testZrO2_99.cor
#File created at Wed Jun 28 14:24:25 2023 with indexingSpotsSet.py
#Number of indexed spots: 538
#Element
#ZrO2
#grainIndex
#G_0
#Mean Deviation(pixel): 0.115
##spot_index intensity h k l 2theta Chi Xexp Yexp Energy GrainIndex PixDev
7.000000 187.432000 0.000000 2.000000 1.000000 59.706183 -16.377291 1291.307151 1596.370947 5.340039 0.000000 0.073657
8.000000 102.861000 0.000000 3.000000 1.000000 45.486657 -20.685547 1381.387477 2072.081501 9.732080 0.000000 0.211728
9.000000 133.275000 1.000000 3.000000 1.000000 64.599877 -37.508201 1801.114433 1585.253996 7.508618 0.000000 0.188205
12.000000 87.516000 1.000000 4.000000 1.000000 52.981676 -35.337096 1738.105494 1935.878939 11.436576 0.000000 0.246117
28.000000 143.434000 -1.000000 2.000000 2.000000 59.038877 13.346182 719.658648 1604.631909 6.978196 0.000000 0.061939
30.000000 96.624000 -1.000000 3.000000 2.000000 49.639712 1.672013 943.582527 1856.102290 10.360370 0.000000 0.097911
31.000000 137.240000 0.000000 3.000000 2.000000 71.925889 -12.065470 1205.059128 1300.183587 7.291627 0.000000 0.106893
32.000000 154.542000 1.000000 3.000000 2.000000 89.416360 -28.890521 1568.914069 953.522488 6.472818 0.000000 0.109063
33.000000 149.076000 2.000000 3.000000 2.000000 99.229451 -46.518511 2109.911619 686.844641 6.708533 0.000000 0.174208
34.000000 67.928000 -1.000000 4.000000 2.000000 42.739446 -5.282407 1074.511491 2110.726753 14.738069 0.000000 0.205413
35.000000 108.849000 1.000000 4.000000 2.000000 74.077973 -28.947198 1570.303686 1291.873931 9.192557 0.000000 0.116409
36.000000 111.718000 2.000000 4.000000 2.000000 84.194896 -41.960398 1942.753508 1088.151418 8.954317 0.000000 0.143623
39.000000 67.776000 0.000000 5.000000 2.000000 51.402978 -18.965795 1344.879267 1849.418381 14.769205 0.000000 0.134122
40.000000 79.907000 1.000000 5.000000 2.000000 63.491026 -28.979944 1571.107235 1554.668892 12.524217 0.000000 0.130004
41.000000 85.224000 2.000000 5.000000 2.000000 73.023079 -39.273113 1855.093559 1365.449468 11.740423 0.000000 0.164800
42.000000 84.823000 3.000000 5.000000 2.000000 79.726428 -49.206719 2222.194570 1239.597161 11.794005 0.000000 0.275543
44.000000 61.027000 1.000000 6.000000 2.000000 55.863629 -29.001272 1571.630907 1775.319000 16.400842 0.000000 0.165828
45.000000 68.461000 3.000000 6.000000 2.000000 71.402627 -45.841292 2083.374756 1460.857902 14.615144 0.000000 0.254667
47.000000 48.204000 1.000000 7.000000 2.000000 50.153507 -29.016269 1571.999237 1968.139724 20.764898 0.000000 0.213568
48.000000 53.402000 2.000000 7.000000 2.000000 58.104987 -36.262508 1764.532964 1771.697443 18.741039 0.000000 0.215124
49.000000 56.072000 3.000000 7.000000 2.000000 64.692648 -43.420604 1993.534323 1641.690699 17.846340 0.000000 0.258408
52.000000 46.641000 3.000000 8.000000 2.000000 59.233156 -41.601781 1930.638609 1797.881005 21.456784 0.000000 0.271297
56.000000 186.333000 -1.000000 1.000000 3.000000 88.680724 41.157472 34.185803 973.921632 5.368291 0.000000 0.121763
58.000000 96.470000 -2.000000 2.000000 3.000000 52.991840 29.363839 369.433971 1871.882862 10.375453 0.000000 0.190301
59.000000 150.307000 -1.000000 2.000000 3.000000 80.063908 21.305376 555.254049 1143.372867 6.656540 0.000000 0.127204
60.000000 188.990000 0.000000 2.000000 3.000000 107.519446 8.008863 823.566912 597.897630 5.291398 0.000000 0.149047
61.000000 195.937000 1.000000 2.000000 3.000000 128.248934 -14.081515 1244.977317 66.265192 5.101944 0.000000 0.045084
63.000000 77.099000 -2.000000 3.000000 3.000000 48.573576 17.404946 637.607781 1936.335519 12.983739 0.000000 0.155822
64.000000 113.590000 -1.000000 3.000000 3.000000 69.822865 8.567731 812.845776 1340.975146 8.810179 0.000000 0.096887
65.000000 141.305000 0.000000 3.000000 3.000000 90.559119 -3.621580 1043.121683 930.475663 7.079387 0.000000 0.166130
66.000000 151.372000 1.000000 3.000000 3.000000 106.884666 -19.644577 1359.194964 594.121779 6.606358 0.000000 0.117002
67.000000 145.621000 2.000000 3.000000 3.000000 116.247183 -38.135297 1819.993720 266.280528 6.865872 0.000000 0.078546
68.000000 60.614000 -2.000000 4.000000 3.000000 44.100806 8.813317 808.124677 2064.888233 16.516183 0.000000 0.188331
69.000000 85.428000 -1.000000 4.000000 3.000000 60.991120 0.453974 966.471977 1537.836473 11.716271 0.000000 0.029279
70.000000 105.264000 0.000000 4.000000 3.000000 77.277896 -9.923410 1163.296611 1187.680316 9.505718 0.000000 0.130086
71.000000 115.431000 1.000000 4.000000 3.000000 90.817749 -22.215296 1414.562780 924.405855 8.665906 0.000000 0.131653
72.000000 115.763000 2.000000 4.000000 3.000000 100.185051 -35.632803 1746.483455 703.089332 8.639206 0.000000 0.058448
73.000000 109.474000 3.000000 4.000000 3.000000 105.299622 -48.820227 2205.317162 493.821188 9.134338 0.000000 0.233579
74.000000 48.075000 -2.000000 5.000000 3.000000 40.197156 2.600758 926.111495 2216.063884 20.824783 0.000000 0.247120
75.000000 65.508000 -1.000000 5.000000 3.000000 53.993248 -4.965225 1068.505332 1726.113581 15.280710 0.000000 0.049675
76.000000 80.031000 0.000000 5.000000 3.000000 67.283355 -13.787499 1239.114247 1404.959460 12.504903 0.000000 0.085985
77.000000 89.077000 1.000000 5.000000 3.000000 78.815475 -23.690468 1447.246606 1173.393898 11.232310 0.000000 0.120315
78.000000 92.054000 2.000000 5.000000 3.000000 87.702419 -34.213194 1706.811215 993.219457 10.866795 0.000000 0.099292
79.000000 90.183000 3.000000 5.000000 3.000000 93.713164 -44.685960 2039.560058 842.755399 11.090635 0.000000 0.147646
81.000000 51.536000 -1.000000 6.000000 3.000000 48.526908 -8.778159 1141.199071 1903.599276 19.424458 0.000000 0.124626
82.000000 70.162000 1.000000 6.000000 3.000000 69.711626 -24.646221 1468.816629 1378.765526 14.262735 0.000000 0.108271
83.000000 74.029000 2.000000 6.000000 3.000000 77.956011 -33.299660 1681.984060 1215.747906 13.515199 0.000000 0.118882
84.000000 72.443000 4.000000 6.000000 3.000000 88.520817 -50.249363 2269.073923 984.463227 13.807422 0.000000 0.268812
86.000000 50.044000 0.000000 7.000000 3.000000 53.847385 -18.226970 1329.429037 1768.902286 20.001809 0.000000 0.109166
87.000000 56.482000 1.000000 7.000000 3.000000 62.657418 -25.315481 1484.117814 1556.653287 17.719041 0.000000 0.112472
88.000000 60.447000 2.000000 7.000000 3.000000 70.244306 -32.662823 1664.982851 1400.161083 16.554181 0.000000 0.132234
89.000000 62.019000 3.000000 7.000000 3.000000 76.392058 -40.036356 1879.282552 1281.293266 16.132317 0.000000 0.157272
90.000000 61.641000 4.000000 7.000000 3.000000 81.087074 -47.198528 2137.232201 1189.420700 16.229328 0.000000 0.229434
93.000000 46.408000 1.000000 8.000000 3.000000 57.072066 -25.810152 1495.536269 1715.270541 21.567154 0.000000 0.135604
94.000000 50.147000 2.000000 8.000000 3.000000 64.044728 -32.193611 1652.611076 1560.087153 19.956334 0.000000 0.148069
95.000000 52.195000 3.000000 8.000000 3.000000 69.956774 -38.608555 1834.457590 1443.489337 19.170664 0.000000 0.172388
96.000000 52.753000 4.000000 8.000000 3.000000 74.753935 -44.897158 2047.437431 1355.119857 18.965913 0.000000 0.221487
97.000000 52.144000 5.000000 8.000000 3.000000 78.488554 -50.919359 2300.294451 1288.705835 19.185580 0.000000 0.321573
99.000000 45.483000 4.000000 9.000000 3.000000 69.351852 -43.104630 1982.341524 1496.514389 21.999782 0.000000 0.225270
100.000000 45.586000 5.000000 9.000000 3.000000 73.244325 -48.521787 2192.461930 1430.244846 21.947736 0.000000 0.294163
102.000000 115.156000 -2.000000 1.000000 4.000000 71.888505 48.798827 -254.390252 1475.421740 8.688555 0.000000 0.307845
103.000000 157.523000 -1.000000 1.000000 4.000000 99.200432 46.321011 -152.104850 688.573696 6.348833 0.000000 0.170917
106.000000 103.323000 -2.000000 2.000000 4.000000 69.230081 33.997467 249.099569 1433.362725 9.684745 0.000000 0.143983
107.000000 138.060000 -1.000000 2.000000 4.000000 93.022468 27.877586 405.670483 876.709591 7.245108 0.000000 0.109686
108.000000 160.918000 0.000000 2.000000 4.000000 116.676773 17.871442 627.958757 372.810372 6.213372 0.000000 0.088258
109.000000 165.797000 1.000000 2.000000 4.000000 136.182823 0.355115 968.329117 -180.697493 6.028745 0.000000 0.018853
111.000000 59.807000 -3.000000 3.000000 4.000000 46.114987 27.625759 411.710677 2109.402532 16.737409 0.000000 0.246435
112.000000 87.243000 -2.000000 3.000000 4.000000 64.392759 22.227158 535.177197 1498.249499 11.471309 0.000000 0.100014
113.000000 113.686000 -1.000000 3.000000 4.000000 84.067597 14.780796 691.016673 1056.666960 8.800273 0.000000 0.144721
114.000000 132.182000 0.000000 3.000000 4.000000 102.991977 4.310087 893.882461 691.972347 7.566131 0.000000 0.162526
115.000000 138.659000 1.000000 3.000000 4.000000 118.428254 -10.209646 1168.842973 348.989749 7.210644 0.000000 0.105801
116.000000 134.513000 2.000000 3.000000 4.000000 128.128780 -28.633631 1562.634497 -21.508944 7.431593 0.000000 0.057676
118.000000 51.070000 -3.000000 4.000000 4.000000 43.560632 19.201992 600.152715 2139.452455 19.601992 0.000000 0.230135
119.000000 91.378000 -1.000000 4.000000 4.000000 75.204852 5.869817 864.348816 1226.770056 10.950706 0.000000 0.123772
120.000000 112.937000 1.000000 4.000000 4.000000 103.403067 -15.309249 1269.627555 675.093914 8.855298 0.000000 0.141270
121.000000 112.515000 2.000000 4.000000 4.000000 112.480432 -28.768570 1565.929176 432.900606 8.886795 0.000000 0.041716
122.000000 106.959000 3.000000 4.000000 4.000000 117.490647 -42.757072 1970.162586 178.223484 9.347425 0.000000 0.158961
123.000000 58.669000 -2.000000 5.000000 4.000000 54.025794 6.703201 848.503527 1727.610676 17.061839 0.000000 0.055255
124.000000 73.368000 -1.000000 5.000000 4.000000 67.486502 -0.308891 980.802529 1387.119254 13.640719 0.000000 0.080142
125.000000 84.859000 0.000000 5.000000 4.000000 80.256214 -8.646010 1138.658376 1127.945469 11.790709 0.000000 0.141181
126.000000 91.520000 1.000000 5.000000 4.000000 91.269911 -18.267264 1330.268220 915.874777 10.930102 0.000000 0.143593
127.000000 93.184000 2.000000 5.000000 4.000000 99.744718 -28.843177 1567.754436 729.982908 10.732812 0.000000 0.089432
128.000000 90.893000 3.000000 5.000000 4.000000 105.418044 -39.740216 1869.833638 554.986414 11.001865 0.000000 0.069243
130.000000 59.502000 -1.000000 6.000000 4.000000 61.057007 -4.749752 1064.428469 1538.251564 16.821360 0.000000 0.034686
131.000000 74.634000 1.000000 6.000000 4.000000 81.553558 -20.189083 1370.766378 1111.287515 13.405444 0.000000 0.129993
132.000000 76.969000 3.000000 6.000000 4.000000 95.283957 -37.806737 1810.062138 815.012163 12.994559 0.000000 0.078101
134.000000 48.949000 -1.000000 7.000000 4.000000 55.761686 -8.058957 1127.392838 1680.807533 20.449428 0.000000 0.045541
135.000000 56.279000 0.000000 7.000000 4.000000 65.193695 -14.526954 1253.888886 1454.890737 17.783172 0.000000 0.078092
136.000000 61.561000 1.000000 7.000000 4.000000 73.728691 -21.535242 1399.728511 1278.721164 16.254369 0.000000 0.112501
137.000000 64.534000 2.000000 7.000000 4.000000 80.999418 -28.923238 1569.716030 1135.773925 15.503185 0.000000 0.114788
138.000000 65.351000 3.000000 7.000000 4.000000 86.810588 -36.464707 1770.390349 1015.574674 15.307085 0.000000 0.102828
139.000000 64.444000 4.000000 7.000000 4.000000 91.152478 -43.903989 2010.885471 910.948662 15.521054 0.000000 0.142529
140.000000 62.328000 5.000000 7.000000 4.000000 94.162394 -51.005206 2304.359686 816.521752 16.046541 0.000000 0.279325
142.000000 51.446000 1.000000 8.000000 4.000000 67.357644 -22.529689 1421.469214 1427.046383 19.452288 0.000000 0.101155
143.000000 55.823000 3.000000 8.000000 4.000000 79.705213 -35.479734 1742.139014 1181.070806 17.922337 0.000000 0.120204
144.000000 54.847000 5.000000 8.000000 4.000000 87.604088 -48.229977 2180.037894 1008.602910 18.237701 0.000000 0.225841
146.000000 46.387000 2.000000 9.000000 4.000000 68.325219 -28.965503 1570.752816 1429.919026 21.572647 0.000000 0.120386
147.000000 48.048000 3.000000 9.000000 4.000000 73.709774 -34.726463 1720.997170 1323.696737 20.824407 0.000000 0.132955
148.000000 48.647000 4.000000 9.000000 4.000000 78.201832 -40.462024 1893.009088 1236.482325 20.566160 0.000000 0.153553
149.000000 48.366000 5.000000 9.000000 4.000000 81.815741 -46.060384 2091.888581 1164.079102 20.683632 0.000000 0.206723
150.000000 47.418000 6.000000 9.000000 4.000000 84.619399 -51.425125 2324.463828 1103.575969 21.095523 0.000000 0.309956
154.000000 107.731000 -2.000000 1.000000 5.000000 82.709074 51.553584 -380.687863 1162.465275 9.285655 0.000000 0.319948
155.000000 133.701000 -1.000000 1.000000 5.000000 105.542347 50.163438 -315.133595 473.719738 7.479116 0.000000 0.268952
158.000000 74.366000 -3.000000 2.000000 5.000000 61.290733 41.009622 39.074291 1722.182965 13.456923 0.000000 0.248261
159.000000 99.938000 -2.000000 2.000000 5.000000 80.567424 37.882097 137.667748 1167.547020 10.010620 0.000000 0.129334
160.000000 122.711000 -1.000000 2.000000 5.000000 101.294978 33.263413 268.990223 683.911291 8.149914 0.000000 0.062529
161.000000 137.228000 0.000000 2.000000 5.000000 121.775265 25.891276 452.582072 199.926580 7.285323 0.000000 0.020799
162.000000 141.026000 1.000000 2.000000 5.000000 139.759787 12.955236 727.403435 -364.029463 7.087350 0.000000 0.043192
164.000000 67.059000 -3.000000 3.000000 5.000000 59.079061 31.001127 328.268337 1693.117831 14.924556 0.000000 0.163006
165.000000 88.170000 -2.000000 3.000000 5.000000 76.157460 26.484783 438.736336 1237.307322 11.348287 0.000000 0.117696
166.000000 106.958000 -1.000000 3.000000 5.000000 94.034018 20.283694 577.214838 860.077830 9.351856 0.000000 0.137698
167.000000 119.590000 0.000000 3.000000 5.000000 111.203945 11.506197 755.904227 514.884107 8.361454 0.000000 0.131244
168.000000 124.169000 1.000000 3.000000 5.000000 125.808089 -1.080195 995.293735 164.383047 8.051145 0.000000 0.079730
169.000000 121.569000 2.000000 3.000000 5.000000 136.016237 -18.381086 1332.640889 -234.122159 8.222066 0.000000 0.048523
171.000000 58.725000 -3.000000 4.000000 5.000000 56.021258 22.654917 525.771080 1727.038385 17.044055 0.000000 0.122165
172.000000 75.557000 -2.000000 4.000000 5.000000 70.835007 17.508538 635.469375 1333.239772 13.244424 0.000000 0.105193
173.000000 90.585000 -1.000000 4.000000 5.000000 85.998278 10.903563 767.668984 1017.678612 11.044240 0.000000 0.153549
174.000000 101.276000 0.000000 4.000000 5.000000 100.350152 2.389670 930.084297 744.259723 9.875654 0.000000 0.166970
175.000000 106.249000 1.000000 4.000000 5.000000 112.589315 -8.424892 1134.411128 488.332564 9.411177 0.000000 0.133076
176.000000 105.809000 2.000000 4.000000 5.000000 121.622452 -21.514384 1399.275739 228.644846 9.448672 0.000000 0.046982
177.000000 101.420000 3.000000 4.000000 5.000000 126.937890 -35.975162 1756.260917 -58.933786 9.856618 0.000000 0.123101
178.000000 50.685000 -3.000000 5.000000 5.000000 52.699021 15.859953 669.222665 1793.394036 19.749441 0.000000 0.106315
179.000000 63.946000 -2.000000 5.000000 5.000000 65.495911 10.573442 774.093308 1440.062159 15.651018 0.000000 0.074428
180.000000 75.858000 -1.000000 5.000000 5.000000 78.395854 4.143727 897.024594 1162.591916 13.190420 0.000000 0.137294
181.000000 89.747000 1.000000 5.000000 5.000000 101.107005 -12.804349 1219.613972 724.314373 11.143981 0.000000 0.151869
182.000000 90.759000 2.000000 5.000000 5.000000 109.345197 -23.235425 1437.088227 529.780326 11.017789 0.000000 0.091343
183.000000 88.606000 3.000000 5.000000 5.000000 114.953204 -34.390557 1711.693558 334.104130 11.284116 0.000000 0.025636
184.000000 84.371000 4.000000 5.000000 5.000000 118.050887 -45.476503 2069.346926 123.114710 11.849804 0.000000 0.215773
185.000000 54.029000 -2.000000 6.000000 5.000000 60.569882 5.200465 877.040732 1550.716072 18.525406 0.000000 0.033945
186.000000 63.508000 -1.000000 6.000000 5.000000 71.665758 -0.831387 990.618592 1297.701581 15.757312 0.000000 0.106024
187.000000 70.934000 0.000000 6.000000 5.000000 82.148173 -7.798431 1122.403946 1090.811461 14.104978 0.000000 0.147390
188.000000 75.622000 1.000000 6.000000 5.000000 91.417429 -15.681441 1277.156530 913.338764 13.227908 0.000000 0.150161
189.000000 77.463000 2.000000 6.000000 5.000000 99.004342 -24.321574 1461.453477 753.837097 12.911362 0.000000 0.114495
190.000000 76.847000 3.000000 6.000000 5.000000 104.672156 -33.398625 1684.648269 603.456969 13.013201 0.000000 0.046716
191.000000 74.424000 4.000000 6.000000 5.000000 108.446142 -42.478768 1960.508516 454.240753 13.435601 0.000000 0.113354
193.000000 45.854000 -2.000000 7.000000 5.000000 56.199503 0.983988 956.514085 1661.636010 21.829551 0.000000 0.018801
194.000000 53.477000 -1.000000 7.000000 5.000000 65.869618 -4.593831 1061.479952 1424.688639 18.714972 0.000000 0.069706
195.000000 59.671000 0.000000 7.000000 5.000000 75.044568 -10.839679 1181.086712 1233.717956 16.769433 0.000000 0.120825
196.000000 63.957000 1.000000 7.000000 5.000000 83.304827 -17.706663 1318.627234 1073.626641 15.642956 0.000000 0.137463
197.000000 66.191000 2.000000 7.000000 5.000000 90.317958 -25.068945 1478.461880 934.405968 15.112584 0.000000 0.121972
198.000000 66.548000 3.000000 7.000000 5.000000 95.897276 -32.719620 1666.489229 808.860362 15.029550 0.000000 0.081237
199.000000 65.405000 4.000000 7.000000 5.000000 100.020087 -40.396658 1890.889991 691.295734 15.290788 0.000000 0.081387
200.000000 63.202000 5.000000 7.000000 5.000000 102.803640 -47.832686 2163.348872 576.631250 15.822636 0.000000 0.204995
202.000000 50.619000 0.000000 8.000000 5.000000 69.062457 -13.141089 1226.275301 1363.878950 19.770130 0.000000 0.093754
203.000000 54.467000 1.000000 8.000000 5.000000 76.502962 -19.206127 1349.934376 1214.562725 18.370612 0.000000 0.120465
204.000000 56.825000 2.000000 8.000000 5.000000 83.001131 -25.614483 1491.008378 1087.531373 17.605790 0.000000 0.120679
205.000000 57.756000 3.000000 8.000000 5.000000 88.406228 -32.225765 1653.454797 976.399742 17.319734 0.000000 0.100785
206.000000 57.472000 4.000000 8.000000 5.000000 92.673827 -38.869954 1842.528498 876.440797 17.403725 0.000000 0.091042
207.000000 56.252000 5.000000 8.000000 5.000000 95.855084 -45.371976 2065.360830 783.887814 17.779648 0.000000 0.155199
208.000000 54.382000 6.000000 8.000000 5.000000 98.069611 -51.578093 2331.879341 695.449056 18.389925 0.000000 0.295056
210.000000 46.775000 1.000000 9.000000 5.000000 70.767507 -20.359590 1374.406391 1341.510727 21.393719 0.000000 0.104809
211.000000 49.104000 2.000000 9.000000 5.000000 76.802783 -26.030154 1500.645149 1221.878833 20.376359 0.000000 0.116067
212.000000 50.347000 3.000000 9.000000 5.000000 81.989603 -31.850467 1643.643919 1119.311076 19.871146 0.000000 0.111541
213.000000 50.616000 4.000000 9.000000 5.000000 86.275880 -37.704098 1806.977716 1029.546024 19.763433 0.000000 0.107786
214.000000 50.087000 5.000000 9.000000 5.000000 89.676235 -43.470604 1995.316151 949.380482 19.970415 0.000000 0.141207
215.000000 48.955000 6.000000 9.000000 5.000000 92.257454 -49.039885 2214.877075 876.277218 20.430795 0.000000 0.232855
222.000000 74.727000 -3.000000 2.000000 6.000000 71.371783 43.568807 -48.824450 1441.730994 13.389714 0.000000 0.221229
223.000000 108.676000 -1.000000 2.000000 6.000000 106.827412 37.684418 143.612714 529.680145 9.201461 0.000000 0.048697
224.000000 118.514000 0.000000 2.000000 6.000000 124.727814 32.305422 294.452426 58.339330 8.435232 0.000000 0.064911
226.000000 52.817000 -4.000000 3.000000 6.000000 54.693262 36.858015 168.127999 1893.662921 18.949493 0.000000 0.247556
227.000000 84.832000 -2.000000 3.000000 6.000000 84.939968 30.232081 347.774741 1051.301789 11.792645 0.000000 0.112239
228.000000 98.335000 -1.000000 3.000000 6.000000 101.100778 25.106754 470.672204 707.790347 10.170489 0.000000 0.106879
229.000000 110.739000 1.000000 3.000000 6.000000 130.422236 7.337028 836.416475 16.713347 9.026936 0.000000 0.047404
230.000000 109.241000 2.000000 3.000000 6.000000 140.966329 -7.979387 1125.868464 -399.495415 9.149403 0.000000 0.027444
231.000000 61.809000 -3.000000 4.000000 6.000000 66.128196 25.803922 454.608112 1470.068408 16.190921 0.000000 0.112877
232.000000 86.559000 -1.000000 4.000000 6.000000 94.151329 15.525139 676.008569 859.922782 11.555910 0.000000 0.151303
233.000000 98.216000 1.000000 4.000000 6.000000 119.191199 -1.754462 1007.967654 339.414381 10.179670 0.000000 0.113667
234.000000 94.685000 3.000000 4.000000 6.000000 134.058546 -28.560625 1560.855517 -244.789462 10.556741 0.000000 0.101495
235.000000 54.573000 -3.000000 5.000000 6.000000 62.607419 18.974971 604.927997 1530.768792 18.339257 0.000000 0.086947
236.000000 65.549000 -2.000000 5.000000 6.000000 74.863373 14.198424 702.687188 1241.318854 15.265475 0.000000 0.119822
237.000000 75.040000 -1.000000 5.000000 6.000000 87.095557 8.355861 816.913824 996.192283 13.331823 0.000000 0.158196
238.000000 81.968000 0.000000 5.000000 6.000000 98.627867 1.216143 952.151475 777.653511 12.202249 0.000000 0.168695
239.000000 85.756000 1.000000 5.000000 6.000000 108.749358 -7.399911 1114.784512 572.592448 11.660952 0.000000 0.146699
240.000000 86.469000 2.000000 5.000000 6.000000 116.850487 -17.486496 1314.075408 369.734284 11.563014 0.000000 0.089244
241.000000 84.669000 3.000000 5.000000 6.000000 122.562276 -28.689295 1563.992567 157.492542 11.807503 0.000000 0.021139
242.000000 81.129000 4.000000 5.000000 6.000000 125.857884 -40.264988 1886.633799 -78.446125 12.321965 0.000000 0.176006
243.000000 64.659000 -1.000000 6.000000 6.000000 80.498619 2.946506 919.601405 1121.375024 15.474433 0.000000 0.144978
244.000000 74.339000 1.000000 6.000000 6.000000 99.494500 -11.178490 1187.692125 757.515246 13.454282 0.000000 0.157336
246.000000 49.179000 -2.000000 7.000000 6.000000 65.172886 4.077280 898.279237 1440.199424 20.350884 0.000000 0.065173
247.000000 55.711000 -1.000000 7.000000 6.000000 74.572493 -1.211599 997.763142 1238.083250 17.961840 0.000000 0.121110
248.000000 60.879000 0.000000 7.000000 6.000000 83.454965 -7.195217 1110.876304 1065.465417 16.434148 0.000000 0.151273
249.000000 64.353000 1.000000 7.000000 6.000000 91.451180 -13.863355 1240.625492 912.915835 15.544250 0.000000 0.154126
250.000000 66.063000 2.000000 7.000000 6.000000 98.259947 -21.130793 1390.972109 773.490630 15.139790 0.000000 0.129550
251.000000 66.170000 3.000000 7.000000 6.000000 103.696505 -28.822313 1567.243731 641.608350 15.113360 0.000000 0.077471
252.000000 64.987000 4.000000 7.000000 6.000000 107.715411 -36.684035 1776.778604 512.280379 15.387062 0.000000 0.038366
253.000000 62.875000 5.000000 7.000000 6.000000 110.401651 -44.426831 2029.973033 380.461759 15.903025 0.000000 0.154609
255.000000 48.174000 -1.000000 8.000000 6.000000 69.347965 -4.475773 1059.248288 1347.909272 20.773851 0.000000 0.092441
256.000000 55.840000 1.000000 8.000000 6.000000 84.508897 -15.861271 1280.804078 1048.561952 17.916440 0.000000 0.142818
257.000000 58.333000 3.000000 8.000000 6.000000 96.060201 -28.861148 1568.194470 810.527730 17.146189 0.000000 0.098297
258.000000 56.601000 5.000000 8.000000 6.000000 103.229574 -42.344564 1955.883758 598.656357 17.667937 0.000000 0.103435
260.000000 48.672000 1.000000 9.000000 6.000000 78.519848 -17.402524 1312.342258 1170.071553 20.557358 0.000000 0.127551
261.000000 50.586000 2.000000 9.000000 6.000000 84.388621 -23.041021 1432.769500 1055.914715 19.777092 0.000000 0.127454
262.000000 51.566000 4.000000 9.000000 6.000000 93.550833 -34.836731 1724.067753 859.629541 19.396777 0.000000 0.082425
263.000000 50.901000 5.000000 9.000000 6.000000 96.801714 -40.753546 1902.510553 771.536225 19.648640 0.000000 0.091767
266.000000 45.639000 3.000000 10.000000 6.000000 83.620253 -28.913516 1569.477683 1078.476969 21.920483 0.000000 0.113743
267.000000 45.804000 5.000000 10.000000 6.000000 91.056012 -39.500063 1862.230520 915.288895 21.837496 0.000000 0.099851
272.000000 58.030000 -4.000000 2.000000 7.000000 64.628772 47.170286 -186.083660 1691.784953 17.243845 0.000000 0.322665
273.000000 72.262000 -3.000000 2.000000 7.000000 79.124134 45.789627 -131.376859 1237.562442 13.844605 0.000000 0.214929
274.000000 85.772000 -2.000000 2.000000 7.000000 94.662441 43.939403 -62.167714 819.099721 11.660803 0.000000 0.135715
275.000000 96.768000 -1.000000 2.000000 7.000000 110.692724 41.337858 28.191606 399.542311 10.333019 0.000000 0.102159
276.000000 103.798000 0.000000 2.000000 7.000000 126.501042 37.432440 151.144874 -61.991630 9.630830 0.000000 0.139146
278.000000 54.990000 -4.000000 3.000000 7.000000 63.639888 39.066917 101.350797 1627.935015 18.198026 0.000000 0.210357
279.000000 67.777000 -3.000000 3.000000 7.000000 77.215866 36.661335 173.884258 1245.439198 14.761708 0.000000 0.134088
280.000000 79.868000 -2.000000 3.000000 7.000000 91.591136 33.528790 261.838356 905.135467 12.523995 0.000000 0.092685
281.000000 89.792000 -1.000000 3.000000 7.000000 106.218724 29.311988 370.715664 581.956718 11.136970 0.000000 0.065976
282.000000 96.359000 0.000000 3.000000 7.000000 120.382615 23.411464 508.990175 253.371936 10.375490 0.000000 0.041498
283.000000 99.092000 1.000000 3.000000 7.000000 133.247229 14.810186 690.426080 -106.167487 10.087420 0.000000 0.028582
285.000000 50.930000 -4.000000 4.000000 7.000000 61.853716 31.783874 308.088573 1618.385509 19.650257 0.000000 0.155630
286.000000 62.071000 -3.000000 4.000000 7.000000 74.301349 28.670780 386.459317 1285.778260 16.120097 0.000000 0.118409
287.000000 72.574000 -2.000000 4.000000 7.000000 87.300739 24.753677 478.737785 996.877014 13.784300 0.000000 0.125327
288.000000 81.296000 -1.000000 4.000000 7.000000 100.343341 19.730395 588.986567 732.311240 12.302449 0.000000 0.132261
289.000000 87.312000 0.000000 4.000000 7.000000 112.783389 13.176596 723.021231 476.710906 11.452269 0.000000 0.121216
290.000000 90.208000 1.000000 4.000000 7.000000 123.895830 4.543573 889.470167 215.594282 11.082469 0.000000 0.088008
291.000000 90.163000 2.000000 4.000000 7.000000 132.941391 -6.714365 1101.709090 -67.521334 11.086500 0.000000 0.034463
292.000000 87.775000 3.000000 4.000000 7.000000 139.267292 -20.697625 1381.646730 -395.097087 11.387153 0.000000 0.080322
294.000000 46.414000 -4.000000 5.000000 7.000000 59.575172 25.400357 463.929682 1640.725867 21.563687 0.000000 0.123077
295.000000 55.933000 -3.000000 5.000000 7.000000 70.848784 21.869510 542.997651 1343.763103 17.890868 0.000000 0.108410
296.000000 64.889000 -2.000000 5.000000 7.000000 82.472979 17.574483 634.106844 1090.175991 15.418385 0.000000 0.137351
297.000000 72.430000 -1.000000 5.000000 7.000000 94.006891 12.304843 740.234596 863.835428 13.810194 0.000000 0.158273
298.000000 77.857000 0.000000 5.000000 7.000000 104.916265 5.812963 865.427991 652.811129 12.844982 0.000000 0.157778
299.000000 80.825000 1.000000 5.000000 7.000000 114.633543 -2.146027 1015.331714 447.125226 12.371054 0.000000 0.132726
300.000000 81.406000 2.000000 5.000000 7.000000 122.634305 -11.708824 1198.062699 237.126261 12.280953 0.000000 0.081404
301.000000 79.995000 3.000000 5.000000 7.000000 128.528210 -22.722939 1425.730039 11.897653 12.496432 0.000000 0.029757
302.000000 77.134000 4.000000 5.000000 7.000000 132.161634 -34.590899 1717.233401 -242.892317 12.959159 0.000000 0.148452
304.000000 49.920000 -3.000000 6.000000 7.000000 67.218300 16.162244 663.076570 1411.628491 20.047587 0.000000 0.090770
305.000000 57.490000 -2.000000 6.000000 7.000000 77.582794 11.763002 750.875653 1183.060974 17.404709 0.000000 0.130883
306.000000 63.955000 -1.000000 6.000000 7.000000 87.790023 6.560449 851.221352 982.808509 15.642291 0.000000 0.160866
307.000000 68.798000 0.000000 6.000000 7.000000 97.418458 0.425334 967.010010 800.857328 14.538481 0.000000 0.169394
308.000000 71.739000 1.000000 6.000000 7.000000 106.040070 -6.735087 1102.103762 629.412561 13.940189 0.000000 0.154274
309.000000 72.782000 2.000000 6.000000 7.000000 113.281630 -14.919384 1261.769715 461.726704 13.738359 0.000000 0.113844
310.000000 72.171000 3.000000 6.000000 7.000000 118.885757 -23.963810 1453.382730 291.190513 13.853198 0.000000 0.045571
311.000000 70.279000 4.000000 6.000000 7.000000 122.759465 -33.507896 1687.596968 110.418275 14.224981 0.000000 0.063064
313.000000 50.736000 -2.000000 7.000000 7.000000 72.905348 7.052859 841.839652 1274.525080 19.723356 0.000000 0.112798
314.000000 56.266000 -1.000000 7.000000 7.000000 81.985784 2.068082 936.134454 1092.634387 17.782051 0.000000 0.149782
315.000000 63.393000 1.000000 7.000000 7.000000 98.304357 -10.039709 1165.548927 781.459040 15.777646 0.000000 0.160473
316.000000 64.737000 2.000000 7.000000 7.000000 104.949236 -17.144105 1307.018494 640.266981 15.448067 0.000000 0.131900
317.000000 64.729000 3.000000 7.000000 7.000000 110.309250 -24.801317 1472.347795 502.197390 15.448091 0.000000 0.078558
318.000000 63.619000 4.000000 7.000000 7.000000 114.313053 -32.781360 1668.128868 362.629618 15.716287 0.000000 0.008612
319.000000 61.695000 5.000000 7.000000 7.000000 117.006737 -40.787677 1903.628426 216.481482 16.205598 0.000000 0.122466
321.000000 49.502000 -1.000000 8.000000 7.000000 76.708330 -1.500659 1003.196154 1195.347198 20.213912 0.000000 0.130753
322.000000 53.296000 0.000000 8.000000 7.000000 84.411164 -6.744096 1102.275359 1047.053683 18.771933 0.000000 0.153896
323.000000 55.972000 1.000000 8.000000 7.000000 91.439021 -12.517778 1213.959088 913.304123 17.871894 0.000000 0.156707
324.000000 57.482000 2.000000 8.000000 7.000000 97.587841 -18.772113 1340.815985 789.568919 17.399997 0.000000 0.139031
325.000000 57.901000 3.000000 8.000000 7.000000 102.717362 -25.404405 1486.163505 672.102069 17.272219 0.000000 0.100400
326.000000 57.388000 4.000000 8.000000 7.000000 106.765994 -32.260322 1654.362228 557.552317 17.425173 0.000000 0.043559
327.000000 56.143000 5.000000 8.000000 7.000000 109.752132 -39.150625 1851.260832 442.637789 17.810142 0.000000 0.066940
328.000000 54.373000 6.000000 8.000000 7.000000 111.761942 -45.880414 2084.890091 323.815693 18.389061 0.000000 0.189593
330.000000 47.006000 0.000000 9.000000 7.000000 78.953591 -9.212905 1149.570424 1153.861138 21.286067 0.000000 0.136519
331.000000 49.497000 1.000000 9.000000 7.000000 85.382168 -14.438303 1252.112490 1030.768938 20.212058 0.000000 0.146707
332.000000 51.077000 2.000000 9.000000 7.000000 91.103933 -20.013249 1367.020946 918.927299 19.584596 0.000000 0.138574
333.000000 51.778000 3.000000 9.000000 7.000000 96.008101 -25.859320 1496.676389 815.118212 19.317126 0.000000 0.112620
334.000000 51.701000 4.000000 9.000000 7.000000 100.039367 -31.868456 1644.112348 716.637905 19.344102 0.000000 0.072088
335.000000 50.983000 5.000000 9.000000 7.000000 103.198778 -37.912706 1813.255615 621.057010 19.614981 0.000000 0.054524
336.000000 49.775000 6.000000 9.000000 7.000000 105.536400 -43.859621 2009.281174 526.016817 20.090164 0.000000 0.130438
337.000000 48.217000 7.000000 9.000000 7.000000 107.138153 -49.589028 2239.150948 429.024681 20.738181 0.000000 0.258643
339.000000 45.489000 2.000000 10.000000 7.000000 85.392234 -20.989923 1387.933488 1033.908509 21.992809 0.000000 0.133263
340.000000 46.365000 3.000000 10.000000 7.000000 90.075844 -26.214652 1504.944369 939.411934 21.574767 0.000000 0.117993
341.000000 46.596000 4.000000 10.000000 7.000000 94.046560 -31.563052 1636.184291 851.639677 21.465877 0.000000 0.090738
342.000000 46.274000 5.000000 10.000000 7.000000 97.295047 -36.944644 1784.416752 768.603785 21.613645 0.000000 0.069260
343.000000 45.506000 6.000000 10.000000 7.000000 99.848344 -42.265558 1953.170404 688.520683 21.976823 0.000000 0.103561
349.000000 68.643000 -3.000000 2.000000 8.000000 85.193957 47.729505 -209.056316 1075.536166 14.572844 0.000000 0.224122
350.000000 86.845000 -1.000000 2.000000 8.000000 113.497647 44.384467 -78.413788 286.238303 11.512994 0.000000 0.167663
352.000000 55.090000 -4.000000 3.000000 8.000000 70.960459 41.055850 37.548167 1433.565708 18.162994 0.000000 0.192983
353.000000 65.244000 -3.000000 3.000000 8.000000 83.565722 39.035368 102.333483 1097.262188 15.333002 0.000000 0.125218
354.000000 74.524000 -2.000000 3.000000 8.000000 96.719455 36.433283 180.521946 783.388668 13.420569 0.000000 0.072852
355.000000 82.003000 -1.000000 3.000000 8.000000 110.010644 32.973538 276.752832 473.774785 12.193853 0.000000 0.025932
356.000000 86.985000 0.000000 3.000000 8.000000 122.936787 28.192157 398.085749 149.881489 11.493049 0.000000 0.020166
357.000000 89.211000 1.000000 3.000000 8.000000 134.930691 21.279418 555.815741 -211.252161 11.204433 0.000000 0.056845
359.000000 60.734000 -3.000000 4.000000 8.000000 80.936033 31.279228 321.137163 1141.901913 16.472950 0.000000 0.115356
360.000000 75.795000 -1.000000 4.000000 8.000000 105.095527 23.533764 506.259579 624.345936 13.194037 0.000000 0.104161
361.000000 82.785000 1.000000 4.000000 8.000000 127.230889 10.362430 778.192469 109.572366 12.075517 0.000000 0.059723
363.000000 47.720000 -4.000000 5.000000 8.000000 66.961428 27.720211 409.448468 1458.058161 20.970651 0.000000 0.119469
364.000000 55.674000 -3.000000 5.000000 8.000000 77.693667 24.552912 483.303566 1199.135914 17.971542 0.000000 0.119969
365.000000 62.959000 -2.000000 5.000000 8.000000 88.661321 20.705333 568.187792 967.888174 15.889015 0.000000 0.137185
366.000000 68.983000 -1.000000 5.000000 8.000000 99.509532 15.980644 666.771047 753.458449 14.498669 0.000000 0.146007
367.000000 73.291000 0.000000 5.000000 8.000000 109.819873 10.132098 782.660639 546.943062 13.643827 0.000000 0.138773
368.000000 75.676000 1.000000 5.000000 8.000000 119.143458 2.880089 920.852269 340.113584 13.211778 0.000000 0.113282
369.000000 76.199000 2.000000 5.000000 8.000000 127.039523 -6.018219 1088.469113 124.288256 13.119371 0.000000 0.068893
370.000000 75.135000 3.000000 5.000000 8.000000 133.126153 -16.608409 1296.029273 -110.988568 13.303917 0.000000 0.031026
373.000000 50.514000 -3.000000 6.000000 8.000000 74.166657 18.814122 608.303501 1263.466656 19.809173 0.000000 0.115938
374.000000 62.154000 -1.000000 6.000000 8.000000 93.791410 9.994117 785.334222 868.575694 16.093783 0.000000 0.162145
375.000000 68.477000 1.000000 6.000000 8.000000 111.313391 -2.401849 1020.144888 520.711359 14.602735 0.000000 0.144157
376.000000 68.830000 3.000000 6.000000 8.000000 124.080216 -19.044814 1346.539720 170.670843 14.524420 0.000000 0.047418
378.000000 45.554000 -3.000000 7.000000 8.000000 70.591408 13.952340 707.600446 1331.732395 21.967643 0.000000 0.102620
379.000000 51.025000 -2.000000 7.000000 8.000000 79.527113 9.902222 787.113572 1142.961279 19.609465 0.000000 0.138622
380.000000 55.682000 -1.000000 7.000000 8.000000 88.263760 5.229388 876.492896 973.761406 17.966252 0.000000 0.162515
381.000000 59.253000 0.000000 7.000000 8.000000 96.523282 -0.143531 977.696217 817.928332 16.880686 0.000000 0.169650
382.000000 61.588000 1.000000 7.000000 8.000000 104.029006 -6.269075 1093.236022 670.453023 16.238452 0.000000 0.158822
383.000000 62.676000 2.000000 7.000000 8.000000 110.536294 -13.146924 1226.390895 526.960821 15.954478 0.000000 0.129030
384.000000 62.631000 3.000000 7.000000 8.000000 115.862653 -20.691796 1381.521617 383.269669 15.964154 0.000000 0.078605
385.000000 61.648000 4.000000 7.000000 8.000000 119.912817 -28.712447 1564.557835 234.970869 16.217521 0.000000 0.011192
386.000000 59.952000 5.000000 7.000000 8.000000 122.692481 -36.922759 1783.773326 76.940252 16.675348 0.000000 0.103249
388.000000 49.767000 -1.000000 8.000000 8.000000 83.091992 1.396373 948.764109 1071.437283 20.103729 0.000000 0.153003
389.000000 55.232000 1.000000 8.000000 8.000000 97.391498 -9.198251 1149.287926 799.557396 18.109503 0.000000 0.162409
390.000000 56.767000 3.000000 8.000000 8.000000 108.456972 -21.877738 1407.181836 553.896769 17.615680 0.000000 0.101639
391.000000 55.105000 5.000000 8.000000 8.000000 115.470789 -35.797489 1751.176210 308.896315 18.144034 0.000000 0.044257
393.000000 47.381000 0.000000 9.000000 8.000000 85.140939 -6.394025 1095.612092 1033.069047 21.115146 0.000000 0.155772
394.000000 49.504000 1.000000 9.000000 8.000000 91.408165 -11.482741 1193.636944 914.002099 20.206940 0.000000 0.158484
395.000000 50.819000 2.000000 9.000000 8.000000 97.000243 -16.963230 1303.301043 802.831636 19.681696 0.000000 0.145336
396.000000 51.361000 3.000000 9.000000 8.000000 101.810388 -22.771755 1426.808257 696.921860 19.471893 0.000000 0.115936
397.000000 51.217000 4.000000 9.000000 8.000000 105.778777 -28.810568 1566.956333 593.905906 19.525000 0.000000 0.070126
398.000000 50.504000 5.000000 9.000000 8.000000 108.895748 -34.954324 1727.351393 491.506842 19.799537 0.000000 0.027058
399.000000 49.347000 6.000000 9.000000 8.000000 111.198189 -41.064046 1912.722623 387.364284 20.262315 0.000000 0.099155
400.000000 47.871000 7.000000 9.000000 8.000000 112.760030 -47.005251 2129.396388 278.837716 20.886460 0.000000 0.219039
402.000000 46.465000 3.000000 10.000000 8.000000 95.854565 -23.469510 1442.305188 820.684923 21.526000 0.000000 0.123284
403.000000 46.221000 5.000000 10.000000 8.000000 102.925921 -34.299257 1709.177739 641.986387 21.636304 0.000000 0.050496
408.000000 55.996000 -4.000000 2.000000 9.000000 77.814136 50.251444 -319.169538 1304.493870 17.866124 0.000000 0.308302
409.000000 64.690000 -3.000000 2.000000 9.000000 90.034273 49.434871 -282.281917 940.009986 15.462044 0.000000 0.246318
410.000000 72.441000 -2.000000 2.000000 9.000000 102.732097 48.376205 -236.245871 574.885003 13.804645 0.000000 0.217638
411.000000 78.574000 -1.000000 2.000000 9.000000 115.599657 46.950235 -177.176313 185.593168 12.724490 0.000000 0.233393
413.000000 45.645000 -5.000000 3.000000 9.000000 65.927192 44.215403 -72.213571 1611.882217 21.922407 0.000000 0.262505
414.000000 54.002000 -4.000000 3.000000 9.000000 76.994573 42.851969 -23.474312 1280.087427 18.526925 0.000000 0.184573
415.000000 69.349000 -2.000000 3.000000 9.000000 100.746708 38.999080 103.462704 678.148307 14.420952 0.000000 0.069294
416.000000 75.122000 -1.000000 3.000000 9.000000 112.882317 36.165714 188.260300 378.327561 13.310039 0.000000 0.038953
417.000000 80.862000 1.000000 3.000000 9.000000 135.890709 26.800844 431.304747 -302.911190 12.361052 0.000000 0.100975
419.000000 51.174000 -4.000000 4.000000 9.000000 75.391157 36.024127 192.333746 1287.861615 19.551817 0.000000 0.136523
420.000000 58.566000 -3.000000 4.000000 9.000000 86.362031 33.653239 258.469362 1023.208363 17.081001 0.000000 0.105068
421.000000 65.179000 -2.000000 4.000000 9.000000 97.595947 30.704689 335.824089 774.066912 15.344907 0.000000 0.086950
422.000000 70.512000 -1.000000 4.000000 9.000000 108.788602 26.961248 427.517290 530.188769 14.181476 0.000000 0.071244
423.000000 74.207000 0.000000 4.000000 9.000000 119.583448 22.100884 537.942861 281.535342 13.473047 0.000000 0.053137
424.000000 76.122000 1.000000 4.000000 9.000000 129.585018 15.649323 673.494238 16.827468 13.132127 0.000000 0.034628
425.000000 76.344000 2.000000 4.000000 9.000000 138.356998 6.947543 843.847829 -278.381940 13.092301 0.000000 0.018339
427.000000 47.827000 -4.000000 5.000000 9.000000 73.225754 29.873075 356.776187 1315.135651 20.921538 0.000000 0.120844
428.000000 54.448000 -3.000000 5.000000 9.000000 83.393962 27.036921 425.726764 1080.939947 18.374287 0.000000 0.119583
429.000000 60.392000 -2.000000 5.000000 9.000000 93.718129 23.600023 504.778072 864.673428 16.562778 0.000000 0.126108
430.000000 65.249000 -1.000000 5.000000 9.000000 103.914928 19.383512 596.325050 658.323894 15.326968 0.000000 0.126264
431.000000 68.721000 0.000000 5.000000 9.000000 113.657510 14.153508 703.584753 454.730347 14.550092 0.000000 0.114924
432.000000 70.679000 1.000000 5.000000 9.000000 122.592937 7.621415 830.982223 246.734909 14.144965 0.000000 0.090602
433.000000 71.173000 2.000000 5.000000 9.000000 130.358741 -0.520416 984.776226 26.299645 14.045168 0.000000 0.053201
434.000000 70.394000 3.000000 5.000000 9.000000 136.604775 -10.481447 1174.118887 -216.656118 14.199216 0.000000 0.024740
437.000000 55.386000 -2.000000 6.000000 9.000000 89.488865 17.620147 633.162763 951.074522 18.061641 0.000000 0.145503
438.000000 59.765000 -1.000000 6.000000 9.000000 98.734786 13.237905 721.806130 771.120925 16.735324 0.000000 0.154006
439.000000 64.965000 1.000000 6.000000 9.000000 115.549066 1.778018 941.589426 426.254287 15.390931 0.000000 0.129320
440.000000 65.692000 2.000000 6.000000 9.000000 122.540669 -5.577781 1080.110199 250.983300 15.218779 0.000000 0.094072
441.000000 64.031000 4.000000 6.000000 9.000000 132.501585 -23.567620 1444.497240 -135.051502 15.611127 0.000000 0.054167
443.000000 45.788000 -3.000000 7.000000 9.000000 76.596776 16.385565 658.524000 1208.331104 21.852836 0.000000 0.124423
444.000000 50.453000 -2.000000 7.000000 9.000000 85.183111 12.620055 734.024132 1033.943949 19.829317 0.000000 0.149883
445.000000 54.376000 -1.000000 7.000000 9.000000 93.567890 8.260473 818.743884 873.187302 18.395956 0.000000 0.164436
446.000000 57.360000 0.000000 7.000000 9.000000 101.516116 3.218254 914.481835 721.363789 17.436059 0.000000 0.165289
447.000000 59.306000 1.000000 7.000000 9.000000 108.791015 -2.582081 1023.536933 574.415682 16.861796 0.000000 0.151416
448.000000 60.213000 2.000000 7.000000 9.000000 115.174683 -9.177893 1148.895499 428.554743 16.605794 0.000000 0.121976
449.000000 60.172000 3.000000 7.000000 9.000000 120.490095 -16.534056 1294.508884 279.930077 16.615514 0.000000 0.076010
450.000000 59.332000 4.000000 7.000000 9.000000 124.623374 -24.509784 1465.717541 124.271003 16.849374 0.000000 0.023157
451.000000 57.870000 5.000000 7.000000 9.000000 127.542609 -32.848717 1669.920267 -43.569037 17.274041 0.000000 0.091684
454.000000 45.782000 -2.000000 8.000000 9.000000 80.979652 8.437019 815.356052 1113.729435 21.854322 0.000000 0.144109
455.000000 49.283000 -1.000000 8.000000 9.000000 88.605140 4.204182 895.882914 967.278170 20.298836 0.000000 0.163589
456.000000 52.024000 0.000000 8.000000 9.000000 95.834256 -0.572310 985.751139 831.018362 19.226849 0.000000 0.169701
457.000000 53.916000 1.000000 8.000000 9.000000 102.478237 -5.924336 1086.686248 701.541244 18.549712 0.000000 0.161711
458.000000 54.948000 2.000000 8.000000 9.000000 108.368236 -11.851868 1200.866630 575.842670 18.199198 0.000000 0.138975
459.000000 55.176000 3.000000 8.000000 9.000000 113.371531 -18.306345 1331.082541 451.086488 18.121946 0.000000 0.100457
460.000000 54.708000 4.000000 8.000000 9.000000 117.405445 -25.178270 1480.967155 324.386915 18.275616 0.000000 0.044592
461.000000 53.675000 5.000000 8.000000 9.000000 120.446510 -32.297561 1655.340867 192.573843 18.626185 0.000000 0.034817
462.000000 52.215000 6.000000 8.000000 9.000000 122.531929 -39.452768 1860.739376 51.898466 19.146003 0.000000 0.137933
464.000000 48.918000 1.000000 9.000000 9.000000 96.669833 -8.551378 1136.840083 813.724019 20.447193 0.000000 0.163668
465.000000 50.025000 2.000000 9.000000 9.000000 102.146029 -13.908097 1241.517327 702.361679 19.992278 0.000000 0.147516
466.000000 50.287000 4.000000 9.000000 9.000000 110.821231 -25.677077 1492.455222 486.850672 19.884362 0.000000 0.070976
467.000000 49.613000 5.000000 9.000000 9.000000 113.934683 -31.887663 1644.612680 378.362133 20.153326 0.000000 0.010138
468.000000 47.173000 7.000000 9.000000 9.000000 117.818326 -44.273891 2024.354492 147.847828 21.193912 0.000000 0.189652
470.000000 45.509000 2.000000 10.000000 9.000000 96.490834 -15.534609 1274.183071 813.903183 21.978608 0.000000 0.149723
471.000000 46.086000 3.000000 10.000000 9.000000 100.995061 -20.689762 1381.477953 717.469776 21.701093 0.000000 0.126758
472.000000 46.148000 4.000000 10.000000 9.000000 104.830223 -26.063479 1501.420701 623.762791 21.670336 0.000000 0.090473
473.000000 45.764000 5.000000 10.000000 9.000000 107.975859 -31.570916 1636.387767 531.128091 21.850648 0.000000 0.042405
478.000000 60.785000 -3.000000 2.000000 10.000000 93.961124 50.943287 -351.426038 822.718342 16.454002 0.000000 0.277888
480.000000 52.278000 -4.000000 3.000000 10.000000 82.013668 44.478951 -81.894481 1152.632528 19.135781 0.000000 0.183284
481.000000 58.815000 -3.000000 3.000000 10.000000 92.856547 43.060739 -30.795927 867.495791 17.005862 0.000000 0.128310
482.000000 64.555000 -2.000000 3.000000 10.000000 103.964645 41.273475 30.334844 584.885288 15.490809 0.000000 0.089468
483.000000 69.110000 -1.000000 3.000000 10.000000 115.101396 38.956898 104.773877 292.604115 14.467227 0.000000 0.084515
484.000000 72.217000 0.000000 3.000000 10.000000 126.003653 35.847396 197.397842 -23.838446 13.842666 0.000000 0.114403
487.000000 56.023000 -3.000000 4.000000 10.000000 90.840048 35.815921 198.297345 921.538519 17.854645 0.000000 0.092300
488.000000 65.630000 -1.000000 4.000000 10.000000 111.696149 30.044802 352.478575 446.304038 15.235557 0.000000 0.036240
489.000000 70.221000 1.000000 4.000000 10.000000 131.238604 20.396308 574.808697 -65.616471 14.235189 0.000000 0.033361
491.000000 47.165000 -4.000000 5.000000 10.000000 78.553596 31.870892 305.824220 1197.613286 21.212824 0.000000 0.118397
492.000000 52.684000 -3.000000 5.000000 10.000000 88.165240 29.334613 370.156562 980.548724 18.987633 0.000000 0.110897
493.000000 57.566000 -2.000000 5.000000 10.000000 97.878512 26.271121 443.737076 774.907476 17.374275 0.000000 0.108322
494.000000 61.527000 -1.000000 5.000000 10.000000 107.467586 22.521348 528.714424 574.353420 16.253010 0.000000 0.101956
495.000000 66.005000 1.000000 5.000000 10.000000 125.229342 12.042487 745.392289 163.829065 15.145999 0.000000 0.066438
496.000000 66.479000 2.000000 5.000000 10.000000 132.832441 4.699605 886.519976 -60.157938 15.036350 0.000000 0.036525
497.000000 65.925000 3.000000 5.000000 10.000000 139.181216 -4.479433 1059.317459 -308.890658 15.161371 0.000000 0.012343
499.000000 49.058000 -3.000000 6.000000 10.000000 85.078009 23.641581 503.848116 1042.178868 20.392825 0.000000 0.127898
500.000000 57.115000 -1.000000 6.000000 10.000000 102.819129 16.288078 660.512607 685.853380 17.510421 0.000000 0.139695
501.000000 61.445000 1.000000 6.000000 10.000000 118.947286 5.770719 866.229694 342.661917 16.271691 0.000000 0.111376
502.000000 61.814000 3.000000 6.000000 10.000000 131.560197 -9.147696 1148.313479 -25.535102 16.171394 0.000000 0.038820
504.000000 49.331000 -2.000000 7.000000 10.000000 90.014132 15.203883 682.498996 940.724898 20.278244 0.000000 0.151225
505.000000 52.645000 -1.000000 7.000000 10.000000 98.049662 11.153339 762.798743 785.855037 18.999070 0.000000 0.158946
506.000000 55.156000 0.000000 7.000000 10.000000 105.693292 6.447624 853.368311 636.678421 18.131333 0.000000 0.155464
507.000000 56.797000 1.000000 7.000000 10.000000 112.743574 0.994718 956.312458 489.746276 17.605337 0.000000 0.139941
508.000000 57.572000 2.000000 7.000000 10.000000 119.008362 -5.274056 1074.353266 341.657615 17.366286 0.000000 0.111768
509.000000 57.553000 3.000000 7.000000 10.000000 124.319868 -12.371343 1211.074368 188.788109 17.370503 0.000000 0.070682
510.000000 56.854000 4.000000 7.000000 10.000000 128.552515 -20.213686 1371.291099 26.970442 17.582750 0.000000 0.028942
511.000000 55.613000 5.000000 7.000000 10.000000 131.642763 -28.592396 1561.629411 -148.937985 17.974279 0.000000 0.083354
514.000000 48.299000 -1.000000 8.000000 10.000000 93.357390 6.914001 844.487223 877.397022 20.710655 0.000000 0.165853
515.000000 52.248000 1.000000 8.000000 10.000000 106.811545 -2.715910 1026.056283 615.445264 19.140306 0.000000 0.156239
516.000000 53.315000 3.000000 8.000000 10.000000 117.556274 -14.717438 1257.710663 360.320597 18.753274 0.000000 0.096719
517.000000 51.999000 5.000000 8.000000 10.000000 124.745699 -28.668695 1563.489813 90.162194 19.225364 0.000000 0.034499
519.000000 46.360000 0.000000 9.000000 10.000000 95.287660 -0.907042 992.040099 841.376519 21.575769 0.000000 0.169652
520.000000 47.922000 1.000000 9.000000 10.000000 101.246507 -5.659000 1081.650644 725.931812 20.870244 0.000000 0.163623
521.000000 48.866000 2.000000 9.000000 10.000000 106.616805 -10.865156 1181.582868 613.935869 20.464752 0.000000 0.145796
522.000000 49.223000 3.000000 9.000000 10.000000 111.299556 -16.495899 1293.729089 503.367065 20.314489 0.000000 0.115499
523.000000 49.053000 4.000000 9.000000 10.000000 115.226306 -22.484486 1420.474299 392.213622 20.383151 0.000000 0.071657
524.000000 48.438000 5.000000 9.000000 10.000000 118.365123 -28.725132 1564.867672 278.347206 20.641006 0.000000 0.013880
525.000000 47.464000 6.000000 9.000000 10.000000 120.723040 -35.079997 1730.871063 159.376034 21.063474 0.000000 0.066607
526.000000 46.219000 7.000000 9.000000 10.000000 122.343835 -41.395419 1923.728111 32.454502 21.630054 0.000000 0.167804
534.000000 50.252000 -4.000000 3.000000 11.000000 86.228891 45.957324 -137.875327 1043.046760 19.905780 0.000000 0.189284
535.000000 55.579000 -3.000000 3.000000 11.000000 96.309919 44.773745 -92.827322 773.351502 17.994848 0.000000 0.145555
536.000000 60.205000 -2.000000 3.000000 11.000000 106.577130 43.297366 -39.155004 500.786141 16.609446 0.000000 0.123263
537.000000 63.869000 -1.000000 3.000000 11.000000 116.847758 41.407143 25.880447 214.625225 15.653943 0.000000 0.131936
538.000000 66.402000 0.000000 3.000000 11.000000 126.925110 38.907259 106.314832 -98.424704 15.054585 0.000000 0.163758
541.000000 48.371000 -4.000000 4.000000 11.000000 84.947102 39.588139 84.987179 1064.487327 20.680920 0.000000 0.123624
542.000000 53.367000 -3.000000 4.000000 11.000000 94.571442 37.788886 140.474931 832.105254 18.741831 0.000000 0.082560
543.000000 57.720000 -2.000000 4.000000 11.000000 104.322109 35.581373 204.978101 603.129962 17.325485 0.000000 0.044935
544.000000 61.199000 -1.000000 4.000000 11.000000 114.014562 32.818333 280.888146 370.404130 16.337845 0.000000 0.010422
545.000000 63.651000 0.000000 4.000000 11.000000 123.444504 29.279244 371.524388 125.994809 15.706151 0.000000 0.029594
546.000000 65.022000 1.000000 4.000000 11.000000 132.391805 24.626473 481.632354 -139.816583 15.373230 0.000000 0.059830
549.000000 46.036000 -4.000000 5.000000 11.000000 83.105282 33.725464 256.509639 1097.479587 21.731264 0.000000 0.111933
550.000000 50.656000 -3.000000 5.000000 11.000000 92.184350 31.459585 316.489860 892.873109 19.746229 0.000000 0.097240
551.000000 54.700000 -2.000000 5.000000 11.000000 101.327953 28.733230 384.934510 695.112303 18.283458 0.000000 0.086602
552.000000 57.968000 -1.000000 5.000000 11.000000 110.355684 25.407234 463.771367 498.919559 17.250061 0.000000 0.074890
553.000000 60.324000 0.000000 5.000000 11.000000 119.066676 21.291159 555.561706 298.939562 16.573942 0.000000 0.060201
554.000000 61.715000 1.000000 5.000000 11.000000 127.243925 16.127505 663.783813 89.226129 16.198290 0.000000 0.043173
555.000000 62.171000 2.000000 5.000000 11.000000 134.653802 9.583165 793.283720 -137.414939 16.077735 0.000000 0.025212
556.000000 61.790000 3.000000 5.000000 11.000000 141.041136 1.276305 951.020790 -390.395912 16.175601 0.000000 0.005926
559.000000 47.639000 -3.000000 6.000000 11.000000 89.356057 25.829703 454.010491 954.439610 20.998281 0.000000 0.121258
560.000000 51.358000 -2.000000 6.000000 11.000000 97.861271 22.776802 523.080236 779.824837 19.474763 0.000000 0.124184
561.000000 54.400000 -1.000000 6.000000 11.000000 106.208637 19.145711 601.337791 609.812897 18.382951 0.000000 0.121308
562.000000 56.647000 0.000000 6.000000 11.000000 114.211795 14.794214 690.747054 440.433646 17.651122 0.000000 0.110632
563.000000 58.050000 1.000000 6.000000 11.000000 121.673457 9.552581 793.874570 267.618411 17.222606 0.000000 0.091493
564.000000 58.624000 2.000000 6.000000 11.000000 128.390868 3.236399 914.139904 86.856674 17.052038 0.000000 0.063762
565.000000 58.446000 3.000000 6.000000 11.000000 134.162186 -4.314566 1056.202149 -107.239931 17.102667 0.000000 0.029481
566.000000 57.627000 4.000000 6.000000 11.000000 138.799624 -13.156344 1226.577518 -321.563767 17.344409 0.000000 0.039573
569.000000 47.880000 -2.000000 7.000000 11.000000 94.147619 17.653639 632.470028 859.093914 20.891201 0.000000 0.145695
570.000000 50.692000 -1.000000 7.000000 11.000000 101.843091 13.903503 708.574254 708.493468 19.729210 0.000000 0.148316
571.000000 52.822000 0.000000 7.000000 11.000000 109.191234 9.533008 794.252628 561.133482 18.931139 0.000000 0.141844
572.000000 54.222000 1.000000 7.000000 11.000000 116.021460 4.439718 891.433108 413.975666 18.440267 0.000000 0.125616
573.000000 54.899000 2.000000 7.000000 11.000000 122.166056 -1.468868 1002.598545 263.889000 18.211077 0.000000 0.099250
574.000000 54.907000 3.000000 7.000000 11.000000 127.469638 -8.247213 1131.001795 107.415534 18.206621 0.000000 0.062973
575.000000 54.336000 4.000000 7.000000 11.000000 131.802029 -15.870394 1280.989307 -59.523950 18.396595 0.000000 0.029718
576.000000 53.293000 5.000000 7.000000 11.000000 135.075978 -24.191011 1458.502871 -242.042089 18.755909 0.000000 0.075351
579.000000 46.998000 -1.000000 8.000000 11.000000 97.452830 9.519408 794.515306 798.238630 21.281852 0.000000 0.162141
580.000000 49.005000 0.000000 8.000000 11.000000 104.213327 5.252960 876.046377 667.239539 20.407715 0.000000 0.159670
581.000000 50.387000 1.000000 8.000000 11.000000 110.496674 0.409561 967.306324 538.650989 19.845594 0.000000 0.147248
582.000000 51.145000 2.000000 8.000000 11.000000 116.166573 -5.051952 1070.147014 410.114936 19.549692 0.000000 0.124413
583.000000 51.316000 3.000000 8.000000 11.000000 121.102912 -11.139036 1186.922156 279.195615 19.482752 0.000000 0.090713
584.000000 50.968000 4.000000 8.000000 11.000000 125.211656 -17.805277 1320.669643 143.217117 19.614163 0.000000 0.047233
585.000000 50.187000 5.000000 8.000000 11.000000 128.435376 -24.934173 1475.379641 -0.938361 19.918536 0.000000 0.036607
586.000000 49.061000 6.000000 8.000000 11.000000 130.762391 -32.337807 1656.399439 -157.106512 20.374638 0.000000 0.111645
589.000000 46.660000 1.000000 9.000000 11.000000 105.217639 -2.819212 1028.001340 647.866704 21.433129 0.000000 0.159559
590.000000 47.475000 2.000000 9.000000 11.000000 110.488528 -7.851301 1123.415866 535.030063 21.062912 0.000000 0.140950
591.000000 47.780000 3.000000 9.000000 11.000000 115.124933 -13.344598 1230.309927 422.249140 20.926516 0.000000 0.111646
592.000000 47.626000 4.000000 9.000000 11.000000 119.055780 -19.251377 1350.887815 307.611424 20.992941 0.000000 0.071002
593.000000 47.077000 5.000000 9.000000 11.000000 122.239602 -25.482249 1487.956776 189.029166 21.236435 0.000000 0.022650
594.000000 46.206000 6.000000 9.000000 11.000000 124.668899 -31.908214 1645.148291 64.099240 21.635430 0.000000 0.060631
597.000000 48.118000 -4.000000 3.000000 12.000000 89.802920 47.304837 -191.566506 946.459603 20.787442 0.000000 0.202280
598.000000 56.291000 -2.000000 3.000000 12.000000 108.728784 45.105673 -105.271731 423.987344 17.763642 0.000000 0.162191
599.000000 59.289000 -1.000000 3.000000 12.000000 118.244792 43.567813 -48.788867 143.014478 16.862630 0.000000 0.178917
601.000000 50.742000 -3.000000 4.000000 12.000000 97.710534 39.591934 84.867133 751.898470 19.710255 0.000000 0.081418
602.000000 57.211000 -1.000000 4.000000 12.000000 115.885705 35.315156 212.513651 300.928418 17.476129 0.000000 0.040822
603.000000 60.440000 1.000000 4.000000 12.000000 133.186832 28.380779 393.516401 -207.252927 16.538266 0.000000 0.093561
605.000000 48.531000 -3.000000 5.000000 12.000000 95.593364 33.425378 264.630501 814.705692 20.609228 0.000000 0.081539
606.000000 51.911000 -2.000000 5.000000 12.000000 104.211023 31.001865 328.249462 623.010759 19.264437 0.000000 0.063157
607.000000 54.638000 -1.000000 5.000000 12.000000 112.723006 28.057371 401.341058 430.242794 18.300323 0.000000 0.046237
608.000000 56.618000 0.000000 5.000000 12.000000 120.970549 24.425608 486.191127 231.553681 17.658033 0.000000 0.032519
609.000000 57.816000 1.000000 5.000000 12.000000 128.783035 19.876539 585.885298 21.377467 17.290251 0.000000 0.028458
610.000000 58.254000 2.000000 5.000000 12.000000 135.975494 14.098059 704.692326 -207.164195 17.158502 0.000000 0.032288
613.000000 51.735000 -1.000000 6.000000 12.000000 109.036082 21.815570 544.173696 540.997611 19.328742 0.000000 0.100225
614.000000 54.846000 1.000000 6.000000 12.000000 123.861758 13.109625 724.347875 199.476883 18.227963 0.000000 0.070636
616.000000 46.250000 -2.000000 7.000000 12.000000 97.694389 19.971223 583.872992 786.282583 21.625642 0.000000 0.135346
617.000000 48.652000 -1.000000 7.000000 12.000000 105.062807 16.509537 655.992238 638.887560 20.555181 0.000000 0.134095
618.000000 50.473000 0.000000 7.000000 12.000000 112.125962 12.467162 737.038395 492.826023 19.811104 0.000000 0.125588
619.000000 51.680000 1.000000 7.000000 12.000000 118.739912 7.736646 828.778270 345.349218 19.346302 0.000000 0.109331
620.000000 52.280000 2.000000 7.000000 12.000000 124.759644 2.209307 933.477847 193.524102 19.122317 0.000000 0.085114
621.000000 52.317000 3.000000 7.000000 12.000000 130.044313 -4.202852 1054.091977 34.023440 19.107442 0.000000 0.053374
622.000000 51.858000 4.000000 7.000000 12.000000 134.465419 -11.529295 1194.547687 -137.149510 19.275303 0.000000 0.026381
623.000000 50.986000 5.000000 7.000000 12.000000 137.920595 -19.691067 1360.179828 -325.054484 19.603782 0.000000 0.066133
626.000000 45.515000 -1.000000 8.000000 12.000000 100.985635 12.016184 745.908810 727.389148 21.973681 0.000000 0.154097
627.000000 48.444000 1.000000 8.000000 12.000000 113.628334 3.437454 910.350262 469.295936 20.640351 0.000000 0.135682
628.000000 49.270000 3.000000 8.000000 12.000000 124.096340 -7.598673 1118.582942 205.939384 20.290672 0.000000 0.082824
629.000000 48.317000 5.000000 8.000000 12.000000 131.580369 -21.122190 1390.786376 -82.697631 20.688340 0.000000 0.037439
631.000000 45.950000 2.000000 9.000000 12.000000 113.833624 -4.882471 1066.939274 463.811445 21.760601 0.000000 0.133660
632.000000 46.087000 4.000000 9.000000 12.000000 122.370306 -15.997827 1283.578249 231.258312 21.692541 0.000000 0.068692
633.000000 45.607000 5.000000 9.000000 12.000000 125.610690 -22.177361 1413.731543 108.561219 21.919861 0.000000 0.028479
637.000000 45.986000 -4.000000 3.000000 13.000000 92.861041 48.536817 -243.105678 859.764707 21.749662 0.000000 0.221159
638.000000 49.644000 -3.000000 3.000000 13.000000 101.646732 47.723522 -208.807915 611.219150 20.144349 0.000000 0.201303
639.000000 52.780000 -2.000000 3.000000 13.000000 110.523928 46.728013 -168.255120 353.189050 18.944561 0.000000 0.202779
640.000000 55.271000 -1.000000 3.000000 13.000000 119.378889 45.482196 -119.564472 76.770056 18.088105 0.000000 0.224974
643.000000 48.223000 -3.000000 4.000000 13.000000 100.375659 41.242962 31.349110 678.918740 20.738804 0.000000 0.091394
644.000000 51.228000 -2.000000 4.000000 13.000000 108.922846 39.596166 84.733235 462.154238 19.519398 0.000000 0.071876
645.000000 53.632000 -1.000000 4.000000 13.000000 117.413056 37.566524 147.143154 236.764868 18.642003 0.000000 0.077487
646.000000 55.362000 0.000000 4.000000 13.000000 125.723070 35.010407 221.079263 -4.064700 18.057178 0.000000 0.102003
647.000000 56.395000 1.000000 4.000000 13.000000 133.724643 31.708000 310.059494 -269.026465 17.724573 0.000000 0.129300
650.000000 46.410000 -3.000000 5.000000 13.000000 98.505372 35.245090 214.488696 743.916377 21.549786 0.000000 0.067077
651.000000 49.261000 -2.000000 5.000000 13.000000 106.640031 33.092640 273.569577 557.041395 20.299724 0.000000 0.041055
652.000000 51.562000 -1.000000 5.000000 13.000000 114.679372 30.489478 341.280434 367.067264 19.391486 0.000000 0.016958
653.000000 53.245000 0.000000 5.000000 13.000000 122.496982 27.292516 419.661127 169.521428 18.776104 0.000000 0.016226
654.000000 54.288000 1.000000 5.000000 13.000000 129.958073 23.301126 511.449381 -40.858586 18.413539 0.000000 0.037418
655.000000 54.707000 2.000000 5.000000 13.000000 136.916649 18.234838 620.407132 -270.670990 18.270733 0.000000 0.052933
658.000000 46.996000 -2.000000 6.000000 13.000000 103.858182 27.282075 419.909440 642.244197 21.279409 0.000000 0.087124
659.000000 49.182000 -1.000000 6.000000 13.000000 111.407756 24.305083 488.919547 477.999573 20.331007 0.000000 0.077379
660.000000 50.812000 0.000000 6.000000 13.000000 118.705499 20.741439 567.412457 310.765132 19.676626 0.000000 0.064917
661.000000 51.861000 1.000000 6.000000 13.000000 125.619892 16.436365 657.486939 137.029032 19.276413 0.000000 0.050011
662.000000 52.342000 2.000000 6.000000 13.000000 132.011442 11.198850 761.910443 -47.307294 19.097405 0.000000 0.033325
663.000000 52.298000 3.000000 6.000000 13.000000 137.730937 4.811238 884.408438 -247.302841 19.112104 0.000000 0.014309
667.000000 46.609000 -1.000000 7.000000 13.000000 107.804962 18.972534 604.979182 575.479841 21.455230 0.000000 0.117356
668.000000 48.178000 0.000000 7.000000 13.000000 114.594416 15.246689 681.635325 430.388652 20.753884 0.000000 0.107524
669.000000 49.229000 1.000000 7.000000 13.000000 120.995771 10.874482 768.235467 282.581959 20.308746 0.000000 0.091762
670.000000 49.768000 2.000000 7.000000 13.000000 126.884648 5.738096 866.848749 129.278996 20.086862 0.000000 0.069988
671.000000 49.829000 3.000000 7.000000 13.000000 132.135755 -0.274749 980.161157 -32.738396 20.060694 0.000000 0.042530
672.000000 49.465000 4.000000 7.000000 13.000000 136.627153 -7.239626 1111.723900 -207.385449 20.207058 0.000000 0.019635
673.000000 48.741000 5.000000 7.000000 13.000000 140.249503 -15.145931 1266.332308 -399.649892 20.506289 0.000000 0.055058
676.000000 46.492000 1.000000 8.000000 13.000000 116.289618 6.356207 855.107170 406.016232 21.506242 0.000000 0.122241
677.000000 47.081000 2.000000 8.000000 13.000000 121.744086 1.449090 947.773223 274.909492 21.235151 0.000000 0.101382
678.000000 47.239000 3.000000 8.000000 13.000000 126.613212 -4.122155 1052.568065 139.214007 21.162272 0.000000 0.073436
679.000000 47.009000 4.000000 8.000000 13.000000 130.804312 -10.374389 1172.039697 -3.616192 21.264299 0.000000 0.040715
680.000000 46.445000 5.000000 8.000000 13.000000 134.241852 -17.264823 1309.503573 -156.637233 21.521440 0.000000 0.035878
681.000000 45.606000 6.000000 8.000000 13.000000 136.877390 -24.669895 1469.355068 -323.673574 21.916784 0.000000 0.091313
683.000000 46.999000 -3.000000 3.000000 14.000000 103.738055 48.999215 -263.100667 539.930041 21.277244 0.000000 0.234453
684.000000 49.631000 -2.000000 3.000000 14.000000 112.039083 48.189429 -228.322755 287.445218 20.146068 0.000000 0.243616
688.000000 45.846000 -3.000000 4.000000 14.000000 102.658002 42.757995 -20.194766 611.777186 21.813100 0.000000 0.110331
689.000000 50.419000 -1.000000 4.000000 14.000000 118.672949 39.600916 84.582942 177.091762 19.829488 0.000000 0.114200
692.000000 46.777000 -2.000000 5.000000 14.000000 108.702375 35.020724 220.790307 496.091673 21.377088 0.000000 0.029452
693.000000 48.737000 -1.000000 5.000000 14.000000 116.308954 32.721643 283.457086 308.475494 20.514765 0.000000 0.014276
694.000000 50.183000 0.000000 5.000000 14.000000 123.728437 29.912105 355.800734 111.998835 19.921182 0.000000 0.036223
695.000000 51.100000 1.000000 5.000000 14.000000 130.853658 26.420184 440.250212 -98.347233 19.562001 0.000000 0.060986
696.000000 51.499000 2.000000 5.000000 14.000000 137.569287 22.001248 540.121619 -328.904414 19.408498 0.000000 0.078175
699.000000 46.772000 -1.000000 6.000000 14.000000 113.408416 26.623437 435.481197 419.795364 21.377724 0.000000 0.053405
700.000000 49.101000 1.000000 6.000000 14.000000 127.033798 19.534187 593.141333 79.364351 20.359558 0.000000 0.032555
701.000000 49.548000 3.000000 6.000000 14.000000 138.897955 9.018300 804.179324 -308.131759 20.172669 0.000000 0.025317
703.000000 46.900000 1.000000 7.000000 14.000000 122.869551 13.847038 709.699676 224.708307 21.316694 0.000000 0.073498
704.000000 47.389000 2.000000 7.000000 14.000000 128.621662 9.101384 802.578913 70.175443 21.094820 0.000000 0.054617
705.000000 47.470000 3.000000 7.000000 14.000000 133.823385 3.506973 909.039541 -93.910715 21.057024 0.000000 0.031593
706.000000 47.186000 4.000000 7.000000 14.000000 138.362642 -3.047209 1032.295477 -271.382787 21.182748 0.000000 0.010102
711.000000 45.789000 -2.000000 4.000000 15.000000 112.201206 42.928392 -26.148701 341.094650 21.836467 0.000000 0.134616
712.000000 47.530000 -1.000000 4.000000 15.000000 119.722360 41.443802 24.655606 121.282946 21.034217 0.000000 0.150507
713.000000 48.810000 0.000000 4.000000 15.000000 127.113425 39.606285 84.413045 -116.042687 20.480466 0.000000 0.176003
716.000000 46.151000 -1.000000 5.000000 15.000000 117.676627 34.771550 227.748291 253.777171 21.663725 0.000000 0.043980
717.000000 48.218000 1.000000 5.000000 15.000000 131.534071 29.256689 372.081166 -151.759927 20.730994 0.000000 0.088385
721.000000 46.558000 1.000000 6.000000 15.000000 128.171835 22.409636 531.171736 25.780700 21.471048 0.000000 0.027596
722.000000 46.972000 2.000000 6.000000 15.000000 134.201171 18.168730 621.783220 -160.617297 21.280208 0.000000 0.038617
728.000000 45.608000 1.000000 5.000000 16.000000 132.048226 31.835226 306.752836 -201.628605 21.916952 0.000000 0.117033
#UB matrix in q= (UB) B0 G* 
#[[-0.564953814 -0.110211228 -0.816862625]
# [-0.688250036 -0.48350881   0.541240014]
# [-0.45512534   0.868889325  0.197464066]]
#B0 matrix in q= UB (B0) G*
#[[ 0.19670273 -0.          0.03056101]
# [ 0.          0.19187965 -0.        ]
# [ 0.          0.          0.18806537]]
#UBB0 matrix in q= (UB B0) G* i.e. recip. basis vectors are columns in LT frame: astar = UBB0[:,0], bstar = UBB0[:,1], cstar = UBB0[:,2]. (abcstar as columns on xyzlab1, xlab1 = ui, ui = unit vector along incident beam)
#[[-0.11112796 -0.02114729 -0.17088913]
# [-0.13538066 -0.0927755   0.08075489]
# [-0.0895244   0.16672218  0.02322706]]
#Euler angles phi theta psi (deg)
#[207.661  78.626  56.521]
#deviatoric strain in direct crystal frame (10-3 unit)
#[[-4.08  0.2   0.68]
# [ 0.2  -4.4   0.15]
# [ 0.68  0.15  8.48]]
#deviatoric strain in sample2 frame (10-3 unit)
#[[-0.74 -3.27 -4.8 ]
# [-3.28 -0.93  4.32]
# [-4.81  4.31  1.67]]
#new lattice parameters
#[ 5.1505     5.2099456  5.3201299 89.9946814 99.1839526 89.9774238]
#CCDLabel
#sCMOS
#DetectorParameters
#[79.0, 975.0, 941.0, 0.0, 0.0]
#pixelsize
#0.0734
#Frame dimensions
#[2018, 2016]
#
