#Strain and Orientation Refinement from experimental file: /home/micha/LaueProjects/DepthEffects/testZrO2_104.cor
#File created at Wed Jun 28 14:24:41 2023 with indexingSpotsSet.py
#Number of indexed spots: 534
#Element
#ZrO2
#grainIndex
#G_0
#Mean Deviation(pixel): 0.116
##spot_index intensity h k l 2theta Chi Xexp Yexp Energy GrainIndex PixDev
27.000000 45.626000 1.000000 9.000000 -14.000000 126.496141 -37.667444 1805.878300 -64.979031 21.905909 0.000000 0.140816
28.000000 46.486000 2.000000 9.000000 -14.000000 130.294697 -30.709362 1614.294675 -120.439586 21.500081 0.000000 0.090632
29.000000 46.985000 3.000000 9.000000 -14.000000 133.359502 -22.780942 1427.011247 -161.353184 21.270731 0.000000 0.054198
30.000000 47.116000 4.000000 9.000000 -14.000000 135.520535 -14.026787 1243.884844 -188.715784 21.210995 0.000000 0.030061
31.000000 46.887000 5.000000 9.000000 -14.000000 136.658832 -4.768262 1064.778576 -203.453713 21.314362 0.000000 0.016852
32.000000 46.322000 6.000000 9.000000 -14.000000 136.742408 4.538741 889.561503 -206.429063 21.574646 0.000000 0.016492
33.000000 45.455000 7.000000 9.000000 -14.000000 135.839675 13.424290 718.108307 -198.444625 21.985974 0.000000 0.029662
46.000000 50.232000 1.000000 8.000000 -13.000000 128.599883 -38.755295 1838.981047 -160.771599 19.896732 0.000000 0.173882
47.000000 51.211000 2.000000 8.000000 -13.000000 132.817423 -30.882145 1618.693368 -221.011901 19.515560 0.000000 0.112405
48.000000 51.716000 3.000000 8.000000 -13.000000 136.106823 -21.734962 1404.070462 -263.320895 19.324094 0.000000 0.066005
49.000000 51.741000 4.000000 8.000000 -13.000000 138.232945 -11.547126 1194.896595 -289.059483 19.314383 0.000000 0.030935
50.000000 51.304000 5.000000 8.000000 -13.000000 139.050632 -0.849922 990.966851 -299.483429 19.478911 0.000000 0.003590
51.000000 50.445000 6.000000 8.000000 -13.000000 138.563979 9.645123 792.086461 -295.752337 19.810572 0.000000 0.026228
52.000000 49.223000 7.000000 8.000000 -13.000000 136.930295 19.300802 598.070183 -278.937782 20.302644 0.000000 0.058097
53.000000 47.707000 8.000000 8.000000 -13.000000 134.401773 27.749686 408.741728 -250.030677 20.948756 0.000000 0.096984
54.000000 45.966000 9.000000 8.000000 -13.000000 131.249136 34.908360 223.933222 -209.947946 21.742874 0.000000 0.144251
55.000000 46.113000 0.000000 9.000000 -13.000000 119.335091 -40.876974 1906.558507 141.050225 21.677237 0.000000 0.136483
56.000000 47.397000 1.000000 9.000000 -13.000000 123.625597 -34.635532 1718.471224 71.049363 21.088700 0.000000 0.080093
57.000000 48.294000 2.000000 9.000000 -13.000000 127.298024 -27.467397 1534.505155 16.980613 20.695841 0.000000 0.042150
58.000000 48.777000 3.000000 9.000000 -13.000000 130.166038 -19.423832 1354.526315 -22.271312 20.490455 0.000000 0.029156
59.000000 48.837000 4.000000 9.000000 -13.000000 132.071764 -10.701982 1178.406469 -47.741283 20.464786 0.000000 0.034292
60.000000 48.489000 5.000000 9.000000 -13.000000 132.923419 -1.651021 1006.022818 -60.390214 20.611503 0.000000 0.037869
61.000000 47.765000 6.000000 9.000000 -13.000000 132.723800 7.292971 837.257722 -61.110935 20.923666 0.000000 0.034933
62.000000 46.714000 7.000000 9.000000 -13.000000 131.571603 15.723131 671.998427 -50.733550 21.394704 0.000000 0.029329
63.000000 45.868000 3.000000 10.000000 -13.000000 124.595224 -17.697638 1318.440422 161.768827 21.791548 0.000000 0.052136
64.000000 45.958000 4.000000 10.000000 -13.000000 126.335695 -10.081268 1166.354186 136.936068 21.748509 0.000000 0.066911
65.000000 45.690000 5.000000 10.000000 -13.000000 127.211146 -2.238117 1017.064151 123.094190 21.876087 0.000000 0.072434
75.000000 57.398000 3.000000 7.000000 -12.000000 139.373522 -20.308087 1373.306056 -396.712535 17.410618 0.000000 0.078339
76.000000 57.238000 4.000000 7.000000 -12.000000 141.358186 -8.166253 1129.449329 -419.024923 17.458870 0.000000 0.029638
77.000000 56.477000 5.000000 7.000000 -12.000000 141.629236 4.371707 892.718268 -422.336374 17.694114 0.000000 0.017491
78.000000 55.187000 6.000000 7.000000 -12.000000 140.288026 16.175577 662.805046 -408.265620 18.108099 0.000000 0.060822
85.000000 50.932000 0.000000 4.000000 -6.000000 120.791793 -42.271454 1953.372649 74.215661 9.812785 0.000000 0.170323
86.000000 52.471000 1.000000 8.000000 -12.000000 125.616975 -35.322711 1737.699491 -3.999892 19.048606 0.000000 0.103301
87.000000 53.493000 1.000000 4.000000 -6.000000 129.673584 -27.169738 1527.421694 -62.440775 9.341869 0.000000 0.056632
88.000000 53.961000 3.000000 8.000000 -12.000000 132.700742 -17.885813 1322.339298 -102.640225 18.521322 0.000000 0.031628
89.000000 53.869000 2.000000 4.000000 -6.000000 134.486145 -7.791019 1122.262109 -126.009411 9.276142 0.000000 0.026074
90.000000 53.250000 5.000000 8.000000 -12.000000 134.933034 2.553071 927.009099 -133.848223 18.768092 0.000000 0.025521
91.000000 52.159000 3.000000 4.000000 -6.000000 134.100890 12.499159 736.407871 -127.355005 9.580351 0.000000 0.026606
92.000000 50.674000 7.000000 8.000000 -12.000000 132.185831 21.534198 550.294141 -107.635320 19.722532 0.000000 0.041374
93.000000 48.882000 2.000000 2.000000 -3.000000 129.453480 29.401134 368.511274 -75.709885 5.111607 0.000000 0.073029
94.000000 46.868000 9.000000 8.000000 -12.000000 126.169858 36.073678 190.909840 -32.521741 21.325638 0.000000 0.117630
95.000000 45.998000 -1.000000 9.000000 -12.000000 111.387439 -43.670069 2002.453981 358.245049 21.733947 0.000000 0.141935
96.000000 47.770000 0.000000 3.000000 -4.000000 116.090108 -38.061340 1817.750431 271.615422 6.975403 0.000000 0.074398
97.000000 49.149000 1.000000 9.000000 -12.000000 120.300568 -31.594562 1636.999845 202.602333 20.337788 0.000000 0.025229
98.000000 50.081000 2.000000 9.000000 -12.000000 123.825166 -24.260684 1460.076665 149.936557 19.958704 0.000000 0.025435
99.000000 50.533000 1.000000 3.000000 -4.000000 126.479554 -16.159158 1286.860597 112.444029 6.593192 0.000000 0.048402
100.000000 50.501000 4.000000 9.000000 -12.000000 128.122940 -7.528229 1117.236336 89.037852 19.791569 0.000000 0.061526
101.000000 50.008000 5.000000 9.000000 -12.000000 128.693579 1.272447 951.093307 78.711064 19.986368 0.000000 0.063833
102.000000 49.100000 2.000000 3.000000 -4.000000 128.228011 9.839605 788.325431 80.530076 6.785376 0.000000 0.056036
103.000000 47.838000 7.000000 9.000000 -12.000000 126.851273 17.829376 628.830893 93.628721 20.893450 0.000000 0.039612
104.000000 46.293000 8.000000 9.000000 -12.000000 124.742862 25.026396 472.511935 117.202839 21.591344 0.000000 0.021465
105.000000 45.917000 1.000000 10.000000 -12.000000 115.242618 -28.663259 1563.357177 362.686061 21.771604 0.000000 0.031612
106.000000 46.763000 1.000000 5.000000 -6.000000 118.346729 -22.037030 1410.660487 314.576960 10.688277 0.000000 0.062137
107.000000 47.198000 3.000000 10.000000 -12.000000 120.714963 -14.868253 1260.741269 279.411961 21.179082 0.000000 0.083276
108.000000 47.216000 2.000000 5.000000 -6.000000 122.249516 -7.333934 1113.524425 256.320252 10.585294 0.000000 0.094797
109.000000 46.834000 5.000000 10.000000 -12.000000 122.907928 0.322727 968.937541 244.491677 21.342960 0.000000 0.097176
110.000000 46.088000 3.000000 5.000000 -6.000000 122.713050 7.834237 826.910764 243.171982 10.844271 0.000000 0.090948
124.000000 58.697000 1.000000 7.000000 -11.000000 128.025531 -36.222290 1763.371517 -102.304882 17.027597 0.000000 0.133725
125.000000 59.861000 2.000000 7.000000 -11.000000 132.554025 -26.771308 1517.999025 -165.740477 16.695648 0.000000 0.074714
126.000000 60.263000 3.000000 7.000000 -11.000000 135.721683 -15.805673 1279.675677 -206.126742 16.583727 0.000000 0.036009
127.000000 59.910000 4.000000 7.000000 -11.000000 137.236643 -3.885567 1048.102011 -225.465435 16.681082 0.000000 0.014001
128.000000 58.864000 5.000000 7.000000 -11.000000 137.023130 8.038701 822.995289 -225.581873 16.977651 0.000000 0.019851
129.000000 57.226000 6.000000 7.000000 -11.000000 135.268720 19.014934 604.088345 -208.142104 17.464005 0.000000 0.047079
130.000000 55.121000 7.000000 7.000000 -11.000000 132.338132 28.479083 391.128532 -174.668225 18.131302 0.000000 0.087280
131.000000 52.683000 8.000000 7.000000 -11.000000 128.631940 36.317509 183.876746 -126.552060 18.971242 0.000000 0.140421
134.000000 48.234000 -2.000000 8.000000 -11.000000 106.358193 -50.445630 2278.127926 444.906400 20.727711 0.000000 0.276991
135.000000 50.851000 -1.000000 8.000000 -11.000000 112.034931 -45.271922 2061.559134 322.003247 19.659196 0.000000 0.176004
136.000000 53.048000 0.000000 8.000000 -11.000000 117.361500 -39.120805 1850.329762 223.072324 18.843621 0.000000 0.096753
137.000000 54.716000 1.000000 8.000000 -11.000000 122.092548 -31.873540 1644.244755 146.192355 18.268203 0.000000 0.040072
138.000000 55.773000 2.000000 8.000000 -11.000000 125.957244 -23.505926 1443.118440 89.602973 17.921005 0.000000 0.025044
139.000000 56.179000 3.000000 8.000000 -11.000000 128.699093 -14.171462 1246.773976 51.689650 17.790869 0.000000 0.043430
140.000000 55.938000 4.000000 8.000000 -11.000000 130.137347 -4.253195 1055.042831 30.970200 17.867352 0.000000 0.053505
141.000000 55.095000 5.000000 8.000000 -11.000000 130.227023 5.689840 867.764301 26.082699 18.140671 0.000000 0.051232
142.000000 53.731000 6.000000 8.000000 -11.000000 129.078475 15.090495 684.785060 35.774627 18.601651 0.000000 0.038353
143.000000 51.945000 7.000000 8.000000 -11.000000 126.918727 23.547224 505.958742 58.893117 19.241677 0.000000 0.025328
144.000000 49.846000 8.000000 8.000000 -11.000000 124.021073 30.888460 331.145551 94.376179 20.052655 0.000000 0.045609
145.000000 47.538000 9.000000 8.000000 -11.000000 120.644433 37.126850 160.211894 141.244781 21.026972 0.000000 0.090776
146.000000 47.418000 -1.000000 9.000000 -11.000000 107.691180 -41.056391 1912.469701 485.724337 21.084338 0.000000 0.086647
147.000000 49.349000 0.000000 9.000000 -11.000000 112.349529 -35.221110 1734.836140 399.330080 20.258009 0.000000 0.024491
148.000000 50.826000 1.000000 9.000000 -11.000000 116.456954 -28.561605 1560.879389 331.175194 19.668350 0.000000 0.026284
149.000000 51.783000 2.000000 9.000000 -11.000000 119.813592 -21.108296 1390.486459 279.902621 19.303781 0.000000 0.060062
150.000000 52.188000 3.000000 9.000000 -11.000000 122.241673 -13.003378 1223.548943 244.260950 19.153469 0.000000 0.081554
151.000000 52.041000 4.000000 9.000000 -11.000000 123.621792 -4.513575 1059.962788 223.095153 19.207262 0.000000 0.091189
152.000000 51.376000 5.000000 9.000000 -11.000000 123.923801 4.005832 899.628075 215.338255 19.455641 0.000000 0.089737
153.000000 50.256000 6.000000 9.000000 -11.000000 123.215892 12.192276 742.448820 220.003798 19.889670 0.000000 0.077950
154.000000 48.758000 7.000000 9.000000 -11.000000 121.645286 19.761226 588.332780 236.179048 20.500952 0.000000 0.056538
155.000000 46.971000 8.000000 9.000000 -11.000000 119.400823 26.550637 437.191272 263.018844 21.281588 0.000000 0.026194
156.000000 45.807000 0.000000 10.000000 -11.000000 107.578527 -32.084871 1649.762157 538.554637 21.826463 0.000000 0.043356
157.000000 47.113000 1.000000 10.000000 -11.000000 111.182662 -25.971184 1499.273875 477.055956 21.220497 0.000000 0.070564
158.000000 47.979000 2.000000 10.000000 -11.000000 114.141353 -19.278988 1351.469845 429.959676 20.836656 0.000000 0.095752
159.000000 48.377000 3.000000 10.000000 -11.000000 116.327638 -12.127551 1206.278885 396.258734 20.664411 0.000000 0.112651
160.000000 48.307000 4.000000 10.000000 -11.000000 117.658402 -4.707657 1063.632305 375.019916 20.693888 0.000000 0.120633
161.000000 47.794000 5.000000 10.000000 -11.000000 118.111427 2.741400 923.463803 365.377727 20.915819 0.000000 0.119954
162.000000 46.885000 6.000000 10.000000 -11.000000 117.730057 9.974747 785.709362 366.528831 21.321492 0.000000 0.111078
163.000000 45.642000 7.000000 10.000000 -11.000000 116.612774 16.787336 650.307148 377.727016 21.902718 0.000000 0.094579
171.000000 67.804000 1.000000 3.000000 -5.000000 136.113691 -26.210577 1504.849248 -306.212577 7.369512 0.000000 0.096924
172.000000 68.041000 3.000000 6.000000 -10.000000 139.359015 -12.845452 1220.426112 -345.104659 14.687283 0.000000 0.040373
173.000000 67.234000 2.000000 3.000000 -5.000000 140.321061 1.564824 945.597656 -356.856773 7.431769 0.000000 0.005730
174.000000 65.506000 5.000000 6.000000 -10.000000 139.029280 15.333315 679.886435 -344.160386 15.255752 0.000000 0.050211
175.000000 63.041000 3.000000 3.000000 -5.000000 135.949623 27.158450 422.846165 -309.440055 7.926360 0.000000 0.103834
182.000000 56.805000 -1.000000 7.000000 -10.000000 112.770474 -47.269743 2140.133785 275.195721 17.598509 0.000000 0.223235
183.000000 59.595000 0.000000 7.000000 -10.000000 118.899389 -40.476751 1893.487098 159.936164 16.773178 0.000000 0.127146
184.000000 61.649000 1.000000 7.000000 -10.000000 124.295870 -32.239247 1653.808745 73.111327 16.213229 0.000000 0.059422
185.000000 62.844000 2.000000 7.000000 -10.000000 128.565246 -22.499630 1420.807534 12.173547 15.904131 0.000000 0.028694
186.000000 63.127000 3.000000 7.000000 -10.000000 131.336166 -11.511947 1194.208271 -25.188710 15.832396 0.000000 0.036483
187.000000 62.521000 4.000000 7.000000 -10.000000 132.379173 0.066507 973.750682 -41.075199 15.985483 0.000000 0.041410
188.000000 61.121000 5.000000 7.000000 -10.000000 131.710610 11.338222 759.188413 -37.395437 16.351723 0.000000 0.034541
189.000000 59.069000 6.000000 7.000000 -10.000000 129.590706 21.534476 550.288111 -15.887789 16.920237 0.000000 0.029855
190.000000 56.530000 7.000000 7.000000 -10.000000 126.410729 30.269665 346.828579 21.863570 17.680877 0.000000 0.057638
191.000000 53.670000 8.000000 7.000000 -10.000000 122.563212 37.517766 148.599993 74.413586 18.624161 0.000000 0.109432
192.000000 50.635000 9.000000 7.000000 -10.000000 118.368274 43.450428 -44.596817 140.442888 19.741222 0.000000 0.176047
195.000000 49.752000 -1.000000 4.000000 -5.000000 102.356499 -47.849070 2164.032058 589.655805 10.048299 0.000000 0.202029
196.000000 52.664000 -1.000000 8.000000 -10.000000 108.051175 -42.379425 1957.083200 466.147496 18.984073 0.000000 0.108061
197.000000 55.086000 0.000000 4.000000 -5.000000 113.334862 -35.932730 1755.044525 367.579783 9.073893 0.000000 0.034573
198.000000 56.886000 1.000000 8.000000 -10.000000 117.939472 -28.432663 1557.743329 291.883654 17.572601 0.000000 0.020134
199.000000 57.966000 1.000000 4.000000 -5.000000 121.583884 -19.918910 1365.014913 237.170515 8.622235 0.000000 0.057354
200.000000 58.282000 3.000000 8.000000 -10.000000 124.024365 -10.614356 1176.702126 201.714491 17.150331 0.000000 0.078555
201.000000 57.850000 2.000000 4.000000 -5.000000 125.118852 -0.939764 992.654936 183.936698 8.639017 0.000000 0.084966
202.000000 56.740000 5.000000 8.000000 -10.000000 124.874850 8.573756 812.730032 182.391216 17.616249 0.000000 0.077740
203.000000 55.059000 3.000000 4.000000 -5.000000 123.447699 17.444554 636.790452 195.752582 9.077204 0.000000 0.057979
204.000000 52.937000 7.000000 8.000000 -10.000000 121.087828 25.366658 464.705234 222.804597 18.882638 0.000000 0.026993
205.000000 50.507000 4.000000 4.000000 -5.000000 118.071143 32.233236 296.349091 262.430311 9.895853 0.000000 0.017821
206.000000 47.893000 9.000000 8.000000 -10.000000 114.647139 38.082701 131.602111 313.603031 20.872966 0.000000 0.068851
207.000000 46.154000 -2.000000 9.000000 -10.000000 98.462872 -43.683495 2002.936141 719.556700 21.665311 0.000000 0.122246
208.000000 48.670000 -1.000000 9.000000 -10.000000 103.454349 -38.408638 1828.324571 612.402926 20.543577 0.000000 0.055796
209.000000 50.768000 0.000000 9.000000 -10.000000 108.043168 -32.370034 1657.247763 525.889169 19.693542 0.000000 0.039334
210.000000 52.341000 1.000000 9.000000 -10.000000 112.024390 -25.553467 1489.599457 458.410453 19.100577 0.000000 0.069688
211.000000 53.314000 2.000000 9.000000 -10.000000 115.195589 -18.027365 1325.277613 408.494235 18.751087 0.000000 0.096838
212.000000 53.652000 3.000000 9.000000 -10.000000 117.390125 -9.969251 1164.184198 374.788005 18.632416 0.000000 0.113336
213.000000 53.364000 4.000000 9.000000 -10.000000 118.513388 -1.661775 1006.224994 356.048201 18.732772 0.000000 0.118810
214.000000 52.499000 5.000000 9.000000 -10.000000 118.567075 6.555822 851.309414 351.130297 19.041153 0.000000 0.113765
215.000000 51.141000 6.000000 9.000000 -10.000000 117.648037 14.365248 699.350329 358.979901 19.547281 0.000000 0.098909
216.000000 49.388000 7.000000 9.000000 -10.000000 115.921329 21.535591 550.263904 378.624779 20.241544 0.000000 0.075128
217.000000 47.346000 8.000000 9.000000 -10.000000 113.581393 27.948295 403.969443 409.167656 21.114944 0.000000 0.044162
218.000000 46.721000 0.000000 3.000000 -3.000000 103.094968 -29.522179 1584.488110 653.282293 6.420462 0.000000 0.078347
219.000000 48.096000 1.000000 10.000000 -10.000000 106.579894 -23.310015 1438.748580 592.073612 20.788541 0.000000 0.103690
220.000000 48.972000 1.000000 5.000000 -5.000000 109.382419 -16.584344 1295.537060 545.912741 10.207817 0.000000 0.124725
221.000000 49.322000 3.000000 10.000000 -10.000000 111.384426 -9.483348 1154.788339 513.702692 20.270545 0.000000 0.137952
222.000000 49.148000 2.000000 5.000000 -5.000000 112.519204 -2.204910 1016.439429 494.430987 10.170913 0.000000 0.142794
223.000000 48.488000 2.000000 4.000000 -4.000000 112.784773 5.021500 880.429472 487.162232 8.247512 0.000000 0.139450
224.000000 47.401000 3.000000 5.000000 -5.000000 112.243221 11.975903 746.699652 491.031449 10.545702 0.000000 0.128416
225.000000 45.966000 7.000000 10.000000 -10.000000 111.005995 18.484864 615.193108 505.238053 21.750333 0.000000 0.110429
237.000000 70.496000 1.000000 6.000000 -9.000000 127.067752 -32.739521 1667.017490 -25.599019 14.177929 0.000000 0.085465
238.000000 71.823000 2.000000 6.000000 -9.000000 131.820927 -21.092001 1390.134765 -91.177737 13.915153 0.000000 0.037424
239.000000 70.580000 4.000000 6.000000 -9.000000 134.790367 5.942610 862.966767 -133.219840 14.159775 0.000000 0.025247
240.000000 68.277000 5.000000 6.000000 -9.000000 132.928692 18.645114 611.843261 -115.613484 14.637677 0.000000 0.034393
241.000000 61.550000 7.000000 6.000000 -9.000000 124.993308 38.049321 132.613728 -15.775496 16.239080 0.000000 0.134949
242.000000 57.648000 8.000000 6.000000 -9.000000 120.060646 44.863681 -96.184963 62.148433 17.339199 0.000000 0.215135
247.000000 55.387000 -2.000000 7.000000 -9.000000 101.892840 -49.975435 2256.561288 588.543649 18.052049 0.000000 0.253075
248.000000 59.181000 -1.000000 7.000000 -9.000000 108.457478 -44.037970 2015.744607 441.284609 16.893224 0.000000 0.138100
249.000000 62.306000 0.000000 7.000000 -9.000000 114.551629 -36.846321 1781.528919 326.605420 16.044481 0.000000 0.050564
250.000000 64.545000 1.000000 7.000000 -9.000000 119.789294 -28.263742 1553.646486 241.467243 15.486907 0.000000 0.014501
251.000000 65.747000 2.000000 7.000000 -9.000000 123.757635 -18.342867 1331.843855 183.128443 15.203098 0.000000 0.053673
252.000000 65.858000 3.000000 7.000000 -9.000000 126.111912 -7.457301 1115.880919 149.112007 15.177007 0.000000 0.073320
253.000000 64.930000 4.000000 7.000000 -9.000000 126.696879 3.693062 905.530051 137.176982 15.393820 0.000000 0.074297
254.000000 63.102000 5.000000 7.000000 -9.000000 125.617149 14.304035 700.575301 145.293378 15.839836 0.000000 0.058357
255.000000 60.571000 6.000000 7.000000 -9.000000 123.191369 23.777090 500.811660 171.620059 16.502364 0.000000 0.028175
256.000000 57.549000 7.000000 7.000000 -9.000000 119.825747 31.862439 306.044372 214.485243 17.369637 0.000000 0.025407
257.000000 54.238000 8.000000 7.000000 -9.000000 115.899790 38.590806 116.088305 272.369254 18.430720 0.000000 0.082132
258.000000 50.810000 9.000000 7.000000 -9.000000 111.711324 44.133773 -69.232639 343.889233 19.675447 0.000000 0.153011
259.000000 47.395000 10.000000 7.000000 -9.000000 107.469654 48.699212 -250.086068 427.785580 21.094350 0.000000 0.235091
260.000000 47.429000 -3.000000 8.000000 -9.000000 91.832772 -50.078062 2261.232397 887.333458 21.084833 0.000000 0.255102
261.000000 51.035000 -2.000000 8.000000 -9.000000 97.730933 -45.188725 2058.408074 733.681817 19.593106 0.000000 0.147166
262.000000 54.265000 -1.000000 8.000000 -9.000000 103.409181 -39.438030 1860.275131 608.761615 18.425509 0.000000 0.064665
263.000000 56.928000 0.000000 8.000000 -9.000000 108.614958 -32.726532 1666.672659 510.068249 17.562259 0.000000 0.034395
264.000000 58.859000 1.000000 8.000000 -9.000000 113.060457 -25.024603 1477.447026 435.330158 16.985151 0.000000 0.068576
265.000000 59.942000 2.000000 8.000000 -9.000000 116.460744 -16.433349 1292.451468 382.484216 16.677402 0.000000 0.097801
266.000000 60.135000 3.000000 8.000000 -9.000000 118.592983 -7.230290 1111.545709 349.654080 16.623518 0.000000 0.113092
267.000000 59.470000 4.000000 8.000000 -9.000000 119.358842 2.149890 934.595610 335.131092 16.809170 0.000000 0.114516
268.000000 58.048000 5.000000 8.000000 -9.000000 118.816553 11.221266 761.472832 337.357383 17.221089 0.000000 0.102957
269.000000 56.013000 6.000000 8.000000 -9.000000 117.159516 19.585557 592.054530 354.910920 17.846967 0.000000 0.079512
270.000000 53.530000 7.000000 8.000000 -9.000000 114.654281 27.015957 426.223061 386.492219 18.675372 0.000000 0.045899
271.000000 50.759000 8.000000 8.000000 -9.000000 111.574541 33.453728 263.865709 430.912529 19.695674 0.000000 0.018055
272.000000 47.841000 9.000000 8.000000 -9.000000 108.157853 38.953661 104.874435 487.083304 20.897972 0.000000 0.061081
273.000000 46.901000 -2.000000 9.000000 -9.000000 93.665912 -41.215796 1917.748667 849.329178 21.322116 0.000000 0.102405
274.000000 49.645000 -1.000000 9.000000 -9.000000 98.603128 -35.737624 1749.468091 740.391062 20.142266 0.000000 0.064957
275.000000 53.576000 1.000000 9.000000 -9.000000 106.927489 -22.586137 1422.712561 586.222358 18.661934 0.000000 0.106353
276.000000 54.551000 2.000000 9.000000 -9.000000 109.899773 -15.032617 1264.048984 537.586241 18.327707 0.000000 0.128380
277.000000 54.801000 1.000000 3.000000 -3.000000 111.860534 -7.065866 1108.408438 505.888908 6.081242 0.000000 0.140496
278.000000 54.346000 4.000000 9.000000 -9.000000 112.742226 1.027028 955.705342 489.771556 18.396121 0.000000 0.142294
279.000000 53.258000 5.000000 9.000000 -9.000000 112.577312 8.931147 805.857314 487.989410 18.772025 0.000000 0.134229
280.000000 51.642000 2.000000 3.000000 -3.000000 111.487457 16.372774 658.785024 499.400856 6.453163 0.000000 0.117137
281.000000 49.624000 7.000000 9.000000 -9.000000 109.650926 23.167955 514.412055 522.957766 20.147401 0.000000 0.092406
282.000000 47.328000 8.000000 9.000000 -9.000000 107.263965 29.233037 372.664770 557.696845 21.125415 0.000000 0.063501
283.000000 47.322000 0.000000 10.000000 -9.000000 98.027124 -26.973421 1522.770566 770.690282 21.131579 0.000000 0.107098
284.000000 48.760000 1.000000 10.000000 -9.000000 101.377359 -20.690462 1381.492977 709.491969 20.507326 0.000000 0.129720
285.000000 49.637000 2.000000 10.000000 -9.000000 104.016388 -13.962408 1242.600366 664.142728 20.144408 0.000000 0.147385
286.000000 49.923000 3.000000 10.000000 -9.000000 105.837229 -6.941283 1106.032845 633.429604 20.028330 0.000000 0.157567
287.000000 49.632000 4.000000 10.000000 -9.000000 106.790608 0.173942 971.732515 616.238603 20.145648 0.000000 0.159783
288.000000 48.812000 5.000000 10.000000 -9.000000 106.893983 7.167984 839.643384 611.545434 20.483877 0.000000 0.154267
289.000000 47.542000 6.000000 10.000000 -9.000000 106.225818 13.846455 709.711287 618.407241 21.031408 0.000000 0.141617
290.000000 45.914000 7.000000 10.000000 -9.000000 104.907485 20.064707 581.883816 635.955207 21.777430 0.000000 0.122832
291.000000 45.519000 3.000000 11.000000 -9.000000 100.445199 -6.843627 1104.171573 741.161415 21.968676 0.000000 0.166705
296.000000 82.123000 1.000000 5.000000 -8.000000 130.654889 -33.465237 1686.444913 -166.963350 12.170009 0.000000 0.121977
297.000000 83.527000 2.000000 5.000000 -8.000000 135.982142 -18.986546 1345.315175 -236.925428 11.964745 0.000000 0.050433
298.000000 82.924000 3.000000 5.000000 -8.000000 138.229902 -2.276965 1017.795038 -264.986909 12.051396 0.000000 0.008598
299.000000 80.524000 4.000000 5.000000 -8.000000 137.159823 14.178469 703.085984 -256.125977 12.410780 0.000000 0.036598
300.000000 76.728000 5.000000 5.000000 -8.000000 133.449178 28.094267 400.450765 -214.726940 13.025357 0.000000 0.092573
301.000000 72.013000 6.000000 5.000000 -8.000000 128.166105 38.813886 109.207640 -144.657937 13.879062 0.000000 0.171423
306.000000 67.480000 -1.000000 6.000000 -8.000000 108.908578 -46.173964 2096.328863 408.590873 14.815569 0.000000 0.181963
307.000000 74.511000 1.000000 6.000000 -8.000000 122.160700 -28.032844 1548.067468 174.301543 13.415119 0.000000 0.016214
308.000000 75.465000 3.000000 6.000000 -8.000000 128.542410 -3.123693 1033.736400 82.299531 13.244412 0.000000 0.064000
309.000000 70.645000 5.000000 6.000000 -8.000000 125.876317 21.534830 550.280424 104.154322 14.148498 0.000000 0.029528
310.000000 66.806000 3.000000 3.000000 -4.000000 122.096826 31.351593 319.274650 150.505354 7.481069 0.000000 0.036127
311.000000 62.487000 7.000000 6.000000 -8.000000 117.502758 39.270115 95.000424 217.194073 15.997407 0.000000 0.100929
312.000000 57.983000 4.000000 3.000000 -4.000000 112.566912 45.567582 -122.832269 302.077324 8.620586 0.000000 0.185274
316.000000 52.259000 -3.000000 7.000000 -8.000000 89.993397 -52.270279 2366.070160 941.202700 19.136461 0.000000 0.317041
317.000000 57.013000 -2.000000 7.000000 -8.000000 96.760664 -47.040842 2130.835036 753.772859 17.539101 0.000000 0.182338
318.000000 61.291000 -1.000000 7.000000 -8.000000 103.326657 -40.733710 1901.861426 604.538385 16.313219 0.000000 0.078972
319.000000 64.780000 0.000000 7.000000 -8.000000 109.335633 -33.184915 1678.902609 489.738570 15.433244 0.000000 0.028387
320.000000 67.203000 1.000000 7.000000 -8.000000 114.366268 -24.333561 1461.724657 406.007482 14.875902 0.000000 0.067114
321.000000 68.376000 2.000000 7.000000 -8.000000 117.999937 -14.338066 1250.105620 350.327068 14.619957 0.000000 0.098360
322.000000 68.253000 3.000000 7.000000 -8.000000 119.934017 -3.659387 1043.834764 319.986571 14.646001 0.000000 0.110981
323.000000 66.926000 4.000000 7.000000 -8.000000 120.094135 7.007122 842.711874 312.547293 14.936255 0.000000 0.105773
324.000000 64.600000 5.000000 7.000000 -8.000000 118.664987 16.970649 646.546608 325.811937 15.474403 0.000000 0.084221
325.000000 61.536000 6.000000 7.000000 -8.000000 116.009106 25.780196 455.157890 357.797835 16.245448 0.000000 0.048205
326.000000 58.003000 7.000000 7.000000 -8.000000 112.537007 33.286366 268.373359 406.713532 17.235577 0.000000 0.014688
327.000000 54.241000 8.000000 7.000000 -8.000000 108.610041 39.555190 86.028846 470.938246 18.432048 0.000000 0.069321
328.000000 50.438000 9.000000 7.000000 -8.000000 104.501485 44.752403 -92.032103 549.003809 19.823089 0.000000 0.143385
329.000000 46.728000 10.000000 7.000000 -8.000000 100.397759 49.064616 -265.958677 639.578754 21.397807 0.000000 0.228402
330.000000 47.944000 -3.000000 8.000000 -8.000000 86.510279 -47.624570 2154.708191 1038.383617 20.860286 0.000000 0.213942
331.000000 51.927000 -1.000000 4.000000 -4.000000 92.385939 -42.474067 1960.346165 880.199401 9.629328 0.000000 0.118750
332.000000 55.490000 -1.000000 8.000000 -8.000000 98.006020 -36.462307 1770.320648 752.776210 18.020464 0.000000 0.066582
333.000000 60.454000 1.000000 8.000000 -8.000000 107.349805 -21.672502 1402.711285 579.167032 16.538639 0.000000 0.109582
334.000000 61.517000 1.000000 4.000000 -4.000000 110.489076 -13.069561 1224.858837 528.129033 8.126138 0.000000 0.132379
335.000000 61.549000 3.000000 8.000000 -8.000000 112.318076 -4.028776 1050.805037 498.088350 16.243455 0.000000 0.142365
336.000000 58.840000 5.000000 8.000000 -8.000000 111.994007 13.650293 713.616764 493.643908 16.991218 0.000000 0.124535
337.000000 56.429000 3.000000 4.000000 -4.000000 110.169302 21.535941 550.256310 515.983955 8.858760 0.000000 0.099184
338.000000 53.579000 7.000000 8.000000 -8.000000 107.585916 28.515533 390.242039 552.773926 18.660536 0.000000 0.067067
339.000000 50.478000 3.000000 3.000000 -3.000000 104.510377 34.565436 233.472183 602.731897 7.427961 0.000000 0.045181
340.000000 47.281000 9.000000 8.000000 -8.000000 101.165484 39.750203 79.849057 664.689705 21.148153 0.000000 0.073100
341.000000 47.225000 -2.000000 9.000000 -8.000000 88.211087 -38.717123 1837.802552 984.083264 21.178124 0.000000 0.104633
342.000000 50.195000 -1.000000 9.000000 -8.000000 93.059785 -33.054752 1675.416852 872.357867 19.923663 0.000000 0.090280
343.000000 52.627000 0.000000 9.000000 -8.000000 97.425442 -26.691518 1516.120010 783.997209 19.001688 0.000000 0.109786
344.000000 54.373000 1.000000 9.000000 -8.000000 101.088611 -19.674307 1359.824723 716.983923 18.390755 0.000000 0.134355
345.000000 55.332000 2.000000 9.000000 -8.000000 103.854191 -12.136103 1206.446946 669.489130 18.071224 0.000000 0.152315
346.000000 55.472000 3.000000 9.000000 -8.000000 105.589817 -4.298876 1055.905745 639.852171 18.025078 0.000000 0.160853
347.000000 54.831000 4.000000 9.000000 -8.000000 106.255924 3.555571 908.123152 626.562834 18.235752 0.000000 0.159657
348.000000 53.504000 5.000000 9.000000 -8.000000 105.913243 11.141794 763.024029 628.245742 18.687993 0.000000 0.149270
349.000000 51.627000 6.000000 9.000000 -8.000000 104.703508 18.228652 620.535943 643.646588 19.367735 0.000000 0.130794
350.000000 49.349000 7.000000 9.000000 -8.000000 102.813170 24.672352 480.589045 671.619986 20.261981 0.000000 0.106313
351.000000 46.817000 8.000000 9.000000 -8.000000 100.436279 30.416866 343.115955 711.118716 21.358705 0.000000 0.080955
352.000000 47.483000 0.000000 5.000000 -4.000000 92.317654 -24.448450 1464.326567 893.148756 10.531307 0.000000 0.127001
353.000000 48.973000 1.000000 10.000000 -8.000000 95.519760 -18.122212 1327.249082 831.561333 20.420693 0.000000 0.147020
354.000000 49.838000 1.000000 5.000000 -4.000000 97.992565 -11.420783 1192.425310 786.826405 10.032824 0.000000 0.161976
355.000000 50.050000 3.000000 10.000000 -8.000000 99.642050 -4.504969 1059.800123 757.579166 19.980087 0.000000 0.169739
356.000000 49.632000 2.000000 5.000000 -4.000000 100.436598 2.430275 929.320177 742.573836 10.073998 0.000000 0.169909
357.000000 48.650000 5.000000 10.000000 -8.000000 100.411422 9.186747 800.933841 740.671675 20.554602 0.000000 0.162804
358.000000 47.200000 3.000000 5.000000 -4.000000 99.658318 15.595166 674.591126 750.830379 10.593131 0.000000 0.149197
362.000000 78.366000 -1.000000 5.000000 -7.000000 109.386213 -49.018658 2213.949541 363.500265 12.757223 0.000000 0.250267
363.000000 84.206000 0.000000 5.000000 -7.000000 118.092360 -39.754527 1870.288367 193.718930 11.871102 0.000000 0.110717
364.000000 87.960000 1.000000 5.000000 -7.000000 125.307055 -27.698213 1540.024297 80.088748 11.363342 0.000000 0.030715
365.000000 89.199000 2.000000 5.000000 -7.000000 129.959655 -12.944737 1222.388909 15.656436 11.204876 0.000000 0.040270
366.000000 87.906000 3.000000 5.000000 -7.000000 131.291255 3.102046 916.671447 -5.643699 11.369539 0.000000 0.047122
367.000000 84.460000 4.000000 5.000000 -7.000000 129.392638 18.148049 622.213508 10.884780 11.833714 0.000000 0.030140
368.000000 79.478000 5.000000 5.000000 -7.000000 125.147926 30.603038 338.404310 60.594720 12.576035 0.000000 0.051259
369.000000 73.623000 6.000000 5.000000 -7.000000 119.624711 40.224350 64.676462 139.405964 13.577118 0.000000 0.128753
370.000000 67.457000 7.000000 5.000000 -7.000000 113.638579 47.498268 -199.497819 243.729457 14.819339 0.000000 0.233252
375.000000 64.465000 -2.000000 6.000000 -7.000000 95.427437 -49.369742 2229.392790 783.961132 15.511736 0.000000 0.234208
376.000000 70.366000 -1.000000 6.000000 -7.000000 103.177015 -42.412326 1958.216420 599.697612 14.209312 0.000000 0.101666
377.000000 75.127000 0.000000 6.000000 -7.000000 110.271707 -33.796051 1695.408808 462.638571 13.307493 0.000000 0.021841
378.000000 78.249000 1.000000 6.000000 -7.000000 116.061419 -23.392571 1440.588438 367.488074 12.775475 0.000000 0.065100
379.000000 79.426000 2.000000 6.000000 -7.000000 119.896612 -11.470455 1193.396640 309.576852 12.585533 0.000000 0.097877
380.000000 78.631000 3.000000 6.000000 -7.000000 121.365754 1.144604 953.495899 284.778913 12.712647 0.000000 0.105053
381.000000 76.108000 4.000000 6.000000 -7.000000 120.503840 13.300327 720.568324 289.440650 13.134179 0.000000 0.088659
382.000000 72.283000 5.000000 6.000000 -7.000000 117.769242 24.066104 494.314237 320.320367 13.829593 0.000000 0.051181
383.000000 67.638000 6.000000 6.000000 -7.000000 113.802327 33.059698 274.450891 374.536507 14.780223 0.000000 0.011158
384.000000 62.606000 7.000000 6.000000 -7.000000 109.188918 40.347181 60.711289 449.523183 15.969061 0.000000 0.081393
385.000000 57.526000 8.000000 6.000000 -7.000000 104.357931 46.195093 -147.156898 542.991878 17.380575 0.000000 0.170893
386.000000 52.625000 9.000000 6.000000 -7.000000 99.582204 50.900265 -349.392323 652.898341 19.000557 0.000000 0.274470
389.000000 52.761000 -3.000000 7.000000 -7.000000 83.971228 -49.593943 2239.370672 1116.361776 18.956460 0.000000 0.263826
390.000000 58.082000 -2.000000 7.000000 -7.000000 90.722412 -44.029293 2015.429232 922.124569 17.218295 0.000000 0.142622
391.000000 62.875000 -1.000000 7.000000 -7.000000 97.228777 -37.377082 1797.207159 769.206724 15.904043 0.000000 0.070078
392.000000 69.336000 1.000000 7.000000 -7.000000 107.872368 -20.483959 1377.066517 570.513786 14.420042 0.000000 0.113555
393.000000 70.435000 2.000000 7.000000 -7.000000 111.150631 -10.513770 1174.746926 517.489237 14.194437 0.000000 0.136574
394.000000 70.009000 3.000000 7.000000 -7.000000 112.682182 -0.124748 977.343382 491.168502 14.280293 0.000000 0.142657
395.000000 68.215000 4.000000 7.000000 -7.000000 112.474519 10.027951 784.678857 488.837262 14.655871 0.000000 0.132316
396.000000 65.339000 5.000000 7.000000 -7.000000 110.780370 19.371210 596.584722 508.067497 15.301409 0.000000 0.107355
397.000000 61.721000 6.000000 7.000000 -7.000000 107.990946 27.576026 412.900255 546.683401 16.198902 0.000000 0.071750
398.000000 53.513000 8.000000 7.000000 -7.000000 100.676142 40.426155 58.154255 674.457060 18.685394 0.000000 0.080394
399.000000 49.392000 9.000000 7.000000 -7.000000 96.734124 45.314970 -113.193156 760.277857 20.245570 0.000000 0.151703
400.000000 45.456000 10.000000 7.000000 -7.000000 92.846476 49.399309 -280.703424 858.768736 21.999777 0.000000 0.237575
401.000000 47.859000 -3.000000 8.000000 -7.000000 80.420238 -45.115120 2055.628017 1198.410345 20.899922 0.000000 0.194911
402.000000 52.215000 -2.000000 8.000000 -7.000000 86.219805 -39.715929 1869.062296 1033.448906 19.154764 0.000000 0.116548
403.000000 56.111000 -1.000000 8.000000 -7.000000 91.732034 -33.467901 1686.516828 901.985183 17.823368 0.000000 0.092457
404.000000 59.262000 0.000000 8.000000 -7.000000 96.662077 -26.339574 1507.863052 800.723112 16.874658 0.000000 0.112988
405.000000 61.421000 1.000000 8.000000 -7.000000 100.697933 -18.397238 1332.977829 726.720745 16.280598 0.000000 0.139789
406.000000 62.433000 2.000000 8.000000 -7.000000 103.569292 -9.843150 1161.743163 677.346399 16.015822 0.000000 0.157605
407.000000 62.271000 3.000000 8.000000 -7.000000 105.115231 -1.013791 994.045931 650.241038 16.057329 0.000000 0.163351
408.000000 61.028000 4.000000 8.000000 -7.000000 105.329700 7.684403 829.777637 643.285870 16.384210 0.000000 0.157058
409.000000 58.896000 5.000000 8.000000 -7.000000 104.357571 15.879088 668.834178 654.574365 16.977416 0.000000 0.139881
410.000000 56.114000 6.000000 8.000000 -7.000000 102.443351 23.316112 511.115622 682.387989 17.819560 0.000000 0.114162
411.000000 52.922000 7.000000 8.000000 -7.000000 99.863121 29.883088 356.526001 725.175114 18.894733 0.000000 0.085700
412.000000 49.533000 8.000000 8.000000 -7.000000 96.870985 35.581549 204.973118 781.532629 20.188355 0.000000 0.072207
413.000000 46.112000 9.000000 8.000000 -7.000000 93.671960 40.481202 56.368366 850.189859 21.687036 0.000000 0.098140
414.000000 46.951000 -2.000000 9.000000 -7.000000 82.025377 -36.196539 1762.628503 1127.837613 21.304027 0.000000 0.116276
415.000000 50.132000 -1.000000 9.000000 -7.000000 86.746912 -30.371736 1605.744620 1011.905448 19.950984 0.000000 0.110886
416.000000 52.715000 0.000000 9.000000 -7.000000 90.956328 -23.891525 1451.757521 921.350094 18.972654 0.000000 0.129999
417.000000 54.524000 1.000000 9.000000 -7.000000 94.432936 -16.830990 1300.587706 853.827047 18.342215 0.000000 0.151386
418.000000 55.449000 2.000000 9.000000 -7.000000 96.991739 -9.347100 1152.158562 807.229056 18.035346 0.000000 0.166180
419.000000 55.465000 3.000000 9.000000 -7.000000 98.521862 -1.670882 1006.396225 779.658279 18.029941 0.000000 0.171988
420.000000 54.628000 4.000000 9.000000 -7.000000 99.010991 5.928775 863.229465 769.402213 18.305863 0.000000 0.168604
421.000000 53.066000 5.000000 9.000000 -7.000000 98.544089 13.198380 722.589565 774.912807 18.844730 0.000000 0.156760
422.000000 50.945000 6.000000 9.000000 -7.000000 97.277201 19.945957 584.410213 794.788276 19.629726 0.000000 0.137980
423.000000 48.439000 7.000000 9.000000 -7.000000 95.399414 26.061413 448.627395 827.757236 20.645440 0.000000 0.115297
424.000000 45.712000 8.000000 9.000000 -7.000000 93.098348 31.510321 315.179301 872.664806 21.877720 0.000000 0.095581
425.000000 47.046000 0.000000 10.000000 -7.000000 85.914424 -21.956569 1408.902394 1023.889573 21.260924 0.000000 0.135760
426.000000 48.574000 1.000000 10.000000 -7.000000 88.958194 -15.613757 1275.785356 961.322285 20.591307 0.000000 0.153393
427.000000 49.415000 2.000000 10.000000 -7.000000 91.267991 -8.965359 1144.801279 916.882395 20.239925 0.000000 0.166260
428.000000 49.547000 3.000000 10.000000 -7.000000 92.763938 -2.176199 1015.899306 889.001940 20.185504 0.000000 0.172286
429.000000 49.005000 4.000000 10.000000 -7.000000 93.431304 4.566848 889.030182 876.260661 20.408625 0.000000 0.171114
430.000000 47.872000 5.000000 10.000000 -7.000000 93.320397 11.084275 764.146196 877.369827 20.891527 0.000000 0.163186
431.000000 46.264000 6.000000 10.000000 -7.000000 92.532569 17.230607 641.201116 891.158104 21.617932 0.000000 0.149550
432.000000 89.430000 5.000000 4.000000 -6.000000 122.560485 41.661682 17.347205 21.057247 11.176886 0.000000 0.172940
435.000000 73.933000 -2.000000 5.000000 -6.000000 93.511319 -52.374991 2371.335384 832.820832 13.525631 0.000000 0.315927
436.000000 82.508000 -1.000000 5.000000 -6.000000 102.899336 -44.668354 2038.905992 594.409200 12.118243 0.000000 0.138417
437.000000 89.368000 0.000000 5.000000 -6.000000 111.535879 -34.651315 1718.909246 424.675948 11.186685 0.000000 0.019743
438.000000 87.414000 4.000000 5.000000 -6.000000 120.136139 21.535297 550.270288 269.296149 11.435413 0.000000 0.054745
439.000000 81.062000 5.000000 5.000000 -6.000000 115.539507 32.735422 283.091348 329.621494 12.332109 0.000000 0.010270
440.000000 73.998000 6.000000 5.000000 -6.000000 109.955365 41.436590 24.896707 419.730474 13.510516 0.000000 0.099847
441.000000 66.882000 7.000000 5.000000 -6.000000 104.112801 48.104979 -224.759308 535.766238 14.949209 0.000000 0.211669
446.000000 65.738000 -1.000000 3.000000 -3.000000 88.482258 -45.997291 2089.429886 982.050211 7.606658 0.000000 0.178739
447.000000 72.485000 -1.000000 6.000000 -6.000000 96.177161 -38.567315 1833.189645 792.013630 13.795778 0.000000 0.077108
448.000000 81.230000 1.000000 6.000000 -6.000000 108.532228 -18.876149 1342.997416 559.697249 12.308420 0.000000 0.118508
449.000000 72.754000 5.000000 6.000000 -6.000000 108.514206 26.293477 443.214700 538.986643 13.742176 0.000000 0.078048
450.000000 61.621000 7.000000 6.000000 -6.000000 100.021302 41.303848 29.324300 687.821989 16.226936 0.000000 0.090841
451.000000 56.063000 4.000000 3.000000 -3.000000 95.426246 46.757880 -169.449848 791.766620 8.918289 0.000000 0.179012
452.000000 50.846000 3.000000 2.000000 -2.000000 90.955560 51.187865 -363.059684 912.358260 6.555991 0.000000 0.284558
455.000000 52.370000 -3.000000 7.000000 -6.000000 76.977457 -46.841134 2122.787176 1304.917568 19.100596 0.000000 0.238687
456.000000 58.248000 -2.000000 7.000000 -6.000000 83.631281 -40.954938 1909.123219 1100.066152 17.171579 0.000000 0.134632
457.000000 63.554000 -1.000000 7.000000 -6.000000 90.002302 -33.990266 1700.703647 940.947856 15.736372 0.000000 0.095614
458.000000 67.791000 0.000000 7.000000 -6.000000 95.661996 -25.887821 1497.337716 822.390075 14.751881 0.000000 0.116837
459.000000 70.521000 1.000000 7.000000 -6.000000 100.146057 -16.745900 1298.843821 739.860084 14.179885 0.000000 0.146177
460.000000 71.494000 2.000000 7.000000 -6.000000 103.067048 -6.889666 1105.048956 689.373913 13.986368 0.000000 0.162992
461.000000 70.711000 3.000000 7.000000 -6.000000 104.241144 3.148924 915.788209 667.420077 14.140951 0.000000 0.164027
462.000000 68.410000 4.000000 7.000000 -6.000000 103.752392 12.778112 730.904296 670.895417 14.616424 0.000000 0.150051
463.000000 64.980000 5.000000 7.000000 -6.000000 101.905452 21.536364 550.247126 697.050893 15.388338 0.000000 0.123700
464.000000 60.845000 6.000000 7.000000 -6.000000 99.103551 29.192133 373.673391 743.445591 16.434670 0.000000 0.091664
465.000000 56.385000 7.000000 7.000000 -6.000000 95.733057 35.719582 201.046191 807.907535 17.735523 0.000000 0.075982
466.000000 51.889000 8.000000 7.000000 -6.000000 92.101376 41.216298 32.234676 888.500177 19.272879 0.000000 0.108963
467.000000 47.555000 9.000000 7.000000 -6.000000 88.424138 45.828669 -132.886281 983.493638 21.030382 0.000000 0.177260
468.000000 46.929000 -3.000000 8.000000 -6.000000 73.473166 -42.557703 1963.237922 1374.563346 21.316532 0.000000 0.193728
469.000000 51.623000 -1.000000 4.000000 -3.000000 79.131310 -36.926292 1783.877194 1199.505584 9.688456 0.000000 0.126862
470.000000 55.823000 -1.000000 8.000000 -6.000000 84.478196 -30.471058 1608.253694 1061.722248 17.917836 0.000000 0.113130
471.000000 59.187000 0.000000 4.000000 -3.000000 89.205651 -23.197819 1436.251822 957.235331 8.449255 0.000000 0.132932
472.000000 61.422000 1.000000 8.000000 -6.000000 93.000377 -15.216755 1267.760694 882.536986 16.282638 0.000000 0.155788
473.000000 62.358000 1.000000 4.000000 -3.000000 95.610657 -6.765019 1102.673910 834.524983 8.018903 0.000000 0.169899
474.000000 61.981000 3.000000 8.000000 -6.000000 96.912602 1.815251 940.889324 810.448358 16.134985 0.000000 0.172607
475.000000 60.433000 2.000000 4.000000 -3.000000 96.942435 10.150245 782.308839 807.861441 8.274047 0.000000 0.164144
476.000000 57.962000 5.000000 8.000000 -6.000000 95.875768 17.925459 626.838203 824.584788 17.253642 0.000000 0.146146
477.000000 54.858000 3.000000 4.000000 -3.000000 93.967500 24.944395 474.386826 858.671866 9.115204 0.000000 0.122138
478.000000 51.395000 7.000000 8.000000 -6.000000 91.486022 31.133952 324.867601 908.380505 19.459177 0.000000 0.100419
479.000000 47.802000 4.000000 4.000000 -3.000000 88.667545 36.513324 178.196743 972.148377 10.461253 0.000000 0.098553
480.000000 45.871000 -2.000000 9.000000 -6.000000 75.042408 -33.663602 1691.811628 1286.471945 21.808454 0.000000 0.126335
481.000000 49.228000 -1.000000 9.000000 -6.000000 79.594592 -27.700292 1540.074122 1164.225570 20.320406 0.000000 0.119799
482.000000 51.930000 0.000000 3.000000 -2.000000 83.618369 -21.134801 1391.058633 1070.057443 6.420670 0.000000 0.135742
483.000000 53.780000 1.000000 9.000000 -6.000000 86.896727 -14.067253 1244.692568 1001.155683 18.598719 0.000000 0.154257
484.000000 54.657000 2.000000 9.000000 -6.000000 89.258696 -6.672188 1100.905890 955.021043 18.299591 0.000000 0.166767
485.000000 54.545000 1.000000 3.000000 -2.000000 90.616030 0.818102 959.631010 929.426334 6.112278 0.000000 0.170828
486.000000 53.527000 4.000000 9.000000 -6.000000 90.981007 8.153107 820.802682 922.381926 18.685414 0.000000 0.166319
487.000000 51.761000 5.000000 9.000000 -6.000000 90.457068 15.111691 684.357898 932.106298 19.322719 0.000000 0.154272
488.000000 49.445000 2.000000 3.000000 -2.000000 89.207730 21.536886 550.235795 957.000806 6.742760 0.000000 0.136904
489.000000 46.774000 7.000000 9.000000 -6.000000 87.418658 27.346453 418.377567 995.627970 21.383510 0.000000 0.118631
490.000000 45.835000 0.000000 5.000000 -3.000000 78.777041 -19.506343 1356.269888 1167.563985 10.912762 0.000000 0.130635
491.000000 47.383000 1.000000 10.000000 -6.000000 81.656943 -13.172288 1226.893400 1103.105606 21.111981 0.000000 0.145853
492.000000 48.193000 1.000000 5.000000 -3.000000 83.814287 -6.600370 1099.538545 1058.429758 10.378103 0.000000 0.157247
493.000000 48.250000 3.000000 10.000000 -6.000000 85.183636 0.044807 974.158307 1031.688552 20.731551 0.000000 0.162377
494.000000 47.601000 2.000000 5.000000 -3.000000 85.765232 6.587465 850.707113 1021.224425 10.506974 0.000000 0.160837
495.000000 46.348000 5.000000 10.000000 -6.000000 85.620759 12.867367 729.140784 1025.547216 21.581605 0.000000 0.153257
497.000000 90.398000 5.000000 4.000000 -5.000000 111.015271 43.028173 -29.650534 375.378252 11.059159 0.000000 0.130017
498.000000 79.759000 6.000000 4.000000 -5.000000 103.669162 50.745522 -342.108278 527.326244 12.535672 0.000000 0.277282
502.000000 75.388000 -2.000000 5.000000 -5.000000 85.325133 -48.560341 2194.114070 1073.982902 13.266590 0.000000 0.236585
503.000000 85.465000 -1.000000 5.000000 -5.000000 94.679056 -40.177774 1883.823759 825.704081 11.700743 0.000000 0.090969
504.000000 88.529000 4.000000 5.000000 -5.000000 109.211360 24.440446 485.854853 529.040430 11.293397 0.000000 0.086764
505.000000 72.589000 6.000000 5.000000 -5.000000 99.101503 42.488758 -10.853566 707.177023 13.775282 0.000000 0.106600
506.000000 64.713000 7.000000 5.000000 -5.000000 93.614201 48.639220 -247.502141 838.120601 15.452847 0.000000 0.219492
511.000000 57.332000 -3.000000 6.000000 -5.000000 72.395990 -48.980309 2212.275878 1461.332172 17.448348 0.000000 0.305554
512.000000 65.575000 -2.000000 6.000000 -5.000000 80.140355 -42.530926 1962.311262 1194.846071 15.253605 0.000000 0.163303
513.000000 73.161000 -1.000000 6.000000 -5.000000 87.657526 -34.671616 1719.472922 994.533851 13.670666 0.000000 0.100559
514.000000 79.145000 0.000000 6.000000 -5.000000 94.295490 -25.286876 1483.460393 851.591097 12.635821 0.000000 0.121484
515.000000 82.686000 1.000000 6.000000 -5.000000 99.321461 -14.531992 1253.989871 758.497387 12.093909 0.000000 0.153627
516.000000 83.351000 2.000000 6.000000 -5.000000 102.158518 -2.967449 1030.793068 708.801129 11.996931 0.000000 0.167746
517.000000 81.277000 3.000000 6.000000 -5.000000 102.639341 8.527626 813.616168 696.945512 12.302924 0.000000 0.160766
518.000000 77.068000 4.000000 6.000000 -5.000000 101.071209 19.103842 602.218865 718.126755 12.975042 0.000000 0.135315
519.000000 71.526000 5.000000 6.000000 -5.000000 98.049880 28.262917 396.373477 768.177926 13.980795 0.000000 0.099300
520.000000 65.399000 6.000000 6.000000 -5.000000 94.197972 35.901004 195.864122 843.473149 15.291432 0.000000 0.080995
521.000000 59.242000 7.000000 6.000000 -5.000000 90.005991 42.158780 0.485971 940.848188 16.881408 0.000000 0.124385
522.000000 53.404000 8.000000 6.000000 -5.000000 85.797751 47.265372 -189.955455 1057.534256 18.727956 0.000000 0.210063
523.000000 48.061000 9.000000 6.000000 -5.000000 81.759931 51.449558 -375.644931 1191.102586 20.810720 0.000000 0.316458
524.000000 50.691000 -3.000000 7.000000 -5.000000 68.888257 -44.021736 2015.154654 1518.909315 19.736042 0.000000 0.237728
525.000000 57.049000 -2.000000 7.000000 -5.000000 75.342023 -37.833956 1810.881536 1297.444597 17.535226 0.000000 0.143722
526.000000 62.808000 -1.000000 7.000000 -5.000000 81.487101 -30.596676 1611.434375 1128.158812 15.926104 0.000000 0.115616
527.000000 67.359000 0.000000 7.000000 -5.000000 86.873354 -22.310193 1416.644149 1004.549193 14.849059 0.000000 0.135289
528.000000 70.176000 1.000000 7.000000 -5.000000 91.035960 -13.144841 1226.349636 921.013833 14.252222 0.000000 0.159651
529.000000 70.980000 2.000000 7.000000 -5.000000 93.624005 -3.477088 1040.396971 872.706854 14.090254 0.000000 0.172168
530.000000 69.823000 3.000000 7.000000 -5.000000 94.519984 6.170419 858.639233 855.420279 14.323350 0.000000 0.169996
531.000000 67.047000 4.000000 7.000000 -5.000000 93.871844 15.281334 680.936054 865.487087 14.916419 0.000000 0.154430
532.000000 63.145000 5.000000 7.000000 -5.000000 92.015435 23.493762 507.153259 899.701143 15.838405 0.000000 0.129601
533.000000 58.619000 6.000000 7.000000 -5.000000 89.347397 30.651986 337.162531 955.250707 17.061728 0.000000 0.105865
534.000000 53.884000 7.000000 7.000000 -5.000000 86.224390 36.765440 170.841090 1029.662931 18.561803 0.000000 0.106246
535.000000 49.231000 8.000000 7.000000 -5.000000 82.917813 41.936106 8.071402 1120.757274 20.316652 0.000000 0.147210
536.000000 49.819000 -2.000000 8.000000 -5.000000 71.031540 -34.118007 1704.199421 1387.844256 20.081758 0.000000 0.137222
537.000000 54.254000 -1.000000 8.000000 -5.000000 76.149329 -27.488104 1534.999348 1240.144093 18.439246 0.000000 0.118845
538.000000 57.776000 0.000000 8.000000 -5.000000 80.631747 -20.114558 1369.177903 1130.100536 17.314269 0.000000 0.133383
539.000000 60.049000 1.000000 8.000000 -5.000000 84.173246 -12.145665 1206.634890 1053.348598 16.657910 0.000000 0.152698
540.000000 60.890000 2.000000 8.000000 -5.000000 86.547100 -3.841691 1047.274033 1006.087190 16.427230 0.000000 0.164437
541.000000 60.312000 3.000000 8.000000 -5.000000 87.666395 4.462488 891.002792 984.994116 16.584380 0.000000 0.165656
542.000000 58.507000 4.000000 8.000000 -5.000000 87.601940 12.431945 737.732179 987.155827 17.095869 0.000000 0.156829
543.000000 55.779000 5.000000 8.000000 -5.000000 86.547855 19.806297 587.376591 1010.009041 17.931954 0.000000 0.140453
544.000000 52.462000 6.000000 8.000000 -5.000000 84.757366 26.437113 439.853651 1051.291964 19.066130 0.000000 0.122010
545.000000 48.854000 7.000000 8.000000 -5.000000 82.482256 32.281395 295.084057 1109.003332 20.474703 0.000000 0.112624
546.000000 47.224000 -1.000000 9.000000 -5.000000 71.551276 -25.051835 1478.070214 1337.337747 21.185778 0.000000 0.114338
547.000000 50.001000 0.000000 9.000000 -5.000000 75.363004 -18.432766 1333.719199 1237.297339 20.008427 0.000000 0.123121
548.000000 51.864000 1.000000 9.000000 -5.000000 78.439450 -11.392085 1191.864266 1165.583958 19.289061 0.000000 0.138470
549.000000 52.688000 2.000000 9.000000 -5.000000 80.626773 -4.115438 1052.441228 1119.121983 18.986917 0.000000 0.149625
550.000000 52.468000 3.000000 9.000000 -5.000000 81.858614 3.170160 915.388080 1095.208596 19.065930 0.000000 0.153303
551.000000 51.315000 4.000000 9.000000 -5.000000 82.166972 10.236049 780.644905 1091.460822 19.494076 0.000000 0.149363
552.000000 49.417000 5.000000 9.000000 -5.000000 81.666256 16.892348 648.153793 1105.771269 20.242819 0.000000 0.139379
553.000000 46.994000 6.000000 9.000000 -5.000000 80.519625 23.012693 517.858749 1136.270937 21.286653 0.000000 0.126785
554.000000 45.997000 2.000000 10.000000 -5.000000 75.626291 -4.328519 1056.465741 1217.608009 21.750707 0.000000 0.130818
555.000000 45.997000 3.000000 10.000000 -5.000000 76.905650 2.159142 934.421565 1191.527510 21.750092 0.000000 0.136252
557.000000 88.215000 5.000000 4.000000 -4.000000 97.719605 44.174563 -70.721142 737.581642 11.335348 0.000000 0.132213
561.000000 74.362000 -2.000000 5.000000 -4.000000 75.202623 -44.599260 2036.342913 1340.301235 13.452130 0.000000 0.211787
562.000000 85.912000 -1.000000 5.000000 -4.000000 84.304223 -35.597238 1745.472555 1073.018857 11.642241 0.000000 0.109196
563.000000 86.675000 4.000000 5.000000 -4.000000 96.492847 26.947411 427.844437 803.588081 11.537585 0.000000 0.109241
564.000000 77.753000 5.000000 5.000000 -4.000000 92.014936 36.150084 188.710689 894.105717 12.862177 0.000000 0.087995
565.000000 68.842000 6.000000 5.000000 -4.000000 87.075726 43.410008 -43.157092 1016.682457 14.527907 0.000000 0.147787
566.000000 60.615000 7.000000 5.000000 -4.000000 82.191846 49.113164 -268.085111 1166.477295 16.500932 0.000000 0.259442
570.000000 54.230000 -3.000000 6.000000 -4.000000 62.749536 -45.846209 2083.565110 1736.793269 18.449485 0.000000 0.308731
571.000000 63.146000 -1.000000 3.000000 -2.000000 70.184890 -38.992942 1846.346423 1439.969021 7.921617 0.000000 0.172801
572.000000 71.426000 -1.000000 6.000000 -4.000000 77.370327 -30.760622 1615.597983 1221.649768 14.005606 0.000000 0.118707
573.000000 81.516000 1.000000 6.000000 -4.000000 88.200049 -10.397122 1172.481086 975.387617 12.270294 0.000000 0.161495
574.000000 79.089000 3.000000 6.000000 -4.000000 90.820889 11.691014 752.286200 925.251946 12.646202 0.000000 0.161134
575.000000 68.043000 5.000000 6.000000 -4.000000 86.377908 30.012840 353.279568 1019.681488 14.699606 0.000000 0.111650
576.000000 61.548000 3.000000 3.000000 -2.000000 82.901636 37.092473 161.227264 1109.026237 8.125621 0.000000 0.116906
577.000000 55.239000 7.000000 6.000000 -4.000000 79.201042 42.927059 -26.102018 1221.371285 18.107974 0.000000 0.172413
578.000000 49.419000 4.000000 3.000000 -2.000000 75.541191 47.725267 -208.880386 1353.559728 10.120692 0.000000 0.261431
579.000000 47.267000 -3.000000 7.000000 -4.000000 59.603231 -41.147397 1915.480368 1779.459901 21.168795 0.000000 0.258740
580.000000 53.926000 -2.000000 7.000000 -4.000000 65.734156 -34.684114 1719.820082 1531.042803 18.553787 0.000000 0.157691
581.000000 59.990000 -1.000000 7.000000 -4.000000 71.550995 -27.220006 1528.615277 1344.773359 16.677420 0.000000 0.116818
582.000000 64.745000 0.000000 7.000000 -4.000000 76.599476 -18.815027 1341.715478 1211.895230 15.451661 0.000000 0.126200
583.000000 67.584000 1.000000 7.000000 -4.000000 80.432330 -9.700133 1158.976913 1125.048247 14.801932 0.000000 0.145996
584.000000 68.214000 2.000000 7.000000 -4.000000 82.745555 -0.280124 980.262139 1078.008412 14.664634 0.000000 0.156434
585.000000 66.754000 3.000000 7.000000 -4.000000 83.482206 8.952842 805.439702 1065.483471 14.985198 0.000000 0.153859
586.000000 63.647000 4.000000 7.000000 -4.000000 82.833138 17.561082 634.383811 1082.950704 15.716539 0.000000 0.140476
587.000000 59.480000 5.000000 7.000000 -4.000000 81.139860 25.267966 466.974038 1126.527138 16.817812 0.000000 0.123320
588.000000 54.802000 6.000000 7.000000 -4.000000 78.772420 31.975554 303.095035 1192.864873 18.253414 0.000000 0.117426
589.000000 50.037000 7.000000 7.000000 -4.000000 76.046403 37.716959 142.636269 1279.066058 19.992169 0.000000 0.140950
591.000000 46.442000 -1.000000 4.000000 -2.000000 61.862260 -31.304448 1629.511615 1614.673393 10.772724 0.000000 0.149511
592.000000 50.992000 -1.000000 8.000000 -4.000000 66.684826 -24.534914 1466.287858 1450.903492 19.622136 0.000000 0.108956
593.000000 54.587000 0.000000 4.000000 -2.000000 70.885562 -17.105444 1306.223309 1331.267531 9.164493 0.000000 0.108836
594.000000 56.858000 1.000000 8.000000 -4.000000 74.176369 -9.195097 1149.227127 1250.010888 17.596335 0.000000 0.123334
595.000000 57.615000 1.000000 4.000000 -2.000000 76.359768 -1.075841 995.211921 1202.229152 8.682212 0.000000 0.134250
596.000000 56.902000 3.000000 8.000000 -4.000000 77.381503 6.934651 844.093586 1183.720752 17.581693 0.000000 0.136567
597.000000 54.958000 2.000000 4.000000 -2.000000 77.334972 14.542914 695.791154 1190.869015 9.101716 0.000000 0.130985
598.000000 52.130000 5.000000 8.000000 -4.000000 76.417819 21.537307 550.226645 1220.547021 19.190670 0.000000 0.121747
599.000000 48.779000 3.000000 4.000000 -2.000000 74.868598 27.808725 407.324932 1270.040285 10.254644 0.000000 0.117356
600.000000 46.660000 0.000000 9.000000 -4.000000 66.177992 -15.795428 1279.467827 1434.843939 21.444776 0.000000 0.089703
601.000000 48.510000 1.000000 9.000000 -4.000000 69.059518 -8.812372 1141.857135 1357.788448 20.626416 0.000000 0.097903
602.000000 49.293000 2.000000 9.000000 -4.000000 71.108117 -1.678695 1006.543110 1309.485708 20.298071 0.000000 0.108380
603.000000 49.019000 3.000000 9.000000 -4.000000 72.276305 5.388999 873.468732 1286.506956 20.410905 0.000000 0.114116
604.000000 47.820000 4.000000 9.000000 -4.000000 72.608653 12.185662 742.578854 1285.882320 20.922366 0.000000 0.114424
605.000000 45.905000 5.000000 9.000000 -4.000000 72.221499 18.550581 613.820124 1305.028636 21.795202 0.000000 0.111900
608.000000 84.131000 -2.000000 4.000000 -3.000000 67.762415 -47.424262 2146.456451 1591.420724 11.891343 0.000000 0.302737
609.000000 81.680000 5.000000 4.000000 -3.000000 82.704040 45.149333 -106.919362 1136.387607 12.245383 0.000000 0.186688
614.000000 69.236000 -2.000000 5.000000 -3.000000 62.806399 -40.522903 1894.986482 1668.475989 14.451251 0.000000 0.228582
615.000000 81.845000 -1.000000 5.000000 -3.000000 71.365592 -30.983592 1621.283417 1364.336630 12.223812 0.000000 0.124769
616.000000 89.251000 3.000000 5.000000 -3.000000 84.856612 18.761018 609.416481 1043.314432 11.207375 0.000000 0.141145
617.000000 80.645000 4.000000 5.000000 -3.000000 81.986624 29.124921 375.328982 1114.450514 12.403565 0.000000 0.116669
618.000000 71.285000 5.000000 5.000000 -3.000000 78.130921 37.533610 148.126812 1226.252615 14.032621 0.000000 0.133212
619.000000 62.359000 6.000000 5.000000 -3.000000 73.994218 44.222945 -72.489408 1371.821165 16.041832 0.000000 0.212370
620.000000 54.408000 7.000000 5.000000 -3.000000 69.975508 49.536420 -286.801949 1545.440094 18.386716 0.000000 0.330227
623.000000 57.464000 -2.000000 6.000000 -3.000000 58.454385 -35.408719 1740.129062 1751.676176 17.413143 0.000000 0.201194
624.000000 66.080000 -1.000000 6.000000 -3.000000 65.130963 -26.870564 1520.340166 1500.277691 15.142094 0.000000 0.117247
625.000000 76.375000 1.000000 6.000000 -3.000000 75.033122 -6.496504 1097.561725 1230.584913 13.099571 0.000000 0.127796
626.000000 76.389000 2.000000 6.000000 -3.000000 77.166952 4.295949 894.149551 1186.871783 13.096687 0.000000 0.136782
627.000000 68.073000 4.000000 6.000000 -3.000000 75.959821 23.710682 502.300505 1234.966527 14.696212 0.000000 0.119189
628.000000 61.876000 5.000000 6.000000 -3.000000 73.598054 31.575230 313.500591 1312.863486 16.168126 0.000000 0.122879
629.000000 55.524000 2.000000 2.000000 -1.000000 70.739372 38.161088 129.222881 1419.308466 6.006044 0.000000 0.163226
630.000000 49.519000 7.000000 6.000000 -3.000000 67.728583 43.620986 -50.693177 1549.898505 20.203596 0.000000 0.237506
631.000000 48.310000 -2.000000 7.000000 -3.000000 54.749030 -31.524199 1635.179434 1833.374006 20.714305 0.000000 0.191157
632.000000 54.424000 -1.000000 7.000000 -3.000000 60.132696 -23.883252 1451.571639 1616.960573 18.386611 0.000000 0.111118
633.000000 59.213000 0.000000 7.000000 -3.000000 64.791589 -15.424460 1271.955228 1466.589340 16.899008 0.000000 0.083749
634.000000 62.016000 1.000000 7.000000 -3.000000 68.314956 -6.425008 1096.201448 1371.689200 16.134646 0.000000 0.092770
635.000000 62.546000 2.000000 7.000000 -3.000000 70.449986 2.702986 924.187026 1323.619139 15.997387 0.000000 0.104329
636.000000 60.981000 3.000000 7.000000 -3.000000 71.184415 11.511837 755.793881 1315.255891 16.407408 0.000000 0.107972
637.000000 57.841000 4.000000 7.000000 -3.000000 70.722858 19.639675 590.908850 1340.682475 17.297883 0.000000 0.107459
638.000000 53.755000 5.000000 7.000000 -3.000000 69.383739 26.880577 429.423437 1394.949982 18.612440 0.000000 0.114310
639.000000 49.279000 6.000000 7.000000 -3.000000 67.491228 33.179837 271.233574 1473.893298 20.303192 0.000000 0.141220
640.000000 45.672000 -1.000000 8.000000 -3.000000 56.086609 -21.626425 1401.709349 1719.399082 21.911339 0.000000 0.112832
641.000000 49.232000 0.000000 8.000000 -3.000000 59.981135 -14.183766 1247.019866 1582.425359 20.326748 0.000000 0.066729
642.000000 51.468000 1.000000 8.000000 -3.000000 63.042722 -6.372789 1095.208188 1491.792327 19.443013 0.000000 0.058349
643.000000 52.197000 2.000000 8.000000 -3.000000 65.103983 1.533062 946.194751 1440.687087 19.170794 0.000000 0.069114
644.000000 51.485000 3.000000 8.000000 -3.000000 66.134221 9.240222 799.902892 1423.439342 19.435316 0.000000 0.079829
645.000000 49.600000 4.000000 8.000000 -3.000000 66.233555 16.496495 656.258727 1435.296253 20.173518 0.000000 0.088934
646.000000 46.906000 5.000000 8.000000 -3.000000 65.586531 23.132897 515.191020 1472.248278 21.331846 0.000000 0.102317
651.000000 70.092000 5.000000 4.000000 -2.000000 66.235513 45.987881 -139.063694 1623.064638 14.273680 0.000000 0.283838
656.000000 70.855000 -1.000000 5.000000 -2.000000 55.620188 -26.396181 1509.187712 1763.109121 14.123569 0.000000 0.145804
657.000000 80.783000 0.000000 5.000000 -2.000000 62.250865 -14.760554 1258.576652 1526.569438 12.387209 0.000000 0.073519
658.000000 85.367000 1.000000 5.000000 -2.000000 66.731676 -2.151129 1015.427687 1404.146714 11.721523 0.000000 0.081177
659.000000 83.899000 2.000000 5.000000 -2.000000 68.537643 10.299575 779.412426 1371.077068 11.926189 0.000000 0.094226
660.000000 77.878000 3.000000 5.000000 -2.000000 67.995523 21.537546 550.221464 1408.597950 12.847926 0.000000 0.102304
661.000000 69.640000 4.000000 5.000000 -2.000000 65.921780 31.028705 327.563037 1502.271605 14.367449 0.000000 0.133559
662.000000 61.045000 5.000000 5.000000 -2.000000 63.110481 38.750671 111.161778 1640.838074 16.390540 0.000000 0.204791
663.000000 53.103000 6.000000 5.000000 -2.000000 60.100158 44.945333 -99.242418 1815.412587 18.841795 0.000000 0.309377
666.000000 56.002000 -1.000000 6.000000 -2.000000 50.916709 -23.036531 1432.669903 1890.909602 17.870740 0.000000 0.158396
667.000000 62.563000 0.000000 3.000000 -1.000000 56.105280 -13.231232 1228.061595 1683.814330 7.998164 0.000000 0.067255
668.000000 66.076000 1.000000 6.000000 -2.000000 59.888770 -2.843769 1028.463769 1565.957468 15.145225 0.000000 0.029228
669.000000 66.111000 1.000000 3.000000 -1.000000 61.949063 7.479516 833.694605 1519.425311 7.568425 0.000000 0.051050
670.000000 63.211000 3.000000 6.000000 -2.000000 62.374503 17.114961 643.580973 1530.383191 15.830746 0.000000 0.078717
671.000000 58.463000 2.000000 3.000000 -1.000000 61.548820 25.659210 457.957927 1587.996450 8.558015 0.000000 0.114985
672.000000 52.932000 5.000000 6.000000 -2.000000 59.935136 32.976708 276.668216 1683.675513 18.903992 0.000000 0.168775
673.000000 47.372000 3.000000 3.000000 -1.000000 57.922525 39.124278 99.561852 1810.537010 10.561411 0.000000 0.242091
674.000000 45.623000 -1.000000 7.000000 -2.000000 47.298181 -20.607801 1379.719683 2002.139657 21.937519 0.000000 0.181580
675.000000 50.239000 0.000000 7.000000 -2.000000 51.541657 -12.156429 1206.846466 1815.454718 19.921734 0.000000 0.094624
676.000000 52.988000 1.000000 7.000000 -2.000000 54.810632 -3.327031 1037.568216 1701.224355 18.887681 0.000000 0.031451
677.000000 53.600000 2.000000 7.000000 -2.000000 56.898878 5.478411 871.773949 1645.877144 18.671423 0.000000 0.023875
678.000000 52.276000 3.000000 7.000000 -2.000000 57.813186 13.864223 709.357201 1638.761178 19.143602 0.000000 0.062325
679.000000 49.539000 4.000000 7.000000 -2.000000 57.737875 21.537807 550.215805 1671.410107 20.200774 0.000000 0.102419
680.000000 45.990000 5.000000 7.000000 -2.000000 56.940480 28.350472 394.251672 1737.019407 21.759233 0.000000 0.149150
689.000000 83.029000 0.000000 4.000000 -1.000000 48.032599 -11.360248 1191.242003 1928.335251 12.054656 0.000000 0.131199
690.000000 89.041000 1.000000 4.000000 -1.000000 52.933359 3.988091 899.962979 1755.983795 11.240171 0.000000 0.050743
691.000000 84.901000 2.000000 4.000000 -1.000000 54.465995 18.305590 618.933205 1750.649896 11.787579 0.000000 0.099343
692.000000 75.015000 3.000000 4.000000 -1.000000 53.516744 30.238187 347.621072 1862.279027 13.340538 0.000000 0.186021
697.000000 60.461000 0.000000 5.000000 -1.000000 43.009254 -10.260231 1169.824184 2113.561160 16.554960 0.000000 0.199612
698.000000 65.060000 1.000000 5.000000 -1.000000 47.145910 1.920766 938.905122 1940.109810 15.384418 0.000000 0.123242
699.000000 64.476000 2.000000 5.000000 -1.000000 49.261513 13.607915 714.459628 1894.792073 15.523016 0.000000 0.121925
700.000000 60.092000 3.000000 5.000000 -1.000000 49.616623 23.981501 496.219245 1942.951658 16.654826 0.000000 0.172952
701.000000 53.927000 4.000000 5.000000 -1.000000 48.807267 32.703815 283.930159 2060.443267 18.558006 0.000000 0.250077
703.000000 46.827000 0.000000 6.000000 -1.000000 39.597658 -9.536552 1155.815819 2260.357938 21.375412 0.000000 0.254790
704.000000 50.347000 1.000000 6.000000 -1.000000 43.150270 0.557128 964.534088 2089.186638 19.881060 0.000000 0.184173
705.000000 50.947000 2.000000 6.000000 -1.000000 45.386585 10.387343 777.708794 2020.560068 19.646112 0.000000 0.161596
706.000000 49.090000 3.000000 6.000000 -1.000000 46.367701 19.437452 595.185991 2029.115541 20.388550 0.000000 0.182559
707.000000 45.690000 4.000000 6.000000 -1.000000 46.373676 27.411886 416.818744 2096.639885 21.904709 0.000000 0.231655
#UB matrix in q= (UB) B0 G* 
#[[-0.193179088 -0.191236006  0.961432695]
# [ 0.978965059 -0.103241699  0.176163364]
# [ 0.065644909  0.976420515  0.207468404]]
#B0 matrix in q= UB (B0) G*
#[[ 0.19670273 -0.          0.03056101]
# [ 0.          0.19187965 -0.        ]
# [ 0.          0.          0.18806537]]
#UBB0 matrix in q= (UB B0) G* i.e. recip. basis vectors are columns in LT frame: astar = UBB0[:,0], bstar = UBB0[:,1], cstar = UBB0[:,2]. (abcstar as columns on xyzlab1, xlab1 = ui, ui = unit vector along incident beam)
#[[-0.03799885 -0.0366943   0.17490845]
# [ 0.1925651  -0.01980998  0.06304839]
# [ 0.01291253  0.18735523  0.0410238 ]]
#Euler angles phi theta psi (deg)
#[176.153  78.048  79.635]
#deviatoric strain in direct crystal frame (10-3 unit)
#[[ 3.16  0.06 -0.55]
# [ 0.06  2.77 -0.49]
# [-0.55 -0.49 -5.94]]
#deviatoric strain in sample2 frame (10-3 unit)
#[[-4.14 -1.8   3.11]
# [-1.8   2.69  0.95]
# [ 3.1   0.95  1.44]]
#new lattice parameters
#[ 5.1505     5.209574   5.3210795 90.030293  99.2565919 89.9934209]
#CCDLabel
#sCMOS
#DetectorParameters
#[79.0, 975.0, 941.0, 0.0, 0.0]
#pixelsize
#0.0734
#Frame dimensions
#[2018, 2016]
#
