#Strain and Orientation Refinement from experimental file: /home/micha/LaueProjects/DepthEffects/testZrO2_139.cor
#File created at Wed Jun 28 14:26:44 2023 with indexingSpotsSet.py
#Number of indexed spots: 534
#Element
#ZrO2
#grainIndex
#G_0
#Mean Deviation(pixel): 0.116
##spot_index intensity h k l 2theta Chi Xexp Yexp Energy GrainIndex PixDev
0.000000 45.677000 6.000000 5.000000 -7.000000 64.856280 -18.265428 1330.229990 1472.978808 21.912999 0.000000 0.091611
2.000000 46.532000 5.000000 6.000000 -7.000000 66.884924 -8.484239 1135.550579 1405.496393 21.510059 0.000000 0.084354
3.000000 47.135000 6.000000 6.000000 -7.000000 71.431134 -14.125579 1245.857314 1313.835432 21.233037 0.000000 0.109027
4.000000 46.807000 7.000000 6.000000 -7.000000 75.085345 -19.525962 1356.684737 1245.167190 21.380072 0.000000 0.120047
5.000000 45.802000 8.000000 6.000000 -7.000000 77.940435 -24.611906 1468.036543 1193.921136 21.847630 0.000000 0.121492
6.000000 45.508000 4.000000 7.000000 -7.000000 67.363745 1.071582 954.868110 1389.895845 21.994151 0.000000 0.084488
7.000000 47.028000 5.000000 7.000000 -7.000000 72.649561 -4.557354 1060.790350 1278.334577 21.281143 0.000000 0.114497
8.000000 47.528000 6.000000 7.000000 -7.000000 77.060193 -10.124626 1167.194526 1192.203225 21.055226 0.000000 0.131508
9.000000 47.199000 2.000000 2.000000 -2.000000 80.621840 -15.529710 1274.083934 1125.493420 6.057309 0.000000 0.137012
10.000000 46.247000 8.000000 7.000000 -7.000000 83.407547 -20.689014 1381.461902 1073.962344 21.635417 0.000000 0.133280
11.000000 46.675000 5.000000 8.000000 -7.000000 77.511157 -0.847064 990.913153 1179.414876 21.440143 0.000000 0.136178
12.000000 47.144000 6.000000 8.000000 -7.000000 81.831444 -6.292478 1093.680975 1096.429900 21.224872 0.000000 0.148623
13.000000 46.878000 7.000000 8.000000 -7.000000 85.352342 -11.649571 1196.902075 1030.337960 21.343957 0.000000 0.151408
14.000000 46.041000 8.000000 8.000000 -7.000000 88.126643 -16.830587 1300.579457 977.778742 21.730287 0.000000 0.145798
15.000000 45.753000 5.000000 9.000000 -7.000000 81.591893 2.635595 925.455708 1100.257395 21.870522 0.000000 0.149678
16.000000 46.226000 6.000000 9.000000 -7.000000 85.848018 -2.650618 1024.827085 1019.214978 21.644905 0.000000 0.159568
17.000000 46.050000 7.000000 9.000000 -7.000000 89.359338 -7.914345 1124.622838 953.151006 21.725900 0.000000 0.161261
18.000000 47.469000 5.000000 3.000000 -6.000000 52.317314 -23.753088 1448.650055 1849.275591 21.088609 0.000000 0.151564
19.000000 48.053000 2.000000 1.000000 -2.000000 57.387396 -29.783986 1591.000122 1734.465992 6.943540 0.000000 0.163623
20.000000 47.257000 7.000000 3.000000 -6.000000 61.304994 -35.198935 1734.212145 1661.954469 21.179371 0.000000 0.187627
21.000000 45.639000 8.000000 3.000000 -6.000000 64.292385 -40.005493 1878.293976 1617.466401 21.928632 0.000000 0.219783
22.000000 46.500000 3.000000 4.000000 -6.000000 48.465740 -5.089419 1070.856367 1898.146239 21.530361 0.000000 0.101682
23.000000 50.567000 2.000000 2.000000 -3.000000 55.770159 -12.073782 1205.222419 1689.833486 9.898392 0.000000 0.063315
24.000000 52.299000 5.000000 4.000000 -6.000000 61.705180 -18.750471 1340.362538 1552.872882 19.139225 0.000000 0.088615
25.000000 52.232000 3.000000 2.000000 -3.000000 66.343620 -24.973722 1476.283432 1461.112961 9.580940 0.000000 0.112849
26.000000 50.951000 7.000000 4.000000 -6.000000 69.861046 -30.658069 1612.991886 1399.830428 19.641870 0.000000 0.129558
27.000000 48.948000 4.000000 2.000000 -3.000000 72.467191 -35.773617 1750.494766 1360.102834 10.222048 0.000000 0.146798
28.000000 46.581000 9.000000 4.000000 -6.000000 74.362321 -40.332036 1888.799016 1336.208289 21.481904 0.000000 0.173315
29.000000 50.278000 3.000000 5.000000 -6.000000 57.197781 -0.427133 983.023785 1634.702608 19.910669 0.000000 0.004280
30.000000 53.524000 4.000000 5.000000 -6.000000 64.093435 -7.235384 1111.642932 1467.969033 18.700910 0.000000 0.066414
31.000000 54.765000 5.000000 5.000000 -6.000000 69.704952 -13.880771 1240.972598 1351.000834 18.275114 0.000000 0.101898
32.000000 54.432000 6.000000 5.000000 -6.000000 74.079333 -20.200914 1371.018687 1268.133029 18.385326 0.000000 0.117453
33.000000 53.006000 7.000000 5.000000 -6.000000 77.362324 -26.079219 1501.787166 1209.678419 18.878184 0.000000 0.120090
34.000000 50.911000 8.000000 5.000000 -6.000000 79.741983 -31.450827 1633.284074 1169.324828 19.653739 0.000000 0.118122
35.000000 48.466000 9.000000 5.000000 -6.000000 81.407496 -36.296499 1765.515512 1142.783320 20.644063 0.000000 0.122308
36.000000 45.892000 10.000000 5.000000 -6.000000 82.526577 -40.630426 1898.487654 1127.037941 21.801376 0.000000 0.142788
37.000000 47.161000 1.000000 3.000000 -3.000000 56.748687 10.300568 779.393152 1658.244343 10.613199 0.000000 0.048367
38.000000 51.710000 1.000000 2.000000 -2.000000 64.401916 3.875568 902.086694 1457.811420 6.452400 0.000000 0.065342
39.000000 54.416000 2.000000 3.000000 -3.000000 70.984425 -2.682620 1025.429550 1312.332062 9.196146 0.000000 0.105953
40.000000 55.426000 5.000000 6.000000 -6.000000 76.385443 -9.205460 1149.426889 1205.073458 18.055259 0.000000 0.129527
41.000000 53.715000 7.000000 6.000000 -6.000000 83.803168 -21.520383 1399.405964 1066.620099 18.627093 0.000000 0.131942
42.000000 51.728000 4.000000 3.000000 -3.000000 86.088358 -27.084418 1525.398314 1023.658732 9.670755 0.000000 0.118812
43.000000 49.383000 3.000000 2.000000 -2.000000 87.649030 -32.172840 1652.066376 993.203581 6.752959 0.000000 0.104625
44.000000 46.884000 5.000000 3.000000 -3.000000 88.645596 -36.774208 1779.415602 972.769080 10.669050 0.000000 0.101265
45.000000 47.721000 2.000000 7.000000 -6.000000 63.014195 13.862967 709.382244 1505.506693 20.975266 0.000000 0.074355
46.000000 51.577000 3.000000 7.000000 -6.000000 70.298424 7.815795 827.263746 1330.016352 19.404909 0.000000 0.103272
47.000000 53.915000 4.000000 7.000000 -6.000000 76.627873 1.556961 945.745473 1196.950721 18.561407 0.000000 0.132772
48.000000 54.832000 5.000000 7.000000 -6.000000 81.888062 -4.771087 1064.832021 1094.941586 18.249091 0.000000 0.149550
49.000000 54.565000 6.000000 7.000000 -6.000000 86.068044 -11.016292 1184.528034 1016.366271 18.336738 0.000000 0.153372
50.000000 53.406000 7.000000 7.000000 -6.000000 89.240514 -17.038064 1304.838201 955.922638 18.733060 0.000000 0.145985
51.000000 51.640000 8.000000 7.000000 -6.000000 91.531187 -22.724625 1425.767263 909.808667 19.372587 0.000000 0.129707
52.000000 49.505000 9.000000 7.000000 -6.000000 93.088482 -28.001834 1547.320006 875.227113 20.207139 0.000000 0.107893
53.000000 47.184000 10.000000 7.000000 -6.000000 94.060331 -32.832972 1669.501268 850.074288 21.200476 0.000000 0.087256
54.000000 47.167000 1.000000 4.000000 -3.000000 68.163439 17.072445 644.455164 1392.164746 10.609774 0.000000 0.099621
55.000000 50.480000 3.000000 8.000000 -6.000000 75.114878 11.404791 757.887346 1232.843063 19.824863 0.000000 0.124739
56.000000 52.549000 2.000000 4.000000 -3.000000 81.225844 5.473026 871.876026 1107.882864 9.521095 0.000000 0.147810
57.000000 53.436000 5.000000 8.000000 -6.000000 86.381721 -0.608196 986.425308 1009.063260 18.724335 0.000000 0.160996
58.000000 53.307000 3.000000 4.000000 -3.000000 90.549583 -6.705451 1101.539339 930.604732 9.383900 0.000000 0.163554
59.000000 52.383000 7.000000 8.000000 -6.000000 93.768922 -12.683226 1217.222305 868.325632 19.097694 0.000000 0.156328
60.000000 50.885000 4.000000 4.000000 -3.000000 96.131924 -18.421230 1333.478435 819.125794 9.829241 0.000000 0.140590
61.000000 49.014000 9.000000 8.000000 -6.000000 97.760365 -23.827164 1450.311998 780.658252 20.408118 0.000000 0.117982
62.000000 46.929000 5.000000 4.000000 -3.000000 98.785041 -28.842069 1567.727308 751.113693 10.657088 0.000000 0.091315
63.000000 45.957000 2.000000 9.000000 -6.000000 72.411404 19.961602 584.077571 1303.992917 21.776345 0.000000 0.114657
64.000000 48.834000 1.000000 3.000000 -2.000000 79.056569 14.662928 693.383678 1156.113720 6.830426 0.000000 0.135355
65.000000 50.694000 4.000000 9.000000 -6.000000 84.967883 9.068774 803.207163 1036.971169 19.737552 0.000000 0.154368
66.000000 51.572000 5.000000 9.000000 -6.000000 90.034240 3.267610 913.551709 940.355751 19.399679 0.000000 0.165664
67.000000 51.584000 2.000000 3.000000 -2.000000 94.207520 -2.629048 1024.421031 861.736428 6.464461 0.000000 0.168154
68.000000 50.892000 7.000000 9.000000 -6.000000 97.500033 -8.498210 1135.818884 797.729507 19.655714 0.000000 0.162146
69.000000 49.669000 8.000000 9.000000 -6.000000 99.973180 -14.220247 1247.749054 745.757191 20.138715 0.000000 0.148357
70.000000 48.075000 3.000000 3.000000 -2.000000 101.721291 -19.692744 1360.215368 703.821218 6.935066 0.000000 0.127683
71.000000 46.249000 10.000000 9.000000 -6.000000 102.854885 -24.839640 1473.221686 670.348742 21.625891 0.000000 0.101356
72.000000 46.912000 3.000000 10.000000 -6.000000 82.296447 17.615599 633.256794 1093.751423 21.329307 0.000000 0.138721
73.000000 48.599000 2.000000 5.000000 -3.000000 88.018353 12.356982 739.208360 979.123027 10.293468 0.000000 0.154983
74.000000 49.471000 5.000000 10.000000 -6.000000 92.997532 6.853227 845.645482 884.234718 20.222384 0.000000 0.165304
75.000000 49.606000 3.000000 5.000000 -3.000000 97.176851 1.193792 952.571507 805.444765 10.082695 0.000000 0.168307
76.000000 49.124000 7.000000 10.000000 -6.000000 100.548099 -4.515005 1059.989811 739.962058 20.362101 0.000000 0.163935
77.000000 48.155000 4.000000 5.000000 -3.000000 103.146514 -10.161213 1167.903801 685.611525 10.385269 0.000000 0.152565
78.000000 46.830000 9.000000 10.000000 -6.000000 105.040470 -15.640001 1276.316916 640.673120 21.357503 0.000000 0.134723
79.000000 46.423000 4.000000 11.000000 -6.000000 90.513649 15.356462 679.418878 930.993644 21.550613 0.000000 0.151453
80.000000 47.283000 5.000000 11.000000 -6.000000 95.401928 10.155061 782.215472 837.603904 21.156748 0.000000 0.161280
81.000000 47.518000 6.000000 11.000000 -6.000000 99.578586 4.755191 885.468650 758.744864 21.050384 0.000000 0.165055
82.000000 47.214000 7.000000 11.000000 -6.000000 103.021076 -0.754897 989.181460 692.079242 21.184802 0.000000 0.162437
83.000000 46.470000 8.000000 11.000000 -6.000000 105.743793 -6.275437 1093.356978 635.750399 21.522886 0.000000 0.153561
84.000000 51.340000 4.000000 2.000000 -5.000000 44.792658 -25.536650 1489.211385 2142.485890 19.500115 0.000000 0.237414
85.000000 53.375000 5.000000 2.000000 -5.000000 51.455874 -32.660124 1664.911325 1959.518833 18.754709 0.000000 0.230044
86.000000 52.793000 6.000000 2.000000 -5.000000 56.426856 -38.850448 1841.924210 1858.275479 18.959415 0.000000 0.257907
87.000000 50.783000 7.000000 2.000000 -5.000000 60.090842 -44.162064 2020.264812 1804.046726 19.708426 0.000000 0.306173
89.000000 48.155000 2.000000 3.000000 -5.000000 39.369194 -2.735037 1026.416395 2254.235312 20.792062 0.000000 0.230675
90.000000 56.595000 3.000000 3.000000 -5.000000 49.175517 -11.302398 1190.111665 1889.224611 17.689736 0.000000 0.111932
91.000000 60.532000 4.000000 3.000000 -5.000000 57.005454 -19.444250 1354.957625 1682.074580 16.537086 0.000000 0.098540
92.000000 60.980000 5.000000 3.000000 -5.000000 62.905883 -26.897087 1520.966453 1558.420375 16.413482 0.000000 0.124510
93.000000 59.222000 6.000000 3.000000 -5.000000 67.176553 -33.528378 1688.150496 1484.359055 16.899093 0.000000 0.150265
94.000000 56.299000 7.000000 3.000000 -5.000000 70.186984 -39.318663 1856.522277 1442.226785 17.775126 0.000000 0.182380
95.000000 52.899000 8.000000 3.000000 -5.000000 72.272264 -44.321340 2026.094500 1421.916727 18.916356 0.000000 0.230914
96.000000 49.423000 9.000000 3.000000 -5.000000 73.697495 -48.624755 2196.880049 1417.229058 20.245938 0.000000 0.299274
98.000000 45.653000 1.000000 4.000000 -5.000000 40.206224 10.871110 768.301153 2237.610734 21.931010 0.000000 0.224194
99.000000 55.933000 2.000000 4.000000 -5.000000 50.809546 2.791612 922.518378 1819.548230 17.899101 0.000000 0.067581
100.000000 62.443000 3.000000 4.000000 -5.000000 59.915551 -5.453951 1077.762382 1567.351298 16.031004 0.000000 0.036671
101.000000 65.182000 4.000000 4.000000 -5.000000 67.184526 -13.532614 1234.043453 1406.703918 15.355344 0.000000 0.090762
102.000000 64.957000 5.000000 4.000000 -5.000000 72.629769 -21.149313 1391.372018 1301.991314 15.406490 0.000000 0.114250
103.000000 62.803000 6.000000 4.000000 -5.000000 76.496495 -28.102942 1549.758645 1234.010143 15.933321 0.000000 0.119620
104.000000 59.600000 7.000000 4.000000 -5.000000 79.117012 -34.300576 1709.214042 1191.492734 16.788454 0.000000 0.122868
105.000000 55.959000 8.000000 4.000000 -5.000000 80.811945 -39.737554 1869.749064 1167.392381 17.879695 0.000000 0.142378
106.000000 52.255000 9.000000 4.000000 -5.000000 81.846250 -44.464861 2031.374713 1157.076660 19.146412 0.000000 0.187850
107.000000 48.691000 10.000000 4.000000 -5.000000 82.421106 -48.560063 2194.102140 1157.375544 20.547099 0.000000 0.256436
108.000000 50.742000 1.000000 5.000000 -5.000000 50.016333 15.243366 681.702387 1876.508701 19.729956 0.000000 0.114797
109.000000 59.039000 2.000000 5.000000 -5.000000 59.925578 7.756784 828.392979 1570.019780 16.955116 0.000000 0.042869
110.000000 64.261000 3.000000 5.000000 -5.000000 68.490105 -0.053988 976.014160 1365.178507 15.575312 0.000000 0.091514
111.000000 66.415000 4.000000 5.000000 -5.000000 75.400556 -7.911837 1124.574813 1224.036723 15.068200 0.000000 0.126198
112.000000 64.030000 6.000000 5.000000 -5.000000 84.326396 -22.669501 1424.550637 1056.880192 15.626090 0.000000 0.129789
113.000000 60.984000 7.000000 5.000000 -5.000000 86.790159 -29.178237 1575.984150 1010.131985 16.405569 0.000000 0.112722
114.000000 57.470000 8.000000 5.000000 -5.000000 88.305283 -34.991585 1728.393821 979.870760 17.407620 0.000000 0.100380
115.000000 53.839000 9.000000 5.000000 -5.000000 89.129947 -40.114486 1881.789120 962.372891 18.580929 0.000000 0.114719
116.000000 50.298000 4.000000 2.000000 -2.000000 89.470114 -44.594853 2036.179638 954.978772 7.955532 0.000000 0.162362
117.000000 46.955000 11.000000 5.000000 -5.000000 89.480141 -48.501068 2191.575093 955.738408 21.304423 0.000000 0.232759
118.000000 52.446000 1.000000 6.000000 -5.000000 57.822060 19.073372 602.859780 1657.537352 19.086536 0.000000 0.090946
119.000000 59.220000 2.000000 6.000000 -5.000000 67.112269 12.178314 742.723317 1405.833635 16.901333 0.000000 0.089558
120.000000 63.551000 3.000000 6.000000 -5.000000 75.232722 4.862735 883.434157 1225.736596 15.747461 0.000000 0.126698
121.000000 65.428000 4.000000 6.000000 -5.000000 81.900347 -2.659804 1025.000023 1094.337910 15.293713 0.000000 0.150330
122.000000 65.236000 5.000000 6.000000 -5.000000 87.037022 -10.136708 1167.428733 997.592230 15.336990 0.000000 0.155903
123.000000 63.537000 6.000000 6.000000 -5.000000 90.741444 -17.324253 1310.728198 926.409382 15.745822 0.000000 0.145775
124.000000 60.882000 7.000000 6.000000 -5.000000 93.222701 -24.031507 1454.906429 874.646623 16.431351 0.000000 0.123609
125.000000 57.717000 8.000000 6.000000 -5.000000 94.730742 -30.142439 1599.971534 838.003921 17.331356 0.000000 0.095539
126.000000 54.361000 9.000000 6.000000 -5.000000 95.506013 -35.613396 1745.931722 813.381461 18.400975 0.000000 0.077325
127.000000 51.016000 10.000000 6.000000 -5.000000 95.753238 -40.455435 1892.795301 798.488455 19.607039 0.000000 0.096187
128.000000 47.803000 11.000000 6.000000 -5.000000 95.633790 -44.713142 2040.570686 791.595594 20.924501 0.000000 0.150028
129.000000 52.155000 1.000000 7.000000 -5.000000 64.044560 22.427639 530.775985 1507.777903 19.190907 0.000000 0.103052
130.000000 57.754000 2.000000 7.000000 -5.000000 72.775790 16.096299 664.418942 1288.281620 17.328296 0.000000 0.115293
131.000000 61.433000 3.000000 7.000000 -5.000000 80.508271 9.295512 798.836614 1123.344652 16.288530 0.000000 0.143709
132.000000 63.164000 4.000000 7.000000 -5.000000 86.986659 2.179651 934.035758 997.698518 15.840278 0.000000 0.161908
133.000000 63.192000 5.000000 7.000000 -5.000000 92.103780 -5.045413 1070.023207 901.309190 15.831494 0.000000 0.166001
134.000000 61.910000 6.000000 7.000000 -5.000000 95.895577 -12.154364 1206.805877 827.311313 16.158129 0.000000 0.156794
135.000000 59.731000 7.000000 7.000000 -5.000000 98.504321 -18.942533 1344.390763 770.849183 16.746578 0.000000 0.136067
136.000000 57.015000 8.000000 7.000000 -5.000000 100.129179 -25.257473 1482.784944 728.391771 17.543303 0.000000 0.106307
137.000000 54.040000 9.000000 7.000000 -5.000000 100.981920 -31.011448 1621.995580 697.310041 18.508433 0.000000 0.072957
138.000000 50.999000 10.000000 7.000000 -5.000000 101.257174 -36.175782 1762.029920 675.606401 19.611663 0.000000 0.056694
139.000000 48.017000 11.000000 7.000000 -5.000000 101.118011 -40.765297 1902.895294 661.736031 20.829549 0.000000 0.088233
140.000000 50.772000 1.000000 8.000000 -5.000000 69.041452 25.370466 464.617618 1397.261020 19.711708 0.000000 0.114843
141.000000 55.457000 2.000000 8.000000 -5.000000 77.264103 19.561235 592.569176 1199.162093 18.044278 0.000000 0.126487
142.000000 58.633000 3.000000 8.000000 -5.000000 84.642116 13.266872 721.231802 1044.709424 17.064765 0.000000 0.149055
143.000000 60.264000 4.000000 8.000000 -5.000000 90.949218 6.592491 850.611439 923.048734 16.601195 0.000000 0.164447
144.000000 60.501000 5.000000 8.000000 -5.000000 96.063642 -0.304183 980.714098 826.666447 16.534510 0.000000 0.168708
145.000000 59.612000 6.000000 8.000000 -5.000000 99.974523 -7.230298 1111.545857 750.196481 16.779664 0.000000 0.161749
146.000000 57.902000 7.000000 8.000000 -5.000000 102.765352 -13.988099 1243.112862 689.704366 17.274292 0.000000 0.144445
147.000000 55.652000 8.000000 8.000000 -5.000000 104.582851 -20.407065 1375.421328 642.239835 17.971619 0.000000 0.117984
148.000000 53.097000 9.000000 8.000000 -5.000000 105.602519 -26.365840 1508.477540 605.547342 18.835876 0.000000 0.084159
149.000000 50.411000 10.000000 8.000000 -5.000000 106.000099 -31.798352 1642.287856 577.873073 19.839241 0.000000 0.048659
150.000000 47.715000 11.000000 8.000000 -5.000000 105.933299 -36.686777 1776.858705 557.832912 20.959751 0.000000 0.044518
151.000000 48.844000 1.000000 9.000000 -5.000000 73.094285 27.960197 403.682902 1311.350148 20.488158 0.000000 0.120655
152.000000 52.810000 2.000000 9.000000 -5.000000 80.852457 22.626057 526.407533 1128.761530 18.947541 0.000000 0.128664
153.000000 55.583000 3.000000 9.000000 -5.000000 87.898819 16.812707 649.787115 982.251414 18.000098 0.000000 0.146977
154.000000 57.125000 4.000000 9.000000 -5.000000 94.035819 10.587146 773.826905 863.746890 17.512331 0.000000 0.160824
155.000000 57.528000 5.000000 9.000000 -5.000000 99.138400 4.063881 898.532216 767.429252 17.388004 0.000000 0.165935
156.000000 56.973000 6.000000 9.000000 -5.000000 103.164623 -2.601816 1023.908420 688.998690 17.555994 0.000000 0.161593
157.000000 55.680000 7.000000 9.000000 -5.000000 106.151236 -9.233160 1149.960944 625.209177 17.962599 0.000000 0.148129
158.000000 53.866000 8.000000 9.000000 -5.000000 108.196698 -15.658677 1276.695277 573.564408 18.566511 0.000000 0.126174
159.000000 51.722000 9.000000 9.000000 -5.000000 109.437357 -21.737098 1404.116964 532.113276 19.335439 0.000000 0.096503
160.000000 49.400000 10.000000 9.000000 -5.000000 110.023514 -27.372033 1532.231612 499.308840 20.243771 0.000000 0.060409
161.000000 47.014000 11.000000 9.000000 -5.000000 110.100540 -32.514001 1661.044891 473.908920 21.270936 0.000000 0.025550
162.000000 46.688000 1.000000 10.000000 -5.000000 76.417580 30.247897 347.376670 1242.015501 21.432807 0.000000 0.121821
163.000000 50.080000 2.000000 10.000000 -5.000000 83.750808 25.341486 465.284265 1071.406691 19.979082 0.000000 0.125371
164.000000 52.522000 3.000000 10.000000 -5.000000 90.483919 19.974792 583.797084 931.327568 19.048075 0.000000 0.140196
165.000000 53.976000 4.000000 10.000000 -5.000000 96.446232 14.186785 702.919797 815.569383 18.532815 0.000000 0.153063
166.000000 54.498000 2.000000 4.000000 -2.000000 101.516847 8.056350 822.657126 719.509920 7.341460 0.000000 0.159241
167.000000 54.209000 6.000000 10.000000 -5.000000 105.635697 1.702260 943.013839 639.637275 18.450060 0.000000 0.157490
168.000000 53.267000 7.000000 10.000000 -5.000000 108.805404 -4.726821 1063.994754 573.235457 18.775228 0.000000 0.147744
169.000000 51.837000 8.000000 10.000000 -5.000000 111.083871 -11.071506 1185.604741 518.171098 19.292374 0.000000 0.130321
170.000000 50.071000 9.000000 10.000000 -5.000000 112.569735 -17.184453 1307.848718 472.745261 19.972203 0.000000 0.105647
171.000000 48.097000 4.000000 4.000000 -2.000000 113.384533 -22.949093 1430.731657 435.588295 8.316437 0.000000 0.074195
172.000000 46.019000 11.000000 10.000000 -5.000000 113.655813 -28.289014 1554.258579 405.583816 21.729779 0.000000 0.036762
173.000000 47.412000 2.000000 11.000000 -5.000000 86.116955 27.753720 408.644955 1023.551322 21.102327 0.000000 0.118945
174.000000 49.576000 3.000000 11.000000 -5.000000 92.553640 22.795817 522.660000 888.931384 20.178723 0.000000 0.130517
175.000000 50.943000 4.000000 11.000000 -5.000000 98.336391 17.422763 637.240165 775.703878 19.635371 0.000000 0.142571
176.000000 51.543000 5.000000 11.000000 -5.000000 103.352675 11.685733 752.389662 680.122658 19.405121 0.000000 0.149793
177.000000 51.458000 6.000000 11.000000 -5.000000 107.533790 5.671473 868.112746 599.274966 19.435759 0.000000 0.150435
178.000000 50.801000 7.000000 11.000000 -5.000000 110.859361 -0.501120 984.413711 530.861970 19.686067 0.000000 0.144100
179.000000 49.695000 8.000000 11.000000 -5.000000 113.355676 -6.692721 1101.296899 473.045187 20.123075 0.000000 0.130877
180.000000 48.261000 9.000000 11.000000 -5.000000 115.088107 -12.761453 1218.766691 424.336807 20.720098 0.000000 0.111016
181.000000 46.606000 10.000000 11.000000 -5.000000 116.149266 -18.581563 1336.827516 383.519953 21.455305 0.000000 0.084811
182.000000 46.807000 3.000000 12.000000 -5.000000 94.225681 25.316467 465.859517 853.027990 21.371837 0.000000 0.119190
183.000000 48.087000 4.000000 12.000000 -5.000000 99.825948 20.329784 576.230483 742.206535 20.801098 0.000000 0.130340
184.000000 48.732000 5.000000 12.000000 -5.000000 104.767672 14.974045 687.130323 647.307428 20.523730 0.000000 0.138445
185.000000 48.799000 6.000000 12.000000 -5.000000 108.979885 9.309705 798.562847 565.883868 20.494173 0.000000 0.141214
186.000000 48.367000 7.000000 12.000000 -5.000000 112.428037 3.427819 910.531902 495.971040 20.675839 0.000000 0.137928
187.000000 47.530000 8.000000 12.000000 -5.000000 115.115343 -2.555753 1023.041373 435.973058 21.039001 0.000000 0.128480
188.000000 46.381000 9.000000 12.000000 -5.000000 117.079839 -8.512597 1136.095181 384.580308 21.559265 0.000000 0.112994
189.000000 46.098000 5.000000 13.000000 -5.000000 105.856803 17.948399 626.362120 619.647841 21.695848 0.000000 0.125829
190.000000 46.276000 6.000000 13.000000 -5.000000 110.071753 12.630887 733.810459 537.980321 21.611257 0.000000 0.130432
191.000000 46.020000 7.000000 13.000000 -5.000000 113.608588 7.057126 841.758261 466.995477 21.730000 0.000000 0.129833
199.000000 69.677000 3.000000 2.000000 -4.000000 49.286527 -20.518021 1377.795827 1929.935657 14.367949 0.000000 0.156509
200.000000 69.784000 5.000000 2.000000 -4.000000 62.901402 -37.676300 1806.143840 1636.831691 14.341971 0.000000 0.202549
201.000000 65.391000 3.000000 1.000000 -2.000000 66.555438 -44.243829 2023.253565 1592.539974 7.652042 0.000000 0.262730
206.000000 58.345000 1.000000 3.000000 -4.000000 40.196495 7.659411 830.255618 2226.247484 17.160478 0.000000 0.219198
207.000000 73.104000 2.000000 3.000000 -4.000000 53.034828 -2.714206 1026.024213 1751.930369 13.694383 0.000000 0.043973
208.000000 79.974000 3.000000 3.000000 -4.000000 63.164056 -12.998210 1223.446695 1499.842274 12.516004 0.000000 0.072768
209.000000 80.333000 4.000000 3.000000 -4.000000 70.364423 -22.578492 1422.544112 1356.879707 12.458196 0.000000 0.110988
210.000000 76.784000 5.000000 3.000000 -4.000000 75.083637 -31.063908 1623.337871 1275.708733 13.032359 0.000000 0.123526
211.000000 71.482000 6.000000 3.000000 -4.000000 77.983873 -38.327652 1825.849742 1233.028985 13.997904 0.000000 0.143250
212.000000 65.727000 7.000000 3.000000 -4.000000 79.658215 -44.430329 2030.101874 1216.040133 15.222611 0.000000 0.196677
213.000000 60.170000 8.000000 3.000000 -4.000000 80.544355 -49.521055 2236.116794 1217.127749 16.627791 0.000000 0.285092
218.000000 66.344000 1.000000 4.000000 -4.000000 52.592658 13.415226 718.288274 1787.196785 15.089574 0.000000 0.084411
219.000000 82.673000 3.000000 4.000000 -4.000000 73.834236 -5.959086 1087.346084 1254.690196 12.105287 0.000000 0.119936
220.000000 79.173000 5.000000 4.000000 -4.000000 85.047005 -24.359779 1462.318013 1043.389225 12.637228 0.000000 0.126036
221.000000 68.431000 7.000000 4.000000 -4.000000 88.976319 -38.896368 1843.347370 965.710507 14.618998 0.000000 0.107772
222.000000 57.696000 9.000000 4.000000 -4.000000 89.444900 -49.396574 2230.582129 957.022577 17.338135 0.000000 0.252881
225.000000 55.299000 0.000000 5.000000 -4.000000 49.667816 26.139592 446.806326 1958.912476 18.103098 0.000000 0.181517
226.000000 67.910000 1.000000 5.000000 -4.000000 61.881183 18.315497 618.726727 1546.833136 14.739476 0.000000 0.086028
227.000000 76.678000 2.000000 5.000000 -4.000000 72.828119 9.653084 791.932585 1278.366727 13.051877 0.000000 0.115654
228.000000 80.870000 3.000000 5.000000 -4.000000 81.777725 0.455763 966.438372 1096.528435 12.373373 0.000000 0.150398
229.000000 81.016000 4.000000 5.000000 -4.000000 88.420576 -8.833250 1142.258777 971.033022 12.349446 0.000000 0.159226
230.000000 78.313000 5.000000 5.000000 -4.000000 92.872464 -17.744408 1319.408710 884.298316 12.774237 0.000000 0.144559
231.000000 73.988000 6.000000 5.000000 -4.000000 95.517229 -25.912185 1497.903311 825.417932 13.520016 0.000000 0.112700
232.000000 68.968000 7.000000 5.000000 -4.000000 96.820033 -33.142215 1677.757947 787.268332 14.503331 0.000000 0.077699
233.000000 63.843000 8.000000 5.000000 -4.000000 97.202037 -39.397143 1858.988222 765.000287 15.667353 0.000000 0.083666
234.000000 58.934000 9.000000 5.000000 -4.000000 96.990626 -44.741068 2041.609979 755.198935 16.972039 0.000000 0.148703
235.000000 54.394000 10.000000 5.000000 -4.000000 96.418246 -49.284869 2225.639306 755.390489 18.388366 0.000000 0.241255
238.000000 56.308000 0.000000 3.000000 -2.000000 57.618913 29.462041 367.002935 1724.913132 8.888269 0.000000 0.154683
239.000000 66.232000 1.000000 6.000000 -4.000000 68.863740 22.480319 529.617393 1391.308686 15.110985 0.000000 0.109156
240.000000 76.874000 3.000000 6.000000 -4.000000 87.611186 6.187528 858.314072 986.162704 13.014997 0.000000 0.161103
241.000000 75.504000 5.000000 6.000000 -4.000000 98.833700 -11.384561 1191.717191 770.375414 13.248113 0.000000 0.156172
242.000000 67.926000 7.000000 6.000000 -4.000000 103.226663 -27.275263 1529.928563 656.384004 14.724384 0.000000 0.086747
243.000000 63.458000 4.000000 3.000000 -2.000000 103.721621 -33.996352 1700.869966 624.016423 7.880316 0.000000 0.048787
244.000000 59.032000 9.000000 6.000000 -4.000000 103.527354 -39.841401 1873.052958 603.761254 16.942153 0.000000 0.075428
245.000000 54.827000 5.000000 3.000000 -2.000000 102.891374 -44.871868 2046.491115 593.407907 9.120743 0.000000 0.150460
246.000000 50.929000 11.000000 6.000000 -4.000000 101.990844 -49.184069 2221.198212 591.271119 19.637677 0.000000 0.242374
248.000000 45.865000 -1.000000 7.000000 -4.000000 53.098214 37.741566 141.897330 1962.974980 21.824260 0.000000 0.259547
249.000000 55.205000 0.000000 7.000000 -4.000000 63.801929 32.279531 295.133058 1567.359647 18.129864 0.000000 0.150361
250.000000 63.125000 1.000000 7.000000 -4.000000 74.180568 26.028367 449.396411 1280.375376 15.853044 0.000000 0.119451
251.000000 68.855000 2.000000 7.000000 -4.000000 83.698275 18.985931 604.697760 1066.694784 14.531448 0.000000 0.138463
252.000000 72.056000 3.000000 7.000000 -4.000000 91.886791 11.243043 761.047617 904.850295 13.884074 0.000000 0.159448
253.000000 72.854000 4.000000 7.000000 -4.000000 98.441754 3.007282 918.456637 781.044871 13.730294 0.000000 0.167048
254.000000 71.706000 5.000000 7.000000 -4.000000 103.271325 -5.410334 1076.935619 686.007498 13.948713 0.000000 0.159296
255.000000 69.191000 6.000000 7.000000 -4.000000 106.482594 -13.655936 1236.495510 613.278357 14.454728 0.000000 0.137100
256.000000 65.849000 7.000000 7.000000 -4.000000 108.319229 -21.416255 1397.147405 558.218751 15.187570 0.000000 0.102026
257.000000 62.106000 8.000000 7.000000 -4.000000 109.082191 -28.480362 1558.902554 517.411931 16.102465 0.000000 0.056852
258.000000 58.258000 9.000000 7.000000 -4.000000 109.064406 -34.754329 1721.772360 488.285893 17.165695 0.000000 0.028287
259.000000 54.494000 10.000000 7.000000 -4.000000 108.513724 -40.238153 1885.768385 468.867773 18.351385 0.000000 0.083886
260.000000 50.920000 11.000000 7.000000 -4.000000 107.621443 -44.989566 2050.902352 457.619237 19.639348 0.000000 0.161874
261.000000 47.591000 12.000000 7.000000 -4.000000 106.526239 -49.092652 2217.186144 453.323316 21.013601 0.000000 0.250771
262.000000 45.531000 -1.000000 8.000000 -4.000000 58.784251 39.610693 84.273550 1787.620282 21.982501 0.000000 0.240916
263.000000 53.105000 0.000000 4.000000 -2.000000 68.686390 34.688082 230.069673 1451.693597 9.422547 0.000000 0.150097
264.000000 59.524000 1.000000 8.000000 -4.000000 78.296429 29.065247 376.797082 1196.083164 16.810536 0.000000 0.120497
265.000000 64.280000 1.000000 4.000000 -2.000000 87.204026 22.714117 524.464731 997.983215 7.782275 0.000000 0.132472
266.000000 67.129000 3.000000 8.000000 -4.000000 95.035513 15.669685 673.081684 842.503557 14.901910 0.000000 0.150376
267.000000 67.536000 5.000000 8.000000 -4.000000 106.515697 0.095803 973.200360 621.865897 14.809193 0.000000 0.155794
268.000000 65.754000 3.000000 4.000000 -2.000000 110.050628 -7.919461 1124.720808 544.401059 7.604714 0.000000 0.139967
269.000000 63.170000 7.000000 8.000000 -4.000000 112.266151 -15.684968 1277.228016 483.277842 15.830696 0.000000 0.112470
270.000000 56.865000 9.000000 8.000000 -4.000000 113.653135 -29.552539 1585.241526 399.088883 17.584998 0.000000 0.026833
271.000000 53.581000 5.000000 4.000000 -2.000000 113.303809 -35.431292 1740.767550 372.021173 9.331394 0.000000 0.035327
272.000000 50.384000 11.000000 8.000000 -4.000000 112.530950 -40.594599 1897.319787 352.987630 19.846940 0.000000 0.101848
273.000000 47.343000 3.000000 2.000000 -1.000000 111.485480 -45.096037 2054.908427 340.863715 5.280477 0.000000 0.178008
274.000000 50.602000 0.000000 9.000000 -4.000000 72.608305 36.763783 170.889574 1361.814771 19.775793 0.000000 0.150030
275.000000 55.884000 1.000000 9.000000 -4.000000 81.538017 31.680135 310.782485 1129.160401 17.904321 0.000000 0.116847
276.000000 59.886000 2.000000 9.000000 -4.000000 89.892727 25.936541 451.531062 943.240802 16.705493 0.000000 0.121705
277.000000 62.432000 3.000000 9.000000 -4.000000 97.373529 19.534099 593.143178 793.213168 16.022358 0.000000 0.136967
278.000000 63.531000 4.000000 9.000000 -4.000000 103.741751 12.538785 735.626805 671.365715 15.743267 0.000000 0.147106
279.000000 63.351000 5.000000 9.000000 -4.000000 108.851340 5.097533 878.990013 572.063855 15.786633 0.000000 0.147557
280.000000 62.147000 6.000000 9.000000 -4.000000 112.665103 -2.566357 1023.240972 491.095153 16.091450 0.000000 0.137474
281.000000 60.199000 7.000000 9.000000 -4.000000 115.250438 -10.186182 1168.387953 425.247471 16.611189 0.000000 0.117081
282.000000 57.768000 8.000000 9.000000 -4.000000 116.755439 -17.504118 1314.439332 372.028860 17.309740 0.000000 0.086871
283.000000 55.066000 9.000000 9.000000 -4.000000 117.373196 -24.319369 1461.403587 329.476596 18.158658 0.000000 0.047371
284.000000 52.255000 10.000000 9.000000 -4.000000 117.306085 -30.511994 1609.289304 296.023915 19.135223 0.000000 0.002348
285.000000 49.449000 11.000000 9.000000 -4.000000 116.739576 -36.039408 1758.105176 270.405091 20.221076 0.000000 0.057912
286.000000 46.723000 12.000000 9.000000 -4.000000 115.828647 -40.916561 1907.860007 251.586576 21.401217 0.000000 0.122880
287.000000 48.003000 0.000000 5.000000 -2.000000 75.806682 38.566699 116.829294 1289.147712 10.422571 0.000000 0.150299
288.000000 52.410000 1.000000 10.000000 -4.000000 84.133828 33.946354 250.495635 1074.301848 19.089794 0.000000 0.111734
289.000000 55.820000 1.000000 5.000000 -2.000000 91.987229 28.732842 384.943983 898.411247 8.960832 0.000000 0.108891
290.000000 58.099000 3.000000 10.000000 -4.000000 99.126577 22.907872 520.181221 753.289091 17.216570 0.000000 0.121191
291.000000 59.240000 2.000000 5.000000 -2.000000 105.347937 16.498669 656.214313 632.905738 8.441521 0.000000 0.132263
292.000000 59.343000 5.000000 10.000000 -4.000000 110.507281 9.595246 793.050304 532.722302 16.852214 0.000000 0.136055
293.000000 58.578000 3.000000 5.000000 -2.000000 114.536639 2.357145 930.696325 449.256916 8.535623 0.000000 0.130954
294.000000 57.143000 7.000000 10.000000 -4.000000 117.449179 -4.999791 1069.159588 379.794105 17.498924 0.000000 0.116786
295.000000 55.235000 4.000000 5.000000 -2.000000 119.330956 -12.237849 1208.447395 322.185051 9.051310 0.000000 0.093838
296.000000 53.027000 9.000000 10.000000 -4.000000 120.320636 -19.141194 1348.567132 274.707230 18.856178 0.000000 0.062613
297.000000 50.656000 5.000000 5.000000 -2.000000 120.583036 -25.550296 1489.526275 235.963807 9.869188 0.000000 0.024724
298.000000 48.228000 11.000000 10.000000 -4.000000 120.284363 -31.375155 1631.332389 204.810239 20.731819 0.000000 0.028387
299.000000 45.819000 6.000000 5.000000 -2.000000 119.574788 -36.588554 1773.993132 180.299869 10.911057 0.000000 0.081849
301.000000 49.187000 1.000000 11.000000 -4.000000 86.244847 35.923425 195.222075 1028.232780 20.339899 0.000000 0.107395
302.000000 52.122000 2.000000 11.000000 -4.000000 93.643576 31.171301 323.909627 860.898718 19.192390 0.000000 0.096000
303.000000 54.167000 3.000000 11.000000 -4.000000 100.454350 25.859445 453.320695 720.308982 18.465585 0.000000 0.104404
304.000000 55.307000 4.000000 11.000000 -4.000000 106.504624 19.990576 583.461397 601.646183 18.083067 0.000000 0.115822
305.000000 55.602000 5.000000 11.000000 -4.000000 111.660457 13.614035 714.337922 501.193610 17.985867 0.000000 0.122357
306.000000 55.162000 6.000000 11.000000 -4.000000 115.840032 6.836904 845.956528 416.037975 18.127757 0.000000 0.121505
307.000000 54.132000 7.000000 11.000000 -4.000000 119.021738 -0.176926 978.323545 343.863566 18.471984 0.000000 0.112692
308.000000 52.656000 8.000000 11.000000 -4.000000 121.244391 -7.225034 1111.445374 282.806596 18.988960 0.000000 0.096006
309.000000 50.871000 9.000000 11.000000 -4.000000 122.598236 -14.099101 1245.328489 231.350184 19.654598 0.000000 0.071882
310.000000 48.894000 10.000000 11.000000 -4.000000 123.208273 -20.619915 1379.979441 188.247313 20.449091 0.000000 0.041585
311.000000 46.817000 11.000000 11.000000 -4.000000 123.214497 -26.661121 1515.404853 152.463454 21.355999 0.000000 0.019101
312.000000 46.236000 1.000000 12.000000 -4.000000 87.985957 37.659447 144.361432 988.810089 21.637272 0.000000 0.105307
313.000000 48.786000 1.000000 6.000000 -2.000000 94.972033 33.309132 267.761230 828.959838 10.251970 0.000000 0.084705
314.000000 50.627000 3.000000 12.000000 -4.000000 101.469887 28.450349 391.826969 692.617385 19.756429 0.000000 0.087664
315.000000 51.739000 2.000000 6.000000 -2.000000 107.334106 23.071057 516.564056 575.865051 9.664938 0.000000 0.098571
316.000000 52.157000 5.000000 12.000000 -4.000000 112.444161 17.192874 641.977954 475.617148 19.173186 0.000000 0.107235
317.000000 51.958000 3.000000 6.000000 -2.000000 116.714869 10.882762 768.074187 389.410336 9.622782 0.000000 0.109973
318.000000 51.240000 7.000000 12.000000 -4.000000 120.104469 4.258427 894.858338 315.254344 19.514045 0.000000 0.105740
319.000000 50.114000 4.000000 6.000000 -2.000000 122.618568 -2.518279 1022.336053 251.523681 9.975848 0.000000 0.094419
320.000000 48.686000 9.000000 12.000000 -4.000000 124.308104 -9.261791 1150.513038 196.877802 20.536304 0.000000 0.076324
321.000000 47.051000 5.000000 6.000000 -2.000000 125.260711 -15.791842 1279.395062 150.201352 10.624689 0.000000 0.052402
322.000000 45.786000 2.000000 13.000000 -4.000000 96.051484 35.193716 215.934669 801.377071 21.846836 0.000000 0.076599
323.000000 47.447000 3.000000 13.000000 -4.000000 102.253680 30.734011 335.078799 669.044855 21.079922 0.000000 0.072012
324.000000 48.516000 4.000000 13.000000 -4.000000 107.924444 25.793800 454.842702 554.334152 20.613736 0.000000 0.081118
325.000000 49.011000 5.000000 13.000000 -4.000000 112.957318 20.376544 575.231228 454.652747 20.403560 0.000000 0.091249
326.000000 48.985000 6.000000 13.000000 -4.000000 117.269715 14.520062 696.249275 367.898434 20.413123 0.000000 0.096992
327.000000 48.508000 7.000000 13.000000 -4.000000 120.809821 8.304371 817.901795 292.348525 20.612696 0.000000 0.096684
328.000000 47.662000 8.000000 13.000000 -4.000000 123.561594 1.852239 940.193791 226.577960 20.977683 0.000000 0.089965
329.000000 46.530000 9.000000 13.000000 -4.000000 125.546377 -4.681113 1063.130317 169.397751 21.487555 0.000000 0.077014
330.000000 45.608000 2.000000 7.000000 -2.000000 108.339124 28.207321 397.718994 536.156188 10.963721 0.000000 0.064028
331.000000 46.149000 5.000000 14.000000 -4.000000 113.272764 23.210375 513.468970 437.314561 21.669006 0.000000 0.074813
332.000000 46.247000 3.000000 7.000000 -2.000000 117.587523 17.782536 629.801557 350.408365 10.810808 0.000000 0.083040
333.000000 45.954000 7.000000 14.000000 -4.000000 121.228039 11.974807 746.721163 273.936889 21.758335 0.000000 0.086106
340.000000 79.727000 1.000000 2.000000 -3.000000 39.897349 2.008360 937.257749 2229.145842 12.558364 0.000000 0.220259
341.000000 88.170000 5.000000 2.000000 -3.000000 75.717182 -44.370812 2027.911663 1324.308814 11.348576 0.000000 0.214077
342.000000 78.445000 6.000000 2.000000 -3.000000 77.320241 -51.094217 2308.590664 1326.569817 12.754775 0.000000 0.338194
345.000000 74.771000 7.000000 3.000000 -3.000000 89.359814 -50.822701 2295.735217 960.037348 13.378684 0.000000 0.288265
349.000000 74.628000 0.000000 4.000000 -3.000000 52.550226 27.310047 419.244070 1868.785597 13.413830 0.000000 0.167822
350.000000 85.127000 6.000000 4.000000 -3.000000 99.508541 -37.615451 1804.320635 713.416199 11.749586 0.000000 0.066594
351.000000 76.744000 7.000000 4.000000 -3.000000 99.111644 -44.786256 2043.293790 697.785826 13.032788 0.000000 0.147853
352.000000 69.179000 8.000000 4.000000 -3.000000 98.131405 -50.586715 2284.682859 698.790285 14.457948 0.000000 0.274799
356.000000 74.300000 0.000000 5.000000 -3.000000 61.905275 31.390098 318.282440 1614.070298 13.470993 0.000000 0.150897
357.000000 88.782000 1.000000 5.000000 -3.000000 75.936650 22.563441 527.787471 1232.962871 11.271461 0.000000 0.121845
358.000000 90.524000 5.000000 5.000000 -3.000000 106.318973 -20.864488 1385.232627 603.768808 11.048197 0.000000 0.111041
359.000000 83.523000 6.000000 5.000000 -3.000000 107.418615 -30.325799 1604.585883 549.796752 11.973788 0.000000 0.051554
360.000000 76.360000 7.000000 5.000000 -3.000000 107.174747 -38.332312 1825.991987 516.933667 13.096736 0.000000 0.057901
361.000000 69.586000 8.000000 5.000000 -3.000000 106.153707 -44.951666 2049.479894 500.490939 14.371729 0.000000 0.157337
362.000000 63.431000 9.000000 5.000000 -3.000000 104.734996 -50.379720 2275.079102 497.116134 15.766338 0.000000 0.279769
365.000000 57.148000 -1.000000 6.000000 -3.000000 55.486555 41.106299 35.880264 1923.212615 17.514652 0.000000 0.283486
366.000000 81.750000 1.000000 6.000000 -3.000000 81.363539 27.028983 425.914716 1124.519439 12.239577 0.000000 0.121939
367.000000 88.525000 2.000000 6.000000 -3.000000 92.564138 18.089233 623.436657 890.294638 11.300718 0.000000 0.145052
368.000000 89.406000 4.000000 6.000000 -3.000000 107.851722 -2.585332 1023.598127 594.014470 11.186320 0.000000 0.151865
369.000000 85.464000 5.000000 6.000000 -3.000000 111.661521 -13.141429 1226.282046 502.031785 11.701306 0.000000 0.122879
370.000000 74.356000 7.000000 6.000000 -3.000000 113.594868 -31.593414 1636.970134 389.093816 13.448506 0.000000 0.012246
371.000000 68.580000 8.000000 6.000000 -3.000000 112.825431 -38.950296 1845.021058 358.513712 14.581073 0.000000 0.078490
374.000000 55.773000 -1.000000 7.000000 -3.000000 61.784173 43.039799 -30.059289 1731.125499 17.944757 0.000000 0.266006
375.000000 66.315000 0.000000 7.000000 -3.000000 73.745208 37.392490 152.334395 1335.979382 15.089616 0.000000 0.150046
376.000000 74.809000 1.000000 7.000000 -3.000000 85.267548 30.690270 336.190424 1044.613452 13.374050 0.000000 0.113019
377.000000 80.370000 2.000000 7.000000 -3.000000 95.664704 22.847083 521.526453 825.152243 12.446519 0.000000 0.127070
378.000000 82.751000 3.000000 7.000000 -3.000000 104.336411 13.914229 708.360425 657.611983 12.086595 0.000000 0.142397
379.000000 82.316000 4.000000 7.000000 -3.000000 110.904090 4.160356 896.710575 528.829031 12.149048 0.000000 0.142362
380.000000 79.780000 5.000000 7.000000 -3.000000 115.288346 -5.919553 1086.595434 429.779856 12.534300 0.000000 0.124619
381.000000 75.915000 6.000000 7.000000 -3.000000 117.695591 -15.724722 1278.033836 354.072699 13.171794 0.000000 0.089793
382.000000 71.370000 7.000000 7.000000 -3.000000 118.518199 -24.744137 1471.044924 297.053895 14.010139 0.000000 0.039098
383.000000 66.611000 8.000000 7.000000 -3.000000 118.201481 -32.687917 1665.648158 255.255213 15.011018 0.000000 0.027886
384.000000 61.931000 9.000000 7.000000 -3.000000 117.142399 -39.488422 1861.863321 226.039468 16.145276 0.000000 0.107773
385.000000 57.498000 10.000000 7.000000 -3.000000 115.645850 -45.223143 2059.710524 207.366109 17.390338 0.000000 0.201762
388.000000 53.422000 -1.000000 8.000000 -3.000000 66.723593 44.661021 -88.633666 1591.941464 18.732674 0.000000 0.259174
389.000000 61.729000 0.000000 8.000000 -3.000000 77.623599 39.640979 83.314553 1247.696645 16.209335 0.000000 0.151036
390.000000 68.481000 1.000000 8.000000 -3.000000 88.159390 33.723470 256.563795 982.585214 14.608892 0.000000 0.102516
391.000000 73.115000 2.000000 8.000000 -3.000000 97.826683 26.808302 431.128881 775.239480 13.680886 0.000000 0.105977
392.000000 75.437000 3.000000 8.000000 -3.000000 106.160643 18.875088 607.024860 611.384445 13.257966 0.000000 0.121426
393.000000 75.622000 4.000000 8.000000 -3.000000 112.817696 10.049209 784.267010 481.120979 13.224060 0.000000 0.127300
394.000000 74.091000 5.000000 8.000000 -3.000000 117.638542 0.645660 962.870844 377.368951 13.496132 0.000000 0.118840
395.000000 71.353000 6.000000 8.000000 -3.000000 120.672287 -8.864088 1142.852115 294.930903 14.013206 0.000000 0.095750
396.000000 67.881000 7.000000 8.000000 -3.000000 122.146651 -17.976769 1324.226819 229.905691 14.729502 0.000000 0.059049
397.000000 64.051000 8.000000 8.000000 -3.000000 122.392050 -26.303142 1507.011202 179.308424 15.609974 0.000000 0.017625
398.000000 60.132000 9.000000 8.000000 -3.000000 121.755195 -33.641844 1691.221761 140.816722 16.627342 0.000000 0.061193
399.000000 56.297000 10.000000 8.000000 -3.000000 120.538270 -39.961151 1876.875254 112.596881 17.760053 0.000000 0.136605
400.000000 52.650000 11.000000 8.000000 -3.000000 118.974471 -45.335905 2063.988701 93.182044 18.990852 0.000000 0.225076
403.000000 50.728000 -1.000000 9.000000 -3.000000 70.678722 46.037896 -141.011586 1484.605900 19.726326 0.000000 0.258259
404.000000 57.403000 0.000000 3.000000 -1.000000 80.670293 41.534412 21.622229 1177.218298 5.810005 0.000000 0.154582
405.000000 62.882000 1.000000 9.000000 -3.000000 90.359244 36.264100 185.421036 932.630353 15.908939 0.000000 0.095160
406.000000 66.792000 2.000000 9.000000 -3.000000 99.367561 30.127750 350.397396 735.714262 14.975293 0.000000 0.085026
407.000000 69.540000 4.000000 9.000000 -3.000000 113.964006 15.132724 683.933942 445.428257 14.380222 0.000000 0.108887
408.000000 68.707000 5.000000 9.000000 -3.000000 119.073138 6.492200 852.520172 338.740897 14.553400 0.000000 0.107944
409.000000 64.213000 7.000000 9.000000 -3.000000 124.702381 -11.470376 1193.395088 180.483018 15.570407 0.000000 0.068911
410.000000 61.182000 8.000000 9.000000 -3.000000 125.540581 -19.951657 1365.710978 123.042921 16.341275 0.000000 0.035061
411.000000 57.956000 3.000000 3.000000 -1.000000 125.406401 -27.667878 1539.297627 77.159910 5.750320 0.000000 0.034937
412.000000 54.696000 10.000000 9.000000 -3.000000 124.572772 -34.480203 1714.169143 41.192399 18.279029 0.000000 0.090938
413.000000 51.513000 11.000000 9.000000 -3.000000 123.274452 -40.379668 1890.339844 13.806731 19.408876 0.000000 0.162957
416.000000 47.993000 -1.000000 10.000000 -3.000000 73.904552 47.220508 -188.126917 1398.263727 20.849123 0.000000 0.261278
417.000000 53.452000 0.000000 10.000000 -3.000000 83.115014 43.147424 -33.850650 1119.125527 18.717283 0.000000 0.161262
418.000000 57.978000 1.000000 10.000000 -3.000000 92.072561 38.415194 121.474846 891.289255 17.253736 0.000000 0.093800
419.000000 61.316000 2.000000 10.000000 -3.000000 100.488353 32.932026 277.860310 703.600701 16.312281 0.000000 0.067290
420.000000 63.351000 3.000000 10.000000 -3.000000 108.079614 26.630438 435.316631 547.939262 15.786466 0.000000 0.075351
421.000000 64.114000 4.000000 10.000000 -3.000000 114.599827 19.500443 593.854845 418.252570 15.596937 0.000000 0.088582
422.000000 63.755000 5.000000 10.000000 -3.000000 119.868400 11.629746 753.486141 309.937710 15.683330 0.000000 0.093694
423.000000 62.494000 6.000000 10.000000 -3.000000 123.796470 3.232049 914.221864 219.432062 15.998916 0.000000 0.087971
424.000000 60.568000 7.000000 10.000000 -3.000000 126.402089 -5.364845 1076.073514 143.935332 16.506950 0.000000 0.071503
425.000000 58.200000 8.000000 10.000000 -3.000000 127.805380 -13.784411 1239.052753 81.216200 17.178146 0.000000 0.046365
426.000000 55.576000 9.000000 10.000000 -3.000000 128.200159 -21.693653 1403.171407 29.474974 17.988872 0.000000 0.028351
427.000000 52.841000 10.000000 10.000000 -3.000000 127.811673 -28.871232 1568.441465 -12.755791 18.919851 0.000000 0.060301
428.000000 50.100000 11.000000 10.000000 -3.000000 126.857528 -35.222494 1734.875087 -46.684433 19.955199 0.000000 0.117304
429.000000 47.424000 12.000000 10.000000 -3.000000 125.523432 -40.752753 1902.484605 -73.314802 21.081713 0.000000 0.186586
430.000000 49.895000 0.000000 11.000000 -3.000000 85.113135 44.535943 -83.999461 1070.097985 20.050775 0.000000 0.170815
431.000000 53.692000 1.000000 11.000000 -3.000000 93.434750 40.255079 63.685824 856.355253 18.630572 0.000000 0.099078
432.000000 56.570000 2.000000 11.000000 -3.000000 101.318672 35.321656 212.330262 676.966973 17.680559 0.000000 0.056743
433.000000 58.440000 3.000000 11.000000 -3.000000 108.541244 29.665821 361.943227 525.562608 17.112809 0.000000 0.053189
434.000000 59.310000 4.000000 11.000000 -3.000000 114.898616 23.252394 512.534216 397.267616 16.860034 0.000000 0.067347
435.000000 59.271000 5.000000 11.000000 -3.000000 120.226126 16.111339 664.112851 288.288854 16.869861 0.000000 0.077339
436.000000 58.466000 6.000000 11.000000 -3.000000 124.417419 8.367582 816.688879 195.630627 17.100922 0.000000 0.078043
437.000000 57.065000 7.000000 11.000000 -3.000000 127.440535 0.251681 970.272179 116.895744 17.520100 0.000000 0.068982
438.000000 55.233000 8.000000 11.000000 -3.000000 129.344814 -7.927396 1124.872757 50.143306 18.100578 0.000000 0.051402
439.000000 53.119000 9.000000 11.000000 -3.000000 130.252106 -15.846328 1280.500754 -6.214791 18.820402 0.000000 0.032029
440.000000 50.847000 10.000000 11.000000 -3.000000 130.332215 -23.238941 1437.166446 -53.490410 19.661430 0.000000 0.041625
441.000000 48.510000 11.000000 11.000000 -3.000000 129.771363 -29.939334 1594.880246 -92.776611 20.608539 0.000000 0.084092
442.000000 46.179000 12.000000 11.000000 -3.000000 128.745242 -35.884124 1753.652708 -124.991334 21.649021 0.000000 0.140736
443.000000 46.709000 0.000000 4.000000 -1.000000 86.772498 45.742446 -129.555581 1027.966264 7.139221 0.000000 0.182582
444.000000 49.937000 1.000000 12.000000 -3.000000 94.537469 41.843646 11.205537 826.344815 20.031136 0.000000 0.109714
445.000000 52.440000 2.000000 12.000000 -3.000000 101.943869 37.375540 152.838717 654.503100 19.072505 0.000000 0.057009
446.000000 54.151000 1.000000 4.000000 -1.000000 108.812857 32.271196 295.352090 507.343201 6.155959 0.000000 0.034746
447.000000 55.066000 4.000000 12.000000 -3.000000 114.976296 26.484034 438.753885 380.877751 18.159444 0.000000 0.045850
448.000000 55.238000 5.000000 12.000000 -3.000000 120.289400 20.009800 583.052438 271.943287 18.101340 0.000000 0.059761
449.000000 54.764000 2.000000 4.000000 -1.000000 124.644089 12.912115 728.256184 177.998021 6.085567 0.000000 0.065857
450.000000 53.764000 7.000000 12.000000 -3.000000 127.982329 5.341246 874.373670 96.976403 18.595562 0.000000 0.062947
451.000000 52.360000 8.000000 12.000000 -3.000000 130.306344 -2.469263 1021.413547 27.182684 19.093318 0.000000 0.051775
452.000000 50.671000 3.000000 4.000000 -1.000000 131.680454 -10.237569 1169.384577 -32.788199 6.576524 0.000000 0.035800
453.000000 48.796000 10.000000 12.000000 -3.000000 132.220732 -17.690642 1318.295633 -84.110247 20.487277 0.000000 0.032152
454.000000 46.820000 11.000000 12.000000 -3.000000 132.074385 -24.617148 1468.155701 -127.771936 21.352072 0.000000 0.060284
455.000000 46.633000 1.000000 13.000000 -3.000000 95.444341 43.227083 -36.665414 800.217858 21.449762 0.000000 0.123797
456.000000 48.829000 2.000000 13.000000 -3.000000 102.421368 39.155471 98.587779 635.288574 20.482786 0.000000 0.067048
457.000000 50.392000 3.000000 13.000000 -3.000000 108.956278 34.523099 234.644385 492.304288 19.845541 0.000000 0.027573
458.000000 51.312000 4.000000 13.000000 -3.000000 114.910105 29.279763 371.511582 367.959626 19.487817 0.000000 0.024691
459.000000 51.622000 5.000000 13.000000 -3.000000 120.157833 23.402208 509.196636 259.588357 19.369108 0.000000 0.041633
460.000000 51.388000 6.000000 13.000000 -3.000000 124.597496 16.914127 647.706899 165.016120 19.456371 0.000000 0.052391
461.000000 50.692000 7.000000 13.000000 -3.000000 128.160174 9.905515 787.049814 82.452096 19.722389 0.000000 0.054646
462.000000 49.628000 8.000000 13.000000 -3.000000 130.819654 2.541180 927.232910 10.408096 20.144534 0.000000 0.048879
463.000000 48.286000 9.000000 13.000000 -3.000000 132.598581 -4.952463 1068.263809 -52.362699 20.703847 0.000000 0.037123
464.000000 46.748000 10.000000 13.000000 -3.000000 133.567099 -12.324397 1210.150227 -106.912688 21.384316 0.000000 0.028335
465.000000 45.653000 2.000000 14.000000 -3.000000 102.790608 40.709994 48.914195 618.657125 21.907561 0.000000 0.082506
466.000000 47.080000 3.000000 14.000000 -3.000000 109.012736 36.483166 179.073383 479.742671 21.241305 0.000000 0.037302
467.000000 47.983000 4.000000 14.000000 -3.000000 114.751559 31.711250 309.975128 357.704641 20.839661 0.000000 0.007081
468.000000 48.381000 5.000000 14.000000 -3.000000 119.900027 26.361424 441.625800 250.274783 20.666594 0.000000 0.023689
469.000000 48.318000 6.000000 14.000000 -3.000000 124.365581 20.432631 574.031846 155.579154 20.692332 0.000000 0.038623
470.000000 47.854000 7.000000 14.000000 -3.000000 128.077284 13.972427 707.199785 72.056073 20.892055 0.000000 0.045183
471.000000 47.057000 8.000000 14.000000 -3.000000 130.993656 7.089738 841.136213 -1.606251 21.244911 0.000000 0.043917
472.000000 45.998000 9.000000 14.000000 -3.000000 133.109621 -0.045132 975.847801 -66.517716 21.733253 0.000000 0.036173
473.000000 45.472000 5.000000 15.000000 -3.000000 119.562934 28.952330 379.570417 243.304306 21.988726 0.000000 0.009376
474.000000 45.532000 2.000000 5.000000 -1.000000 124.011234 23.528060 506.387047 148.869229 7.319547 0.000000 0.026203
483.000000 82.475000 7.000000 5.000000 -2.000000 117.398137 -45.281161 2061.909593 148.175849 12.123558 0.000000 0.213584
486.000000 70.650000 -1.000000 6.000000 -2.000000 65.680604 48.036908 -221.895498 1668.440246 14.164667 0.000000 0.325230
487.000000 79.635000 7.000000 6.000000 -2.000000 123.969042 -37.540907 1802.091192 26.500175 12.554763 0.000000 0.125390
490.000000 65.931000 -1.000000 7.000000 -2.000000 70.859205 49.491216 -284.787529 1516.090943 15.177295 0.000000 0.323504
491.000000 77.438000 0.000000 7.000000 -2.000000 84.162276 43.866825 -59.541481 1093.634182 12.919455 0.000000 0.165715
492.000000 86.176000 1.000000 7.000000 -2.000000 96.939149 36.864100 167.949450 777.272223 11.607160 0.000000 0.073026
493.000000 90.660000 4.000000 7.000000 -2.000000 124.165322 5.875958 864.232243 206.644641 11.028312 0.000000 0.083358
494.000000 86.692000 5.000000 7.000000 -2.000000 127.961748 -6.679591 1101.046869 95.524355 11.532377 0.000000 0.061022
495.000000 81.527000 6.000000 7.000000 -2.000000 129.311436 -18.746626 1340.281984 10.331726 12.262684 0.000000 0.029770
496.000000 75.883000 7.000000 7.000000 -2.000000 128.839337 -29.420774 1581.974890 -53.884636 13.174732 0.000000 0.072465
497.000000 70.232000 8.000000 7.000000 -2.000000 127.208216 -38.337935 1826.163657 -100.854507 14.234973 0.000000 0.162113
501.000000 61.216000 -1.000000 8.000000 -2.000000 74.837992 50.680879 -339.079676 1401.288009 16.345272 0.000000 0.329051
502.000000 76.927000 1.000000 8.000000 -2.000000 98.296775 39.685206 81.912613 737.050239 13.002259 0.000000 0.080583
503.000000 82.859000 3.000000 8.000000 -2.000000 117.746916 23.330704 510.790542 324.390648 12.067726 0.000000 0.053544
504.000000 79.657000 5.000000 8.000000 -2.000000 129.268491 1.448848 947.777765 60.769907 12.550627 0.000000 0.058288
505.000000 71.724000 7.000000 8.000000 -2.000000 132.223632 -21.229583 1393.106474 -106.843084 13.938064 0.000000 0.043083
506.000000 67.209000 4.000000 4.000000 -1.000000 131.396203 -30.893142 1618.973882 -164.611384 7.437259 0.000000 0.105726
512.000000 63.818000 0.000000 9.000000 -2.000000 88.788198 47.280430 -190.569872 974.559234 15.675208 0.000000 0.202827
513.000000 69.343000 1.000000 9.000000 -2.000000 99.270487 41.968147 6.983188 704.716511 14.423904 0.000000 0.101298
514.000000 73.027000 2.000000 9.000000 -2.000000 108.993387 35.536266 206.258424 485.749736 13.694263 0.000000 0.030790
515.000000 74.767000 3.000000 9.000000 -2.000000 117.527878 27.810660 407.278453 306.796730 13.373784 0.000000 0.023391
516.000000 74.724000 4.000000 9.000000 -2.000000 124.500271 18.729999 610.066292 159.911253 13.380146 0.000000 0.045471
517.000000 73.232000 5.000000 9.000000 -2.000000 129.651147 8.474034 814.645363 39.146634 13.651724 0.000000 0.049215
518.000000 70.692000 6.000000 9.000000 -2.000000 132.899043 -2.449388 1021.039505 -60.035439 14.141467 0.000000 0.036889
519.000000 67.487000 7.000000 9.000000 -2.000000 134.377748 -13.292326 1229.272981 -141.158067 14.812834 0.000000 0.028857
520.000000 63.929000 8.000000 9.000000 -2.000000 134.402394 -23.337932 1439.370488 -206.997541 15.637012 0.000000 0.067912
521.000000 60.254000 9.000000 9.000000 -2.000000 133.368740 -32.145783 1651.357169 -259.770860 16.590977 0.000000 0.134509
527.000000 58.508000 0.000000 5.000000 -1.000000 90.386744 48.562691 -244.214851 930.022300 8.548722 0.000000 0.224502
528.000000 63.047000 1.000000 10.000000 -2.000000 99.991633 43.847945 -58.859360 678.073339 15.864098 0.000000 0.126935
529.000000 66.223000 1.000000 5.000000 -1.000000 109.010065 38.200865 128.013595 469.140867 7.550596 0.000000 0.054637
530.000000 67.947000 3.000000 10.000000 -2.000000 117.116589 31.462185 316.422723 294.844435 14.716123 0.000000 0.006712
531.000000 67.475000 5.000000 10.000000 -2.000000 129.453216 14.436387 697.925900 26.366975 14.816503 0.000000 0.037839
532.000000 65.741000 3.000000 5.000000 -1.000000 133.303309 4.459517 891.058940 -76.446065 7.603251 0.000000 0.033764
533.000000 63.366000 7.000000 10.000000 -2.000000 135.565787 -5.877980 1085.806153 -162.565728 15.775943 0.000000 0.022570
534.000000 60.591000 4.000000 5.000000 -1.000000 136.401006 -15.929410 1282.187861 -234.394573 8.249115 0.000000 0.042047
535.000000 57.610000 9.000000 10.000000 -2.000000 136.085023 -25.145892 1480.224728 -293.881529 17.351775 0.000000 0.092134
540.000000 53.961000 0.000000 11.000000 -2.000000 91.682655 49.647095 -291.749584 892.169320 18.537663 0.000000 0.246360
541.000000 57.754000 1.000000 11.000000 -2.000000 100.540341 45.419557 -117.173513 655.688075 17.317764 0.000000 0.153468
542.000000 60.511000 2.000000 11.000000 -2.000000 108.935119 40.407780 58.749749 456.089706 16.526410 0.000000 0.083195
543.000000 62.161000 3.000000 11.000000 -2.000000 116.616108 34.472787 236.035857 286.766930 16.086010 0.000000 0.035430
544.000000 62.737000 4.000000 11.000000 -2.000000 123.343715 27.500668 414.700710 142.617866 15.936641 0.000000 0.020835
545.000000 62.362000 5.000000 11.000000 -2.000000 128.908992 19.457594 594.760452 19.640679 16.031286 0.000000 0.029429
546.000000 61.208000 6.000000 11.000000 -2.000000 133.159601 10.463411 776.231485 -85.347474 16.332537 0.000000 0.029885
547.000000 59.467000 7.000000 11.000000 -2.000000 136.032166 0.844742 959.130466 -174.909514 16.810262 0.000000 0.020004
548.000000 57.318000 8.000000 11.000000 -2.000000 137.578148 -8.896421 1143.474315 -251.132136 17.439917 0.000000 0.023681
549.000000 54.920000 9.000000 11.000000 -2.000000 137.961307 -18.219823 1329.280222 -315.731298 18.201307 0.000000 0.060637
554.000000 50.037000 0.000000 6.000000 -1.000000 92.752752 50.575530 -334.161768 859.511805 9.995526 0.000000 0.267699
555.000000 53.252000 1.000000 12.000000 -2.000000 100.967518 46.751153 -169.180634 636.582454 18.781523 0.000000 0.179332
556.000000 55.664000 1.000000 6.000000 -1.000000 108.809874 42.260457 -2.995452 445.648386 8.982799 0.000000 0.111249
557.000000 57.213000 3.000000 12.000000 -2.000000 116.083322 36.984619 164.407007 281.404783 17.477307 0.000000 0.063085
558.000000 57.912000 2.000000 6.000000 -1.000000 122.595838 30.814125 333.040165 139.670481 8.632322 0.000000 0.036912
559.000000 57.836000 5.000000 12.000000 -2.000000 128.171212 23.683135 502.917646 17.105630 17.286052 0.000000 0.031273
560.000000 57.099000 3.000000 6.000000 -1.000000 132.664516 15.621725 674.053271 -88.989584 8.753967 0.000000 0.029793
561.000000 55.838000 7.000000 12.000000 -2.000000 135.983814 6.810424 846.461071 -180.821070 17.902824 0.000000 0.021286
562.000000 54.186000 4.000000 6.000000 -1.000000 138.114320 -2.402401 1020.155284 -260.208669 9.224029 0.000000 0.011284
563.000000 52.268000 9.000000 12.000000 -2.000000 139.132013 -11.560093 1195.150361 -328.666913 19.124764 0.000000 0.036294
564.000000 50.188000 5.000000 6.000000 -1.000000 139.192818 -20.221649 1371.460972 -387.466327 9.958551 0.000000 0.079345
567.000000 46.623000 0.000000 13.000000 -2.000000 93.650276 51.378992 -372.237112 830.992553 21.454373 0.000000 0.288158
568.000000 49.383000 1.000000 13.000000 -2.000000 101.306671 47.892652 -215.851443 620.063148 20.253037 0.000000 0.203948
569.000000 51.506000 2.000000 13.000000 -2.000000 108.658439 43.834758 -58.383215 437.166221 19.415701 0.000000 0.137894
570.000000 52.947000 3.000000 13.000000 -2.000000 115.549348 39.104505 100.178854 277.976153 18.885574 0.000000 0.089399
571.000000 53.705000 4.000000 13.000000 -2.000000 121.824367 33.602422 259.846200 139.023374 18.617095 0.000000 0.058475
572.000000 53.828000 5.000000 13.000000 -2.000000 127.336509 27.251750 420.630420 17.492738 18.573289 0.000000 0.043391
573.000000 53.392000 6.000000 13.000000 -2.000000 131.956001 20.033727 582.543276 -88.923688 18.723833 0.000000 0.036265
574.000000 52.493000 7.000000 13.000000 -2.000000 135.583998 12.032079 745.596691 -182.135791 19.043627 0.000000 0.027354
575.000000 51.232000 8.000000 13.000000 -2.000000 138.170743 3.466494 909.802760 -263.737556 19.511715 0.000000 0.011974
576.000000 49.706000 9.000000 13.000000 -2.000000 139.732396 -5.317361 1075.173750 -335.069667 20.110462 0.000000 0.016549
577.000000 48.000000 10.000000 13.000000 -2.000000 140.355817 -13.918368 1241.722101 -397.267786 20.824923 0.000000 0.051445
579.000000 46.024000 1.000000 14.000000 -2.000000 101.580542 48.881310 -257.967179 605.623563 21.730641 0.000000 0.227132
580.000000 47.907000 1.000000 7.000000 -1.000000 108.495064 45.187119 -108.347334 430.183985 10.437246 0.000000 0.162954
581.000000 49.240000 3.000000 14.000000 -2.000000 115.030795 40.912889 42.260779 275.941621 20.307517 0.000000 0.114326
582.000000 50.019000 2.000000 7.000000 -1.000000 121.061449 35.970702 193.866984 139.985599 9.994736 0.000000 0.080614
583.000000 50.272000 5.000000 14.000000 -2.000000 126.464661 30.283456 346.481235 19.921737 19.887255 0.000000 0.060044
584.000000 50.052000 3.000000 7.000000 -1.000000 131.127493 23.808201 500.113622 -86.237117 9.986690 0.000000 0.047838
585.000000 49.427000 7.000000 14.000000 -2.000000 134.954858 16.569115 654.774364 -180.153960 20.224837 0.000000 0.037170
586.000000 48.473000 4.000000 7.000000 -1.000000 137.881920 8.691157 810.473824 -263.231037 10.311111 0.000000 0.022648
587.000000 47.265000 9.000000 14.000000 -2.000000 139.888623 0.414023 967.222499 -336.658935 21.149051 0.000000 0.002441
588.000000 45.871000 5.000000 7.000000 -1.000000 141.010255 -7.935662 1125.031032 -401.454975 10.895616 0.000000 0.028480
589.000000 45.994000 3.000000 15.000000 -2.000000 114.536050 42.470806 -10.233576 274.921730 21.740645 0.000000 0.137881
590.000000 46.770000 4.000000 15.000000 -2.000000 120.324637 38.000690 134.085882 142.073708 21.378305 0.000000 0.102339
591.000000 47.107000 5.000000 15.000000 -2.000000 125.591855 32.877263 279.319722 23.773046 21.223489 0.000000 0.078193
592.000000 47.043000 6.000000 15.000000 -2.000000 130.240672 27.047483 425.476660 -81.702621 21.251180 0.000000 0.062108
593.000000 46.626000 7.000000 15.000000 -2.000000 134.184285 20.501146 572.565526 -175.809124 21.440230 0.000000 0.049259
594.000000 45.912000 8.000000 15.000000 -2.000000 137.354172 13.298969 720.595262 -259.785324 21.772633 0.000000 0.035028
603.000000 87.262000 0.000000 7.000000 -1.000000 94.413183 52.080860 -406.608451 805.835059 11.462686 0.000000 0.307570
609.000000 83.994000 1.000000 8.000000 -1.000000 108.162912 47.386478 -194.906982 419.478873 11.905952 0.000000 0.208446
610.000000 87.781000 2.000000 8.000000 -1.000000 119.622856 39.755878 79.668698 144.944846 11.390441 0.000000 0.123338
611.000000 88.656000 3.000000 8.000000 -1.000000 129.335403 29.841001 357.577216 -75.875743 11.276469 0.000000 0.077636
612.000000 87.087000 4.000000 8.000000 -1.000000 136.668165 17.343277 638.879625 -254.203905 11.478653 0.000000 0.047974
613.000000 83.758000 5.000000 8.000000 -1.000000 141.181654 2.732122 923.638478 -398.285071 11.934216 0.000000 0.008849
620.000000 74.717000 1.000000 9.000000 -1.000000 107.847264 49.095040 -267.290791 411.774863 13.384343 0.000000 0.248366
621.000000 78.057000 2.000000 9.000000 -1.000000 118.336826 42.629423 -15.723849 152.120782 12.809555 0.000000 0.162764
622.000000 79.298000 3.000000 9.000000 -1.000000 127.560565 34.378325 238.643824 -61.849187 12.607543 0.000000 0.109800
623.000000 78.677000 4.000000 9.000000 -1.000000 135.042106 23.997497 495.859262 -238.860712 12.705868 0.000000 0.074744
624.000000 76.599000 5.000000 9.000000 -1.000000 140.375187 11.502806 755.970557 -385.512802 13.049716 0.000000 0.039283
632.000000 70.189000 2.000000 10.000000 -1.000000 117.205797 44.874847 -96.602556 160.250587 14.245756 0.000000 0.198679
633.000000 71.568000 3.000000 10.000000 -1.000000 125.906667 37.874427 137.899005 -46.255252 13.969468 0.000000 0.141485
634.000000 71.515000 4.000000 10.000000 -1.000000 133.302269 29.145425 374.824135 -220.374770 13.978562 0.000000 0.101876
635.000000 70.272000 5.000000 10.000000 -1.000000 139.056756 18.531896 614.210600 -367.462685 14.224853 0.000000 0.066822
643.000000 63.709000 2.000000 11.000000 -1.000000 116.214986 46.672692 -166.045641 168.660929 15.694811 0.000000 0.231273
644.000000 65.111000 3.000000 11.000000 -1.000000 124.404483 40.631824 51.466752 -30.232470 15.355045 0.000000 0.171698
645.000000 65.396000 4.000000 11.000000 -1.000000 131.593370 33.186060 271.066681 -200.544900 15.286712 0.000000 0.128646
646.000000 64.712000 5.000000 11.000000 -1.000000 137.513451 24.133968 492.784345 -346.676096 15.447173 0.000000 0.092667
656.000000 59.657000 3.000000 12.000000 -1.000000 123.054432 42.852724 -23.500676 -14.400549 16.759155 0.000000 0.200086
657.000000 60.140000 4.000000 12.000000 -1.000000 129.979703 36.412194 181.133802 -180.402910 16.623040 0.000000 0.154576
658.000000 59.832000 5.000000 12.000000 -1.000000 135.908755 28.623618 387.609633 -324.672650 16.707462 0.000000 0.117293
670.000000 55.596000 4.000000 13.000000 -1.000000 128.485171 39.032104 102.435102 -160.539499 17.982129 0.000000 0.179391
#UB matrix in q= (UB) B0 G* 
#[[-0.576185105 -0.78525276  -0.223964473]
# [-0.817099444  0.548106726  0.180396757]
# [-0.01895316   0.287179718 -0.958380607]]
#B0 matrix in q= UB (B0) G*
#[[ 0.19670273 -0.          0.03056101]
# [ 0.          0.19187965 -0.        ]
# [ 0.          0.          0.18806537]]
#UBB0 matrix in q= (UB B0) G* i.e. recip. basis vectors are columns in LT frame: astar = UBB0[:,0], bstar = UBB0[:,1], cstar = UBB0[:,2]. (abcstar as columns on xyzlab1, xlab1 = ui, ui = unit vector along incident beam)
#[[-0.11333718 -0.15067403 -0.05972876]
# [-0.16072569  0.10517053  0.008955  ]
# [-0.00372814  0.05510394 -0.18081743]]
#Euler angles phi theta psi (deg)
#[183.775 163.27   51.194]
#deviatoric strain in direct crystal frame (10-3 unit)
#[[-1.97  0.38  0.35]
# [ 0.38 -1.69  0.58]
# [ 0.35  0.58  3.66]]
#deviatoric strain in sample2 frame (10-3 unit)
#[[ 2.34 -0.93  2.15]
# [-0.93 -2.03 -0.55]
# [ 2.16 -0.56 -0.31]]
#new lattice parameters
#[ 5.1505     5.213104   5.3143646 89.9723795 99.2137991 89.9563537]
#CCDLabel
#sCMOS
#DetectorParameters
#[79.0, 975.0, 941.0, 0.0, 0.0]
#pixelsize
#0.0734
#Frame dimensions
#[2018, 2016]
#
