#Strain and Orientation Refinement from experimental file: /home/micha/LaueProjects/DepthEffects/testZrO2_166.cor
#File created at Wed Jun 28 14:28:15 2023 with indexingSpotsSet.py
#Number of indexed spots: 495
#Element
#ZrO2
#grainIndex
#G_0
#Mean Deviation(pixel): 0.113
##spot_index intensity h k l 2theta Chi Xexp Yexp Energy GrainIndex PixDev
1.000000 46.372000 -9.000000 -5.000000 -10.000000 116.665662 46.801345 -171.190897 151.390098 21.567686 0.000000 0.228843
4.000000 46.096000 -9.000000 -4.000000 -10.000000 112.178579 41.637027 18.176673 353.929493 21.698325 0.000000 0.107105
5.000000 47.444000 -4.000000 -2.000000 -5.000000 108.944955 45.758614 -130.179350 411.473340 10.541341 0.000000 0.169885
6.000000 48.551000 -7.000000 -4.000000 -10.000000 105.086187 49.922038 -304.138796 490.371061 20.603113 0.000000 0.254247
9.000000 46.706000 -8.000000 -3.000000 -10.000000 103.918356 40.804924 45.806270 588.630906 21.417935 0.000000 0.080386
10.000000 47.779000 -7.000000 -3.000000 -10.000000 100.092868 44.783450 -93.189140 671.084603 20.938372 0.000000 0.138616
11.000000 48.476000 -6.000000 -3.000000 -10.000000 95.581151 48.810606 -254.900354 781.294451 20.638453 0.000000 0.219200
15.000000 46.414000 -7.000000 -2.000000 -10.000000 94.505342 40.026702 71.026776 830.248779 21.556665 0.000000 0.093271
16.000000 46.988000 -3.000000 -1.000000 -5.000000 89.982072 43.870006 -59.656448 941.467157 10.647168 0.000000 0.144577
17.000000 47.009000 -5.000000 -2.000000 -10.000000 84.713211 47.767173 -210.621426 1089.174143 21.286704 0.000000 0.223521
21.000000 46.110000 -11.000000 -5.000000 -9.000000 126.182513 35.975824 193.720093 -31.764252 21.687337 0.000000 0.111259
22.000000 48.030000 -10.000000 -5.000000 -9.000000 124.214788 40.658941 50.581973 -23.742424 20.821014 0.000000 0.162913
26.000000 45.854000 -11.000000 -4.000000 -9.000000 121.276145 30.934645 329.966929 178.796165 21.810350 0.000000 0.022989
27.000000 47.821000 -10.000000 -4.000000 -9.000000 119.371100 35.245891 214.466128 199.285458 20.913799 0.000000 0.054687
28.000000 49.757000 -9.000000 -4.000000 -9.000000 116.946690 39.731566 80.441163 229.550461 20.100437 0.000000 0.100110
29.000000 51.587000 -8.000000 -4.000000 -9.000000 113.912870 44.344720 -76.952876 273.672913 19.388244 0.000000 0.162461
30.000000 53.201000 -7.000000 -4.000000 -9.000000 110.176313 49.029240 -264.411815 337.812736 18.800787 0.000000 0.248627
33.000000 47.168000 -10.000000 -3.000000 -9.000000 113.953048 30.437217 342.601773 386.431353 21.205131 0.000000 0.025264
34.000000 49.098000 -3.000000 -1.000000 -3.000000 111.539326 34.571473 233.304941 425.081389 6.790794 0.000000 0.021730
35.000000 50.922000 -8.000000 -3.000000 -9.000000 108.542083 38.874000 107.346106 477.301499 19.643179 0.000000 0.058726
36.000000 52.530000 -7.000000 -3.000000 -9.000000 104.862878 43.304252 -39.399230 548.496754 19.043005 0.000000 0.116044
37.000000 53.766000 -2.000000 -1.000000 -3.000000 100.401207 47.813258 -212.539294 646.813941 6.202154 0.000000 0.196625
38.000000 54.427000 -5.000000 -3.000000 -9.000000 95.062311 52.346477 -419.899156 784.926249 18.381738 0.000000 0.310538
40.000000 46.048000 -10.000000 -2.000000 -9.000000 108.057666 26.194087 445.535513 549.931597 21.723467 0.000000 0.081493
41.000000 47.896000 -9.000000 -2.000000 -9.000000 105.576892 29.976225 354.196544 594.627869 20.886167 0.000000 0.067127
42.000000 49.629000 -8.000000 -2.000000 -9.000000 102.535292 33.946635 250.487975 652.527931 20.157419 0.000000 0.057459
43.000000 51.133000 -7.000000 -2.000000 -9.000000 98.833490 38.078992 131.714571 728.510623 19.565555 0.000000 0.069539
44.000000 52.247000 -6.000000 -2.000000 -9.000000 94.366996 42.338150 -5.663254 829.805965 19.149702 0.000000 0.113879
45.000000 52.759000 -5.000000 -2.000000 -9.000000 89.033574 46.681276 -166.388180 967.464185 18.965476 0.000000 0.189643
46.000000 52.406000 -4.000000 -2.000000 -9.000000 82.744962 51.060048 -356.964605 1159.006167 19.094676 0.000000 0.303133
49.000000 46.146000 -9.000000 -1.000000 -9.000000 99.173855 25.907865 452.196997 747.761450 21.681030 0.000000 0.108955
50.000000 47.697000 -8.000000 -1.000000 -9.000000 96.016062 29.547861 364.874588 810.614431 20.976609 0.000000 0.098346
51.000000 48.995000 -7.000000 -1.000000 -9.000000 92.217595 33.366236 266.224335 891.096432 20.422349 0.000000 0.092943
52.000000 49.873000 -6.000000 -1.000000 -9.000000 87.674442 37.340212 153.889104 995.976969 20.064210 0.000000 0.104919
53.000000 50.114000 -5.000000 -1.000000 -9.000000 82.282677 41.439212 24.809046 1135.558061 19.969031 0.000000 0.147124
54.000000 49.453000 -4.000000 -1.000000 -9.000000 75.949973 45.625679 -125.061363 1326.145291 20.237924 0.000000 0.226304
59.000000 46.692000 -12.000000 -5.000000 -8.000000 132.099727 27.967528 403.506384 -160.089547 21.415470 0.000000 0.076385
60.000000 48.974000 -11.000000 -5.000000 -8.000000 130.991762 32.970074 276.845298 -173.883138 20.417649 0.000000 0.114402
64.000000 46.462000 -3.000000 -1.000000 -2.000000 126.799140 23.061607 516.773770 65.921618 5.380809 0.000000 0.023166
65.000000 48.806000 -11.000000 -4.000000 -8.000000 125.723426 27.519995 414.239186 68.176317 20.489955 0.000000 0.028714
66.000000 51.235000 -5.000000 -2.000000 -4.000000 124.204524 32.280704 295.102239 75.685423 9.759377 0.000000 0.055552
67.000000 53.702000 -9.000000 -4.000000 -8.000000 122.138674 37.303643 154.975336 90.935636 18.622447 0.000000 0.098598
68.000000 56.130000 -4.000000 -2.000000 -4.000000 119.409754 42.528418 -12.224505 117.730412 8.908818 0.000000 0.160549
71.000000 45.853000 -12.000000 -3.000000 -8.000000 121.043592 18.890808 606.695008 256.302490 21.811279 0.000000 0.064174
72.000000 48.197000 -11.000000 -3.000000 -8.000000 119.905631 22.851613 521.426252 269.238497 20.750815 0.000000 0.049248
73.000000 50.636000 -10.000000 -3.000000 -8.000000 118.360902 27.110775 423.976952 288.282738 19.751666 0.000000 0.028597
74.000000 53.124000 -9.000000 -3.000000 -8.000000 116.310116 31.651062 311.536389 315.839107 18.827120 0.000000 0.003931
75.000000 55.583000 -8.000000 -3.000000 -8.000000 113.637946 36.438966 180.357002 355.448283 17.994605 0.000000 0.040749
76.000000 57.893000 -7.000000 -3.000000 -8.000000 110.215044 41.423666 25.328578 412.458977 17.277438 0.000000 0.097015
77.000000 59.871000 -6.000000 -3.000000 -8.000000 105.903135 46.538452 -160.703011 495.195963 16.707535 0.000000 0.177381
78.000000 61.261000 -5.000000 -3.000000 -8.000000 100.564507 51.705036 -388.071220 617.085639 16.329787 0.000000 0.294361
80.000000 47.123000 -11.000000 -2.000000 -8.000000 113.647005 18.858083 607.381593 442.994824 21.226087 0.000000 0.098362
81.000000 49.490000 -5.000000 -1.000000 -4.000000 111.983485 22.658464 525.692851 470.169932 10.105704 0.000000 0.086637
82.000000 51.901000 -9.000000 -2.000000 -8.000000 109.842665 26.735187 432.851926 506.113183 19.272898 0.000000 0.071162
83.000000 54.279000 -4.000000 -1.000000 -4.000000 107.113434 31.073843 326.407754 554.092195 9.214684 0.000000 0.053832
84.000000 56.498000 -7.000000 -2.000000 -8.000000 103.667550 35.646246 203.134224 618.926798 17.706372 0.000000 0.048930
85.000000 58.370000 -3.000000 -1.000000 -4.000000 99.362972 40.409392 58.697528 707.932851 8.569771 0.000000 0.082657
86.000000 59.625000 -5.000000 -2.000000 -8.000000 94.051904 45.306301 -112.863891 832.596940 16.780079 0.000000 0.154440
87.000000 59.901000 -2.000000 -1.000000 -4.000000 87.595712 50.269137 -319.982746 1011.700946 8.352163 0.000000 0.267444
90.000000 45.581000 -11.000000 -1.000000 -8.000000 107.054793 15.434335 677.845127 598.464839 21.946582 0.000000 0.133029
91.000000 47.790000 -10.000000 -1.000000 -8.000000 105.197564 18.827802 608.016660 632.097965 20.932997 0.000000 0.126197
92.000000 50.021000 -9.000000 -1.000000 -8.000000 102.879247 22.480215 529.619665 674.667810 19.999993 0.000000 0.116713
93.000000 52.193000 -8.000000 -1.000000 -8.000000 99.994228 26.389278 440.973911 729.268586 19.168669 0.000000 0.104773
94.000000 54.175000 -7.000000 -1.000000 -8.000000 96.418816 30.542865 339.929131 800.409265 18.468197 0.000000 0.092848
95.000000 55.774000 -6.000000 -1.000000 -8.000000 92.013334 34.917127 223.688307 894.857700 17.940089 0.000000 0.090503
96.000000 56.709000 -5.000000 -1.000000 -8.000000 86.628811 39.475482 88.544731 1023.136060 17.645488 0.000000 0.116876
97.000000 56.609000 -4.000000 -1.000000 -8.000000 80.120922 44.169069 -70.520547 1202.315883 17.678342 0.000000 0.185847
98.000000 55.020000 -3.000000 -1.000000 -8.000000 72.373884 48.938997 -260.475808 1461.597296 18.190793 0.000000 0.306718
101.000000 45.563000 -5.000000 0.000000 -4.000000 98.127885 15.525000 676.011387 781.465358 10.979526 0.000000 0.148619
102.000000 47.515000 -9.000000 0.000000 -8.000000 95.567035 18.799701 608.605798 830.181520 21.058081 0.000000 0.141486
103.000000 49.361000 -2.000000 0.000000 -2.000000 92.451013 22.315210 533.245729 891.200364 5.067821 0.000000 0.132047
104.000000 50.967000 -7.000000 0.000000 -8.000000 88.662474 26.069684 448.434838 968.976119 19.633739 0.000000 0.121350
105.000000 52.132000 -3.000000 0.000000 -4.000000 84.068186 30.052867 352.276364 1070.197004 9.598269 0.000000 0.113978
106.000000 52.573000 -5.000000 0.000000 -8.000000 78.524956 34.244461 242.329585 1205.305261 19.037086 0.000000 0.122566
107.000000 51.919000 -2.000000 0.000000 -4.000000 71.892698 38.613192 115.399768 1391.408830 9.639286 0.000000 0.166234
108.000000 49.729000 -3.000000 0.000000 -8.000000 64.057677 43.116996 -32.777388 1658.304488 20.129662 0.000000 0.260076
110.000000 45.882000 -8.000000 1.000000 -8.000000 84.656285 18.773554 609.153816 1047.330098 21.812153 0.000000 0.137374
111.000000 46.998000 -7.000000 1.000000 -8.000000 80.601189 22.162027 536.604321 1133.368442 21.295453 0.000000 0.125657
112.000000 47.603000 -6.000000 1.000000 -8.000000 75.761695 25.773533 455.312258 1244.280506 21.026225 0.000000 0.116701
113.000000 47.420000 -5.000000 1.000000 -8.000000 70.005481 29.599345 363.596024 1391.399335 21.109453 0.000000 0.123166
114.000000 46.092000 -4.000000 1.000000 -8.000000 63.204481 33.622101 259.313202 1593.773730 21.719282 0.000000 0.165396
118.000000 46.671000 -13.000000 -5.000000 -7.000000 136.855972 18.386659 617.242874 -269.162473 21.423912 0.000000 0.048610
119.000000 49.207000 -12.000000 -5.000000 -7.000000 136.638030 23.467627 507.736857 -301.430979 20.319896 0.000000 0.076259
124.000000 46.449000 -13.000000 -4.000000 -7.000000 131.165146 13.997950 706.690595 -28.869388 21.528203 0.000000 0.031160
125.000000 49.052000 -12.000000 -4.000000 -7.000000 130.912072 18.370045 617.589415 -41.794658 20.385595 0.000000 0.026571
126.000000 51.841000 -11.000000 -4.000000 -7.000000 130.333456 23.190034 513.921276 -53.170038 19.289051 0.000000 0.034561
127.000000 54.800000 -10.000000 -4.000000 -7.000000 129.323559 28.451628 391.795891 -61.793716 18.247670 0.000000 0.059706
128.000000 57.893000 -9.000000 -4.000000 -7.000000 127.753898 34.117943 245.802337 -65.750294 17.273115 0.000000 0.101424
129.000000 61.049000 -8.000000 -4.000000 -7.000000 125.474270 40.115273 68.185608 -61.921929 16.380588 0.000000 0.163921
132.000000 45.862000 -13.000000 -3.000000 -7.000000 125.093465 10.394788 777.564233 172.132341 21.805750 0.000000 0.071733
133.000000 48.471000 -12.000000 -3.000000 -7.000000 124.707908 14.177868 703.097994 172.097982 20.631813 0.000000 0.063421
134.000000 51.280000 -11.000000 -3.000000 -7.000000 124.033613 18.354981 617.903553 175.147591 19.501955 0.000000 0.051270
135.000000 54.277000 -10.000000 -3.000000 -7.000000 122.977111 22.939422 519.482558 182.688224 18.425300 0.000000 0.033955
136.000000 57.431000 -9.000000 -3.000000 -7.000000 121.421149 27.926433 404.495625 196.821950 17.413671 0.000000 0.012211
137.000000 60.677000 -8.000000 -3.000000 -7.000000 119.222488 33.286271 268.375922 220.761881 16.482682 0.000000 0.032023
138.000000 63.894000 -7.000000 -3.000000 -7.000000 116.212228 38.959014 104.708129 259.556382 15.653375 0.000000 0.084885
139.000000 66.882000 -6.000000 -3.000000 -7.000000 112.200415 44.853708 -95.812095 321.405539 14.954813 0.000000 0.164362
142.000000 47.441000 -12.000000 -2.000000 -7.000000 118.132685 10.704345 771.547554 355.331729 21.082280 0.000000 0.106191
143.000000 50.185000 -11.000000 -2.000000 -7.000000 117.266355 14.342500 699.805640 368.437765 19.929789 0.000000 0.100027
144.000000 53.117000 -10.000000 -2.000000 -7.000000 116.044593 18.341261 618.189630 386.868497 18.829889 0.000000 0.090456
145.000000 56.208000 -9.000000 -2.000000 -7.000000 114.360877 22.712050 524.510366 412.690383 17.794904 0.000000 0.076335
146.000000 59.392000 -8.000000 -2.000000 -7.000000 112.081981 27.451257 415.879904 448.953677 16.841330 0.000000 0.056721
147.000000 62.550000 -7.000000 -2.000000 -7.000000 109.045509 32.534687 288.408535 500.282043 15.991776 0.000000 0.035972
148.000000 65.476000 -6.000000 -2.000000 -7.000000 105.060716 37.913210 136.729160 573.907355 15.278071 0.000000 0.051545
149.000000 67.841000 -5.000000 -2.000000 -7.000000 99.915628 43.511554 -46.777717 681.572622 14.746509 0.000000 0.118738
150.000000 69.157000 -4.000000 -2.000000 -7.000000 93.394610 49.231917 -273.304066 843.232508 14.467110 0.000000 0.231098
153.000000 45.958000 -12.000000 -1.000000 -7.000000 111.286320 7.799270 827.579993 517.751175 21.765076 0.000000 0.138153
154.000000 48.549000 -11.000000 -1.000000 -7.000000 110.155116 10.989953 765.985449 538.577638 20.604194 0.000000 0.135842
155.000000 51.306000 -10.000000 -1.000000 -7.000000 108.676363 14.493711 696.777403 565.230475 19.497402 0.000000 0.131347
156.000000 54.196000 -9.000000 -1.000000 -7.000000 106.751885 18.328713 618.451247 599.719750 18.458096 0.000000 0.123996
157.000000 57.151000 -8.000000 -1.000000 -7.000000 104.257895 22.504833 529.077948 644.953436 17.504500 0.000000 0.113152
158.000000 60.043000 -7.000000 -1.000000 -7.000000 101.041267 27.019337 426.143048 705.254094 16.662042 0.000000 0.098958
159.000000 62.660000 -6.000000 -1.000000 -7.000000 96.918167 31.852378 306.306348 787.255516 15.967317 0.000000 0.085661
160.000000 64.658000 -5.000000 -1.000000 -7.000000 91.678166 36.963362 165.032620 901.535202 15.474964 0.000000 0.091391
161.000000 65.531000 -4.000000 -1.000000 -7.000000 85.098757 42.289598 -3.995315 1065.763886 15.270358 0.000000 0.144112
162.000000 64.589000 -3.000000 -1.000000 -7.000000 76.976867 47.748545 -209.847116 1311.233777 15.494754 0.000000 0.257270
165.000000 45.885000 -10.000000 1.000000 -7.000000 93.206568 8.505857 814.034261 880.031429 21.807518 0.000000 0.162207
166.000000 47.997000 -9.000000 1.000000 -7.000000 90.592504 11.499595 756.033370 929.641471 20.848807 0.000000 0.156711
167.000000 50.025000 -8.000000 1.000000 -7.000000 87.412452 14.761936 691.395598 991.300105 20.004583 0.000000 0.148228
168.000000 51.817000 -7.000000 1.000000 -7.000000 83.531976 18.306576 618.912656 1069.524515 19.314205 0.000000 0.136459
169.000000 53.133000 -6.000000 1.000000 -7.000000 78.790425 22.141036 537.064001 1171.280030 18.837408 0.000000 0.122745
170.000000 53.615000 -5.000000 1.000000 -7.000000 73.004051 26.263761 443.909003 1307.843507 18.669453 0.000000 0.114854
171.000000 52.765000 -4.000000 1.000000 -7.000000 65.978419 30.661103 336.931107 1498.642010 18.972145 0.000000 0.135681
172.000000 49.948000 -3.000000 1.000000 -7.000000 57.536715 35.304755 212.807065 1780.008170 20.044228 0.000000 0.214150
173.000000 46.509000 -7.000000 2.000000 -7.000000 74.527537 14.881431 688.993720 1249.265252 21.522222 0.000000 0.115091
174.000000 46.972000 -6.000000 2.000000 -7.000000 69.410704 18.296764 619.117135 1366.852713 21.311959 0.000000 0.098419
175.000000 46.491000 -5.000000 2.000000 -7.000000 63.285514 21.980498 540.574959 1525.119504 21.534333 0.000000 0.099112
179.000000 46.108000 -14.000000 -5.000000 -6.000000 140.177234 7.408982 835.042197 -360.632681 21.684492 0.000000 0.019658
180.000000 48.783000 -13.000000 -5.000000 -6.000000 140.790813 12.143884 743.400123 -408.432281 20.495382 0.000000 0.039806
185.000000 45.879000 -7.000000 -2.000000 -3.000000 134.173151 3.996951 899.795718 -107.219110 10.897407 0.000000 0.028330
186.000000 48.621000 -13.000000 -4.000000 -6.000000 134.652913 7.954210 824.613761 -132.662379 20.565563 0.000000 0.023508
187.000000 51.620000 -6.000000 -2.000000 -3.000000 134.955441 12.468082 737.020264 -159.577038 9.685149 0.000000 0.023374
188.000000 54.893000 -11.000000 -4.000000 -6.000000 134.991727 17.595845 633.665238 -187.797004 18.215456 0.000000 0.035688
189.000000 58.442000 -5.000000 -2.000000 -3.000000 134.641681 23.371834 509.873914 -216.923733 8.554603 0.000000 0.062157
190.000000 62.253000 -9.000000 -4.000000 -6.000000 133.748786 29.787188 358.920023 -246.131854 16.062076 0.000000 0.104579
193.000000 48.055000 -13.000000 -3.000000 -6.000000 128.144067 4.637968 887.685546 92.963066 20.809736 0.000000 0.063596
194.000000 51.077000 -4.000000 -1.000000 -2.000000 128.253713 8.446773 815.168789 83.099037 6.526050 0.000000 0.057834
195.000000 54.395000 -11.000000 -3.000000 -6.000000 128.137510 12.758622 731.289201 74.545537 18.384036 0.000000 0.048951
196.000000 58.020000 -10.000000 -3.000000 -6.000000 127.696827 17.620810 633.149052 68.293756 17.235342 0.000000 0.036295
197.000000 66.143000 -8.000000 -3.000000 -6.000000 125.271210 29.074867 376.560510 69.993315 15.119067 0.000000 0.035707
198.000000 70.506000 -7.000000 -3.000000 -6.000000 122.895009 35.603513 204.349168 84.791768 14.183971 0.000000 0.082404
201.000000 47.064000 -13.000000 -2.000000 -6.000000 121.352741 1.964447 938.083636 284.859461 21.249865 0.000000 0.102439
202.000000 50.027000 -6.000000 -1.000000 -3.000000 121.186452 5.223985 876.595248 286.803510 9.995688 0.000000 0.100986
203.000000 53.287000 -11.000000 -2.000000 -6.000000 120.806785 8.893889 806.574425 291.416736 18.768435 0.000000 0.097389
204.000000 56.861000 -5.000000 -1.000000 -3.000000 120.129456 13.020474 726.112755 299.870879 8.794483 0.000000 0.090710
205.000000 60.749000 -9.000000 -2.000000 -6.000000 119.040268 17.643157 632.686842 313.914666 16.463438 0.000000 0.079573
206.000000 64.920000 -4.000000 -1.000000 -3.000000 117.386771 22.785461 522.888889 336.221226 7.702987 0.000000 0.061969
207.000000 69.284000 -7.000000 -2.000000 -6.000000 114.970056 28.443144 392.002024 370.995203 14.436097 0.000000 0.035566
208.000000 77.643000 -5.000000 -2.000000 -6.000000 106.794034 41.076051 36.880600 510.098293 12.883371 0.000000 0.084896
210.000000 45.648000 -13.000000 -1.000000 -6.000000 114.360789 -0.227803 979.279269 453.655267 21.911769 0.000000 0.132994
211.000000 48.464000 -12.000000 -1.000000 -6.000000 113.859000 2.598811 926.148136 464.483062 20.638876 0.000000 0.134447
212.000000 51.556000 -11.000000 -1.000000 -6.000000 113.135699 5.761682 866.401193 478.793737 19.401225 0.000000 0.134613
213.000000 54.939000 -10.000000 -1.000000 -6.000000 112.114577 9.301521 798.720714 497.815963 18.207101 0.000000 0.132933
214.000000 58.608000 -9.000000 -1.000000 -6.000000 110.692912 13.257677 721.414133 523.322725 17.067601 0.000000 0.128636
215.000000 62.528000 -8.000000 -1.000000 -6.000000 108.733348 17.663280 632.270565 557.937079 15.997946 0.000000 0.120696
216.000000 66.604000 -7.000000 -1.000000 -6.000000 106.054623 22.538084 528.345942 605.654821 15.019594 0.000000 0.107973
217.000000 70.632000 -6.000000 -1.000000 -6.000000 102.422976 27.879203 405.631613 672.777747 14.163792 0.000000 0.090432
218.000000 74.232000 -5.000000 -1.000000 -6.000000 97.548323 33.651174 258.525325 769.669109 13.477882 0.000000 0.076569
219.000000 76.748000 -4.000000 -1.000000 -6.000000 91.093376 39.778421 78.951937 914.271608 13.037198 0.000000 0.103058
220.000000 77.159000 -3.000000 -1.000000 -6.000000 82.709559 46.144373 -145.170281 1139.737456 12.969336 0.000000 0.203178
223.000000 46.410000 -4.000000 0.000000 -2.000000 106.370823 0.427637 966.966741 624.816036 7.185077 0.000000 0.156271
224.000000 49.228000 -11.000000 0.000000 -6.000000 105.251576 3.186119 915.087377 647.082375 20.321879 0.000000 0.157918
225.000000 52.282000 -10.000000 0.000000 -6.000000 103.815894 6.256715 856.998960 674.734174 19.135261 0.000000 0.158187
226.000000 55.556000 -3.000000 0.000000 -2.000000 101.966970 9.674643 791.515866 709.583793 6.002680 0.000000 0.156502
227.000000 58.999000 -8.000000 0.000000 -6.000000 99.576724 13.473548 717.130093 754.268881 16.957902 0.000000 0.152108
228.000000 62.494000 -7.000000 0.000000 -6.000000 96.477046 17.681493 631.893697 812.749941 16.010338 0.000000 0.144128
229.000000 68.556000 -5.000000 0.000000 -6.000000 87.227527 27.372783 417.750520 999.692869 14.596948 0.000000 0.118111
230.000000 70.036000 -4.000000 0.000000 -6.000000 80.487054 32.825807 280.689339 1155.631763 14.289768 0.000000 0.116750
231.000000 64.771000 -2.000000 0.000000 -6.000000 61.167061 44.639637 -87.839971 1773.706087 15.455271 0.000000 0.305204
233.000000 46.368000 -11.000000 1.000000 -6.000000 97.274546 1.039034 955.479725 803.586900 21.578700 0.000000 0.167026
234.000000 48.977000 -10.000000 1.000000 -6.000000 95.387103 3.731307 904.808596 839.289061 20.430040 0.000000 0.166504
235.000000 51.707000 -9.000000 1.000000 -6.000000 93.060098 6.713901 848.299740 883.064399 19.352051 0.000000 0.163847
236.000000 54.482000 -8.000000 1.000000 -6.000000 90.171042 10.017430 784.882660 937.737237 18.367335 0.000000 0.158237
237.000000 57.156000 -7.000000 1.000000 -6.000000 86.561725 13.670835 713.208084 1007.550627 17.509279 0.000000 0.148705
238.000000 59.469000 -6.000000 1.000000 -6.000000 82.030962 17.698057 631.550894 1099.155446 16.829368 0.000000 0.134610
239.000000 60.990000 -5.000000 1.000000 -6.000000 76.330748 22.113377 537.669465 1223.544149 16.411358 0.000000 0.118193
240.000000 61.034000 -4.000000 1.000000 -6.000000 69.172906 26.915579 428.596721 1400.167960 16.401274 0.000000 0.115308
241.000000 58.620000 -3.000000 1.000000 -6.000000 60.259363 32.081699 300.320828 1666.747240 17.078470 0.000000 0.168377
243.000000 47.239000 -9.000000 2.000000 -6.000000 84.153088 4.238661 895.231697 1051.518667 21.186177 0.000000 0.151426
244.000000 49.223000 -4.000000 1.000000 -3.000000 80.748666 7.137370 840.227527 1117.680461 10.166861 0.000000 0.140495
245.000000 50.930000 -7.000000 2.000000 -6.000000 76.607495 10.333416 778.755659 1201.485606 19.653742 0.000000 0.124282
246.000000 52.074000 -3.000000 1.000000 -3.000000 71.545019 13.851835 709.604074 1310.941532 9.611801 0.000000 0.102850
247.000000 52.210000 -5.000000 2.000000 -6.000000 65.340234 17.713186 631.237738 1459.716232 19.175070 0.000000 0.085669
248.000000 50.689000 -2.000000 1.000000 -3.000000 57.745501 21.929744 541.683314 1673.188621 9.876168 0.000000 0.113588
249.000000 46.651000 -3.000000 2.000000 -6.000000 48.517992 26.500800 438.360699 2004.350624 21.464431 0.000000 0.222488
256.000000 47.614000 -14.000000 -4.000000 -5.000000 136.780626 -3.212658 1035.412709 -206.163511 20.999680 0.000000 0.016335
257.000000 50.684000 -13.000000 -4.000000 -5.000000 137.791751 0.557558 964.526014 -245.700018 19.727605 0.000000 0.009211
258.000000 54.090000 -12.000000 -4.000000 -5.000000 138.723285 5.004748 880.746572 -289.817201 18.485036 0.000000 0.009923
259.000000 57.869000 -11.000000 -4.000000 -5.000000 139.492979 10.258718 780.205155 -339.333961 17.277685 0.000000 0.027331
260.000000 62.052000 -10.000000 -4.000000 -5.000000 139.976276 16.444923 657.312183 -395.262911 16.112841 0.000000 0.055938
264.000000 47.054000 -14.000000 -3.000000 -5.000000 130.120356 -5.321896 1075.259675 30.095715 21.251844 0.000000 0.050656
265.000000 50.143000 -13.000000 -3.000000 -5.000000 130.840422 -2.174090 1015.859626 9.971628 19.942170 0.000000 0.048929
266.000000 53.592000 -12.000000 -3.000000 -5.000000 131.493627 1.486776 947.064831 -11.331951 18.658538 0.000000 0.045403
267.000000 57.448000 -11.000000 -3.000000 -5.000000 132.019374 5.758842 866.455080 -33.678078 17.406224 0.000000 0.039545
268.000000 61.755000 -10.000000 -3.000000 -5.000000 132.325711 10.747861 770.700771 -56.738639 16.192035 0.000000 0.031453
269.000000 66.552000 -9.000000 -3.000000 -5.000000 132.275897 16.553605 655.091495 -79.835039 15.024902 0.000000 0.026385
270.000000 71.851000 -8.000000 -3.000000 -5.000000 131.672339 23.243260 512.737450 -101.634192 13.916782 0.000000 0.042385
271.000000 77.612000 -7.000000 -3.000000 -5.000000 130.241246 30.810042 333.144150 -119.542305 12.884063 0.000000 0.086802
272.000000 83.682000 -6.000000 -3.000000 -5.000000 127.625282 39.126252 99.500238 -128.425884 11.949811 0.000000 0.165818
274.000000 46.101000 -14.000000 -2.000000 -5.000000 123.258876 -6.994190 1107.041541 229.819880 21.693115 0.000000 0.086670
275.000000 49.133000 -13.000000 -2.000000 -5.000000 123.629798 -4.310423 1056.123884 223.073991 20.354347 0.000000 0.088415
276.000000 52.528000 -12.000000 -2.000000 -5.000000 123.922662 -1.228570 998.082078 216.975731 19.038965 0.000000 0.089082
277.000000 56.336000 -11.000000 -2.000000 -5.000000 124.087555 2.324611 931.308492 212.034999 17.751938 0.000000 0.088112
278.000000 60.611000 -10.000000 -2.000000 -5.000000 124.050316 6.431636 853.672452 209.047579 16.499754 0.000000 0.084659
279.000000 65.402000 -9.000000 -2.000000 -5.000000 123.701497 11.179473 762.288684 209.275618 15.291042 0.000000 0.077412
280.000000 70.739000 -8.000000 -2.000000 -5.000000 122.881434 16.648483 653.150812 214.765224 14.137540 0.000000 0.064278
281.000000 76.603000 -7.000000 -2.000000 -5.000000 121.361757 22.892196 520.528243 228.928962 13.055624 0.000000 0.041831
282.000000 82.868000 -6.000000 -2.000000 -5.000000 118.826084 29.907063 355.926783 257.668312 12.068863 0.000000 0.005073
283.000000 89.202000 -5.000000 -2.000000 -5.000000 114.857227 37.598246 146.194300 311.670634 11.212443 0.000000 0.059801
284.000000 47.650000 -13.000000 -1.000000 -5.000000 116.238092 -6.022516 1088.550745 407.564285 20.990761 0.000000 0.121162
285.000000 50.885000 -12.000000 -1.000000 -5.000000 116.113584 -3.378905 1038.546012 412.493672 19.656128 0.000000 0.124653
286.000000 54.512000 -11.000000 -1.000000 -5.000000 115.836718 -0.364582 981.848724 419.837274 18.348445 0.000000 0.127313
287.000000 58.580000 -10.000000 -1.000000 -5.000000 115.340464 3.083601 917.018938 430.568701 17.074222 0.000000 0.128657
288.000000 63.137000 -9.000000 -1.000000 -5.000000 114.528405 7.035447 842.171715 446.133817 15.842248 0.000000 0.127956
289.000000 68.208000 -8.000000 -1.000000 -5.000000 113.261915 11.563098 754.790827 468.737557 14.664687 0.000000 0.124109
290.000000 73.773000 -7.000000 -1.000000 -5.000000 111.342851 16.732029 651.440317 501.849962 13.558867 0.000000 0.115495
291.000000 79.704000 -6.000000 -1.000000 -5.000000 108.492122 22.585475 527.302022 551.142402 12.550350 0.000000 0.099981
292.000000 85.660000 -5.000000 -1.000000 -5.000000 104.327720 29.121921 375.402820 626.321697 11.678474 0.000000 0.077013
293.000000 90.893000 -4.000000 -1.000000 -5.000000 98.353229 36.269736 185.258178 744.984543 11.007091 0.000000 0.068309
295.000000 45.997000 -12.000000 1.000000 -5.000000 100.177463 -6.554588 1098.667092 746.509856 21.751582 0.000000 0.160982
296.000000 48.885000 -11.000000 1.000000 -5.000000 98.895793 -4.278267 1055.516432 772.067050 20.467008 0.000000 0.164291
297.000000 52.047000 -10.000000 1.000000 -5.000000 97.305835 -1.722159 1007.360302 802.949753 19.224281 0.000000 0.166523
298.000000 55.478000 -9.000000 1.000000 -5.000000 95.312872 1.156405 953.274126 840.890922 18.035912 0.000000 0.167104
299.000000 59.140000 -8.000000 1.000000 -5.000000 92.787963 4.404921 892.090680 888.431807 16.919948 0.000000 0.165187
300.000000 62.924000 -7.000000 1.000000 -5.000000 89.555104 8.074209 822.314899 949.441154 15.903424 0.000000 0.159548
301.000000 66.591000 -6.000000 1.000000 -5.000000 85.375027 12.215096 742.000087 1030.085629 15.028743 0.000000 0.148554
302.000000 69.668000 -5.000000 1.000000 -5.000000 79.927689 16.872380 648.563442 1140.780440 14.366413 0.000000 0.130842
303.000000 71.281000 -4.000000 1.000000 -5.000000 72.801385 22.075276 538.503133 1300.494434 14.042956 0.000000 0.110940
304.000000 69.958000 -3.000000 1.000000 -5.000000 63.509585 27.824354 406.949613 1547.519964 14.310311 0.000000 0.126896
305.000000 63.561000 -2.000000 1.000000 -5.000000 51.579101 34.076938 246.925626 1971.682382 15.752445 0.000000 0.253429
307.000000 47.805000 -10.000000 2.000000 -5.000000 88.297591 -3.493249 1040.701686 973.048517 20.933932 0.000000 0.159427
308.000000 50.443000 -9.000000 2.000000 -5.000000 85.689343 -0.982844 993.464423 1022.140234 19.840140 0.000000 0.155273
309.000000 53.103000 -8.000000 2.000000 -5.000000 82.494917 1.828841 940.633777 1082.866234 18.847437 0.000000 0.147133
310.000000 55.616000 -7.000000 2.000000 -5.000000 78.543502 4.983236 881.153756 1159.951266 17.997126 0.000000 0.133202
311.000000 57.674000 -6.000000 2.000000 -5.000000 73.610557 8.524058 813.684697 1261.090964 17.356555 0.000000 0.111308
312.000000 58.739000 -5.000000 2.000000 -5.000000 67.406965 12.494426 736.501156 1399.728603 17.043498 0.000000 0.082358
313.000000 57.927000 -4.000000 2.000000 -5.000000 59.577445 16.931893 647.342272 1601.666590 17.284207 0.000000 0.080062
314.000000 53.906000 -3.000000 2.000000 -5.000000 49.727103 21.860845 543.186614 1923.542722 18.575680 0.000000 0.178918
315.000000 46.558000 -8.000000 3.000000 -5.000000 72.478092 -0.294992 980.541447 1280.811288 21.501241 0.000000 0.104048
316.000000 47.761000 -7.000000 3.000000 -5.000000 67.868625 2.451068 928.928884 1379.125325 20.960976 0.000000 0.075843
317.000000 48.215000 -6.000000 3.000000 -5.000000 62.261235 5.515269 871.075162 1509.628776 20.765905 0.000000 0.039272
318.000000 47.369000 -5.000000 3.000000 -5.000000 55.404609 8.935404 805.775379 1692.477799 21.138727 0.000000 0.061573
325.000000 46.158000 -15.000000 -4.000000 -4.000000 137.321893 -14.337307 1250.090440 -263.786976 21.661891 0.000000 0.040307
326.000000 49.179000 -7.000000 -2.000000 -2.000000 138.780877 -11.632633 1196.570394 -313.377612 10.165555 0.000000 0.036381
327.000000 52.563000 -13.000000 -4.000000 -4.000000 140.317750 -8.362323 1133.210195 -370.160255 19.021863 0.000000 0.030151
328.000000 56.365000 -6.000000 -2.000000 -2.000000 141.905986 -4.357924 1057.021305 -435.925314 8.869076 0.000000 0.020826
332.000000 45.598000 -15.000000 -3.000000 -4.000000 130.700365 -15.124162 1265.893454 -17.987814 21.930035 0.000000 0.031362
333.000000 48.632000 -14.000000 -3.000000 -4.000000 131.803370 -12.827232 1220.066077 -46.065319 20.561651 0.000000 0.031366
334.000000 52.050000 -13.000000 -3.000000 -4.000000 132.964805 -10.110569 1166.922062 -77.237722 19.211140 0.000000 0.030288
335.000000 55.918000 -12.000000 -3.000000 -4.000000 134.167706 -6.863862 1104.557176 -112.017828 17.881969 0.000000 0.027611
336.000000 60.313000 -11.000000 -3.000000 -4.000000 135.377833 -2.943586 1030.343615 -151.024638 16.578565 0.000000 0.022705
337.000000 65.323000 -10.000000 -3.000000 -4.000000 136.531354 1.833282 940.550255 -195.002703 15.306674 0.000000 0.015649
338.000000 71.044000 -9.000000 -3.000000 -4.000000 137.514703 7.688687 829.695689 -244.835501 14.073881 0.000000 0.015838
339.000000 77.566000 -8.000000 -3.000000 -4.000000 138.133627 14.861947 689.385538 -301.533767 12.890422 0.000000 0.039429
340.000000 84.946000 -7.000000 -3.000000 -4.000000 138.071495 23.541757 506.080939 -366.144304 11.770448 0.000000 0.086496
341.000000 47.659000 -7.000000 -1.000000 -2.000000 124.641594 -13.754428 1238.455700 175.406159 10.491706 0.000000 0.062590
342.000000 51.022000 -13.000000 -2.000000 -4.000000 125.378491 -11.439480 1192.790888 161.235179 19.600138 0.000000 0.065576
343.000000 54.842000 -6.000000 -1.000000 -2.000000 126.124964 -8.725920 1140.194512 146.235062 9.117384 0.000000 0.067929
344.000000 59.204000 -11.000000 -2.000000 -4.000000 126.853254 -5.517055 1078.958715 130.513231 16.891204 0.000000 0.069223
345.000000 64.208000 -5.000000 -1.000000 -2.000000 127.515028 -1.690464 1006.764377 114.321957 7.787284 0.000000 0.068791
346.000000 69.971000 -9.000000 -2.000000 -4.000000 128.027902 2.905125 920.380764 98.179182 14.291728 0.000000 0.065563
347.000000 84.253000 -7.000000 -2.000000 -4.000000 127.965130 15.118547 684.219724 71.050633 11.868953 0.000000 0.043094
348.000000 46.259000 -14.000000 -1.000000 -4.000000 117.351928 -14.494609 1253.240594 365.943847 21.621104 0.000000 0.095908
349.000000 49.473000 -13.000000 -1.000000 -4.000000 117.629895 -12.482736 1213.268484 363.971422 20.216382 0.000000 0.101161
350.000000 53.123000 -12.000000 -1.000000 -4.000000 117.870740 -10.161214 1167.903813 362.765595 18.827397 0.000000 0.106323
351.000000 57.291000 -11.000000 -1.000000 -4.000000 118.044798 -7.462298 1115.976398 362.746811 17.457760 0.000000 0.111175
352.000000 62.075000 -10.000000 -1.000000 -4.000000 118.105444 -4.301276 1055.951083 364.557388 16.112279 0.000000 0.115366
353.000000 67.591000 -9.000000 -1.000000 -4.000000 117.979070 -0.573496 985.773418 369.199765 14.797496 0.000000 0.118326
354.000000 73.964000 -8.000000 -1.000000 -4.000000 117.548923 3.846787 902.629794 378.280280 13.522552 0.000000 0.119110
355.000000 81.312000 -7.000000 -1.000000 -4.000000 116.629418 9.102309 802.561104 394.458240 12.300620 0.000000 0.116140
356.000000 89.694000 -6.000000 -1.000000 -4.000000 114.926777 15.336915 679.813725 422.317574 11.151393 0.000000 0.106748
357.000000 47.425000 -13.000000 0.000000 -4.000000 109.794393 -13.322986 1229.881154 542.915336 21.092697 0.000000 0.128171
358.000000 50.785000 -6.000000 0.000000 -2.000000 109.501340 -11.300051 1190.065820 552.300739 9.848544 0.000000 0.134463
359.000000 54.601000 -11.000000 0.000000 -4.000000 109.079214 -8.981101 1145.104364 564.116283 18.320838 0.000000 0.140723
360.000000 58.951000 -5.000000 0.000000 -2.000000 108.475083 -6.305583 1093.930151 579.208616 8.484526 0.000000 0.146725
361.000000 63.926000 -9.000000 0.000000 -4.000000 107.611045 -3.199241 1035.159898 598.817674 15.648796 0.000000 0.152105
362.000000 76.089000 -7.000000 0.000000 -4.000000 104.578702 4.680200 886.886944 660.137028 13.148021 0.000000 0.158256
364.000000 47.894000 -12.000000 1.000000 -4.000000 101.114844 -12.225005 1208.194780 724.643671 20.889198 0.000000 0.150005
365.000000 51.221000 -11.000000 1.000000 -4.000000 100.083411 -10.198254 1168.622048 746.531886 19.533134 0.000000 0.155425
366.000000 54.953000 -10.000000 1.000000 -4.000000 98.792497 -7.889150 1124.140437 772.934496 18.206894 0.000000 0.160310
367.000000 59.136000 -9.000000 1.000000 -4.000000 97.154081 -5.243592 1073.776153 805.340955 16.919712 0.000000 0.164203
368.000000 63.793000 -8.000000 1.000000 -4.000000 95.042858 -2.196414 1016.279594 845.955329 15.685072 0.000000 0.166368
369.000000 68.899000 -7.000000 1.000000 -4.000000 92.278027 1.329540 950.020268 898.173449 14.523474 0.000000 0.165626
370.000000 74.306000 -6.000000 1.000000 -4.000000 88.596143 5.422716 872.829696 967.495137 13.467672 0.000000 0.160074
371.000000 79.598000 -5.000000 1.000000 -4.000000 83.612630 10.178574 781.759576 1063.412074 12.573451 0.000000 0.146775
372.000000 83.801000 -4.000000 1.000000 -4.000000 76.774357 15.688687 672.696606 1203.739107 11.944175 0.000000 0.122683
373.000000 84.872000 -3.000000 1.000000 -4.000000 67.325043 22.019443 539.723981 1426.052318 11.795268 0.000000 0.100954
374.000000 79.071000 -2.000000 1.000000 -4.000000 54.361118 29.178423 374.011264 1824.806249 12.662532 0.000000 0.184742
376.000000 47.289000 -11.000000 2.000000 -4.000000 91.179685 -11.194669 1188.007944 918.406757 21.160619 0.000000 0.154752
377.000000 50.275000 -5.000000 1.000000 -2.000000 89.217323 -9.170058 1148.744471 955.893758 9.952498 0.000000 0.155672
378.000000 53.496000 -9.000000 2.000000 -4.000000 86.821588 -6.876548 1104.798951 1001.200465 18.707135 0.000000 0.154333
379.000000 56.902000 -4.000000 1.000000 -2.000000 83.857577 -4.265794 1055.280808 1057.150531 8.794352 0.000000 0.149450
380.000000 60.354000 -7.000000 2.000000 -4.000000 80.138352 -1.280514 999.058308 1128.147872 16.583759 0.000000 0.138976
381.000000 63.559000 -3.000000 1.000000 -2.000000 75.403514 2.145882 934.671011 1221.479860 7.874535 0.000000 0.119637
382.000000 65.919000 -5.000000 2.000000 -4.000000 69.292001 6.088222 860.201089 1350.177286 15.186849 0.000000 0.086959
383.000000 66.299000 -2.000000 1.000000 -2.000000 61.315398 10.625609 773.079048 1540.151653 7.550796 0.000000 0.051837
384.000000 62.699000 -3.000000 2.000000 -4.000000 50.856349 15.832434 669.781254 1851.587328 15.970723 0.000000 0.135447
386.000000 47.348000 -9.000000 3.000000 -4.000000 76.798654 -8.208927 1130.267548 1196.082795 21.140275 0.000000 0.123086
387.000000 49.437000 -8.000000 3.000000 -4.000000 73.060813 -5.935519 1086.898577 1270.574325 20.248484 0.000000 0.106265
388.000000 51.196000 -7.000000 3.000000 -4.000000 68.492552 -3.363067 1038.247450 1365.856875 19.554541 0.000000 0.079116
389.000000 52.227000 -6.000000 3.000000 -4.000000 62.847336 -0.441121 983.286574 1493.032908 19.170336 0.000000 0.035612
390.000000 51.850000 -5.000000 3.000000 -4.000000 55.802928 2.887998 920.703325 1673.298513 19.311733 0.000000 0.038403
391.000000 48.955000 -4.000000 3.000000 -4.000000 46.955576 6.687955 848.793864 1953.109177 20.455880 0.000000 0.160104
395.000000 47.263000 -15.000000 -4.000000 -3.000000 138.130819 -23.064507 1433.290588 -364.178675 21.155109 0.000000 0.091027
402.000000 46.707000 -5.000000 -1.000000 -1.000000 131.347679 -22.820304 1427.881335 -86.567774 7.136301 0.000000 0.044504
403.000000 49.972000 -14.000000 -3.000000 -3.000000 132.735598 -21.131057 1390.977812 -125.101098 20.009936 0.000000 0.044676
404.000000 53.685000 -13.000000 -3.000000 -3.000000 134.266132 -19.095458 1347.604764 -169.156793 18.625429 0.000000 0.044221
405.000000 57.937000 -4.000000 -1.000000 -1.000000 135.951707 -16.601967 1295.897491 -220.058341 5.752751 0.000000 0.042661
406.000000 62.837000 -11.000000 -3.000000 -3.000000 137.798664 -13.490090 1233.198513 -279.607814 15.912087 0.000000 0.039204
407.000000 68.521000 -10.000000 -3.000000 -3.000000 139.798017 -9.524661 1155.586150 -350.334586 14.591743 0.000000 0.032538
409.000000 45.772000 -15.000000 -2.000000 -3.000000 124.411324 -22.628978 1423.656865 142.241619 21.848581 0.000000 0.027156
410.000000 48.980000 -14.000000 -2.000000 -3.000000 125.359229 -21.121978 1390.781797 122.263019 20.417205 0.000000 0.030500
411.000000 52.642000 -13.000000 -2.000000 -3.000000 126.398918 -19.345432 1352.871269 100.036809 18.996735 0.000000 0.033756
412.000000 56.853000 -12.000000 -2.000000 -3.000000 127.537293 -17.224465 1308.672410 75.186795 17.589440 0.000000 0.036742
413.000000 61.734000 -11.000000 -2.000000 -3.000000 128.777245 -14.656092 1256.479130 47.260179 16.198264 0.000000 0.039164
414.000000 67.442000 -10.000000 -2.000000 -3.000000 130.112334 -11.496537 1193.906794 15.715798 14.827100 0.000000 0.040538
415.000000 74.174000 -9.000000 -2.000000 -3.000000 131.516087 -7.542947 1117.517652 -20.080076 13.481205 0.000000 0.040065
416.000000 82.178000 -8.000000 -2.000000 -3.000000 132.920481 -2.509314 1022.167327 -60.832200 12.167853 0.000000 0.036468
417.000000 47.527000 -14.000000 -1.000000 -3.000000 117.855328 -21.114805 1390.626941 331.268393 21.043873 0.000000 0.064268
418.000000 51.031000 -13.000000 -1.000000 -3.000000 118.375208 -19.538823 1356.956725 324.129142 19.598954 0.000000 0.070014
419.000000 55.061000 -12.000000 -1.000000 -3.000000 118.926109 -17.694402 1318.373455 316.677616 18.164313 0.000000 0.076044
420.000000 59.737000 -11.000000 -1.000000 -3.000000 119.500713 -15.511583 1273.717154 309.025538 16.742372 0.000000 0.082271
421.000000 65.213000 -10.000000 -1.000000 -3.000000 120.082816 -12.896317 1221.431492 301.391452 15.336379 0.000000 0.088518
422.000000 71.689000 -9.000000 -1.000000 -3.000000 120.639768 -9.720912 1159.378678 294.185588 13.950793 0.000000 0.094454
423.000000 79.425000 -8.000000 -1.000000 -3.000000 121.108265 -5.811273 1084.539946 288.170987 12.591907 0.000000 0.099465
424.000000 88.750000 -7.000000 -1.000000 -3.000000 121.367290 -0.932030 992.509615 284.783449 11.268897 0.000000 0.102392
425.000000 46.231000 -13.000000 1.000000 -3.000000 102.166479 -19.818507 1362.882543 694.347045 21.639930 0.000000 0.124649
426.000000 49.505000 -12.000000 1.000000 -3.000000 101.497704 -18.356638 1332.130988 710.332790 20.209162 0.000000 0.131435
427.000000 53.236000 -11.000000 1.000000 -3.000000 100.674054 -16.682065 1297.536556 729.223677 18.793326 0.000000 0.138427
428.000000 57.511000 -10.000000 1.000000 -3.000000 99.643795 -14.748321 1258.330900 751.881297 17.396755 0.000000 0.145464
429.000000 62.433000 -9.000000 1.000000 -3.000000 98.332258 -12.495815 1213.526213 779.542097 16.025632 0.000000 0.152262
430.000000 68.116000 -8.000000 1.000000 -3.000000 96.629066 -9.847682 1161.830852 814.044591 14.689108 0.000000 0.158306
431.000000 74.665000 -7.000000 1.000000 -3.000000 94.366871 -6.704582 1101.522787 858.243697 13.401315 0.000000 0.162679
432.000000 82.122000 -6.000000 1.000000 -3.000000 91.285312 -2.938831 1030.254048 916.819723 12.185298 0.000000 0.163707
433.000000 90.311000 -5.000000 1.000000 -3.000000 86.969603 1.610558 944.737893 998.001301 11.081348 0.000000 0.158258
435.000000 45.931000 -12.000000 2.000000 -3.000000 92.881621 -18.598681 1337.185460 883.838183 21.785535 0.000000 0.138657
436.000000 48.991000 -11.000000 2.000000 -3.000000 91.380752 -17.099876 1306.108806 913.857866 20.425354 0.000000 0.142568
437.000000 52.400000 -10.000000 2.000000 -3.000000 89.570837 -15.392041 1271.299995 949.361853 19.097352 0.000000 0.145505
438.000000 56.182000 -9.000000 2.000000 -3.000000 87.356300 -13.431948 1232.043753 992.094462 17.812687 0.000000 0.146750
439.000000 60.332000 -8.000000 2.000000 -3.000000 84.602027 -11.165037 1187.429560 1044.663321 16.588350 0.000000 0.145118
440.000000 64.775000 -7.000000 2.000000 -3.000000 81.113210 -8.522227 1136.280141 1111.167882 15.451550 0.000000 0.138573
441.000000 69.277000 -6.000000 2.000000 -3.000000 76.603789 -5.416161 1077.046062 1198.483813 14.448754 0.000000 0.123479
442.000000 73.251000 -5.000000 2.000000 -3.000000 70.648079 -1.737357 1007.646054 1319.182034 13.666388 0.000000 0.093049
443.000000 75.361000 -4.000000 2.000000 -3.000000 62.612439 2.648255 925.217402 1499.197697 13.285544 0.000000 0.036108
444.000000 72.771000 -3.000000 2.000000 -3.000000 51.583282 7.896899 825.711198 1802.743773 13.760502 0.000000 0.098331
446.000000 46.807000 -10.000000 3.000000 -3.000000 79.801446 -15.916820 1281.932122 1142.347356 21.383073 0.000000 0.127237
447.000000 49.372000 -3.000000 1.000000 -1.000000 76.769865 -14.184357 1247.031674 1201.997050 6.757809 0.000000 0.119397
448.000000 51.919000 -8.000000 3.000000 -3.000000 73.083148 -12.207453 1207.849608 1275.922138 19.280410 0.000000 0.105403
449.000000 54.223000 -7.000000 3.000000 -3.000000 68.534810 -9.936319 1163.546526 1370.653151 18.462740 0.000000 0.081702
450.000000 55.851000 -2.000000 1.000000 -1.000000 62.837752 -7.308998 1113.048273 1497.767994 5.975497 0.000000 0.043657
451.000000 55.987000 -5.000000 3.000000 -3.000000 55.593551 -4.248688 1054.957701 1680.163321 17.884907 0.000000 0.042986
452.000000 53.156000 -4.000000 3.000000 -3.000000 46.261657 -0.661321 987.423395 1970.976664 18.839491 0.000000 0.166187
459.000000 47.554000 -15.000000 -3.000000 -2.000000 131.183992 -30.908021 1619.353506 -156.553686 21.027724 0.000000 0.102539
460.000000 51.003000 -14.000000 -3.000000 -2.000000 132.739963 -29.974231 1595.753542 -207.128596 19.605259 0.000000 0.105963
461.000000 54.956000 -13.000000 -3.000000 -2.000000 134.500996 -28.835504 1567.566580 -266.418469 18.194591 0.000000 0.109400
462.000000 59.523000 -12.000000 -3.000000 -2.000000 136.506575 -27.417343 1533.311341 -336.986755 16.798115 0.000000 0.112509
467.000000 46.599000 -15.000000 -2.000000 -2.000000 124.181238 -29.829613 1592.138496 98.433341 21.460743 0.000000 0.040453
468.000000 49.992000 -7.000000 -1.000000 -1.000000 125.269595 -28.912097 1569.442894 71.415456 10.001873 0.000000 0.040966
469.000000 53.896000 -13.000000 -2.000000 -2.000000 126.499987 -27.819980 1542.945348 40.503571 18.554507 0.000000 0.041718
470.000000 58.429000 -6.000000 -1.000000 -1.000000 127.899718 -26.499260 1511.603176 4.776768 8.557339 0.000000 0.042666
471.000000 63.748000 -11.000000 -2.000000 -2.000000 129.502214 -24.871740 1473.954063 -37.007004 15.686419 0.000000 0.043686
472.000000 77.651000 -9.000000 -2.000000 -2.000000 133.482186 -20.162606 1370.201843 -146.365028 12.877141 0.000000 0.044551
473.000000 48.490000 -14.000000 -1.000000 -2.000000 117.651740 -28.074845 1549.080502 301.886602 20.625770 0.000000 0.018639
474.000000 52.227000 -13.000000 -1.000000 -2.000000 118.321704 -27.038055 1524.300083 289.773257 19.149787 0.000000 0.023584
475.000000 56.569000 -12.000000 -1.000000 -2.000000 119.076448 -25.812146 1495.582499 276.191336 17.679705 0.000000 0.029060
476.000000 61.671000 -11.000000 -1.000000 -2.000000 119.930498 -24.341683 1461.908460 260.880647 16.216953 0.000000 0.035067
477.000000 67.742000 -10.000000 -1.000000 -2.000000 120.900251 -22.548053 1421.873598 243.528850 14.763462 0.000000 0.041587
478.000000 75.071000 -9.000000 -1.000000 -2.000000 122.002596 -20.316590 1373.487659 223.768805 13.321910 0.000000 0.048541
479.000000 84.067000 -8.000000 -1.000000 -2.000000 123.250605 -17.474774 1313.833389 201.191586 11.896112 0.000000 0.055718
480.000000 46.519000 -14.000000 0.000000 -2.000000 109.955877 -27.398158 1532.854072 500.824950 21.502941 0.000000 0.060365
481.000000 49.974000 -13.000000 0.000000 -2.000000 110.050303 -26.417655 1509.690553 502.388317 20.016145 0.000000 0.066467
482.000000 53.971000 -12.000000 0.000000 -2.000000 110.139968 -25.278722 1483.273037 504.480041 18.533867 0.000000 0.073343
483.000000 58.643000 -11.000000 0.000000 -2.000000 110.217958 -23.940749 1452.864042 507.305077 17.057267 0.000000 0.081074
484.000000 64.171000 -10.000000 0.000000 -2.000000 110.272437 -22.348495 1417.485021 511.169862 15.587939 0.000000 0.089747
485.000000 70.801000 -9.000000 0.000000 -2.000000 110.282853 -20.425196 1375.809097 516.546846 14.128133 0.000000 0.099443
486.000000 78.881000 -8.000000 0.000000 -2.000000 110.212673 -18.061694 1325.990926 524.191531 12.681136 0.000000 0.110207
487.000000 88.901000 -7.000000 0.000000 -2.000000 109.994863 -15.098986 1265.386050 535.366614 11.251946 0.000000 0.121982
488.000000 47.197000 -13.000000 1.000000 -2.000000 101.773979 -25.913525 1497.934425 691.582750 21.196904 0.000000 0.097248
489.000000 50.714000 -12.000000 1.000000 -2.000000 101.200005 -24.852677 1473.519086 706.137627 19.727227 0.000000 0.104096
490.000000 54.772000 -11.000000 1.000000 -2.000000 100.503644 -23.626906 1445.823431 723.192006 18.265876 0.000000 0.111537
491.000000 59.498000 -10.000000 1.000000 -2.000000 99.644471 -22.195948 1414.138762 743.460870 16.815351 0.000000 0.119549
492.000000 65.056000 -9.000000 1.000000 -2.000000 98.563392 -20.505906 1377.536391 767.964964 15.379260 0.000000 0.128043
493.000000 71.657000 -8.000000 1.000000 -2.000000 97.171222 -18.483341 1334.775097 798.216220 13.963017 0.000000 0.136789
494.000000 79.568000 -7.000000 1.000000 -2.000000 95.328369 -16.026321 1284.157577 836.558564 12.575130 0.000000 0.145274
495.000000 89.106000 -6.000000 1.000000 -2.000000 92.807004 -12.990784 1223.299779 886.842456 11.229780 0.000000 0.152387
496.000000 46.929000 -6.000000 1.000000 -1.000000 92.365666 -24.504589 1465.599679 892.134575 10.661056 0.000000 0.119272
497.000000 50.241000 -11.000000 2.000000 -2.000000 90.926169 -23.374572 1440.187119 922.044878 19.917019 0.000000 0.124005
498.000000 53.987000 -5.000000 1.000000 -1.000000 89.196404 -22.075552 1411.502901 957.290725 9.267824 0.000000 0.128227
499.000000 58.228000 -9.000000 2.000000 -2.000000 87.084507 -20.568244 1378.871758 999.546585 17.186567 0.000000 0.131365
500.000000 63.010000 -4.000000 1.000000 -1.000000 84.457947 -18.800878 1341.418863 1051.318821 7.941517 0.000000 0.132419
501.000000 68.333000 -7.000000 2.000000 -2.000000 81.120045 -16.704223 1297.990223 1116.566087 14.646716 0.000000 0.129572
502.000000 79.683000 -5.000000 2.000000 -2.000000 70.932405 -11.112221 1186.398956 1320.126746 12.563045 0.000000 0.095058
503.000000 82.606000 -3.000000 2.000000 -2.000000 51.228405 -2.527485 1022.509324 1806.326452 12.122454 0.000000 0.093502
505.000000 47.963000 -10.000000 3.000000 -2.000000 79.090531 -21.978113 1409.372924 1164.703291 20.867710 0.000000 0.118456
506.000000 50.804000 -9.000000 3.000000 -2.000000 76.058070 -20.617843 1379.935001 1226.476752 19.701818 0.000000 0.113327
507.000000 53.698000 -8.000000 3.000000 -2.000000 72.356193 -19.048612 1346.619579 1303.157605 18.641640 0.000000 0.103413
508.000000 56.420000 -7.000000 3.000000 -2.000000 67.759486 -17.221266 1308.606545 1401.772733 17.743673 0.000000 0.086842
509.000000 58.504000 -6.000000 3.000000 -2.000000 61.942590 -15.071239 1264.826961 1535.094805 17.113395 0.000000 0.066612
510.000000 58.995000 -5.000000 3.000000 -2.000000 54.430486 -12.512799 1213.860958 1729.411783 16.973041 0.000000 0.084702
511.000000 55.994000 -4.000000 3.000000 -2.000000 44.532281 -9.431163 1153.780846 2050.001542 17.884972 0.000000 0.205331
522.000000 47.112000 -15.000000 -2.000000 -1.000000 123.166384 -37.134607 1790.017371 58.676182 21.227045 0.000000 0.111623
523.000000 50.627000 -14.000000 -2.000000 -1.000000 124.271919 -36.859468 1781.914622 24.343296 19.753102 0.000000 0.116063
524.000000 54.691000 -13.000000 -2.000000 -1.000000 125.539961 -36.530890 1772.314203 -15.828731 18.284797 0.000000 0.121314
525.000000 59.441000 -12.000000 -2.000000 -1.000000 127.008627 -36.131659 1760.758597 -63.501667 16.823361 0.000000 0.127551
526.000000 65.058000 -11.000000 -2.000000 -1.000000 128.728717 -35.636297 1746.582810 -121.048199 15.370415 0.000000 0.134974
527.000000 71.793000 -10.000000 -2.000000 -1.000000 130.769289 -35.005442 1728.781719 -191.985941 13.928128 0.000000 0.143789
530.000000 45.718000 -15.000000 -1.000000 -1.000000 116.048738 -35.557728 1744.350579 294.339678 21.876597 0.000000 0.047554
531.000000 49.081000 -14.000000 -1.000000 -1.000000 116.656653 -35.186040 1733.849421 279.909248 20.377766 0.000000 0.046163
532.000000 52.970000 -13.000000 -1.000000 -1.000000 117.353354 -34.750433 1721.663965 263.349222 18.881306 0.000000 0.044747
533.000000 57.519000 -12.000000 -1.000000 -1.000000 118.159584 -34.232937 1707.353658 244.148833 17.387762 0.000000 0.043352
534.000000 62.909000 -11.000000 -1.000000 -1.000000 119.102974 -33.608177 1690.309631 221.619011 15.897861 0.000000 0.042050
535.000000 69.391000 -10.000000 -1.000000 -1.000000 120.221094 -32.839156 1669.665819 194.806665 14.412593 0.000000 0.040961
536.000000 77.326000 -9.000000 -1.000000 -1.000000 121.566185 -31.869792 1644.147132 162.353886 12.933341 0.000000 0.040259
537.000000 87.249000 -8.000000 -1.000000 -1.000000 123.212716 -30.610923 1611.795650 122.255382 11.462104 0.000000 0.040180
538.000000 47.743000 -13.000000 1.000000 -1.000000 100.696359 -32.175890 1652.146331 700.814604 20.954677 0.000000 0.067609
539.000000 51.408000 -12.000000 1.000000 -1.000000 100.120505 -31.568469 1636.324456 715.517344 19.461015 0.000000 0.072338
540.000000 55.670000 -11.000000 1.000000 -1.000000 99.434806 -30.862958 1618.204142 732.645091 17.971446 0.000000 0.077877
541.000000 60.682000 -10.000000 1.000000 -1.000000 98.605224 -30.033787 1597.245317 752.864553 16.487244 0.000000 0.084312
542.000000 66.655000 -9.000000 1.000000 -1.000000 97.582366 -29.045779 1572.724335 777.117669 15.010269 0.000000 0.091724
543.000000 73.876000 -8.000000 1.000000 -1.000000 96.291951 -27.849260 1543.648717 806.784114 13.543353 0.000000 0.100140
544.000000 82.753000 -7.000000 1.000000 -1.000000 94.617358 -26.371908 1508.619547 843.978138 12.091034 0.000000 0.109466
545.000000 47.447000 -12.000000 2.000000 -1.000000 91.181028 -30.599737 1611.511986 915.221595 21.089208 0.000000 0.098950
546.000000 50.900000 -11.000000 2.000000 -1.000000 89.712480 -29.892949 1593.720413 947.229920 19.659232 0.000000 0.103466
547.000000 54.837000 -10.000000 2.000000 -1.000000 87.955330 -29.075726 1573.460616 984.965851 18.248338 0.000000 0.107918
548.000000 59.342000 -9.000000 2.000000 -1.000000 85.817989 -28.120421 1550.180685 1030.231340 16.863717 0.000000 0.111940
549.000000 64.497000 -8.000000 2.000000 -1.000000 83.166970 -26.989501 1523.150914 1085.732511 15.516693 0.000000 0.114856
550.000000 70.353000 -7.000000 2.000000 -1.000000 79.800949 -25.630823 1491.385928 1155.770972 14.226190 0.000000 0.115429
551.000000 76.839000 -6.000000 2.000000 -1.000000 75.404053 -23.969999 1453.521964 1247.724827 13.026388 0.000000 0.111440
552.000000 83.519000 -5.000000 2.000000 -1.000000 69.457922 -21.897636 1407.615946 1375.671977 11.985992 0.000000 0.099677
553.000000 88.865000 -4.000000 2.000000 -1.000000 61.069731 -19.247274 1350.801342 1571.108546 11.266533 0.000000 0.086179
554.000000 88.157000 -3.000000 2.000000 -1.000000 48.634034 -15.755878 1278.665587 1925.744833 11.359104 0.000000 0.163825
556.000000 45.678000 -11.000000 3.000000 -1.000000 80.258231 -29.096367 1573.968317 1152.468712 21.910723 0.000000 0.113079
557.000000 48.460000 -10.000000 3.000000 -1.000000 77.660415 -28.301395 1554.558568 1208.414323 20.653595 0.000000 0.113724
558.000000 51.416000 -9.000000 3.000000 -1.000000 74.534319 -27.386325 1532.572103 1276.375868 19.467557 0.000000 0.112894
559.000000 54.442000 -8.000000 3.000000 -1.000000 70.710437 -26.322311 1507.459341 1361.268887 18.386633 0.000000 0.110363
560.000000 57.302000 -7.000000 3.000000 -1.000000 65.943818 -25.070716 1478.502446 1471.437097 17.470684 0.000000 0.107557
561.000000 59.469000 -6.000000 3.000000 -1.000000 59.871775 -23.578727 1444.745601 1622.513187 16.835668 0.000000 0.113309
562.000000 59.818000 -5.000000 3.000000 -1.000000 51.945655 -21.772481 1404.887478 1848.258611 16.739476 0.000000 0.156821
563.000000 55.963000 -4.000000 3.000000 -1.000000 41.326703 -19.546051 1357.109604 2239.816156 17.894826 0.000000 0.292279
567.000000 47.268000 -15.000000 -2.000000 0.000000 121.342481 -44.311213 2025.722881 24.942234 21.157241 0.000000 0.215976
573.000000 45.842000 -15.000000 -1.000000 0.000000 114.327161 -42.088610 1947.117916 285.328398 21.817908 0.000000 0.132583
574.000000 49.241000 -14.000000 -1.000000 0.000000 114.833321 -42.233836 1952.082884 268.292939 20.311861 0.000000 0.137556
575.000000 53.180000 -13.000000 -1.000000 0.000000 115.416524 -42.403801 1957.922659 248.373797 18.807190 0.000000 0.143489
576.000000 57.798000 -12.000000 -1.000000 0.000000 116.095752 -42.605407 1964.890785 224.765759 17.304221 0.000000 0.150671
577.000000 63.286000 -11.000000 -1.000000 0.000000 116.896752 -42.848391 1973.349261 196.330746 15.803389 0.000000 0.159513
578.000000 69.913000 -10.000000 -1.000000 0.000000 117.855331 -43.146938 1983.833478 161.404573 14.305296 0.000000 0.170621
579.000000 78.067000 -9.000000 -1.000000 0.000000 119.022765 -43.522540 1997.170158 117.450242 12.810788 0.000000 0.184932
580.000000 88.338000 -8.000000 -1.000000 0.000000 120.475086 -44.009403 2014.706710 60.392605 11.321103 0.000000 0.203953
581.000000 47.147000 -4.000000 0.000000 0.000000 107.187107 -40.238998 1885.795634 504.895317 6.061876 0.000000 0.081641
582.000000 47.800000 -13.000000 1.000000 0.000000 98.893665 -38.460326 1829.906972 725.913319 20.930162 0.000000 0.073711
583.000000 51.490000 -12.000000 1.000000 0.000000 98.203200 -38.326424 1825.812267 743.218441 19.430302 0.000000 0.074990
584.000000 55.789000 -11.000000 1.000000 0.000000 97.387709 -38.170730 1821.070126 763.492623 17.933471 0.000000 0.076706
585.000000 60.855000 -10.000000 1.000000 0.000000 96.409987 -37.987455 1815.513815 787.581994 16.440645 0.000000 0.079000
586.000000 66.910000 -9.000000 1.000000 0.000000 95.216514 -37.768563 1808.913968 816.693434 14.953271 0.000000 0.082055
587.000000 74.260000 -8.000000 1.000000 0.000000 93.727468 -37.502563 1800.946136 852.613929 13.473586 0.000000 0.086116
588.000000 83.346000 -7.000000 1.000000 0.000000 91.818430 -37.172429 1791.135818 898.116494 12.005247 0.000000 0.091499
589.000000 94.805000 -6.000000 1.000000 0.000000 89.284542 -36.751822 1778.760379 957.774723 10.554668 0.000000 0.098613
590.000000 109.555000 -5.000000 1.000000 0.000000 85.764017 -36.197716 1762.662448 1039.784784 9.134218 0.000000 0.107962
591.000000 128.782000 -4.000000 1.000000 0.000000 80.556230 -35.434740 1740.865132 1160.721895 7.771224 0.000000 0.120242
592.000000 153.041000 -3.000000 1.000000 0.000000 72.122702 -34.317886 1709.690623 1361.333339 6.540386 0.000000 0.138239
593.000000 174.276000 -2.000000 1.000000 0.000000 56.437089 -32.528560 1661.429541 1787.951080 5.744930 0.000000 0.199408
594.000000 50.849000 -11.000000 2.000000 0.000000 87.680057 -36.495132 1771.274357 995.239687 19.679003 0.000000 0.102973
595.000000 59.267000 -9.000000 2.000000 0.000000 83.437599 -35.849069 1752.650003 1093.752937 16.885419 0.000000 0.113670
596.000000 70.182000 -7.000000 2.000000 0.000000 76.900504 -34.934297 1726.791495 1246.499784 14.260919 0.000000 0.128033
597.000000 82.827000 -5.000000 2.000000 0.000000 65.643024 -33.540124 1688.468072 1525.589189 12.086143 0.000000 0.155560
599.000000 48.166000 -10.000000 3.000000 0.000000 75.455032 -34.743554 1721.472570 1280.839674 20.780143 0.000000 0.131054
600.000000 53.869000 -8.000000 3.000000 0.000000 68.042597 -33.821037 1696.088650 1463.304953 18.582558 0.000000 0.148345
601.000000 56.439000 -7.000000 3.000000 0.000000 62.947405 -33.233622 1680.209629 1598.121274 17.737707 0.000000 0.165340
602.000000 57.465000 -5.000000 3.000000 0.000000 47.897791 -31.666869 1638.873430 2083.715242 17.424801 0.000000 0.275491
607.000000 45.584000 -15.000000 -1.000000 1.000000 111.906038 -48.393097 2186.965288 289.209862 21.942079 0.000000 0.249943
614.000000 47.321000 -13.000000 1.000000 1.000000 96.370945 -44.618505 2037.056203 772.169926 21.142224 0.000000 0.147595
615.000000 50.897000 -12.000000 1.000000 1.000000 95.451809 -44.942270 2049.127568 795.875636 19.657358 0.000000 0.154185
616.000000 55.038000 -11.000000 1.000000 1.000000 94.363302 -45.317591 2063.292742 824.211517 18.178636 0.000000 0.162183
617.000000 59.883000 -10.000000 1.000000 1.000000 93.054320 -45.757807 2080.148223 858.686635 16.708115 0.000000 0.172083
618.000000 65.615000 -9.000000 1.000000 1.000000 91.451144 -46.281273 2100.540860 901.548887 15.248885 0.000000 0.184636
619.000000 72.476000 -8.000000 1.000000 1.000000 89.443549 -46.913950 2125.714594 956.302682 13.805811 0.000000 0.201029
620.000000 80.781000 -7.000000 1.000000 1.000000 86.859441 -47.693782 2157.574109 1028.735552 12.387022 0.000000 0.223275
621.000000 90.912000 -6.000000 1.000000 1.000000 83.415492 -48.678440 2199.190727 1129.156198 11.007202 0.000000 0.255037
622.000000 103.216000 -5.000000 1.000000 1.000000 78.613287 -49.959926 2255.857127 1277.936786 9.695857 0.000000 0.303730
626.000000 46.742000 -12.000000 2.000000 1.000000 86.678835 -42.821040 1972.393819 1026.152457 21.408035 0.000000 0.149450
627.000000 50.016000 -11.000000 2.000000 1.000000 84.829852 -43.008650 1978.964474 1074.176022 20.007372 0.000000 0.158438
628.000000 53.703000 -10.000000 2.000000 1.000000 82.620464 -43.225633 1986.614097 1132.303088 18.634475 0.000000 0.169657
629.000000 57.845000 -9.000000 2.000000 1.000000 79.936293 -43.479464 1995.632224 1204.241948 17.300804 0.000000 0.184035
630.000000 62.453000 -8.000000 2.000000 1.000000 76.610275 -43.780389 2006.422167 1295.856694 16.025127 0.000000 0.203118
631.000000 67.444000 -7.000000 2.000000 1.000000 72.389615 -44.142831 2019.562978 1417.076629 14.840461 0.000000 0.229698
632.000000 72.478000 -6.000000 2.000000 1.000000 66.875879 -44.587760 2035.916886 1586.365811 13.810758 0.000000 0.269384
636.000000 47.004000 -10.000000 3.000000 1.000000 72.478620 -41.144585 1915.387226 1392.225206 21.293960 0.000000 0.191402
637.000000 49.495000 -9.000000 3.000000 1.000000 68.827908 -41.214147 1917.693926 1495.154584 20.223755 0.000000 0.211120
638.000000 51.832000 -8.000000 3.000000 1.000000 64.359003 -41.295283 1920.390649 1628.619252 19.313230 0.000000 0.238816
639.000000 53.630000 -7.000000 3.000000 1.000000 58.781706 -41.391145 1923.585448 1810.481783 18.667046 0.000000 0.280668
650.000000 46.294000 -13.000000 1.000000 2.000000 93.179797 -50.519150 2281.538850 846.958480 21.611974 0.000000 0.271876
651.000000 49.612000 -12.000000 1.000000 2.000000 91.932644 -51.253788 2316.216517 882.971751 20.167351 0.000000 0.292644
652.000000 53.399000 -11.000000 1.000000 2.000000 90.448672 -52.099887 2357.555249 927.279338 18.737462 0.000000 0.318304
658.000000 48.390000 -11.000000 2.000000 2.000000 81.228686 -49.274344 2225.174780 1195.533708 20.680185 0.000000 0.276543
659.000000 55.084000 -9.000000 2.000000 2.000000 75.434920 -50.756825 2292.638706 1383.060572 18.168812 0.000000 0.339095
#UB matrix in q= (UB) B0 G* 
#[[ 0.804609123  0.571192567  0.160035976]
# [ 0.383579008 -0.294957647 -0.875755647]
# [-0.453289426  0.766612907 -0.456732214]]
#B0 matrix in q= UB (B0) G*
#[[ 0.19670273 -0.          0.03056101]
# [ 0.          0.19187965 -0.        ]
# [ 0.          0.          0.18806537]]
#UBB0 matrix in q= (UB B0) G* i.e. recip. basis vectors are columns in LT frame: astar = UBB0[:,0], bstar = UBB0[:,1], cstar = UBB0[:,2]. (abcstar as columns on xyzlab1, xlab1 = ui, ui = unit vector along incident beam)
#[[ 0.15826881  0.10960023  0.05468689]
# [ 0.07545104 -0.05659637 -0.15297675]
# [-0.08916327  0.14709742 -0.09974849]]
#Euler angles phi theta psi (deg)
#[210.623 117.143 169.624]
#deviatoric strain in direct crystal frame (10-3 unit)
#[[-1.34  0.48  0.28]
# [ 0.48 -1.78  0.55]
# [ 0.28  0.55  3.12]]
#deviatoric strain in sample2 frame (10-3 unit)
#[[-1.5   0.4  -0.35]
# [ 0.4   2.02  2.09]
# [-0.35  2.09 -0.52]]
#new lattice parameters
#[ 5.1505     5.20929    5.3143896 89.9762614 99.2178246 89.9444283]
#CCDLabel
#sCMOS
#DetectorParameters
#[79.0, 975.0, 941.0, 0.0, 0.0]
#pixelsize
#0.0734
#Frame dimensions
#[2018, 2016]
#
