#Strain and Orientation Refinement from experimental file: /home/micha/LaueProjects/DepthEffects/testZrO2_71.cor
#File created at Wed Jun 28 14:22:45 2023 with indexingSpotsSet.py
#Number of indexed spots: 529
#Element
#ZrO2
#grainIndex
#G_0
#Mean Deviation(pixel): 0.114
##spot_index intensity h k l 2theta Chi Xexp Yexp Energy GrainIndex PixDev
9.000000 48.511000 6.000000 -5.000000 0.000000 54.433319 41.058926 37.446556 1961.649270 20.635927 0.000000 0.302288
13.000000 60.480000 5.000000 -4.000000 0.000000 55.770129 42.100198 2.486747 1927.921205 16.551577 0.000000 0.306030
20.000000 80.004000 4.000000 -3.000000 0.000000 57.824063 43.750691 -55.352518 1878.415787 12.512000 0.000000 0.314809
24.000000 46.862000 5.000000 -6.000000 1.000000 53.357072 27.841424 406.539577 1846.382397 21.364126 0.000000 0.173199
25.000000 47.305000 6.000000 -6.000000 1.000000 59.075430 32.583219 287.125172 1706.212530 21.161825 0.000000 0.174508
26.000000 46.526000 7.000000 -6.000000 1.000000 63.633904 36.798269 169.879731 1607.230265 21.514007 0.000000 0.187212
27.000000 53.769000 3.000000 -5.000000 1.000000 45.407008 19.304325 597.995895 2065.324704 18.622012 0.000000 0.197765
28.000000 57.803000 4.000000 -5.000000 1.000000 54.334329 25.937418 451.510676 1799.937241 17.320041 0.000000 0.152200
29.000000 58.276000 5.000000 -5.000000 1.000000 61.171033 31.778206 308.235925 1637.872611 17.177485 0.000000 0.157626
30.000000 56.730000 6.000000 -5.000000 1.000000 66.355655 36.860086 168.067241 1529.941577 17.643513 0.000000 0.174540
31.000000 54.191000 7.000000 -5.000000 1.000000 70.291368 41.256335 30.904701 1453.861225 18.468519 0.000000 0.198514
32.000000 51.261000 8.000000 -5.000000 1.000000 73.300618 45.054596 -103.347375 1398.072712 19.522978 0.000000 0.232934
33.000000 48.267000 9.000000 -5.000000 1.000000 75.625545 48.341768 -234.780651 1355.983928 20.732988 0.000000 0.279118
35.000000 67.165000 2.000000 -4.000000 1.000000 43.844862 14.196316 702.729306 2096.891247 14.908349 0.000000 0.197547
36.000000 75.048000 3.000000 -4.000000 1.000000 55.736167 22.976262 518.666342 1737.382769 13.340109 0.000000 0.123739
37.000000 75.460000 4.000000 -4.000000 1.000000 64.251663 30.555115 339.618879 1543.810115 13.265154 0.000000 0.137785
38.000000 72.179000 5.000000 -4.000000 1.000000 70.226109 36.951395 165.384672 1425.186821 13.866429 0.000000 0.158986
39.000000 67.478000 6.000000 -4.000000 1.000000 74.421526 42.296370 -4.227792 1346.680099 14.831006 0.000000 0.190205
40.000000 62.491000 7.000000 -4.000000 1.000000 77.402641 46.756634 -169.400002 1292.085481 16.013232 0.000000 0.240119
41.000000 57.720000 8.000000 -4.000000 1.000000 79.556105 50.492562 -330.304067 1252.845598 17.336135 0.000000 0.308194
45.000000 85.860000 1.000000 -3.000000 1.000000 40.271368 5.185441 877.325302 2216.629746 11.662797 0.000000 0.233928
46.000000 105.554000 2.000000 -3.000000 1.000000 57.850645 17.782758 629.796958 1651.392378 9.484698 0.000000 0.084384
47.000000 105.649000 3.000000 -3.000000 1.000000 69.204388 28.476882 391.182050 1406.013726 9.474034 0.000000 0.118768
48.000000 97.799000 4.000000 -3.000000 1.000000 76.148449 37.099912 161.007638 1273.742358 10.232857 0.000000 0.138867
49.000000 88.142000 5.000000 -3.000000 1.000000 80.380912 43.911750 -61.166343 1194.203968 11.352687 0.000000 0.183109
50.000000 78.968000 6.000000 -3.000000 1.000000 83.008579 49.287373 -275.749888 1143.354329 12.670694 0.000000 0.265891
55.000000 168.981000 1.000000 -2.000000 1.000000 60.927289 6.670703 849.122376 1543.465031 5.924521 0.000000 0.039137
56.000000 169.297000 2.000000 -2.000000 1.000000 78.355167 24.185832 491.614034 1184.152913 5.911365 0.000000 0.118797
57.000000 146.357000 3.000000 -2.000000 1.000000 86.260033 37.383916 152.589522 1029.542779 6.836530 0.000000 0.107906
58.000000 123.273000 4.000000 -2.000000 1.000000 89.627337 46.755348 -169.348510 951.218025 8.115964 0.000000 0.194008
62.000000 49.500000 3.000000 -6.000000 2.000000 49.912760 11.684387 752.416024 1866.083924 20.227828 0.000000 0.111008
63.000000 53.603000 5.000000 -6.000000 2.000000 64.204038 23.392834 509.405689 1507.795563 18.674792 0.000000 0.103021
64.000000 51.104000 7.000000 -6.000000 2.000000 73.107812 33.036616 275.068022 1330.877392 19.584028 0.000000 0.128578
65.000000 46.497000 9.000000 -6.000000 2.000000 78.521312 40.708994 48.946892 1229.322484 21.521572 0.000000 0.155951
67.000000 59.528000 2.000000 -5.000000 2.000000 49.112125 5.790279 865.858511 1877.695920 16.820496 0.000000 0.103816
68.000000 65.459000 3.000000 -5.000000 2.000000 59.288832 13.430092 717.993113 1598.315487 15.294225 0.000000 0.060430
69.000000 66.839000 4.000000 -5.000000 2.000000 67.131043 20.465228 573.334377 1425.539384 14.976197 0.000000 0.096764
70.000000 65.389000 5.000000 -5.000000 2.000000 72.990232 26.780721 431.779112 1309.817097 15.306266 0.000000 0.114308
71.000000 62.453000 6.000000 -5.000000 2.000000 77.299399 32.351944 293.228505 1228.135239 16.024189 0.000000 0.119134
72.000000 58.889000 7.000000 -5.000000 2.000000 80.451038 37.215543 157.587896 1168.352192 16.992608 0.000000 0.125615
73.000000 55.185000 8.000000 -5.000000 2.000000 82.757519 41.440483 24.766558 1123.457888 18.132177 0.000000 0.145819
74.000000 51.592000 9.000000 -5.000000 2.000000 84.452128 45.107019 -105.322501 1089.123096 19.393860 0.000000 0.183413
75.000000 48.229000 10.000000 -5.000000 2.000000 85.703811 48.294263 -232.762732 1062.530675 20.745723 0.000000 0.235234
76.000000 72.042000 1.000000 -4.000000 2.000000 46.990090 -3.205981 1035.286894 1946.582549 13.899061 0.000000 0.128964
77.000000 87.421000 3.000000 -4.000000 2.000000 71.222128 15.921908 667.964521 1321.535343 11.449620 0.000000 0.103969
78.000000 79.296000 5.000000 -4.000000 2.000000 83.125081 31.328005 319.882064 1092.916606 12.619309 0.000000 0.110669
79.000000 67.173000 7.000000 -4.000000 2.000000 88.303506 42.476597 -10.433542 984.220955 14.894681 0.000000 0.135911
80.000000 56.676000 9.000000 -4.000000 2.000000 90.476722 50.363037 -324.308733 926.961613 17.652197 0.000000 0.269974
82.000000 82.522000 0.000000 -3.000000 2.000000 41.356868 -17.566273 1315.723481 2223.474184 12.134061 0.000000 0.246312
83.000000 113.272000 1.000000 -3.000000 2.000000 62.077316 -4.759815 1064.618799 1513.388174 8.838193 0.000000 0.044490
84.000000 121.939000 2.000000 -3.000000 2.000000 77.074733 8.069702 822.401271 1190.474158 8.207762 0.000000 0.128651
85.000000 116.631000 3.000000 -3.000000 2.000000 86.420730 19.748282 588.607295 1012.530748 8.579584 0.000000 0.135560
86.000000 106.031000 4.000000 -3.000000 2.000000 91.701593 29.631173 362.804966 904.215980 9.435953 0.000000 0.102352
87.000000 94.707000 5.000000 -3.000000 2.000000 94.480191 37.651773 144.591408 834.485228 10.563343 0.000000 0.081526
88.000000 84.366000 6.000000 -3.000000 2.000000 95.824787 44.056260 -66.409622 788.220045 11.857621 0.000000 0.136339
89.000000 75.430000 7.000000 -3.000000 2.000000 96.371458 49.169319 -270.549900 757.185183 13.261942 0.000000 0.234390
93.000000 147.004000 0.000000 -2.000000 2.000000 59.049262 -25.332924 1484.518857 1655.115657 6.809987 0.000000 0.127164
94.000000 182.301000 1.000000 -2.000000 2.000000 84.673587 -7.648474 1119.535210 1042.246023 5.489288 0.000000 0.151186
95.000000 174.663000 2.000000 -2.000000 2.000000 99.280703 10.631695 772.960696 762.050297 5.727655 0.000000 0.155564
96.000000 151.896000 3.000000 -2.000000 2.000000 105.303946 26.283973 443.436791 612.517863 6.585180 0.000000 0.085764
97.000000 129.041000 4.000000 -2.000000 2.000000 106.832399 38.144216 129.735430 526.971081 7.751053 0.000000 0.053815
98.000000 109.999000 5.000000 -2.000000 2.000000 106.453887 46.753043 -169.256279 477.052654 9.092675 0.000000 0.191204
101.000000 185.837000 3.000000 -1.000000 2.000000 126.786428 39.347185 92.582188 -99.675466 5.380423 0.000000 0.168968
103.000000 47.290000 4.000000 -7.000000 3.000000 59.824353 11.521719 755.600546 1579.675876 21.170281 0.000000 0.052403
104.000000 48.384000 5.000000 -7.000000 3.000000 65.780399 16.713692 651.815868 1446.504090 20.689196 0.000000 0.085213
105.000000 48.230000 6.000000 -7.000000 3.000000 70.642441 21.564829 549.629019 1347.587343 20.753293 0.000000 0.105834
106.000000 47.239000 7.000000 -7.000000 3.000000 74.562242 26.045259 449.003380 1271.819636 21.186532 0.000000 0.114562
107.000000 45.736000 8.000000 -7.000000 3.000000 77.698424 30.147416 349.903444 1212.413586 21.881301 0.000000 0.116281
108.000000 51.627000 2.000000 -6.000000 3.000000 52.037579 0.124408 972.663006 1780.759006 19.394250 0.000000 0.061675
109.000000 58.179000 4.000000 -6.000000 3.000000 68.177716 12.934846 727.806700 1383.193199 17.205518 0.000000 0.089293
110.000000 57.966000 5.000000 -6.000000 3.000000 73.913004 18.797287 608.656407 1268.879373 17.266753 0.000000 0.113076
111.000000 54.154000 7.000000 -6.000000 3.000000 81.749205 29.072280 376.624135 1119.568850 18.478750 0.000000 0.114295
112.000000 51.523000 8.000000 -6.000000 3.000000 84.320937 33.462343 263.633189 1069.296625 19.421173 0.000000 0.107600
113.000000 46.089000 10.000000 -6.000000 3.000000 87.717615 40.876921 43.443225 997.733301 21.708846 0.000000 0.122640
115.000000 59.699000 1.000000 -5.000000 3.000000 50.359687 -8.092106 1128.028081 1841.631871 16.772030 0.000000 0.095333
116.000000 68.300000 2.000000 -5.000000 3.000000 61.861530 -0.206190 978.873270 1516.620379 14.657803 0.000000 0.037739
117.000000 71.871000 3.000000 -5.000000 3.000000 71.107679 7.520078 832.919448 1312.532279 13.927172 0.000000 0.101883
118.000000 71.723000 4.000000 -5.000000 3.000000 78.156533 14.828167 690.064666 1174.477212 13.953845 0.000000 0.127949
119.000000 69.300000 5.000000 -5.000000 3.000000 83.327731 21.538016 550.211257 1076.358988 14.439965 0.000000 0.128686
120.000000 65.718000 6.000000 -5.000000 3.000000 87.020722 27.560742 413.265616 1004.186197 15.225772 0.000000 0.114630
121.000000 61.693000 7.000000 -5.000000 3.000000 89.607282 32.884086 279.137990 949.784862 16.217883 0.000000 0.096844
122.000000 57.638000 8.000000 -5.000000 3.000000 91.389991 37.546480 147.742285 908.061062 17.358060 0.000000 0.091621
123.000000 53.764000 9.000000 -5.000000 3.000000 92.598150 41.612660 18.995875 875.676215 18.608101 0.000000 0.113347
124.000000 50.167000 10.000000 -5.000000 3.000000 93.398898 45.156249 -107.180566 850.351848 19.941906 0.000000 0.157883
125.000000 46.877000 11.000000 -5.000000 3.000000 93.911620 48.249466 -230.863228 830.480502 21.341034 0.000000 0.215447
126.000000 66.417000 0.000000 -4.000000 3.000000 46.404797 -19.637986 1359.055377 2029.056344 15.075541 0.000000 0.188076
127.000000 83.373000 1.000000 -4.000000 3.000000 61.907150 -10.318886 1170.962336 1524.959980 12.007655 0.000000 0.057433
128.000000 91.315000 2.000000 -4.000000 3.000000 74.466737 -0.684707 987.862750 1240.177183 10.960970 0.000000 0.119038
129.000000 91.899000 3.000000 -4.000000 3.000000 83.717593 8.738668 809.560378 1060.881118 10.889306 0.000000 0.148357
130.000000 88.062000 4.000000 -4.000000 3.000000 90.037457 17.489182 635.869126 940.262266 11.362252 0.000000 0.143157
131.000000 82.207000 5.000000 -4.000000 3.000000 94.106476 25.283708 466.612404 855.541398 12.170232 0.000000 0.116254
132.000000 75.794000 6.000000 -4.000000 3.000000 96.590916 32.031925 301.622524 794.307948 13.198979 0.000000 0.081480
133.000000 69.562000 7.000000 -4.000000 3.000000 98.016086 37.780067 140.740150 749.226788 14.380882 0.000000 0.070186
134.000000 63.824000 8.000000 -4.000000 3.000000 98.754205 42.642744 -16.186222 715.687035 15.673383 0.000000 0.111995
135.000000 58.675000 9.000000 -4.000000 3.000000 99.054842 46.754154 -169.300732 690.646881 17.048353 0.000000 0.181216
136.000000 54.110000 10.000000 -4.000000 3.000000 99.080810 50.242106 -318.740603 672.020149 18.486458 0.000000 0.261751
140.000000 117.699000 1.000000 -3.000000 3.000000 77.298436 -13.785769 1239.079794 1190.779529 8.503347 0.000000 0.126646
141.000000 122.053000 2.000000 -3.000000 3.000000 90.750942 -1.438880 1002.034869 926.888396 8.197956 0.000000 0.163841
142.000000 106.609000 4.000000 -3.000000 3.000000 103.975510 21.480389 551.461894 653.144701 9.382858 0.000000 0.114412
143.000000 95.971000 5.000000 -3.000000 3.000000 106.148821 30.651739 337.168802 578.734932 10.422221 0.000000 0.055324
144.000000 77.257000 7.000000 -3.000000 3.000000 106.696998 44.186644 -71.162413 490.777716 12.946259 0.000000 0.140783
145.000000 69.701000 8.000000 -3.000000 3.000000 106.139233 49.061648 -265.828806 465.675281 14.349705 0.000000 0.244271
148.000000 143.804000 0.000000 -2.000000 3.000000 75.714396 -34.573101 1716.740172 1273.833430 6.959319 0.000000 0.132030
149.000000 163.868000 1.000000 -2.000000 3.000000 97.607490 -19.858521 1363.732048 788.159716 6.105074 0.000000 0.131236
150.000000 159.344000 2.000000 -2.000000 3.000000 111.569343 -2.802502 1027.686683 515.021514 6.276850 0.000000 0.138984
151.000000 143.423000 3.000000 -2.000000 3.000000 118.089698 13.961882 707.410122 349.073429 6.972740 0.000000 0.094024
152.000000 125.435000 4.000000 -2.000000 3.000000 119.746262 28.037599 401.817892 244.158491 7.972303 0.000000 0.012299
153.000000 109.128000 5.000000 -2.000000 3.000000 118.957808 38.790766 109.922732 176.906807 9.163522 0.000000 0.104883
154.000000 95.390000 6.000000 -2.000000 3.000000 117.183982 46.751038 -169.176053 134.251329 10.483440 0.000000 0.239791
157.000000 197.587000 0.000000 -1.000000 3.000000 95.204643 -50.762033 2292.883183 786.009038 5.062952 0.000000 0.282117
158.000000 195.365000 2.000000 -1.000000 3.000000 137.050607 -6.007256 1088.260890 -221.614450 5.117421 0.000000 0.021098
161.000000 48.748000 3.000000 -7.000000 4.000000 61.669404 1.759322 941.940967 1521.540000 20.536634 0.000000 0.036355
162.000000 50.692000 4.000000 -7.000000 4.000000 68.356021 7.280494 837.495940 1371.562326 19.746819 0.000000 0.086595
163.000000 51.157000 5.000000 -7.000000 4.000000 73.888964 12.588476 734.647001 1259.538448 19.565180 0.000000 0.114419
164.000000 50.549000 6.000000 -7.000000 4.000000 78.372249 17.610713 633.357841 1173.364777 19.798591 0.000000 0.125862
165.000000 49.229000 7.000000 -7.000000 4.000000 81.947664 22.299376 533.593243 1105.573819 20.327867 0.000000 0.125688
166.000000 47.479000 8.000000 -7.000000 4.000000 84.765337 26.630335 435.319045 1051.308919 21.075470 0.000000 0.117928
167.000000 45.505000 9.000000 -7.000000 4.000000 86.966010 30.599181 338.502097 1007.275350 21.988781 0.000000 0.106710
168.000000 50.383000 1.000000 -6.000000 4.000000 52.321298 -11.247015 1189.029954 1788.491578 19.872788 0.000000 0.086672
169.000000 60.004000 3.000000 -6.000000 4.000000 70.347474 1.733371 942.428892 1325.539272 16.681769 0.000000 0.097391
170.000000 60.198000 5.000000 -6.000000 4.000000 82.366735 14.108739 704.479043 1089.730857 16.624030 0.000000 0.139520
171.000000 55.808000 7.000000 -6.000000 4.000000 89.461312 24.929242 474.733005 952.159203 17.928634 0.000000 0.121546
172.000000 50.154000 9.000000 -6.000000 4.000000 93.324950 33.862817 252.773703 865.697797 19.947653 0.000000 0.085109
173.000000 54.835000 0.000000 -5.000000 4.000000 49.223703 -20.838991 1384.684191 1934.228838 18.259091 0.000000 0.163923
174.000000 65.542000 1.000000 -5.000000 4.000000 61.589282 -13.546830 1234.325975 1539.871704 15.274411 0.000000 0.067319
175.000000 71.820000 2.000000 -5.000000 4.000000 72.213108 -5.949358 1087.161364 1288.158531 13.936872 0.000000 0.108028
176.000000 74.033000 3.000000 -5.000000 4.000000 80.777446 1.698226 943.089681 1115.833239 13.518086 0.000000 0.143608
177.000000 73.233000 4.000000 -5.000000 4.000000 87.313264 9.130680 802.014432 992.155222 13.663964 0.000000 0.154772
178.000000 70.552000 5.000000 -5.000000 4.000000 92.075947 16.124593 663.843101 900.388865 14.181657 0.000000 0.146944
179.000000 66.888000 6.000000 -5.000000 4.000000 95.410081 22.531680 528.486938 830.645569 14.957160 0.000000 0.125645
180.000000 62.844000 7.000000 -5.000000 4.000000 97.655857 28.284087 395.860774 776.708682 15.918752 0.000000 0.096287
181.000000 58.779000 8.000000 -5.000000 4.000000 99.103333 33.378915 265.882842 734.475180 17.019059 0.000000 0.068076
182.000000 54.886000 9.000000 -5.000000 4.000000 99.980052 37.855330 138.474608 701.128797 18.225529 0.000000 0.064377
183.000000 51.258000 10.000000 -5.000000 4.000000 100.455810 41.773992 13.560613 674.673106 19.515056 0.000000 0.098666
184.000000 47.928000 11.000000 -5.000000 4.000000 100.653564 45.202566 -108.931679 653.654114 20.870787 0.000000 0.151798
186.000000 85.742000 1.000000 -4.000000 4.000000 73.139388 -16.784534 1299.635420 1281.710281 11.673404 0.000000 0.112254
187.000000 90.996000 3.000000 -4.000000 4.000000 93.314451 1.647947 944.034972 878.643108 10.995362 0.000000 0.165641
188.000000 81.927000 5.000000 -4.000000 4.000000 103.086629 18.916917 606.147039 676.518507 12.209916 0.000000 0.127048
189.000000 70.042000 7.000000 -4.000000 4.000000 106.427451 32.675527 284.680383 564.006529 14.280261 0.000000 0.042262
190.000000 59.500000 9.000000 -4.000000 4.000000 106.782287 42.796397 -21.533700 498.643092 16.809967 0.000000 0.116819
191.000000 50.992000 11.000000 -4.000000 4.000000 105.962635 50.128941 -313.555586 460.761083 19.614706 0.000000 0.271642
194.000000 98.290000 0.000000 -3.000000 4.000000 71.168530 -31.785008 1641.940892 1372.820061 10.182828 0.000000 0.131520
195.000000 111.535000 1.000000 -3.000000 4.000000 87.420060 -21.639032 1401.983438 993.173557 8.971373 0.000000 0.130941
196.000000 114.501000 2.000000 -3.000000 4.000000 99.897311 -10.267505 1169.965317 750.152454 8.737022 0.000000 0.154558
197.000000 110.303000 3.000000 -3.000000 4.000000 108.264072 1.570077 945.498913 585.664864 9.068124 0.000000 0.149391
198.000000 102.518000 4.000000 -3.000000 4.000000 113.088788 12.913872 728.221443 470.264235 9.755789 0.000000 0.117834
199.000000 93.617000 5.000000 -3.000000 4.000000 115.331787 23.015659 517.792991 387.443067 10.682739 0.000000 0.065831
200.000000 84.909000 6.000000 -3.000000 4.000000 115.915554 31.559998 313.894740 327.238576 11.778045 0.000000 0.003732
201.000000 76.949000 7.000000 -3.000000 4.000000 115.532392 38.586283 116.227359 283.288595 12.996291 0.000000 0.082669
202.000000 69.900000 8.000000 -3.000000 4.000000 114.634056 44.304877 -75.490466 251.345034 14.307048 0.000000 0.173296
207.000000 128.179000 0.000000 -2.000000 4.000000 85.371853 -41.492472 1926.972662 1057.320155 7.806087 0.000000 0.140973
208.000000 141.232000 1.000000 -2.000000 4.000000 104.426303 -29.556869 1585.349016 622.707334 7.082454 0.000000 0.065791
209.000000 139.777000 2.000000 -2.000000 4.000000 118.037158 -14.801509 1259.399547 348.155979 7.154635 0.000000 0.089056
210.000000 129.944000 3.000000 -2.000000 4.000000 125.729585 1.433316 948.069717 166.518767 7.695101 0.000000 0.076869
211.000000 117.159000 4.000000 -2.000000 4.000000 128.613402 16.782927 650.397510 43.149882 8.534372 0.000000 0.033397
212.000000 104.415000 5.000000 -2.000000 4.000000 128.464036 29.522517 365.503503 -41.599252 9.575949 0.000000 0.066653
219.000000 48.106000 2.000000 -7.000000 5.000000 62.037582 -7.960145 1125.499918 1517.929499 20.810606 0.000000 0.051360
220.000000 51.057000 3.000000 -7.000000 5.000000 69.455603 -2.416765 1020.425581 1344.719883 19.605405 0.000000 0.092427
221.000000 52.419000 4.000000 -7.000000 5.000000 75.761230 3.087518 916.945146 1214.516408 19.093876 0.000000 0.124646
222.000000 52.508000 5.000000 -7.000000 5.000000 80.975002 8.454387 815.022619 1113.827744 19.059333 0.000000 0.141477
223.000000 51.670000 6.000000 -7.000000 5.000000 85.186237 13.599695 714.623080 1034.253945 19.366828 0.000000 0.145661
224.000000 50.211000 7.000000 -7.000000 5.000000 88.521210 18.459983 615.712648 970.292301 19.927931 0.000000 0.140081
225.000000 48.377000 8.000000 -7.000000 5.000000 91.117755 22.994666 518.258436 918.187821 20.682278 0.000000 0.127283
226.000000 46.346000 9.000000 -7.000000 5.000000 93.108545 27.184474 422.228520 875.290768 21.587253 0.000000 0.109791
227.000000 46.494000 0.000000 -6.000000 5.000000 51.018657 -21.622245 1401.618504 1877.913072 21.534344 0.000000 0.151885
228.000000 53.856000 1.000000 -6.000000 5.000000 61.296305 -15.643393 1276.385629 1553.013960 18.588497 0.000000 0.074903
229.000000 58.749000 2.000000 -6.000000 5.000000 70.438300 -9.409851 1153.369496 1328.656940 17.037990 0.000000 0.099678
230.000000 61.235000 3.000000 -6.000000 5.000000 78.212602 -3.058690 1032.511762 1165.922971 16.344234 0.000000 0.134607
231.000000 61.718000 4.000000 -6.000000 5.000000 84.560980 3.256764 913.756116 1043.645122 16.214228 0.000000 0.153510
232.000000 60.735000 5.000000 -6.000000 5.000000 89.562800 9.388209 797.048189 949.324408 16.474904 0.000000 0.157313
233.000000 58.794000 6.000000 -6.000000 5.000000 93.380986 15.211989 682.335469 875.105954 17.017460 0.000000 0.149109
234.000000 56.300000 7.000000 -6.000000 5.000000 96.212325 20.641052 569.567226 815.806218 17.770062 0.000000 0.131755
235.000000 53.545000 8.000000 -6.000000 5.000000 98.252396 25.627346 458.694434 767.867056 18.683372 0.000000 0.107961
236.000000 50.722000 9.000000 -6.000000 5.000000 99.675956 30.156720 349.669703 728.765495 19.722385 0.000000 0.081278
237.000000 47.951000 10.000000 -6.000000 5.000000 100.629150 34.240182 242.447208 696.663265 20.861571 0.000000 0.059700
238.000000 47.454000 -1.000000 -5.000000 5.000000 46.576863 -31.555889 1635.998957 2136.386143 21.098715 0.000000 0.270071
239.000000 67.080000 1.000000 -5.000000 5.000000 70.503226 -18.552664 1336.223416 1342.956642 14.921617 0.000000 0.104937
240.000000 71.808000 2.000000 -5.000000 5.000000 80.402947 -11.348542 1191.013249 1126.613664 13.936979 0.000000 0.137667
241.000000 73.315000 3.000000 -5.000000 5.000000 88.474814 -3.922184 1048.793064 969.724487 13.648396 0.000000 0.160275
242.000000 72.383000 4.000000 -5.000000 5.000000 94.707701 3.484066 909.471453 852.202742 13.822308 0.000000 0.165392
243.000000 66.466000 6.000000 -5.000000 5.000000 102.470248 17.328873 639.176580 691.660275 15.050338 0.000000 0.133954
244.000000 62.686000 7.000000 -5.000000 5.000000 104.573436 23.454127 508.038219 635.977919 15.957024 0.000000 0.103418
245.000000 58.843000 8.000000 -5.000000 5.000000 105.860855 28.956509 379.467897 591.514261 16.998514 0.000000 0.067351
246.000000 55.121000 9.000000 -5.000000 5.000000 106.556024 33.840155 253.390911 555.784347 18.145798 0.000000 0.037040
247.000000 48.370000 11.000000 -5.000000 5.000000 106.819198 41.925471 8.432353 503.715620 20.678107 0.000000 0.102949
248.000000 60.599000 -1.000000 -4.000000 5.000000 54.289096 -37.137662 1790.107673 1911.545539 16.519882 0.000000 0.255714
249.000000 74.272000 0.000000 -4.000000 5.000000 68.556849 -30.286214 1603.588237 1430.545088 13.476539 0.000000 0.130288
250.000000 83.311000 1.000000 -4.000000 5.000000 81.428461 -22.546283 1421.834609 1116.652480 12.011937 0.000000 0.125133
251.000000 87.309000 2.000000 -4.000000 5.000000 92.166347 -14.065944 1244.666436 899.027555 11.459845 0.000000 0.150638
252.000000 87.122000 3.000000 -4.000000 5.000000 100.444753 -5.145186 1071.912349 741.791231 11.482671 0.000000 0.161065
253.000000 84.120000 4.000000 -4.000000 5.000000 106.336272 3.805470 903.409414 624.832665 11.891068 0.000000 0.152968
254.000000 79.566000 5.000000 -4.000000 5.000000 110.180950 12.367433 739.002621 536.008899 12.570612 0.000000 0.129228
255.000000 74.371000 6.000000 -4.000000 5.000000 112.429325 20.221397 578.544402 467.557849 13.448078 0.000000 0.092911
256.000000 69.095000 7.000000 -4.000000 5.000000 113.521735 27.198555 421.894195 414.288797 14.474433 0.000000 0.046720
257.000000 64.045000 8.000000 -4.000000 5.000000 113.824690 33.266100 268.918033 372.601185 15.615601 0.000000 0.013756
258.000000 59.362000 9.000000 -4.000000 5.000000 113.614227 38.480064 119.488158 339.920721 16.847171 0.000000 0.072370
259.000000 55.098000 10.000000 -4.000000 5.000000 113.085265 42.938911 -26.517333 314.359451 18.151193 0.000000 0.140162
260.000000 51.249000 11.000000 -4.000000 5.000000 112.369785 46.752007 -169.214817 294.502464 19.514173 0.000000 0.213267
263.000000 76.440000 -1.000000 -3.000000 5.000000 63.043317 -44.472613 2031.660653 1708.076755 13.094293 0.000000 0.290676
264.000000 92.683000 0.000000 -3.000000 5.000000 79.504008 -37.103611 1789.101616 1191.018814 10.797069 0.000000 0.131866
265.000000 102.104000 1.000000 -3.000000 5.000000 94.113010 -28.296558 1554.441356 853.101225 9.798519 0.000000 0.102263
266.000000 104.595000 2.000000 -3.000000 5.000000 105.831169 -18.124671 1327.300226 619.873226 9.563282 0.000000 0.121170
267.000000 101.901000 3.000000 -3.000000 5.000000 114.233163 -7.008926 1107.322528 452.897687 9.814706 0.000000 0.124983
268.000000 96.199000 4.000000 -3.000000 5.000000 119.500370 4.294621 894.174647 330.338186 10.395422 0.000000 0.107077
269.000000 89.210000 5.000000 -3.000000 5.000000 122.221495 14.953523 687.543370 238.880319 11.209308 0.000000 0.070708
270.000000 82.002000 6.000000 -3.000000 5.000000 123.124011 24.383968 487.134347 169.951580 12.194337 0.000000 0.023332
271.000000 75.135000 7.000000 -3.000000 5.000000 122.861742 32.373130 292.670692 117.788805 13.308689 0.000000 0.052566
272.000000 68.852000 8.000000 -3.000000 5.000000 121.922539 38.985284 103.891708 78.379085 14.523144 0.000000 0.127251
273.000000 63.222000 9.000000 -3.000000 5.000000 120.630124 44.412581 -79.448281 48.845860 15.816668 0.000000 0.212284
278.000000 112.335000 0.000000 -2.000000 5.000000 91.314998 -46.726592 2118.198299 904.957511 8.905949 0.000000 0.195424
279.000000 121.577000 1.000000 -2.000000 5.000000 108.085735 -37.045254 1787.379521 500.623820 8.226794 0.000000 0.047077
280.000000 121.833000 2.000000 -2.000000 5.000000 121.129105 -24.745816 1471.083167 225.268968 8.207896 0.000000 0.025474
281.000000 116.065000 3.000000 -2.000000 5.000000 129.737703 -10.185437 1168.373506 31.919647 8.614726 0.000000 0.044009
282.000000 107.366000 4.000000 -2.000000 5.000000 134.106097 5.129035 878.393511 -106.417798 9.312073 0.000000 0.027013
283.000000 97.860000 5.000000 -2.000000 5.000000 135.192779 19.192305 600.356747 -206.329365 10.216500 0.000000 0.045264
284.000000 88.683000 6.000000 -2.000000 5.000000 134.226015 30.794485 333.540255 -278.546561 11.273731 0.000000 0.121905
291.000000 46.172000 5.000000 -8.000000 6.000000 79.494329 4.085514 898.123774 1141.098032 21.675561 0.000000 0.138882
292.000000 45.652000 1.000000 -7.000000 6.000000 61.050527 -17.111081 1306.339215 1563.932904 21.929157 0.000000 0.080855
293.000000 49.513000 2.000000 -7.000000 6.000000 69.047280 -11.841609 1200.665454 1362.093406 20.216492 0.000000 0.094149
294.000000 51.856000 3.000000 -7.000000 6.000000 76.084613 -6.445064 1096.582991 1209.358712 19.300963 0.000000 0.125557
295.000000 52.845000 4.000000 -7.000000 6.000000 82.089491 -1.014335 994.056151 1090.572821 18.937554 0.000000 0.147611
296.000000 52.743000 5.000000 -7.000000 6.000000 87.071645 4.354133 893.050317 996.216108 18.972334 0.000000 0.158062
297.000000 51.833000 6.000000 -7.000000 6.000000 91.101772 9.570320 793.531892 920.008639 19.303726 0.000000 0.158408
298.000000 50.373000 7.000000 -7.000000 6.000000 94.287070 14.559018 695.468261 857.640552 19.861996 0.000000 0.150476
299.000000 48.571000 8.000000 -7.000000 6.000000 96.749984 19.264872 598.827755 806.056086 20.597679 0.000000 0.135930
300.000000 46.585000 9.000000 -7.000000 6.000000 98.612770 23.653575 503.579617 763.028687 21.474718 0.000000 0.116334
301.000000 54.954000 1.000000 -6.000000 6.000000 68.690652 -19.716668 1360.722435 1386.978555 18.214547 0.000000 0.101604
302.000000 60.044000 5.000000 -6.000000 6.000000 95.578398 4.699245 886.526778 835.523541 16.662673 0.000000 0.164702
303.000000 55.892000 7.000000 -6.000000 6.000000 102.021970 16.250038 661.288055 702.257350 17.897958 0.000000 0.138251
304.000000 50.547000 -1.000000 -5.000000 6.000000 55.302346 -35.035111 1729.612712 1851.107370 19.805012 0.000000 0.225170
305.000000 59.558000 0.000000 -5.000000 6.000000 66.866922 -29.351557 1580.262306 1468.533210 16.806319 0.000000 0.129229
306.000000 66.042000 1.000000 -5.000000 6.000000 77.506068 -23.095933 1433.988112 1200.269761 15.153979 0.000000 0.119935
307.000000 69.735000 2.000000 -5.000000 6.000000 86.796114 -16.347342 1290.696056 1003.785641 14.349164 0.000000 0.142750
308.000000 70.896000 3.000000 -5.000000 6.000000 94.495764 -9.250529 1150.295862 855.258795 14.112381 0.000000 0.159368
309.000000 70.081000 4.000000 -5.000000 6.000000 100.555935 -2.006159 1012.700860 740.310611 14.274859 0.000000 0.163034
310.000000 67.915000 5.000000 -5.000000 6.000000 105.083292 5.158907 877.827810 649.750393 14.728662 0.000000 0.154518
311.000000 64.944000 6.000000 -5.000000 6.000000 108.282328 12.032077 745.596735 577.430696 15.401542 0.000000 0.135675
312.000000 61.575000 7.000000 -5.000000 6.000000 110.398093 18.449536 615.930757 519.085259 16.243318 0.000000 0.108279
313.000000 58.087000 8.000000 -5.000000 6.000000 111.672675 24.312316 488.755954 471.661575 17.218048 0.000000 0.073909
314.000000 54.654000 9.000000 -5.000000 6.000000 112.319497 29.583035 364.001219 432.918743 18.299312 0.000000 0.034705
315.000000 51.374000 10.000000 -5.000000 6.000000 112.513004 34.271061 241.598124 401.175233 19.467254 0.000000 0.020529
316.000000 48.299000 11.000000 -5.000000 6.000000 112.388541 38.415000 121.480796 375.145181 20.706666 0.000000 0.066780
317.000000 61.510000 -1.000000 -4.000000 6.000000 62.710788 -40.677125 1900.011762 1673.152186 16.273113 0.000000 0.238707
318.000000 78.775000 1.000000 -4.000000 6.000000 87.534303 -27.615193 1538.036493 993.304971 12.701975 0.000000 0.114043
319.000000 81.934000 3.000000 -4.000000 6.000000 105.629524 -11.484245 1193.666365 633.743893 12.208471 0.000000 0.142181
320.000000 76.033000 5.000000 -4.000000 6.000000 115.615790 5.801397 865.647496 422.304814 13.153454 0.000000 0.122292
321.000000 67.177000 7.000000 -4.000000 6.000000 119.353962 21.416730 552.842316 290.780053 14.886294 0.000000 0.056095
322.000000 58.489000 9.000000 -4.000000 6.000000 119.544244 33.809828 254.216385 206.803704 17.097328 0.000000 0.045517
323.000000 50.968000 11.000000 -4.000000 6.000000 118.136789 43.071454 -31.173032 153.082168 19.620378 0.000000 0.169941
325.000000 73.674000 -1.000000 -3.000000 6.000000 70.694071 -47.848231 2163.997054 1502.823505 13.584119 0.000000 0.301839
326.000000 92.479000 1.000000 -3.000000 6.000000 98.602013 -33.870184 1697.427038 744.911347 10.817178 0.000000 0.067558
327.000000 94.727000 2.000000 -3.000000 6.000000 109.630108 -24.918066 1475.011716 517.707664 10.558589 0.000000 0.074739
328.000000 89.178000 4.000000 -3.000000 6.000000 123.779159 -4.001127 1050.283095 219.291559 11.213071 0.000000 0.085421
329.000000 83.876000 5.000000 -3.000000 6.000000 127.140208 6.762547 847.373174 120.105866 11.921197 0.000000 0.064485
330.000000 72.372000 7.000000 -3.000000 6.000000 128.746101 25.609812 459.099527 -16.791967 13.815692 0.000000 0.040664
331.000000 66.945000 8.000000 -3.000000 6.000000 128.017421 33.105056 273.237232 -63.476547 14.935795 0.000000 0.097698
335.000000 105.702000 1.000000 -2.000000 6.000000 110.106802 -42.818646 1972.310249 403.838470 9.461896 0.000000 0.133357
336.000000 106.766000 2.000000 -2.000000 6.000000 122.403417 -32.672031 1665.226941 129.467637 9.365858 0.000000 0.060032
337.000000 103.499000 3.000000 -2.000000 6.000000 131.451275 -20.190629 1370.799343 -71.833383 9.660340 0.000000 0.039456
338.000000 90.745000 5.000000 -2.000000 6.000000 139.527343 8.356284 816.905699 -333.932450 11.016958 0.000000 0.020263
344.000000 45.937000 4.000000 -8.000000 7.000000 79.952160 -4.227012 1054.548278 1132.226632 21.786214 0.000000 0.140407
345.000000 46.281000 5.000000 -8.000000 7.000000 84.784808 0.504362 965.525378 1039.242014 21.622427 0.000000 0.154511
346.000000 45.977000 6.000000 -8.000000 7.000000 88.855773 5.168094 877.653829 962.584766 21.763415 0.000000 0.160297
347.000000 46.481000 1.000000 -7.000000 7.000000 67.370262 -20.540367 1378.274450 1420.134500 21.535451 0.000000 0.100415
348.000000 49.669000 2.000000 -7.000000 7.000000 74.958713 -15.506699 1273.618346 1241.149280 20.150717 0.000000 0.118322
349.000000 51.575000 3.000000 -7.000000 7.000000 81.670855 -10.295845 1170.515192 1101.152304 19.404017 0.000000 0.141950
350.000000 52.335000 4.000000 -7.000000 7.000000 87.436511 -4.987697 1068.930678 989.370149 19.120018 0.000000 0.158142
351.000000 52.161000 5.000000 -7.000000 7.000000 92.253403 0.328372 968.831496 898.647558 19.182236 0.000000 0.165218
352.000000 51.279000 6.000000 -7.000000 7.000000 96.172622 5.562198 870.185304 824.046685 19.510261 0.000000 0.163965
353.000000 48.210000 8.000000 -7.000000 7.000000 101.682585 15.469843 677.127162 710.085518 20.749899 0.000000 0.141161
354.000000 46.336000 9.000000 -7.000000 7.000000 103.487916 20.028475 582.655058 666.227111 21.588182 0.000000 0.121796
355.000000 49.659000 0.000000 -6.000000 7.000000 65.685434 -28.713292 1564.578468 1495.476266 20.157078 0.000000 0.128448
356.000000 54.512000 1.000000 -6.000000 7.000000 74.745486 -23.464539 1442.194206 1260.983067 18.360293 0.000000 0.116162
357.000000 57.676000 2.000000 -6.000000 7.000000 82.884008 -17.864790 1321.903298 1082.171471 17.350653 0.000000 0.134929
358.000000 59.228000 3.000000 -6.000000 7.000000 89.927968 -11.993841 1203.652491 942.383314 16.894011 0.000000 0.153440
359.000000 59.409000 4.000000 -6.000000 7.000000 95.805487 -5.961415 1087.390322 830.974860 16.840707 0.000000 0.163210
360.000000 58.535000 5.000000 -6.000000 7.000000 100.535622 0.102899 973.067044 740.828106 17.090618 0.000000 0.163507
361.000000 56.920000 6.000000 -6.000000 7.000000 104.205927 6.065406 860.634556 667.003346 17.574227 0.000000 0.155284
362.000000 54.833000 7.000000 -6.000000 7.000000 106.946021 11.805309 750.046336 605.965770 18.241759 0.000000 0.139741
363.000000 52.486000 8.000000 -6.000000 7.000000 108.903319 17.227875 641.257374 555.119697 19.056637 0.000000 0.117991
364.000000 50.031000 9.000000 -6.000000 7.000000 110.224432 22.270621 534.224114 512.516562 19.991380 0.000000 0.091038
365.000000 47.570000 10.000000 -6.000000 7.000000 111.043246 26.902555 428.904395 476.665468 21.024940 0.000000 0.059966
366.000000 51.271000 -1.000000 -5.000000 7.000000 62.359134 -38.116676 1819.428482 1657.424562 19.523407 0.000000 0.211532
367.000000 58.469000 0.000000 -5.000000 7.000000 73.088407 -32.932824 1672.160976 1330.893675 17.117425 0.000000 0.131982
368.000000 63.634000 1.000000 -5.000000 7.000000 83.002075 -27.188476 1527.866491 1089.523360 15.725518 0.000000 0.117655
369.000000 66.618000 2.000000 -5.000000 7.000000 91.762647 -20.921325 1386.455896 905.540659 15.018924 0.000000 0.132708
370.000000 67.608000 3.000000 -5.000000 7.000000 99.157278 -14.224976 1247.843590 762.013822 14.797136 0.000000 0.146683
371.000000 66.995000 4.000000 -5.000000 7.000000 105.110694 -7.251331 1111.947328 648.034859 14.930912 0.000000 0.151256
372.000000 65.232000 5.000000 -5.000000 7.000000 109.670146 -0.196330 978.688053 556.261169 15.333202 0.000000 0.145714
373.000000 62.732000 6.000000 -5.000000 7.000000 112.973115 6.730177 847.989750 481.570181 15.943226 0.000000 0.131021
374.000000 59.825000 7.000000 -5.000000 7.000000 115.208879 13.340101 719.779296 420.280370 16.717262 0.000000 0.108379
375.000000 56.748000 8.000000 -5.000000 7.000000 116.583073 19.494223 593.986326 369.678715 17.623053 0.000000 0.078882
376.000000 53.662000 9.000000 -5.000000 7.000000 117.291243 25.112389 470.543105 327.722614 18.636280 0.000000 0.043469
377.000000 50.665000 10.000000 -5.000000 7.000000 117.503429 30.168073 349.384403 292.845472 19.738263 0.000000 0.003416
378.000000 47.815000 11.000000 -5.000000 7.000000 117.358362 34.674485 230.447384 263.826199 20.914414 0.000000 0.042324
380.000000 60.165000 -1.000000 -4.000000 7.000000 69.270394 -43.727554 2004.519887 1504.678069 16.634826 0.000000 0.240240
381.000000 68.200000 0.000000 -4.000000 7.000000 81.162308 -38.280293 1824.405091 1154.180224 14.672553 0.000000 0.132480
382.000000 73.573000 1.000000 -4.000000 7.000000 92.067795 -32.043192 1648.672001 895.155333 13.598711 0.000000 0.093203
383.000000 76.185000 2.000000 -4.000000 7.000000 101.553450 -25.012171 1477.162646 698.210349 13.130418 0.000000 0.101019
384.000000 76.390000 3.000000 -4.000000 7.000000 109.346830 -17.275647 1309.726559 545.245629 13.093367 0.000000 0.113969
385.000000 74.778000 4.000000 -4.000000 7.000000 115.357135 -9.039052 1146.220335 424.510278 13.374291 0.000000 0.116875
386.000000 71.963000 5.000000 -4.000000 7.000000 119.660281 -0.612556 986.507222 328.046013 13.896396 0.000000 0.107965
387.000000 68.465000 6.000000 -4.000000 7.000000 122.458527 7.648895 830.456744 250.273798 14.605776 0.000000 0.088324
388.000000 64.665000 7.000000 -4.000000 7.000000 124.025343 15.429428 677.944336 187.168541 15.463475 0.000000 0.059785
389.000000 60.821000 8.000000 -4.000000 7.000000 124.649828 22.515142 528.851023 135.754922 16.440640 0.000000 0.027236
390.000000 57.088000 9.000000 -4.000000 7.000000 124.595047 28.809774 383.063102 93.787451 17.515447 0.000000 0.034074
391.000000 53.555000 10.000000 -4.000000 7.000000 124.076707 34.311986 240.471858 59.540743 18.671083 0.000000 0.081728
392.000000 50.262000 11.000000 -4.000000 7.000000 123.259089 39.079029 100.973291 31.668116 19.894384 0.000000 0.138134
393.000000 47.223000 12.000000 -4.000000 7.000000 122.260933 43.195036 -35.532136 9.103886 21.174899 0.000000 0.200150
395.000000 69.452000 -1.000000 -3.000000 7.000000 76.429266 -50.660088 2288.107363 1350.832809 14.408358 0.000000 0.332800
396.000000 78.268000 0.000000 -3.000000 7.000000 89.621544 -45.135757 2056.406749 951.078061 12.782877 0.000000 0.172286
397.000000 83.707000 1.000000 -3.000000 7.000000 101.678736 -38.521954 1831.796656 656.641688 11.950000 0.000000 0.067169
398.000000 85.762000 2.000000 -3.000000 7.000000 112.047682 -30.696054 1613.956511 434.080885 11.661788 0.000000 0.023098
399.000000 85.006000 3.000000 -3.000000 7.000000 120.360396 -21.666686 1402.584780 262.611612 11.763952 0.000000 0.046517
400.000000 82.261000 4.000000 -3.000000 7.000000 126.470138 -11.674870 1197.397575 128.645636 12.155449 0.000000 0.057111
401.000000 78.314000 5.000000 -3.000000 7.000000 130.457333 -1.230981 998.127380 22.931235 12.767337 0.000000 0.049874
402.000000 73.783000 6.000000 -3.000000 7.000000 132.600059 9.000511 804.521887 -61.043572 13.550966 0.000000 0.031218
403.000000 69.090000 7.000000 -3.000000 7.000000 133.297630 18.429789 616.342934 -127.991038 14.471025 0.000000 0.033354
404.000000 64.498000 8.000000 -3.000000 7.000000 132.969896 26.713375 433.365526 -181.401829 15.501259 0.000000 0.076732
405.000000 60.151000 9.000000 -3.000000 7.000000 131.979327 33.767155 255.376934 -223.914002 16.621747 0.000000 0.136077
411.000000 93.018000 1.000000 -2.000000 7.000000 111.249725 -47.320927 2142.224031 323.582335 10.751809 0.000000 0.229848
412.000000 94.412000 2.000000 -2.000000 7.000000 122.735393 -38.914962 1843.924141 51.748686 10.591297 0.000000 0.141121
413.000000 92.651000 3.000000 -2.000000 7.000000 131.834723 -28.420116 1557.438599 -154.523285 10.791313 0.000000 0.092007
414.000000 88.788000 4.000000 -2.000000 7.000000 138.244436 -15.924059 1282.079162 -312.761788 11.259874 0.000000 0.056316
415.000000 83.771000 5.000000 -2.000000 7.000000 141.945303 -2.245871 1017.210028 -434.943347 11.933838 0.000000 0.015391
420.000000 45.821000 5.000000 -8.000000 8.000000 89.352268 -2.990178 1031.221180 953.184682 21.837392 0.000000 0.161841
421.000000 46.316000 1.000000 -7.000000 8.000000 72.699528 -23.728881 1448.107361 1307.196342 21.609881 0.000000 0.113626
422.000000 48.982000 2.000000 -7.000000 8.000000 79.919852 -18.945587 1344.454878 1143.291135 20.431304 0.000000 0.128219
423.000000 50.572000 3.000000 -7.000000 8.000000 86.349032 -13.948266 1242.318308 1011.762491 19.786891 0.000000 0.146520
424.000000 51.195000 4.000000 -7.000000 8.000000 91.918965 -8.802364 1141.664635 904.509210 19.543911 0.000000 0.159342
425.000000 51.018000 5.000000 -7.000000 8.000000 96.616441 -3.586590 1042.461797 815.910518 19.610245 0.000000 0.164890
426.000000 50.221000 6.000000 -7.000000 8.000000 100.474111 1.613709 944.678652 741.944682 19.919958 0.000000 0.163424
427.000000 48.977000 7.000000 -7.000000 8.000000 103.558045 6.714678 848.284938 679.658498 20.424610 0.000000 0.155695
428.000000 47.434000 8.000000 -7.000000 8.000000 105.954730 11.641741 753.251251 626.834829 21.087817 0.000000 0.142506
429.000000 45.711000 9.000000 -7.000000 8.000000 107.759531 16.335328 659.549010 581.776998 21.881719 0.000000 0.124601
430.000000 53.144000 1.000000 -6.000000 8.000000 79.699953 -26.896157 1520.944495 1160.321166 18.830629 0.000000 0.118348
431.000000 57.076000 3.000000 -6.000000 8.000000 94.177764 -16.068074 1285.006793 859.185630 17.529307 0.000000 0.145787
432.000000 56.528000 5.000000 -6.000000 8.000000 104.574516 -4.346813 1056.811382 660.350190 17.695809 0.000000 0.155658
433.000000 53.337000 7.000000 -6.000000 8.000000 111.062241 7.359710 835.983320 523.064139 18.752318 0.000000 0.136518
434.000000 49.051000 9.000000 -6.000000 8.000000 114.471034 18.150069 622.171490 425.512776 20.389116 0.000000 0.094063
435.000000 50.600000 -1.000000 -5.000000 8.000000 68.094567 -40.850007 1905.672803 1513.147121 19.780018 0.000000 0.209917
436.000000 56.412000 0.000000 -5.000000 8.000000 78.068798 -36.120660 1760.441901 1222.541689 17.739738 0.000000 0.131820
437.000000 60.601000 1.000000 -5.000000 8.000000 87.335304 -30.858315 1618.085766 999.352612 16.511177 0.000000 0.106149
438.000000 63.078000 2.000000 -5.000000 8.000000 95.623451 -25.071478 1478.519877 823.999886 15.860413 0.000000 0.113405
439.000000 63.978000 3.000000 -5.000000 8.000000 102.747195 -18.812524 1341.662996 683.773500 15.635529 0.000000 0.126059
440.000000 63.573000 4.000000 -5.000000 8.000000 108.617363 -12.186469 1207.437006 570.065081 15.733573 0.000000 0.132704
441.000000 62.189000 5.000000 -5.000000 8.000000 113.237785 -5.348658 1075.766767 476.838271 16.082303 0.000000 0.130964
442.000000 60.139000 6.000000 -5.000000 8.000000 116.689621 1.512569 946.579972 399.736050 16.629528 0.000000 0.121021
443.000000 57.684000 7.000000 -5.000000 8.000000 119.108490 8.205038 819.807018 335.535660 17.336607 0.000000 0.103678
444.000000 55.023000 8.000000 -5.000000 8.000000 120.659067 14.563376 695.380876 281.802848 18.174315 0.000000 0.079860
445.000000 52.300000 9.000000 -5.000000 8.000000 121.511871 20.469779 573.236979 236.665274 19.120144 0.000000 0.050641
446.000000 49.611000 10.000000 -5.000000 8.000000 121.825936 25.859772 453.313105 198.659784 20.156475 0.000000 0.019459
447.000000 47.015000 11.000000 -5.000000 8.000000 121.738773 30.715503 335.549274 166.626896 21.269321 0.000000 0.029670
448.000000 57.758000 -1.000000 -4.000000 8.000000 74.448834 -46.369592 2104.019915 1375.081888 17.326450 0.000000 0.253408
449.000000 68.394000 1.000000 -4.000000 8.000000 95.476457 -35.900860 1754.131744 813.611316 14.627275 0.000000 0.076773
450.000000 70.985000 3.000000 -4.000000 8.000000 111.985636 -22.484891 1420.483212 470.711600 14.089685 0.000000 0.079602
451.000000 67.756000 5.000000 -4.000000 8.000000 122.582682 -6.728030 1101.969348 248.369548 14.758530 0.000000 0.088083
452.000000 61.840000 7.000000 -4.000000 8.000000 127.663874 9.360484 797.583203 99.017376 16.169157 0.000000 0.057109
453.000000 55.338000 9.000000 -4.000000 8.000000 128.810492 23.527247 506.405214 -3.176407 18.068376 0.000000 0.031281
454.000000 49.239000 11.000000 -4.000000 8.000000 127.745465 34.777095 227.593930 -73.417886 20.306455 0.000000 0.114499
458.000000 71.693000 0.000000 -3.000000 8.000000 92.786514 -48.185467 2178.155327 862.428023 13.954178 0.000000 0.222069
459.000000 76.028000 1.000000 -3.000000 8.000000 103.837300 -42.414932 1958.306214 581.913418 13.156347 0.000000 0.112873
460.000000 77.901000 2.000000 -3.000000 8.000000 113.577548 -35.576819 1744.892576 363.478400 12.838046 0.000000 0.041358
461.000000 77.657000 3.000000 -3.000000 8.000000 121.701473 -27.598448 1537.635918 190.876976 12.876811 0.000000 0.017193
462.000000 75.814000 4.000000 -3.000000 8.000000 128.031857 -18.555065 1336.273586 52.981911 13.188605 0.000000 0.031982
463.000000 72.906000 5.000000 -3.000000 8.000000 132.535355 -8.744806 1140.557655 -58.078477 13.713844 0.000000 0.033520
464.000000 69.386000 6.000000 -3.000000 8.000000 135.329298 1.317109 950.253914 -148.025309 14.409108 0.000000 0.022069
465.000000 65.593000 7.000000 -3.000000 8.000000 136.662341 11.033270 765.140926 -221.113002 15.242004 0.000000 0.022445
466.000000 61.760000 8.000000 -3.000000 8.000000 136.858804 19.917777 585.009174 -280.568037 16.187877 0.000000 0.058228
467.000000 58.033000 9.000000 -3.000000 8.000000 136.247815 27.711375 409.660265 -328.879309 17.227629 0.000000 0.108561
472.000000 83.438000 3.000000 -2.000000 8.000000 131.499375 -35.051381 1730.068687 -222.157062 11.982789 0.000000 0.158810
476.000000 45.504000 1.000000 -7.000000 9.000000 77.190996 -26.683392 1515.928781 1214.872980 21.993673 0.000000 0.118017
477.000000 47.762000 2.000000 -7.000000 9.000000 84.076869 -22.156098 1413.265827 1061.565984 20.951243 0.000000 0.128115
478.000000 49.120000 3.000000 -7.000000 9.000000 90.254175 -17.389957 1312.083001 935.996628 20.370199 0.000000 0.142657
479.000000 49.662000 4.000000 -7.000000 9.000000 95.657213 -12.436042 1212.348522 831.821598 20.145917 0.000000 0.153598
480.000000 49.517000 5.000000 -7.000000 9.000000 100.264056 -7.360487 1114.031513 744.482253 20.203182 0.000000 0.158757
481.000000 48.828000 6.000000 -7.000000 9.000000 104.091403 -2.240127 1017.101970 670.618609 20.486535 0.000000 0.157946
482.000000 47.736000 7.000000 -7.000000 9.000000 107.186433 2.844061 921.530728 607.699993 20.954184 0.000000 0.151581
483.000000 46.362000 8.000000 -7.000000 9.000000 109.617416 7.814452 827.289433 553.784325 21.574041 0.000000 0.140222
484.000000 51.270000 1.000000 -6.000000 9.000000 83.765327 -30.028285 1597.107426 1076.810764 19.517251 0.000000 0.112649
485.000000 53.483000 2.000000 -6.000000 9.000000 91.106970 -25.112275 1479.454296 918.032140 18.707440 0.000000 0.118984
486.000000 54.821000 4.000000 -6.000000 9.000000 103.190591 -14.327467 1249.893535 680.646180 18.247097 0.000000 0.140029
487.000000 54.256000 5.000000 -6.000000 9.000000 107.835253 -8.606189 1137.893135 590.765523 18.435535 0.000000 0.142713
488.000000 51.568000 7.000000 -6.000000 9.000000 114.459215 2.966149 919.231422 450.772621 19.394351 0.000000 0.129241
489.000000 49.761000 8.000000 -6.000000 9.000000 116.597318 8.586461 812.485940 395.986302 20.097832 0.000000 0.114059
490.000000 45.794000 10.000000 -6.000000 9.000000 119.045063 19.020798 603.965098 308.773937 21.837431 0.000000 0.069693
491.000000 49.162000 -1.000000 -5.000000 9.000000 72.793709 -43.280429 1988.554546 1398.822863 20.356865 0.000000 0.215258
492.000000 53.913000 0.000000 -5.000000 9.000000 82.090867 -38.959745 1845.314585 1133.290854 18.560394 0.000000 0.133278
493.000000 57.367000 1.000000 -5.000000 9.000000 90.778018 -34.141948 1704.855781 923.340503 17.440652 0.000000 0.092713
494.000000 59.468000 2.000000 -5.000000 9.000000 98.636758 -28.816354 1567.097913 754.414387 16.822119 0.000000 0.089127
495.000000 60.311000 3.000000 -5.000000 9.000000 105.506132 -23.004691 1431.963817 616.594044 16.585143 0.000000 0.100094
496.000000 60.087000 4.000000 -5.000000 9.000000 111.292766 -16.772033 1299.379242 502.889931 16.645349 0.000000 0.109250
497.000000 59.032000 5.000000 -5.000000 9.000000 115.971951 -10.231802 1169.272709 408.235820 16.941532 0.000000 0.111703
498.000000 57.380000 6.000000 -5.000000 9.000000 119.581533 -3.539585 1041.575389 328.870817 17.428215 0.000000 0.106735
499.000000 55.337000 7.000000 -5.000000 9.000000 122.210127 3.125955 916.220978 261.945231 18.070901 0.000000 0.094793
500.000000 53.068000 8.000000 -5.000000 9.000000 123.981217 9.590315 793.145583 205.261067 18.842948 0.000000 0.076684
501.000000 50.698000 9.000000 -5.000000 9.000000 125.035538 15.708866 672.287613 157.096397 19.723454 0.000000 0.053599
502.000000 48.315000 10.000000 -5.000000 9.000000 125.514913 21.382333 553.587677 116.083596 20.695790 0.000000 0.029106
503.000000 45.980000 11.000000 -5.000000 9.000000 125.550169 26.559275 436.988486 81.123108 21.746560 0.000000 0.026889
505.000000 54.930000 -1.000000 -4.000000 9.000000 78.598016 -48.670843 2198.863410 1269.684229 18.216945 0.000000 0.276791
506.000000 60.014000 0.000000 -4.000000 9.000000 88.677556 -44.285952 2024.796513 975.708225 16.671312 0.000000 0.162390
507.000000 63.535000 1.000000 -4.000000 9.000000 98.076493 -39.262809 1854.770620 743.739888 15.745061 0.000000 0.081502
508.000000 65.460000 2.000000 -4.000000 9.000000 106.531525 -33.546727 1688.646624 557.698371 15.279849 0.000000 0.036321
509.000000 65.939000 3.000000 -4.000000 9.000000 113.843028 -27.122107 1526.291734 406.563580 15.167069 0.000000 0.041161
510.000000 65.234000 4.000000 -4.000000 9.000000 119.888170 -20.039478 1367.579115 282.533289 15.329744 0.000000 0.057475
511.000000 63.643000 5.000000 -4.000000 9.000000 124.625996 -12.438024 1212.387562 179.930736 15.711791 0.000000 0.064506
512.000000 61.451000 6.000000 -4.000000 9.000000 128.096179 -4.547348 1060.601185 94.528822 16.271385 0.000000 0.061237
513.000000 58.896000 7.000000 -4.000000 9.000000 130.409944 3.344149 912.109128 23.116629 16.976699 0.000000 0.049266
514.000000 56.161000 8.000000 -4.000000 9.000000 131.731107 10.947889 766.805295 -36.787367 17.803083 0.000000 0.032671
515.000000 53.378000 9.000000 -4.000000 9.000000 132.249572 18.033829 624.588095 -87.130232 18.731151 0.000000 0.029040
516.000000 50.636000 10.000000 -4.000000 9.000000 132.154551 24.462267 485.360211 -129.460214 19.745445 0.000000 0.055571
517.000000 47.991000 11.000000 -4.000000 9.000000 131.614928 30.182238 349.028372 -165.023123 20.833489 0.000000 0.095961
518.000000 45.478000 12.000000 -4.000000 9.000000 130.769591 35.209055 215.503148 -194.832095 21.985104 0.000000 0.143623
521.000000 69.397000 1.000000 -3.000000 9.000000 105.386163 -45.692366 2077.625786 516.981831 14.412823 0.000000 0.173834
522.000000 71.098000 2.000000 -3.000000 9.000000 114.535023 -39.697990 1868.492945 302.481287 14.066069 0.000000 0.101178
523.000000 69.970000 4.000000 -3.000000 9.000000 128.818879 -24.592004 1467.584314 -11.328604 14.289886 0.000000 0.043575
524.000000 67.842000 5.000000 -3.000000 9.000000 133.695988 -15.591512 1275.334890 -126.672782 14.737354 0.000000 0.035098
525.000000 62.077000 7.000000 -3.000000 9.000000 139.007559 3.659871 906.156103 -299.995793 16.104894 0.000000 0.005951
526.000000 58.904000 8.000000 -3.000000 9.000000 139.784370 12.883336 728.825129 -364.789601 16.972171 0.000000 0.038596
539.000000 46.231000 2.000000 -7.000000 10.000000 87.562602 -25.142059 1480.136850 991.608681 21.643490 0.000000 0.121155
540.000000 47.413000 3.000000 -7.000000 10.000000 93.510809 -20.615971 1379.894860 870.449237 21.101994 0.000000 0.132746
541.000000 47.905000 4.000000 -7.000000 10.000000 98.765062 -15.874260 1281.067809 768.473392 20.883081 0.000000 0.142663
542.000000 47.808000 5.000000 -7.000000 10.000000 103.297262 -10.970016 1183.625949 681.894466 20.923856 0.000000 0.148130
543.000000 47.234000 6.000000 -7.000000 10.000000 107.111224 -5.969316 1087.540360 607.851406 21.176774 0.000000 0.148512
544.000000 46.294000 7.000000 -7.000000 10.000000 110.237694 -0.946575 992.782921 544.142536 21.605231 0.000000 0.143934
545.000000 49.156000 1.000000 -6.000000 10.000000 87.117578 -32.882075 1670.808451 1005.530049 20.355215 0.000000 0.103448
546.000000 52.066000 3.000000 -6.000000 10.000000 100.375551 -23.364100 1439.953670 726.335995 19.213208 0.000000 0.111927
547.000000 51.878000 5.000000 -6.000000 10.000000 110.447888 -12.643445 1216.437296 529.732647 19.279787 0.000000 0.125859
548.000000 49.652000 7.000000 -6.000000 10.000000 117.228233 -1.326090 999.914895 387.040899 20.141874 0.000000 0.118593
549.000000 46.392000 9.000000 -6.000000 10.000000 121.133949 9.749771 790.063255 281.340029 21.555381 0.000000 0.090929
550.000000 47.338000 -1.000000 -5.000000 10.000000 76.680263 -45.448212 2068.266605 1304.217689 21.139677 0.000000 0.227090
551.000000 54.162000 1.000000 -5.000000 10.000000 93.538422 -37.078851 1788.370633 857.579458 18.471379 0.000000 0.085385
552.000000 55.974000 2.000000 -5.000000 10.000000 101.002576 -32.184965 1652.384314 693.744324 17.871260 0.000000 0.064595
553.000000 56.773000 3.000000 -5.000000 10.000000 107.626197 -26.811238 1518.940353 557.847771 17.617858 0.000000 0.070743
554.000000 56.695000 4.000000 -5.000000 10.000000 113.318177 -20.991530 1387.968111 444.091489 17.640525 0.000000 0.082219
555.000000 54.597000 6.000000 -5.000000 10.000000 121.790244 -8.360181 1133.169090 266.758226 18.315970 0.000000 0.089132
556.000000 52.914000 7.000000 -5.000000 10.000000 124.628115 -1.820721 1009.213537 197.359133 18.897642 0.000000 0.082500
557.000000 50.997000 8.000000 -5.000000 10.000000 126.636566 4.649264 887.471938 137.964728 19.607202 0.000000 0.069854
558.000000 48.954000 9.000000 -5.000000 10.000000 127.924975 10.892448 767.885504 86.987848 20.425197 0.000000 0.052401
559.000000 52.015000 -1.000000 -4.000000 10.000000 81.971670 -50.687079 2289.369781 1180.609710 19.236557 0.000000 0.308845
560.000000 59.099000 1.000000 -4.000000 10.000000 100.089045 -42.199642 1950.911806 682.492145 16.926036 0.000000 0.109886
561.000000 61.335000 3.000000 -4.000000 10.000000 115.138084 -31.225290 1627.476471 350.396854 16.305273 0.000000 0.003905
562.000000 59.746000 5.000000 -4.000000 10.000000 125.996920 -17.680479 1318.085308 120.351520 16.736282 0.000000 0.040375
563.000000 55.962000 7.000000 -4.000000 10.000000 132.405544 -2.492083 1021.843019 -42.913280 17.866349 0.000000 0.038384
564.000000 51.312000 9.000000 -4.000000 10.000000 134.982033 12.421962 737.928821 -160.403456 19.484611 0.000000 0.023711
565.000000 46.594000 11.000000 -4.000000 10.000000 134.894540 25.328240 465.588850 -245.384434 21.457265 0.000000 0.079959
569.000000 63.686000 1.000000 -3.000000 10.000000 106.520736 -48.472451 2190.351382 459.482305 15.705007 0.000000 0.239035
570.000000 65.226000 2.000000 -3.000000 10.000000 115.120459 -43.190089 1985.357293 248.844211 15.332104 0.000000 0.163122
571.000000 65.505000 3.000000 -3.000000 10.000000 122.694697 -36.997061 1785.959371 76.023075 15.265293 0.000000 0.113501
572.000000 64.743000 4.000000 -3.000000 10.000000 129.089623 -29.821321 1591.931547 -66.810881 15.443597 0.000000 0.082967
573.000000 63.193000 5.000000 -3.000000 10.000000 134.203329 -21.688522 1403.059765 -185.522455 15.821230 0.000000 0.062038
574.000000 61.098000 6.000000 -3.000000 10.000000 137.997104 -12.780415 1219.141198 -284.588307 16.363139 0.000000 0.041790
575.000000 58.662000 7.000000 -3.000000 10.000000 140.509782 -3.455158 1039.983518 -367.482075 17.042036 0.000000 0.016920
576.000000 56.049000 8.000000 -3.000000 10.000000 141.863500 5.814215 865.404229 -436.938209 17.836360 0.000000 0.016750
586.000000 45.585000 3.000000 -7.000000 11.000000 96.228287 -23.627412 1445.834748 812.791810 21.946849 0.000000 0.118545
587.000000 46.046000 4.000000 -7.000000 11.000000 101.344666 -19.109648 1347.903280 712.469023 21.725234 0.000000 0.127839
588.000000 45.999000 5.000000 -7.000000 11.000000 105.809410 -14.399019 1251.325767 626.364997 21.745477 0.000000 0.134013
589.000000 45.534000 6.000000 -7.000000 11.000000 109.616558 -9.549935 1156.074321 552.007425 21.966219 0.000000 0.135917
590.000000 46.966000 1.000000 -6.000000 11.000000 89.898765 -35.480653 1742.165038 943.335344 21.303212 0.000000 0.095163
591.000000 48.611000 2.000000 -6.000000 11.000000 96.574957 -31.209160 1627.062183 795.954425 20.579934 0.000000 0.083778
592.000000 49.528000 3.000000 -6.000000 11.000000 102.613081 -26.592389 1513.789221 671.670326 20.196829 0.000000 0.089537
593.000000 49.790000 4.000000 -6.000000 11.000000 107.943308 -21.653723 1402.302859 566.004708 20.088942 0.000000 0.099115
594.000000 49.496000 5.000000 -6.000000 11.000000 112.527484 -16.438721 1292.561159 475.553235 20.206865 0.000000 0.105990
595.000000 48.755000 6.000000 -6.000000 11.000000 116.358524 -11.016058 1184.523486 397.682287 20.512351 0.000000 0.108136
596.000000 47.677000 7.000000 -6.000000 11.000000 119.457789 -5.474423 1078.150456 330.322926 20.975327 0.000000 0.105192
597.000000 46.357000 8.000000 -6.000000 11.000000 121.870734 0.084968 973.403890 271.827592 21.571823 0.000000 0.097367
598.000000 48.652000 0.000000 -5.000000 11.000000 88.076260 -43.757437 2005.595371 991.051362 20.565022 0.000000 0.157072
599.000000 51.103000 1.000000 -5.000000 11.000000 95.773425 -39.707985 1868.810125 799.546530 19.576083 0.000000 0.091338
600.000000 52.685000 2.000000 -5.000000 11.000000 102.872905 -35.211271 1734.559214 639.948342 18.985978 0.000000 0.049389
601.000000 53.445000 3.000000 -5.000000 11.000000 109.256791 -30.253836 1602.772851 505.712722 18.714297 0.000000 0.040349
602.000000 53.479000 4.000000 -5.000000 11.000000 114.839964 -24.846746 1473.383788 391.947891 18.700881 0.000000 0.052558
603.000000 52.912000 5.000000 -5.000000 11.000000 119.572963 -19.034704 1346.327201 294.924742 18.899830 0.000000 0.063993
604.000000 51.877000 6.000000 -5.000000 11.000000 123.442742 -12.901835 1221.540583 211.751544 19.275511 0.000000 0.069173
605.000000 50.501000 7.000000 -5.000000 11.000000 126.471525 -6.570168 1098.963639 140.152029 19.799841 0.000000 0.067677
606.000000 48.893000 8.000000 -5.000000 11.000000 128.713309 -0.188353 978.538194 78.310477 20.450389 0.000000 0.060127
607.000000 47.143000 9.000000 -5.000000 11.000000 130.247555 6.087853 860.208095 24.761318 21.209018 0.000000 0.047703
609.000000 52.624000 0.000000 -4.000000 11.000000 93.450919 -48.869890 2207.471238 842.327998 19.010475 0.000000 0.236385
610.000000 55.101000 1.000000 -4.000000 11.000000 101.669141 -44.774359 2042.850224 627.871757 18.153399 0.000000 0.150890
611.000000 56.597000 2.000000 -4.000000 11.000000 109.241579 -40.116187 1881.843738 449.745967 17.671604 0.000000 0.087213
612.000000 57.178000 3.000000 -4.000000 11.000000 116.029294 -34.846279 1724.334028 300.531041 17.490273 0.000000 0.043714
613.000000 56.968000 4.000000 -4.000000 11.000000 121.926301 -28.943314 1570.208403 174.663936 17.553238 0.000000 0.024484
614.000000 56.119000 5.000000 -4.000000 11.000000 126.863437 -22.433777 1419.358960 67.893265 17.817509 0.000000 0.028092
615.000000 54.787000 6.000000 -4.000000 11.000000 130.811836 -15.410959 1271.682338 -23.084410 18.249624 0.000000 0.032233
616.000000 53.116000 7.000000 -4.000000 11.000000 133.786049 -8.042603 1127.079478 -100.873703 18.823150 0.000000 0.029345
617.000000 51.226000 8.000000 -4.000000 11.000000 135.844596 -0.556569 985.455401 -167.554946 19.516924 0.000000 0.019998
618.000000 49.216000 9.000000 -4.000000 11.000000 137.084825 6.796886 846.719003 -224.808958 20.313808 0.000000 0.014708
619.000000 47.159000 10.000000 -4.000000 11.000000 137.630969 13.792665 710.782856 -274.007852 21.199772 0.000000 0.033785
623.000000 60.146000 2.000000 -3.000000 11.000000 115.461823 -46.166121 2096.021666 201.022621 16.626876 0.000000 0.225738
624.000000 60.543000 3.000000 -3.000000 11.000000 122.724955 -40.688145 1900.371754 28.882290 16.516175 0.000000 0.169099
625.000000 60.093000 4.000000 -3.000000 11.000000 129.024937 -34.323851 1709.854895 -115.278276 16.638522 0.000000 0.129223
626.000000 58.973000 5.000000 -3.000000 11.000000 134.261180 -27.036856 1524.271700 -236.581709 16.953308 0.000000 0.099163
627.000000 57.361000 6.000000 -3.000000 11.000000 138.371011 -18.896906 1343.432973 -339.013831 17.428841 0.000000 0.072424
628.000000 55.416000 7.000000 -3.000000 11.000000 141.341792 -10.122797 1167.159072 -425.720170 18.040026 0.000000 0.044259
640.000000 47.174000 5.000000 -6.000000 12.000000 114.172634 -19.982879 1366.374896 426.964307 21.200685 0.000000 0.083788
641.000000 45.705000 7.000000 -6.000000 12.000000 121.230144 -9.444994 1154.047842 279.430338 21.879703 0.000000 0.089598
642.000000 46.138000 0.000000 -5.000000 12.000000 90.328285 -45.788902 2081.348868 932.156123 21.684530 0.000000 0.181048
643.000000 48.241000 1.000000 -5.000000 12.000000 97.600824 -42.065826 1946.341057 747.534498 20.736477 0.000000 0.111249
644.000000 49.637000 2.000000 -5.000000 12.000000 104.362339 -37.930403 1813.789837 591.600774 20.151143 0.000000 0.057643
645.000000 50.359000 3.000000 -5.000000 12.000000 110.512420 -33.360781 1683.628763 458.883034 19.860673 0.000000 0.020586
646.000000 50.475000 4.000000 -5.000000 12.000000 115.973689 -28.352345 1555.793764 345.197741 19.813142 0.000000 0.020958
647.000000 50.080000 5.000000 -5.000000 12.000000 120.694228 -22.926130 1430.223040 247.292401 19.968141 0.000000 0.037799
648.000000 49.273000 6.000000 -5.000000 12.000000 124.648945 -17.136253 1306.856959 162.600872 20.293753 0.000000 0.048237
649.000000 48.154000 7.000000 -5.000000 12.000000 127.840125 -11.073210 1185.637967 89.071959 20.764432 0.000000 0.051581
650.000000 46.811000 8.000000 -5.000000 12.000000 130.296788 -4.859810 1066.510494 25.046905 21.359489 0.000000 0.048601
652.000000 51.517000 1.000000 -4.000000 12.000000 102.926421 -47.041349 2130.855563 578.509249 19.415819 0.000000 0.197351
653.000000 53.444000 3.000000 -4.000000 12.000000 116.630272 -38.041064 1817.136174 255.753060 18.712050 0.000000 0.088072
654.000000 52.780000 5.000000 -4.000000 12.000000 127.357515 -26.706838 1516.480585 21.254218 18.944657 0.000000 0.046186
655.000000 50.404000 7.000000 -4.000000 12.000000 134.674348 -13.232637 1228.089441 -152.153286 19.835571 0.000000 0.032389
656.000000 47.142000 9.000000 -4.000000 12.000000 138.638702 1.265317 951.227300 -281.778016 21.206908 0.000000 0.005790
660.000000 55.963000 4.000000 -3.000000 12.000000 128.748056 -38.196040 1821.839620 -158.068373 17.866429 0.000000 0.178454
661.000000 55.163000 5.000000 -3.000000 12.000000 134.019609 -31.689347 1639.456471 -281.313597 18.124485 0.000000 0.140943
667.000000 45.594000 1.000000 -5.000000 13.000000 99.109239 -44.185439 2021.118380 700.342676 21.939843 0.000000 0.140557
668.000000 46.836000 2.000000 -5.000000 13.000000 105.557140 -40.376325 1890.231636 547.672773 21.355945 0.000000 0.084737
669.000000 47.519000 3.000000 -5.000000 13.000000 111.480203 -36.163082 1761.663854 416.396124 21.046909 0.000000 0.041794
670.000000 47.695000 4.000000 -5.000000 13.000000 116.809287 -31.530949 1635.353949 302.894324 20.967409 0.000000 0.012145
671.000000 47.434000 5.000000 -5.000000 13.000000 121.493460 -26.483900 1511.242958 204.306113 21.081566 0.000000 0.016966
672.000000 46.812000 6.000000 -5.000000 13.000000 125.501335 -21.052100 1389.273957 118.339769 21.360610 0.000000 0.030256
673.000000 45.906000 7.000000 -5.000000 13.000000 128.822175 -15.297582 1269.391967 43.138613 21.781199 0.000000 0.036982
675.000000 48.308000 1.000000 -4.000000 13.000000 103.939341 -49.046698 2215.174919 533.428270 20.705378 0.000000 0.246230
676.000000 49.504000 2.000000 -4.000000 13.000000 110.757917 -45.205100 2059.027569 362.007283 20.202908 0.000000 0.181275
677.000000 50.094000 3.000000 -4.000000 13.000000 117.022218 -40.864002 1906.132383 215.162663 19.963254 0.000000 0.133293
678.000000 50.139000 4.000000 -4.000000 13.000000 122.651128 -35.979620 1756.388808 88.737573 19.943474 0.000000 0.099866
679.000000 49.722000 5.000000 -4.000000 13.000000 127.580273 -30.528234 1609.700392 -20.560520 20.109498 0.000000 0.077762
680.000000 48.930000 6.000000 -4.000000 13.000000 131.763837 -24.521111 1465.974578 -115.372362 20.433949 0.000000 0.062570
681.000000 47.849000 7.000000 -4.000000 13.000000 135.177368 -18.019899 1325.122514 -197.839717 20.894579 0.000000 0.049612
682.000000 46.558000 8.000000 -4.000000 13.000000 137.821440 -11.146042 1187.058861 -269.717158 21.473116 0.000000 0.035312
695.000000 47.086000 3.000000 -4.000000 14.000000 117.263237 -43.364884 1991.552083 178.075726 21.238372 0.000000 0.179013
696.000000 46.930000 5.000000 -4.000000 14.000000 127.607815 -33.936993 1699.248882 -58.325087 21.305657 0.000000 0.113243
697.000000 45.459000 7.000000 -4.000000 14.000000 135.384843 -22.390559 1418.409024 -238.797036 21.992995 0.000000 0.073992
#UB matrix in q= (UB) B0 G* 
#[[-0.685455783 -0.118329356 -0.717758164]
# [ 0.725852758 -0.033489802 -0.687669764]
# [ 0.057342332 -0.993192618  0.108893729]]
#B0 matrix in q= UB (B0) G*
#[[ 0.19670273 -0.          0.03056101]
# [ 0.          0.19187965 -0.        ]
# [ 0.          0.          0.18806537]]
#UBB0 matrix in q= (UB B0) G* i.e. recip. basis vectors are columns in LT frame: astar = UBB0[:,0], bstar = UBB0[:,1], cstar = UBB0[:,2]. (abcstar as columns on xyzlab1, xlab1 = ui, ui = unit vector along incident beam)
#[[-0.13483103 -0.022705   -0.15593367]
# [ 0.14277722 -0.00642601 -0.10714408]
# [ 0.01127939 -0.19057345  0.02223158]]
#Euler angles phi theta psi (deg)
#[  3.307  83.756 133.72 ]
#deviatoric strain in direct crystal frame (10-3 unit)
#[[-4.6   0.06  0.81]
# [ 0.06 -5.23  0.2 ]
# [ 0.81  0.2   9.83]]
#deviatoric strain in sample2 frame (10-3 unit)
#[[-1.05  4.8  -4.51]
# [ 4.81  1.42 -5.31]
# [-4.51 -5.3  -0.37]]
#new lattice parameters
#[ 5.1505     5.2082972  5.3182635 89.989076  99.1794665 89.9932025]
#CCDLabel
#sCMOS
#DetectorParameters
#[79.0, 975.0, 941.0, 0.0, 0.0]
#pixelsize
#0.0734
#Frame dimensions
#[2018, 2016]
#
