#Strain and Orientation Refinement from experimental file: /home/micha/LaueProjects/DepthEffects/testZrO2_37.cor
#File created at Wed Jun 28 14:20:33 2023 with indexingSpotsSet.py
#Number of indexed spots: 523
#Element
#ZrO2
#grainIndex
#G_0
#Mean Deviation(pixel): 0.116
##spot_index intensity h k l 2theta Chi Xexp Yexp Energy GrainIndex PixDev
12.000000 185.794000 2.000000 1.000000 0.000000 60.542056 43.288149 -38.828193 1776.119308 5.384157 0.000000 0.271869
13.000000 115.901000 3.000000 1.000000 0.000000 52.948342 35.296575 213.037755 1936.584571 8.632333 0.000000 0.235487
14.000000 81.810000 4.000000 1.000000 0.000000 48.496563 31.215218 322.782232 2054.552618 12.230341 0.000000 0.242784
15.000000 62.433000 5.000000 1.000000 0.000000 45.634343 28.762154 384.227677 2141.881245 16.026968 0.000000 0.258845
16.000000 50.164000 6.000000 1.000000 0.000000 43.653975 27.130545 423.508157 2208.560368 19.947172 0.000000 0.275459
18.000000 71.976000 5.000000 2.000000 0.000000 56.200596 38.531685 117.904640 1862.044815 13.899487 0.000000 0.242946
19.000000 48.104000 7.000000 2.000000 0.000000 50.455213 32.967197 276.922061 2000.191045 20.799329 0.000000 0.237020
22.000000 52.000000 7.000000 3.000000 0.000000 57.507109 39.904495 74.934834 1834.591589 19.238560 0.000000 0.249092
24.000000 53.662000 7.000000 4.000000 0.000000 63.250248 46.586254 -162.602454 1730.351484 18.640401 0.000000 0.306198
35.000000 151.927000 3.000000 1.000000 1.000000 79.124664 23.919960 497.603380 1167.209678 6.583023 0.000000 0.120601
36.000000 106.075000 4.000000 1.000000 1.000000 68.904470 22.643869 526.014755 1390.890409 9.430361 0.000000 0.099178
37.000000 79.559000 5.000000 1.000000 1.000000 62.308206 21.902800 542.271369 1549.816056 12.574808 0.000000 0.089031
38.000000 62.794000 6.000000 1.000000 1.000000 57.728796 21.418741 552.798718 1671.069341 15.933007 0.000000 0.096970
39.000000 51.442000 7.000000 1.000000 1.000000 54.374410 21.077794 560.171776 1767.582512 19.450116 0.000000 0.115057
40.000000 153.250000 3.000000 2.000000 1.000000 91.427355 41.276950 30.219277 905.315125 6.524284 0.000000 0.104295
41.000000 112.911000 4.000000 2.000000 1.000000 80.414149 35.480724 207.832947 1164.217172 8.857100 0.000000 0.113212
42.000000 86.780000 5.000000 2.000000 1.000000 72.590392 32.045952 301.255833 1339.158702 11.525924 0.000000 0.118496
43.000000 69.222000 6.000000 2.000000 1.000000 66.861560 29.788801 358.879804 1470.959629 14.450966 0.000000 0.118077
44.000000 56.919000 7.000000 2.000000 1.000000 62.526116 28.196814 397.973122 1576.017689 17.575844 0.000000 0.119193
45.000000 47.962000 8.000000 2.000000 1.000000 59.147523 27.015400 426.236238 1662.683898 20.859589 0.000000 0.124087
47.000000 109.768000 4.000000 3.000000 1.000000 87.603581 47.878500 -215.260311 1008.157251 9.109165 0.000000 0.205445
48.000000 87.896000 5.000000 3.000000 1.000000 80.110673 42.117780 1.886643 1193.959001 11.377549 0.000000 0.151411
49.000000 71.835000 6.000000 3.000000 1.000000 74.142759 38.205716 127.866047 1330.061016 13.922989 0.000000 0.142673
50.000000 59.924000 7.000000 3.000000 1.000000 69.380101 35.399535 210.130605 1437.826088 16.692117 0.000000 0.140798
51.000000 50.922000 8.000000 3.000000 1.000000 65.534160 33.297657 268.069812 1526.909714 19.644441 0.000000 0.140266
53.000000 84.798000 5.000000 4.000000 1.000000 85.028007 51.538343 -379.947577 1091.538302 11.791788 0.000000 0.294927
54.000000 71.366000 6.000000 4.000000 1.000000 79.524034 46.318656 -152.012086 1229.153602 14.012767 0.000000 0.207830
55.000000 60.725000 7.000000 4.000000 1.000000 74.830610 42.462860 -9.959294 1336.552855 16.469700 0.000000 0.177356
56.000000 52.300000 8.000000 4.000000 1.000000 70.863642 39.522701 87.055033 1425.156931 19.124355 0.000000 0.165890
57.000000 45.578000 9.000000 4.000000 1.000000 67.506242 37.217854 157.519426 1500.657310 21.946335 0.000000 0.160845
60.000000 59.844000 7.000000 5.000000 1.000000 78.944899 49.188209 -271.380261 1262.744773 16.710713 0.000000 0.263326
61.000000 52.358000 8.000000 5.000000 1.000000 75.135795 45.549632 -122.144470 1348.915868 19.101520 0.000000 0.216316
62.000000 46.157000 9.000000 5.000000 1.000000 71.787061 42.650792 -16.465651 1422.493486 21.669113 0.000000 0.194019
64.000000 51.424000 8.000000 6.000000 1.000000 78.434565 51.263183 -366.667152 1292.988849 19.446680 0.000000 0.313322
65.000000 45.905000 9.000000 6.000000 1.000000 75.259144 47.877906 -215.235497 1363.209051 21.786357 0.000000 0.255146
69.000000 168.459000 1.000000 -1.000000 2.000000 62.210535 -43.772353 2006.132629 1726.510780 5.938070 0.000000 0.290066
70.000000 130.595000 2.000000 -1.000000 2.000000 60.292327 -25.540255 1489.294563 1621.605472 7.660674 0.000000 0.124378
71.000000 98.434000 3.000000 -1.000000 2.000000 56.530870 -14.361243 1250.569488 1675.502357 10.164664 0.000000 0.078991
72.000000 76.149000 4.000000 -1.000000 2.000000 53.117233 -7.310074 1113.068830 1755.216373 13.140144 0.000000 0.075161
73.000000 60.934000 5.000000 -1.000000 2.000000 50.373597 -2.589292 1023.672667 1833.134647 16.421957 0.000000 0.098324
74.000000 50.250000 6.000000 -1.000000 2.000000 48.209067 0.750806 960.895384 1903.094324 19.914018 0.000000 0.127053
75.000000 194.780000 2.000000 0.000000 2.000000 90.847107 -13.348232 1230.382039 924.644190 5.133713 0.000000 0.158847
76.000000 135.841000 3.000000 0.000000 2.000000 78.578623 -3.333885 1037.697400 1158.805523 7.362966 0.000000 0.141153
77.000000 99.783000 4.000000 0.000000 2.000000 70.022094 2.104408 935.451157 1332.533187 10.025263 0.000000 0.097715
78.000000 76.976000 5.000000 0.000000 2.000000 63.978255 5.462609 872.073503 1468.846738 12.996934 0.000000 0.055165
79.000000 61.771000 6.000000 0.000000 2.000000 59.554685 7.728158 828.940663 1579.401322 16.197307 0.000000 0.029638
80.000000 51.124000 7.000000 0.000000 2.000000 56.202434 9.355036 797.688309 1671.161140 19.571514 0.000000 0.043922
81.000000 156.643000 3.000000 1.000000 2.000000 97.809243 11.517515 755.682792 790.355715 6.382738 0.000000 0.162917
82.000000 115.228000 4.000000 1.000000 2.000000 85.153298 13.565550 715.301934 1034.881575 8.678900 0.000000 0.151176
83.000000 88.554000 5.000000 1.000000 2.000000 76.409743 14.745429 691.727175 1210.050093 11.295039 0.000000 0.125078
84.000000 70.646000 6.000000 1.000000 2.000000 70.082984 15.512023 676.273941 1345.716719 14.159759 0.000000 0.098234
85.000000 58.091000 7.000000 1.000000 2.000000 65.321803 16.049939 665.362103 1455.602586 17.221434 0.000000 0.077313
86.000000 48.942000 8.000000 1.000000 2.000000 61.621774 16.448154 657.246200 1547.230836 20.441809 0.000000 0.067142
87.000000 156.967000 3.000000 2.000000 2.000000 110.472542 29.570725 364.306940 479.001214 6.367883 0.000000 0.051347
88.000000 119.997000 4.000000 2.000000 2.000000 96.609413 26.632561 435.266722 801.486912 8.331943 0.000000 0.112343
89.000000 94.171000 5.000000 2.000000 2.000000 86.585704 24.978804 473.600388 1011.839166 10.618991 0.000000 0.125524
90.000000 62.808000 7.000000 2.000000 2.000000 73.405349 23.184413 514.046227 1289.926274 15.925508 0.000000 0.109853
91.000000 45.590000 9.000000 2.000000 2.000000 65.281431 22.229926 535.116526 1476.245882 21.943011 0.000000 0.091740
93.000000 116.172000 4.000000 3.000000 2.000000 103.657684 40.150204 67.063078 598.842637 8.604788 0.000000 0.067053
94.000000 94.296000 5.000000 3.000000 2.000000 93.943504 35.600587 204.432297 849.749335 10.603008 0.000000 0.079609
95.000000 77.726000 6.000000 3.000000 2.000000 86.266565 32.638313 285.666596 1024.401277 12.865458 0.000000 0.103279
96.000000 65.157000 7.000000 3.000000 2.000000 80.149795 30.566241 339.336991 1158.039026 15.348882 0.000000 0.111890
97.000000 55.507000 8.000000 3.000000 2.000000 75.207376 29.039183 377.437779 1266.088532 18.018979 0.000000 0.112487
98.000000 47.978000 9.000000 3.000000 2.000000 71.153392 27.868630 405.885775 1356.575470 20.848197 0.000000 0.109937
100.000000 90.580000 5.000000 4.000000 2.000000 98.552765 45.910742 -136.066288 708.358705 11.036737 0.000000 0.151238
101.000000 65.422000 7.000000 4.000000 2.000000 85.437243 37.958714 135.355017 1049.937822 15.284947 0.000000 0.106032
102.000000 49.243000 9.000000 4.000000 2.000000 76.182355 33.566299 260.823968 1258.690731 20.310339 0.000000 0.117232
104.000000 73.606000 6.000000 5.000000 2.000000 94.802365 49.466110 -283.670366 801.864715 13.582600 0.000000 0.225660
105.000000 64.097000 7.000000 5.000000 2.000000 89.323265 45.123109 -105.929412 959.017629 15.599306 0.000000 0.154300
106.000000 56.141000 8.000000 5.000000 2.000000 84.518957 41.808448 12.396249 1079.555203 17.811690 0.000000 0.131921
107.000000 49.519000 9.000000 5.000000 2.000000 80.337051 39.211619 96.832291 1177.518129 20.195501 0.000000 0.127812
108.000000 61.713000 7.000000 6.000000 2.000000 91.982891 51.862055 -395.778375 880.660229 16.200763 0.000000 0.288650
109.000000 48.995000 9.000000 6.000000 2.000000 83.648933 44.699229 -90.053285 1109.533438 20.409502 0.000000 0.167322
112.000000 47.879000 9.000000 7.000000 2.000000 86.194415 49.940739 -304.986633 1052.241517 20.884191 0.000000 0.252573
116.000000 71.613000 3.000000 -2.000000 3.000000 50.703716 -28.415306 1557.321785 1942.476486 13.971863 0.000000 0.216879
117.000000 61.149000 4.000000 -2.000000 3.000000 49.873932 -20.489012 1377.174696 1909.424338 16.363547 0.000000 0.171300
118.000000 52.227000 5.000000 -2.000000 3.000000 48.692617 -14.542000 1254.190526 1918.095793 19.159561 0.000000 0.155993
119.000000 150.809000 1.000000 -1.000000 3.000000 76.470482 -50.731658 2291.458059 1350.164417 6.631317 0.000000 0.333417
120.000000 127.245000 2.000000 -1.000000 3.000000 74.612174 -33.895266 1698.110663 1297.860221 7.860203 0.000000 0.128886
121.000000 102.641000 3.000000 -1.000000 3.000000 70.355648 -22.153599 1413.211104 1355.813262 9.745619 0.000000 0.107524
122.000000 82.701000 4.000000 -1.000000 3.000000 65.936327 -14.125767 1245.861070 1436.617282 12.096652 0.000000 0.082949
123.000000 67.646000 5.000000 -1.000000 3.000000 62.055427 -8.494677 1135.751032 1518.273896 14.789872 0.000000 0.052679
124.000000 56.394000 6.000000 -1.000000 3.000000 58.810432 -4.399270 1057.802535 1594.484526 17.741931 0.000000 0.026040
125.000000 47.887000 7.000000 -1.000000 3.000000 56.126283 -1.315738 999.720332 1663.713850 20.894519 0.000000 0.026169
126.000000 186.632000 2.000000 1.000000 3.000000 125.489202 -11.379960 1191.627263 158.203161 5.354479 0.000000 0.067775
127.000000 145.404000 3.000000 1.000000 3.000000 109.406747 -0.841542 990.809396 561.793579 6.874620 0.000000 0.154692
128.000000 113.817000 4.000000 1.000000 3.000000 96.997072 4.408053 892.031503 808.511607 8.784561 0.000000 0.172590
129.000000 90.850000 5.000000 1.000000 3.000000 87.620284 7.501392 833.276560 986.114512 11.007354 0.000000 0.163497
130.000000 74.167000 6.000000 1.000000 3.000000 80.441195 9.529647 794.317547 1124.781848 13.485056 0.000000 0.144027
131.000000 61.846000 7.000000 1.000000 3.000000 74.830191 10.958819 766.592290 1238.234101 16.173199 0.000000 0.121395
132.000000 52.547000 8.000000 1.000000 3.000000 70.352202 12.018966 745.854189 1333.875514 19.037092 0.000000 0.099195
134.000000 146.986000 3.000000 2.000000 3.000000 123.015246 16.155003 663.224003 212.887739 6.798968 0.000000 0.068305
135.000000 117.827000 4.000000 2.000000 3.000000 108.670633 17.014937 645.636971 560.661247 8.483654 0.000000 0.127515
136.000000 95.473000 5.000000 2.000000 3.000000 97.811713 17.487661 635.900525 786.186648 10.472057 0.000000 0.147824
137.000000 78.651000 6.000000 2.000000 3.000000 89.446353 17.786606 629.717241 951.922615 12.713944 0.000000 0.148075
138.000000 65.927000 7.000000 2.000000 3.000000 82.869532 17.992707 625.442250 1082.563859 15.169579 0.000000 0.138767
139.000000 56.168000 8.000000 2.000000 3.000000 77.595485 18.143399 622.310237 1190.113446 17.807120 0.000000 0.125405
140.000000 48.555000 9.000000 2.000000 3.000000 73.289062 18.258378 619.916868 1281.258615 20.600750 0.000000 0.111073
141.000000 138.439000 3.000000 3.000000 3.000000 129.910490 36.167393 188.211907 -174.150131 7.217870 0.000000 0.140970
142.000000 114.901000 4.000000 3.000000 3.000000 116.244276 31.128234 325.014199 321.107224 8.698300 0.000000 0.009083
143.000000 95.450000 5.000000 3.000000 3.000000 105.323310 28.367564 393.837058 605.841959 10.472969 0.000000 0.080293
144.000000 67.850000 7.000000 3.000000 3.000000 89.590118 25.443187 462.943376 949.526696 14.737516 0.000000 0.124073
145.000000 58.269000 8.000000 3.000000 3.000000 83.862245 24.577712 482.740348 1068.271067 17.162605 0.000000 0.125087
146.000000 107.707000 4.000000 4.000000 3.000000 119.804603 45.213041 -109.328078 65.856937 9.278582 0.000000 0.210017
147.000000 92.025000 5.000000 4.000000 3.000000 110.054573 39.430167 89.972465 432.324694 10.861585 0.000000 0.063235
148.000000 78.776000 6.000000 4.000000 3.000000 101.784497 35.684824 202.036301 664.546977 12.690218 0.000000 0.052751
149.000000 67.865000 7.000000 4.000000 3.000000 94.848409 33.081940 273.855924 832.042133 14.732467 0.000000 0.084749
150.000000 58.952000 8.000000 4.000000 3.000000 89.025699 31.175186 323.809952 962.393331 16.961653 0.000000 0.103407
151.000000 51.667000 9.000000 4.000000 3.000000 84.108738 29.721200 360.564673 1068.881338 19.355359 0.000000 0.111853
152.000000 45.678000 10.000000 4.000000 3.000000 79.924033 28.577190 388.741053 1158.783244 21.894617 0.000000 0.114159
154.000000 75.776000 6.000000 5.000000 3.000000 105.098530 44.505105 -82.859967 533.846689 13.191642 0.000000 0.130552
155.000000 66.406000 7.000000 5.000000 3.000000 98.666754 40.643904 51.072679 724.786192 15.054841 0.000000 0.079448
156.000000 58.453000 8.000000 5.000000 3.000000 93.063722 37.765090 141.190421 868.129024 17.104798 0.000000 0.082039
157.000000 51.754000 9.000000 5.000000 3.000000 88.201914 35.546386 205.971294 982.526604 19.320730 0.000000 0.095414
158.000000 46.116000 10.000000 5.000000 3.000000 83.978141 33.788976 254.783634 1077.613432 21.684828 0.000000 0.105311
159.000000 63.942000 7.000000 6.000000 3.000000 101.196433 47.879316 -215.294388 623.355540 15.633780 0.000000 0.191122
160.000000 57.063000 8.000000 6.000000 3.000000 96.043807 44.177850 -70.841178 782.106644 17.520242 0.000000 0.125569
161.000000 45.921000 10.000000 6.000000 3.000000 87.317474 38.953285 104.886098 1005.845631 21.774935 0.000000 0.103755
163.000000 55.065000 8.000000 7.000000 3.000000 98.094213 50.269787 -320.012663 701.521257 18.154867 0.000000 0.244579
164.000000 49.846000 9.000000 7.000000 3.000000 93.856061 46.805421 -171.354340 835.013847 20.057597 0.000000 0.171775
166.000000 48.218000 9.000000 8.000000 3.000000 95.588438 52.046310 -404.891323 769.767269 20.733657 0.000000 0.291543
170.000000 48.152000 4.000000 -3.000000 4.000000 46.140317 -29.691823 1588.703861 2131.607531 20.780212 0.000000 0.284905
172.000000 74.960000 3.000000 -2.000000 4.000000 61.774075 -33.575527 1689.425749 1634.423587 13.345539 0.000000 0.173328
173.000000 56.595000 5.000000 -2.000000 4.000000 58.430769 -19.274667 1351.378737 1641.615801 17.678310 0.000000 0.096290
175.000000 115.125000 2.000000 -1.000000 4.000000 83.378017 -40.326375 1888.616039 1104.896685 8.686164 0.000000 0.134358
176.000000 98.211000 3.000000 -1.000000 4.000000 79.796315 -28.737763 1565.176230 1161.940762 10.183236 0.000000 0.117081
177.000000 82.613000 4.000000 -1.000000 4.000000 75.492162 -20.232262 1371.687419 1237.819968 12.107295 0.000000 0.119606
178.000000 69.624000 5.000000 -1.000000 4.000000 71.334983 -13.979114 1242.933606 1315.669492 14.367293 0.000000 0.106922
179.000000 59.207000 6.000000 -1.000000 4.000000 67.624106 -9.291357 1151.083246 1389.977375 16.896351 0.000000 0.086043
180.000000 50.928000 7.000000 -1.000000 4.000000 64.409367 -5.691077 1082.259163 1459.010737 19.644238 0.000000 0.062043
182.000000 141.298000 2.000000 0.000000 4.000000 106.035496 -35.000472 1728.642578 563.358336 7.074448 0.000000 0.039339
183.000000 117.914000 3.000000 0.000000 4.000000 98.443377 -21.951050 1408.781859 768.746203 8.478872 0.000000 0.129472
184.000000 80.860000 5.000000 0.000000 4.000000 84.182916 -7.494593 1116.593509 1051.595023 12.368132 0.000000 0.156652
185.000000 57.826000 7.000000 0.000000 4.000000 73.913849 -0.254353 979.778024 1251.377637 17.298002 0.000000 0.120253
186.000000 155.493000 2.000000 1.000000 4.000000 127.880289 -25.921996 1498.131125 10.060480 6.426443 0.000000 0.036827
187.000000 129.796000 3.000000 1.000000 4.000000 115.933515 -12.109026 1205.914856 405.690825 7.700341 0.000000 0.114818
188.000000 107.149000 4.000000 1.000000 4.000000 105.121903 -4.378654 1057.412980 649.300675 9.329795 0.000000 0.163080
189.000000 88.833000 5.000000 1.000000 4.000000 96.140972 0.397614 967.530748 825.196033 11.255383 0.000000 0.174214
190.000000 74.459000 6.000000 1.000000 4.000000 88.825904 3.600269 907.280225 963.101951 13.430222 0.000000 0.168196
191.000000 63.231000 7.000000 1.000000 4.000000 82.858525 5.883880 864.081838 1076.564994 15.816832 0.000000 0.154114
192.000000 54.404000 8.000000 1.000000 4.000000 77.946958 7.589426 831.593849 1172.846016 18.384887 0.000000 0.136511
193.000000 47.385000 9.000000 1.000000 4.000000 73.858814 8.909584 806.272362 1256.299099 21.109589 0.000000 0.117838
195.000000 132.415000 3.000000 2.000000 4.000000 130.149291 2.274754 932.246554 32.376413 7.546389 0.000000 0.054397
196.000000 110.850000 4.000000 2.000000 4.000000 116.988779 7.107647 840.794583 388.621377 9.016366 0.000000 0.122343
197.000000 92.821000 5.000000 2.000000 4.000000 106.365582 9.804250 789.009477 620.247275 10.769622 0.000000 0.153518
198.000000 66.794000 7.000000 2.000000 4.000000 90.861198 12.700421 732.438297 924.415514 14.970682 0.000000 0.160285
199.000000 50.248000 9.000000 2.000000 4.000000 80.405894 14.225513 702.145680 1128.682772 19.903990 0.000000 0.138795
201.000000 109.182000 4.000000 3.000000 4.000000 125.386687 21.010711 561.618459 122.044226 9.152703 0.000000 0.035055
202.000000 93.031000 5.000000 3.000000 4.000000 114.207375 20.558381 571.339591 424.216190 10.743660 0.000000 0.091876
203.000000 79.522000 6.000000 3.000000 4.000000 105.097238 20.280199 577.289463 631.460440 12.570814 0.000000 0.124597
204.000000 68.459000 7.000000 3.000000 4.000000 97.619328 20.091836 581.306107 787.692322 14.604431 0.000000 0.139177
205.000000 59.450000 8.000000 3.000000 4.000000 91.420623 19.955841 584.200059 912.603247 16.819567 0.000000 0.142764
206.000000 52.098000 9.000000 3.000000 4.000000 86.227303 19.853042 586.384307 1016.456914 19.195139 0.000000 0.139857
207.000000 46.060000 10.000000 3.000000 4.000000 81.830113 19.772606 588.091404 1105.199798 21.713211 0.000000 0.133242
208.000000 90.321000 5.000000 4.000000 4.000000 119.385493 32.091756 300.057643 225.581174 11.064898 0.000000 0.018829
209.000000 68.426000 7.000000 4.000000 4.000000 102.959615 27.863393 406.011644 660.835819 14.609680 0.000000 0.091012
210.000000 52.964000 9.000000 4.000000 4.000000 91.210030 25.703964 456.922834 915.769743 18.878910 0.000000 0.122422
211.000000 85.745000 5.000000 5.000000 4.000000 122.053468 43.529676 -47.425138 11.449377 11.654728 0.000000 0.193063
212.000000 75.821000 6.000000 5.000000 4.000000 113.963082 38.930444 105.595354 326.061600 13.181960 0.000000 0.069886
213.000000 67.049000 7.000000 5.000000 4.000000 106.857107 35.747263 200.257052 539.173316 14.908388 0.000000 0.033854
214.000000 59.460000 8.000000 5.000000 4.000000 100.674169 33.426563 264.598521 697.928827 16.813197 0.000000 0.065433
215.000000 52.961000 9.000000 5.000000 4.000000 95.302828 31.664953 311.176232 823.628846 18.878376 0.000000 0.089897
216.000000 47.415000 10.000000 5.000000 4.000000 90.626194 30.284524 346.454334 927.377524 21.088260 0.000000 0.104495
217.000000 64.724000 7.000000 6.000000 4.000000 109.419378 43.451990 -44.652474 418.330695 15.442944 0.000000 0.122755
218.000000 52.245000 9.000000 6.000000 4.000000 98.514853 37.609234 145.865471 737.591415 19.135478 0.000000 0.063867
220.000000 56.129000 8.000000 7.000000 4.000000 105.670242 46.627045 -164.225963 501.346531 17.808895 0.000000 0.172292
221.000000 50.989000 9.000000 7.000000 4.000000 100.905273 43.412116 -43.232128 655.543018 19.605569 0.000000 0.109767
222.000000 46.401000 10.000000 7.000000 4.000000 96.566645 40.836780 44.761346 777.240273 21.546237 0.000000 0.086068
223.000000 49.356000 9.000000 8.000000 4.000000 102.567510 48.965922 -261.648667 575.521399 20.253755 0.000000 0.217570
227.000000 55.916000 3.000000 -3.000000 5.000000 54.877480 -40.711317 1901.129043 1939.758491 17.891707 0.000000 0.308574
228.000000 51.401000 4.000000 -3.000000 5.000000 54.973999 -33.423460 1685.317784 1844.830892 19.464078 0.000000 0.220168
229.000000 46.631000 5.000000 -3.000000 5.000000 54.470146 -27.320051 1530.993980 1806.050270 21.456037 0.000000 0.172082
231.000000 80.712000 2.000000 -2.000000 5.000000 70.471490 -47.607959 2154.021511 1507.209922 12.391953 0.000000 0.299146
232.000000 73.490000 3.000000 -2.000000 5.000000 69.949478 -37.936423 1813.971619 1439.056899 13.610459 0.000000 0.169683
233.000000 65.503000 4.000000 -2.000000 5.000000 68.357198 -29.990169 1596.152579 1434.083803 15.271112 0.000000 0.126415
234.000000 57.875000 5.000000 -2.000000 5.000000 66.287082 -23.576720 1444.700708 1456.806384 17.284775 0.000000 0.105326
235.000000 51.081000 6.000000 -2.000000 5.000000 64.094636 -18.412390 1333.293964 1491.949287 19.584764 0.000000 0.087524
237.000000 102.401000 2.000000 -1.000000 5.000000 89.003173 -45.312991 2063.117984 967.630088 9.764317 0.000000 0.171943
238.000000 90.904000 3.000000 -1.000000 5.000000 86.293457 -34.237633 1707.482734 1025.339300 11.000263 0.000000 0.104345
239.000000 79.232000 4.000000 -1.000000 5.000000 82.544224 -25.617669 1491.081985 1097.207043 12.621925 0.000000 0.122887
240.000000 68.690000 5.000000 -1.000000 5.000000 78.586461 -18.996977 1345.534319 1170.799538 14.560511 0.000000 0.128665
241.000000 59.671000 6.000000 -1.000000 5.000000 74.823127 -13.879002 1240.937340 1241.736382 16.762673 0.000000 0.121427
242.000000 52.137000 7.000000 -1.000000 5.000000 71.407966 -9.863652 1162.139907 1308.478447 19.186399 0.000000 0.107008
243.000000 45.893000 8.000000 -1.000000 5.000000 68.373193 -6.658463 1100.644552 1370.615437 21.798156 0.000000 0.089083
244.000000 131.157000 2.000000 1.000000 5.000000 127.738637 -36.389513 1768.208554 -93.797799 7.618814 0.000000 0.136277
245.000000 114.709000 3.000000 1.000000 5.000000 119.307072 -21.706546 1403.451960 290.726439 8.712508 0.000000 0.058135
246.000000 98.671000 4.000000 1.000000 5.000000 110.467929 -12.444005 1212.505383 529.611874 10.130381 0.000000 0.134785
247.000000 84.540000 5.000000 1.000000 5.000000 102.418457 -6.363922 1095.039544 702.528384 11.825456 0.000000 0.165703
248.000000 72.668000 6.000000 1.000000 5.000000 95.441443 -2.154075 1015.483109 838.402217 13.759415 0.000000 0.173824
249.000000 62.889000 7.000000 1.000000 5.000000 89.492245 0.903081 958.034321 950.539546 15.900689 0.000000 0.169944
250.000000 54.880000 8.000000 1.000000 5.000000 84.433059 3.211864 914.602240 1046.069669 18.223041 0.000000 0.159626
251.000000 48.307000 9.000000 1.000000 5.000000 80.116382 5.011709 880.614803 1129.246012 20.704478 0.000000 0.145949
253.000000 117.780000 3.000000 2.000000 5.000000 133.479997 -10.560012 1175.645617 -97.235316 8.483611 0.000000 0.026601
254.000000 102.136000 4.000000 2.000000 5.000000 122.326097 -2.518069 1022.332098 259.250376 9.784721 0.000000 0.100511
255.000000 88.068000 5.000000 2.000000 5.000000 112.609476 2.198216 933.686502 492.442986 11.349590 0.000000 0.144289
256.000000 76.053000 6.000000 2.000000 5.000000 104.378039 5.259659 875.919466 663.927671 13.144751 0.000000 0.164073
257.000000 66.029000 7.000000 2.000000 5.000000 97.446721 7.396009 835.290009 799.140988 15.142169 0.000000 0.169594
258.000000 57.739000 8.000000 2.000000 5.000000 91.595424 8.967526 805.157000 910.651444 17.318181 0.000000 0.166678
259.000000 50.885000 9.000000 2.000000 5.000000 86.625603 10.170394 781.918184 1005.474102 19.652677 0.000000 0.158810
261.000000 101.531000 4.000000 3.000000 5.000000 131.489119 10.299163 779.420425 -26.448284 9.841638 0.000000 0.036751
262.000000 88.595000 5.000000 3.000000 5.000000 120.805526 12.416946 738.027626 283.888472 11.280480 0.000000 0.092535
263.000000 77.233000 6.000000 3.000000 5.000000 111.825287 13.716653 712.296302 497.307901 12.942000 0.000000 0.128010
264.000000 67.541000 7.000000 3.000000 5.000000 104.270450 14.594736 694.751924 658.119204 14.801067 0.000000 0.146742
265.000000 59.384000 8.000000 3.000000 5.000000 97.883295 15.227452 682.023503 786.549008 16.836196 0.000000 0.154308
266.000000 52.547000 9.000000 3.000000 5.000000 92.446266 15.704931 672.367375 893.236150 19.028908 0.000000 0.154692
267.000000 46.809000 10.000000 3.000000 5.000000 87.782766 16.078014 664.790979 984.367586 21.363223 0.000000 0.150528
268.000000 97.866000 4.000000 4.000000 5.000000 137.252989 25.644375 458.300877 -350.684458 10.209315 0.000000 0.095386
269.000000 86.678000 5.000000 4.000000 5.000000 126.599027 23.999212 495.820653 66.064424 11.528855 0.000000 0.022843
270.000000 76.503000 6.000000 4.000000 5.000000 117.510689 23.015104 517.805301 331.984943 13.064041 0.000000 0.063300
271.000000 67.574000 7.000000 4.000000 5.000000 109.765630 22.360631 532.248454 522.793441 14.792195 0.000000 0.100236
272.000000 59.884000 8.000000 4.000000 5.000000 103.146194 21.894042 542.462473 670.083736 16.693707 0.000000 0.122238
273.000000 53.318000 9.000000 4.000000 5.000000 97.460542 21.544630 550.067653 789.470035 18.751539 0.000000 0.133812
274.000000 47.726000 10.000000 4.000000 5.000000 92.547491 21.273197 555.950316 889.612646 20.950815 0.000000 0.138395
275.000000 74.320000 6.000000 5.000000 5.000000 121.356426 32.746327 282.801805 161.223100 13.446705 0.000000 0.038142
276.000000 66.402000 7.000000 5.000000 5.000000 113.856293 30.453373 342.193435 388.862054 15.052067 0.000000 0.027882
277.000000 59.402000 8.000000 5.000000 5.000000 107.312931 28.814335 382.951491 558.096380 16.827901 0.000000 0.070040
278.000000 53.294000 9.000000 5.000000 5.000000 101.603834 27.586239 412.656051 691.645549 18.758455 0.000000 0.096464
280.000000 71.168000 6.000000 6.000000 5.000000 123.489168 42.372474 -6.843937 -22.875355 14.041681 0.000000 0.182786
281.000000 64.345000 7.000000 6.000000 5.000000 116.592559 38.563387 116.931053 251.934742 15.532405 0.000000 0.077836
282.000000 58.144000 8.000000 6.000000 5.000000 110.394707 35.795395 198.883571 447.655474 17.190563 0.000000 0.025541
283.000000 52.608000 9.000000 6.000000 5.000000 104.867507 33.701981 257.147193 597.552139 19.001555 0.000000 0.047916
284.000000 47.714000 10.000000 6.000000 5.000000 99.950224 32.067357 300.696044 718.188710 20.952430 0.000000 0.075080
286.000000 61.707000 7.000000 7.000000 5.000000 118.128260 46.377209 -154.320501 107.018667 16.195842 0.000000 0.223384
287.000000 56.328000 8.000000 7.000000 5.000000 112.474101 42.634068 -15.885071 335.795243 17.744064 0.000000 0.120252
288.000000 51.411000 9.000000 7.000000 5.000000 107.293462 39.754455 79.713916 505.129742 19.443010 0.000000 0.062753
289.000000 46.975000 10.000000 7.000000 5.000000 102.588165 37.481077 149.694967 638.126157 21.280571 0.000000 0.050474
292.000000 49.846000 9.000000 8.000000 5.000000 108.962308 45.614496 -124.631929 412.314855 20.052659 0.000000 0.161375
293.000000 45.888000 10.000000 8.000000 5.000000 104.571412 42.779411 -20.941253 559.814444 21.783819 0.000000 0.101473
299.000000 52.135000 4.000000 -3.000000 6.000000 62.080167 -36.720003 1777.829712 1652.538285 19.187718 0.000000 0.200283
300.000000 47.792000 5.000000 -3.000000 6.000000 61.355340 -30.673574 1613.385550 1624.539018 20.932568 0.000000 0.153081
302.000000 69.958000 3.000000 -2.000000 6.000000 76.069826 -41.630089 1931.589991 1298.158007 14.295893 0.000000 0.176674
303.000000 57.256000 5.000000 -2.000000 6.000000 72.594151 -27.462262 1534.382644 1321.260598 17.469614 0.000000 0.116109
304.000000 46.007000 7.000000 -2.000000 6.000000 68.100053 -17.768724 1319.912320 1395.340145 21.743653 0.000000 0.096477
305.000000 91.147000 2.000000 -1.000000 6.000000 92.797718 -49.237539 2223.551766 860.444577 10.969019 0.000000 0.239946
306.000000 83.194000 3.000000 -1.000000 6.000000 90.860681 -38.821342 1841.023078 920.246687 12.018433 0.000000 0.098728
307.000000 74.532000 4.000000 -1.000000 6.000000 87.767441 -30.323409 1604.525631 989.609940 13.416489 0.000000 0.108838
308.000000 66.185000 5.000000 -1.000000 6.000000 84.223136 -23.538256 1443.840821 1059.769268 15.109754 0.000000 0.128940
309.000000 58.641000 6.000000 -1.000000 6.000000 80.648937 -18.136691 1327.550224 1127.501030 17.055180 0.000000 0.134719
310.000000 52.046000 7.000000 -1.000000 6.000000 77.258277 -13.806311 1239.488933 1191.617945 19.217703 0.000000 0.130384
311.000000 46.376000 8.000000 -1.000000 6.000000 74.140353 -10.294577 1170.490594 1251.773975 21.568473 0.000000 0.120069
312.000000 104.154000 2.000000 0.000000 6.000000 109.806433 -47.104515 2133.413638 371.516692 9.596516 0.000000 0.210079
313.000000 83.688000 4.000000 0.000000 6.000000 101.063051 -25.705484 1493.112341 707.446671 11.945833 0.000000 0.106229
314.000000 73.764000 5.000000 0.000000 6.000000 95.838917 -18.686979 1339.032914 824.810214 13.554515 0.000000 0.144715
315.000000 57.291000 7.000000 0.000000 6.000000 86.284513 -9.217026 1149.649874 1011.807175 17.455351 0.000000 0.159455
316.000000 50.789000 8.000000 0.000000 6.000000 82.200772 -5.956694 1087.300660 1089.219489 19.691744 0.000000 0.152446
318.000000 101.569000 3.000000 1.000000 6.000000 120.861923 -29.562489 1585.488559 201.560644 9.839366 0.000000 0.013449
319.000000 90.107000 4.000000 1.000000 6.000000 113.875391 -19.599470 1358.239933 435.305314 11.092419 0.000000 0.095139
320.000000 79.310000 5.000000 1.000000 6.000000 106.944702 -12.636428 1216.298856 604.939232 12.604198 0.000000 0.144653
321.000000 69.704000 6.000000 1.000000 6.000000 100.567366 -7.632034 1119.220830 738.416841 14.342966 0.000000 0.166464
322.000000 61.410000 7.000000 1.000000 6.000000 94.886773 -3.914011 1048.638804 848.764182 16.281969 0.000000 0.172907
323.000000 54.351000 8.000000 1.000000 6.000000 89.894248 -1.064980 995.007822 942.986893 18.398501 0.000000 0.170447
324.000000 48.375000 9.000000 1.000000 6.000000 85.524605 1.177586 952.876074 1025.258947 20.673163 0.000000 0.162746
325.000000 104.696000 3.000000 2.000000 6.000000 134.480082 -21.405560 1396.915604 -194.244939 9.543645 0.000000 0.055483
326.000000 82.463000 5.000000 2.000000 6.000000 116.996178 -5.076379 1070.609472 390.531955 12.120138 0.000000 0.124250
327.000000 64.198000 7.000000 2.000000 6.000000 102.766590 2.169134 934.233598 696.956991 15.572403 0.000000 0.168738
328.000000 50.702000 9.000000 2.000000 6.000000 91.985707 6.133394 859.342821 903.468960 19.721683 0.000000 0.170047
329.000000 93.455000 4.000000 3.000000 6.000000 135.141758 -0.296816 980.575696 -140.647831 10.691571 0.000000 0.022410
330.000000 83.256000 5.000000 3.000000 6.000000 125.458740 4.258325 894.860269 172.333577 12.003041 0.000000 0.082055
331.000000 65.613000 7.000000 3.000000 6.000000 109.652380 9.049368 803.580974 551.795405 15.234616 0.000000 0.146193
332.000000 58.413000 8.000000 3.000000 6.000000 103.308072 10.454596 776.402720 682.116995 17.114593 0.000000 0.158477
333.000000 46.897000 10.000000 3.000000 6.000000 93.023206 12.349095 739.363634 882.810324 21.321226 0.000000 0.162095
334.000000 82.038000 5.000000 4.000000 6.000000 131.880028 15.393140 678.677799 -59.932922 12.179941 0.000000 0.026884
335.000000 65.758000 7.000000 4.000000 6.000000 115.333326 16.658037 652.955282 409.151659 15.199409 0.000000 0.104195
336.000000 52.932000 9.000000 4.000000 6.000000 102.874742 17.281288 640.157230 683.364817 18.886627 0.000000 0.141138
338.000000 79.324000 5.000000 5.000000 6.000000 135.995689 27.851598 406.295117 -319.367790 12.596013 0.000000 0.103665
339.000000 71.810000 6.000000 5.000000 6.000000 127.319894 26.013710 449.737365 27.995470 13.915540 0.000000 0.029650
340.000000 64.838000 7.000000 5.000000 6.000000 119.688880 24.812489 477.397505 264.961608 15.413755 0.000000 0.041209
341.000000 58.537000 8.000000 5.000000 6.000000 112.990270 23.966636 496.553704 441.270268 17.074994 0.000000 0.078459
342.000000 52.931000 9.000000 5.000000 6.000000 107.105113 23.339025 510.605159 580.267173 18.885367 0.000000 0.104154
343.000000 47.988000 10.000000 5.000000 6.000000 101.921564 22.854950 521.352431 694.406328 20.832521 0.000000 0.120556
345.000000 63.104000 7.000000 6.000000 6.000000 122.707145 33.219897 270.158831 114.823104 15.836333 0.000000 0.052261
347.000000 60.805000 7.000000 7.000000 6.000000 124.483592 41.528718 21.813115 -46.496153 16.434467 0.000000 0.175898
348.000000 55.834000 8.000000 7.000000 6.000000 118.480517 38.282378 125.531362 197.138966 17.899441 0.000000 0.084910
349.000000 51.233000 9.000000 7.000000 6.000000 112.997924 35.833633 197.791259 377.533422 19.508785 0.000000 0.028030
350.000000 47.035000 10.000000 7.000000 6.000000 108.022267 33.927126 251.020379 518.978316 21.251700 0.000000 0.033080
352.000000 49.788000 9.000000 8.000000 6.000000 114.743845 41.980712 6.556163 273.716888 20.074271 0.000000 0.119969
356.000000 54.803000 3.000000 -3.000000 7.000000 68.017438 -46.418315 2105.944015 1571.225799 18.251080 0.000000 0.292728
357.000000 51.403000 4.000000 -3.000000 7.000000 67.822775 -39.634981 1866.495458 1510.685673 19.458992 0.000000 0.196748
358.000000 47.632000 5.000000 -3.000000 7.000000 67.039309 -33.700852 1692.822165 1489.098899 21.000790 0.000000 0.150072
360.000000 65.734000 3.000000 -2.000000 7.000000 80.737762 -44.774171 2042.843207 1188.252489 15.212985 0.000000 0.194861
361.000000 60.771000 4.000000 -2.000000 7.000000 79.505287 -37.319592 1795.498290 1191.704267 16.456465 0.000000 0.129455
362.000000 55.567000 5.000000 -2.000000 7.000000 77.665693 -30.958154 1620.633440 1215.441306 17.998560 0.000000 0.117754
363.000000 50.522000 6.000000 -2.000000 7.000000 75.524416 -25.590804 1490.461428 1249.081590 19.797380 0.000000 0.116924
364.000000 45.844000 7.000000 -2.000000 7.000000 73.285959 -21.076001 1389.789538 1287.361389 21.818521 0.000000 0.113674
366.000000 75.995000 3.000000 -1.000000 7.000000 94.153081 -42.654173 1966.583062 834.736716 13.156034 0.000000 0.120778
367.000000 69.519000 4.000000 -1.000000 7.000000 91.677295 -34.418059 1712.452451 902.794847 14.382603 0.000000 0.090648
368.000000 62.956000 5.000000 -1.000000 7.000000 88.611885 -27.618565 1538.117179 970.434661 15.883348 0.000000 0.116765
369.000000 56.745000 6.000000 -1.000000 7.000000 85.347887 -22.056864 1411.094166 1035.498095 17.623008 0.000000 0.133652
370.000000 51.098000 7.000000 -1.000000 7.000000 82.120092 -17.503411 1314.424721 1097.195500 19.572119 0.000000 0.138903
371.000000 46.078000 8.000000 -1.000000 7.000000 79.053219 -13.751132 1238.390065 1155.315977 21.705871 0.000000 0.136272
373.000000 90.506000 3.000000 1.000000 7.000000 121.409947 -35.888580 1753.780235 129.764486 11.041792 0.000000 0.081424
374.000000 82.172000 4.000000 1.000000 7.000000 115.981813 -25.805945 1495.438770 358.376062 12.163021 0.000000 0.048525
375.000000 73.901000 5.000000 1.000000 7.000000 110.157627 -18.338709 1331.757146 524.765016 13.525864 0.000000 0.115376
376.000000 66.188000 6.000000 1.000000 7.000000 104.488999 -12.761326 1218.764193 655.827708 15.103679 0.000000 0.150111
377.000000 59.252000 7.000000 1.000000 7.000000 99.223347 -8.511344 1136.071114 764.281996 16.873604 0.000000 0.166530
378.000000 53.140000 8.000000 1.000000 7.000000 94.443747 -5.198980 1072.931128 857.011449 18.815906 0.000000 0.171901
379.000000 47.815000 9.000000 1.000000 7.000000 90.153006 -2.561118 1023.142358 938.122912 20.913466 0.000000 0.170395
380.000000 93.489000 3.000000 2.000000 7.000000 134.209157 -30.101481 1598.943151 -269.193776 10.687708 0.000000 0.119086
381.000000 85.106000 4.000000 2.000000 7.000000 127.167156 -19.203454 1349.878066 76.940975 11.741665 0.000000 0.032125
382.000000 76.728000 5.000000 2.000000 7.000000 119.963905 -11.827333 1200.385493 307.045918 13.025358 0.000000 0.096652
383.000000 68.861000 6.000000 2.000000 7.000000 113.171889 -6.661452 1100.701466 477.193417 14.515145 0.000000 0.137577
384.000000 61.743000 7.000000 2.000000 7.000000 106.994054 -2.898139 1029.487659 611.644698 16.190515 0.000000 0.160106
385.000000 55.438000 8.000000 2.000000 7.000000 101.465788 -0.057031 976.071325 722.694533 18.033595 0.000000 0.170819
386.000000 49.921000 9.000000 2.000000 7.000000 96.551979 2.153817 934.521743 817.295160 20.028734 0.000000 0.173840
388.000000 85.714000 4.000000 3.000000 7.000000 136.981078 -10.110592 1166.922495 -230.614682 11.656799 0.000000 0.024477
389.000000 77.702000 5.000000 3.000000 7.000000 128.551077 -3.598503 1042.686471 81.614808 12.860369 0.000000 0.063236
390.000000 70.073000 6.000000 3.000000 7.000000 120.826956 0.625804 963.243887 298.675026 14.262323 0.000000 0.109273
391.000000 63.084000 7.000000 3.000000 7.000000 113.914856 3.558419 908.069461 462.796167 15.844112 0.000000 0.138804
392.000000 56.831000 8.000000 3.000000 7.000000 107.788006 5.702903 867.516464 593.970613 17.589433 0.000000 0.156174
393.000000 51.311000 9.000000 3.000000 7.000000 102.373080 7.335126 836.452807 702.943263 19.483892 0.000000 0.165017
394.000000 46.471000 10.000000 3.000000 7.000000 97.585071 8.617130 811.896629 796.040745 21.514739 0.000000 0.167926
396.000000 77.038000 5.000000 4.000000 7.000000 135.493204 6.631721 849.864603 -161.361120 12.969915 0.000000 0.018871
397.000000 69.949000 6.000000 4.000000 7.000000 127.160561 9.173737 801.184618 114.645739 14.286044 0.000000 0.064812
398.000000 63.347000 7.000000 4.000000 7.000000 119.775324 10.861532 768.487715 313.983149 15.776799 0.000000 0.101866
399.000000 57.354000 8.000000 4.000000 7.000000 113.253890 12.061832 745.012326 468.059655 17.427223 0.000000 0.127386
400.000000 51.999000 9.000000 4.000000 7.000000 107.496257 12.958470 727.339462 592.856815 19.224021 0.000000 0.143580
401.000000 47.256000 10.000000 4.000000 7.000000 102.403861 13.653428 713.554401 697.401554 21.155335 0.000000 0.152800
404.000000 68.721000 6.000000 5.000000 7.000000 131.951325 18.863410 607.269836 -81.353910 14.540273 0.000000 0.027703
405.000000 62.680000 7.000000 5.000000 7.000000 124.423994 18.907859 606.337156 161.312482 15.943406 0.000000 0.049280
406.000000 57.102000 8.000000 5.000000 7.000000 117.751625 18.938897 605.685580 342.283847 17.502568 0.000000 0.083522
407.000000 52.045000 9.000000 5.000000 7.000000 111.834658 18.961798 605.204668 485.013730 19.205431 0.000000 0.108879
408.000000 47.509000 10.000000 5.000000 7.000000 106.578415 18.979392 604.835131 602.163565 21.040933 0.000000 0.126057
410.000000 66.662000 6.000000 6.000000 7.000000 135.100162 29.297111 371.083168 -297.472003 14.988652 0.000000 0.109337
411.000000 61.275000 7.000000 6.000000 7.000000 127.792409 27.460364 415.662657 0.390544 16.308013 0.000000 0.040546
412.000000 56.208000 8.000000 6.000000 7.000000 121.227013 26.182082 445.815572 213.873458 17.779927 0.000000 0.024952
413.000000 51.538000 9.000000 6.000000 7.000000 115.342310 25.242034 467.569569 377.454882 19.392928 0.000000 0.059761
414.000000 47.290000 10.000000 6.000000 7.000000 110.068545 24.522017 484.004865 508.820298 21.136668 0.000000 0.087060
416.000000 54.816000 8.000000 7.000000 7.000000 123.690164 33.578377 260.497121 79.751326 18.230512 0.000000 0.063001
417.000000 50.583000 9.000000 7.000000 7.000000 118.017561 31.660817 311.283488 268.162789 19.757844 0.000000 0.006327
418.000000 46.675000 10.000000 7.000000 7.000000 112.865726 30.186527 348.920543 415.907887 21.413994 0.000000 0.035133
420.000000 53.067000 8.000000 8.000000 7.000000 125.212449 40.886502 43.128376 -63.741569 18.830757 0.000000 0.170960
421.000000 49.287000 9.000000 8.000000 7.000000 119.901058 38.060343 132.279787 154.928062 20.276595 0.000000 0.090840
422.000000 45.743000 10.000000 8.000000 7.000000 114.991870 35.864742 196.901794 321.926798 21.849310 0.000000 0.035310
424.000000 47.748000 9.000000 9.000000 7.000000 121.068098 44.285585 -74.783080 35.183914 20.929599 0.000000 0.200358
427.000000 52.691000 3.000000 -3.000000 8.000000 72.677862 -48.718984 2200.939022 1449.803648 18.981084 0.000000 0.308284
428.000000 49.874000 4.000000 -3.000000 8.000000 72.501087 -42.218281 1951.549994 1399.191060 20.054019 0.000000 0.201024
429.000000 46.673000 5.000000 -3.000000 8.000000 71.748809 -36.432661 1769.459992 1382.154735 21.430222 0.000000 0.150734
430.000000 61.455000 3.000000 -2.000000 8.000000 84.368196 -47.467549 2148.234350 1098.002352 16.271244 0.000000 0.225152
431.000000 53.339000 5.000000 -2.000000 8.000000 81.766120 -34.097821 1703.646309 1129.080571 18.748814 0.000000 0.114091
433.000000 69.570000 3.000000 -1.000000 8.000000 96.586666 -45.879567 2084.857289 762.483428 14.370337 0.000000 0.165756
434.000000 64.664000 4.000000 -1.000000 8.000000 94.644324 -37.978906 1815.255323 830.075732 15.461438 0.000000 0.082748
435.000000 59.490000 5.000000 -1.000000 8.000000 92.048658 -31.269249 1628.606243 895.956698 16.807427 0.000000 0.098716
436.000000 54.407000 6.000000 -1.000000 8.000000 89.140634 -25.645686 1491.729438 958.908512 18.378984 0.000000 0.123420
437.000000 49.626000 7.000000 -1.000000 8.000000 86.151152 -20.949308 1387.058475 1018.534329 20.151118 0.000000 0.137227
438.000000 76.358000 3.000000 0.000000 8.000000 109.049089 -43.801994 2007.201017 426.089369 13.090146 0.000000 0.139780
439.000000 64.719000 5.000000 0.000000 8.000000 102.357601 -27.791160 1542.253387 674.450472 15.446625 0.000000 0.090908
440.000000 53.583000 7.000000 0.000000 8.000000 94.557897 -17.215782 1308.493637 851.174957 18.660194 0.000000 0.149994
441.000000 81.270000 3.000000 1.000000 8.000000 121.415004 -40.976303 1909.827097 70.302758 12.296642 0.000000 0.155476
442.000000 75.088000 4.000000 1.000000 8.000000 117.233132 -31.122174 1624.830465 293.939600 13.310126 0.000000 0.002478
443.000000 68.697000 5.000000 1.000000 8.000000 112.409100 -23.447818 1441.820968 457.235623 14.549701 0.000000 0.080657
444.000000 62.505000 6.000000 1.000000 8.000000 107.462282 -17.500400 1314.362539 585.992971 15.992728 0.000000 0.127491
445.000000 56.739000 7.000000 1.000000 8.000000 102.681019 -12.848937 1220.494977 692.601287 17.619493 0.000000 0.153379
446.000000 51.503000 8.000000 1.000000 8.000000 98.204214 -9.156614 1148.485358 783.819873 19.412748 0.000000 0.166321
447.000000 46.817000 9.000000 1.000000 8.000000 94.084471 -6.177490 1091.495149 863.694577 21.357340 0.000000 0.170942
449.000000 71.235000 5.000000 2.000000 8.000000 121.887020 -17.944643 1323.559904 237.165790 14.029264 0.000000 0.064004
450.000000 58.974000 7.000000 2.000000 8.000000 110.306879 -7.738374 1121.254786 539.059363 16.949352 0.000000 0.145612
451.000000 48.728000 9.000000 2.000000 8.000000 100.405213 -1.732316 1007.551259 743.271444 20.517509 0.000000 0.171662
453.000000 78.627000 4.000000 3.000000 8.000000 137.582746 -18.734978 1340.038004 -302.888231 12.707423 0.000000 0.061482
454.000000 72.312000 5.000000 3.000000 8.000000 130.451865 -10.899938 1182.260398 6.460409 13.818579 0.000000 0.040279
455.000000 66.106000 6.000000 3.000000 8.000000 123.584742 -5.575214 1080.061519 222.928034 15.117445 0.000000 0.090536
456.000000 60.252000 7.000000 3.000000 8.000000 117.222203 -1.781284 1008.471987 387.064858 16.587857 0.000000 0.125966
457.000000 54.874000 8.000000 3.000000 8.000000 111.433533 1.036288 955.531328 518.408941 18.215457 0.000000 0.148579
458.000000 50.014000 9.000000 3.000000 8.000000 106.211723 3.201777 914.792315 627.579560 19.987444 0.000000 0.161963
459.000000 45.666000 10.000000 3.000000 8.000000 101.517467 4.913555 882.472518 720.874793 21.892372 0.000000 0.168767
460.000000 72.058000 5.000000 4.000000 8.000000 137.744021 -1.887206 1010.463754 -244.302081 13.865803 0.000000 0.008670
461.000000 60.618000 7.000000 4.000000 8.000000 123.228625 5.087948 879.171489 233.135364 16.486159 0.000000 0.093944
462.000000 50.686000 9.000000 4.000000 8.000000 111.387615 8.624612 811.752851 514.652121 19.720647 0.000000 0.141489
464.000000 65.362000 6.000000 5.000000 8.000000 135.387533 11.492512 756.171936 -172.273459 15.286777 0.000000 0.021135
465.000000 60.179000 7.000000 5.000000 8.000000 128.160257 12.852333 729.437904 73.514675 16.605201 0.000000 0.050175
466.000000 55.296000 8.000000 5.000000 8.000000 121.666294 13.801550 710.605894 257.404586 18.073106 0.000000 0.083841
467.000000 50.788000 9.000000 5.000000 8.000000 115.840138 14.501390 696.623510 402.616450 19.679482 0.000000 0.109711
468.000000 46.677000 10.000000 5.000000 8.000000 110.612024 15.038570 685.831128 521.833918 21.414371 0.000000 0.128096
470.000000 59.079000 7.000000 6.000000 8.000000 131.905754 21.362735 554.012200 -96.158911 16.913379 0.000000 0.034423
471.000000 50.391000 9.000000 6.000000 8.000000 119.508202 20.753943 567.143877 289.589070 19.833161 0.000000 0.065951
473.000000 57.474000 7.000000 7.000000 8.000000 134.431966 30.315997 345.661231 -281.306986 17.384850 0.000000 0.113485
474.000000 53.425000 8.000000 7.000000 8.000000 128.123837 28.548334 389.443734 -20.557480 18.704007 0.000000 0.050422
475.000000 49.580000 9.000000 7.000000 8.000000 122.368413 27.259232 420.452588 173.566303 20.156255 0.000000 0.016076
476.000000 45.988000 10.000000 7.000000 8.000000 117.129659 26.278432 443.566255 325.967503 21.732839 0.000000 0.043921
478.000000 48.446000 9.000000 8.000000 8.000000 124.437454 33.859157 252.873399 52.296496 20.627572 0.000000 0.071437
480.000000 47.071000 9.000000 9.000000 8.000000 125.769306 40.381437 59.602866 -76.884538 21.229318 0.000000 0.167248
483.000000 47.952000 4.000000 -3.000000 9.000000 76.349364 -44.514569 2033.209535 1307.568876 20.856318 0.000000 0.211796
485.000000 57.393000 3.000000 -2.000000 9.000000 87.245044 -49.790962 2248.214846 1021.224883 17.421879 0.000000 0.265219
486.000000 54.319000 4.000000 -2.000000 9.000000 86.482513 -42.973737 1977.738702 1031.421974 18.408348 0.000000 0.148286
487.000000 50.890000 5.000000 -2.000000 9.000000 85.106554 -36.916869 1783.600222 1056.254591 19.649795 0.000000 0.110586
488.000000 47.355000 6.000000 -2.000000 9.000000 83.339608 -31.613038 1637.478329 1088.581203 21.117773 0.000000 0.111658
490.000000 63.932000 3.000000 -1.000000 9.000000 98.427880 -48.615031 2196.462026 699.788606 15.636823 0.000000 0.221681
491.000000 60.160000 4.000000 -1.000000 9.000000 96.929100 -41.081232 1913.290683 767.473477 16.618303 0.000000 0.096608
492.000000 56.051000 5.000000 -1.000000 9.000000 94.761434 -34.529463 1715.531736 832.180322 17.837343 0.000000 0.081389
493.000000 51.890000 6.000000 -1.000000 9.000000 92.212054 -28.918723 1569.605344 893.503701 19.269223 0.000000 0.107804
494.000000 47.861000 7.000000 -1.000000 9.000000 89.494191 -24.146336 1457.494668 951.412899 20.892537 0.000000 0.128576
496.000000 68.862000 4.000000 1.000000 9.000000 117.928297 -35.653177 1747.062967 238.837525 14.513165 0.000000 0.055968
497.000000 63.869000 5.000000 1.000000 9.000000 113.966325 -27.982730 1546.859755 399.220773 15.649106 0.000000 0.042465
498.000000 58.875000 6.000000 1.000000 9.000000 109.701121 -21.834816 1406.245830 525.822242 16.977717 0.000000 0.100485
499.000000 54.089000 7.000000 1.000000 9.000000 105.421945 -16.902916 1302.063042 630.689830 18.481852 0.000000 0.135284
500.000000 49.624000 8.000000 1.000000 9.000000 101.294998 -12.913790 1221.776933 720.454738 20.146342 0.000000 0.155449
501.000000 45.534000 9.000000 1.000000 9.000000 97.405326 -9.650194 1158.011558 799.104162 21.957715 0.000000 0.166007
503.000000 71.260000 4.000000 2.000000 9.000000 127.990961 -31.606341 1637.304863 -46.026537 14.022767 0.000000 0.083131
504.000000 66.148000 5.000000 2.000000 9.000000 123.061915 -23.394163 1440.623941 177.639605 15.107641 0.000000 0.029649
505.000000 61.026000 6.000000 2.000000 9.000000 117.916873 -17.130671 1306.742130 344.251149 16.377344 0.000000 0.087944
506.000000 56.102000 7.000000 2.000000 9.000000 112.870828 -12.302688 1209.723004 476.330261 17.816322 0.000000 0.126694
507.000000 51.498000 8.000000 2.000000 9.000000 108.085366 -8.517240 1136.184356 585.597427 19.410720 0.000000 0.150724
508.000000 47.272000 9.000000 2.000000 9.000000 103.631317 -5.494034 1078.522248 678.789657 21.148156 0.000000 0.164758
509.000000 72.281000 4.000000 3.000000 9.000000 137.399952 -26.057568 1501.283113 -361.894397 13.823060 0.000000 0.108942
510.000000 67.269000 5.000000 3.000000 9.000000 131.481728 -17.495159 1314.254299 -56.767383 14.854268 0.000000 0.027647
511.000000 57.318000 7.000000 3.000000 9.000000 119.735861 -6.888337 1105.023626 321.729428 17.436364 0.000000 0.108867
512.000000 52.716000 8.000000 3.000000 9.000000 114.359509 -3.488002 1040.602763 452.783714 18.960320 0.000000 0.136743
514.000000 67.307000 5.000000 4.000000 9.000000 138.942468 -9.826864 1161.428034 -313.025994 14.844304 0.000000 0.030624
515.000000 62.480000 6.000000 4.000000 9.000000 132.189947 -4.352279 1056.914639 -37.401396 15.992718 0.000000 0.039584
516.000000 57.764000 7.000000 4.000000 9.000000 125.838635 -0.548593 985.305563 163.612646 17.299927 0.000000 0.081457
517.000000 53.290000 8.000000 4.000000 9.000000 119.978097 2.225397 933.175156 319.681096 18.754177 0.000000 0.113137
518.000000 49.128000 9.000000 4.000000 9.000000 114.621753 4.328890 893.527241 446.328431 20.344848 0.000000 0.135488
520.000000 61.943000 6.000000 5.000000 9.000000 137.790846 4.137935 897.133975 -248.707483 16.130211 0.000000 0.008046
521.000000 57.517000 7.000000 5.000000 9.000000 131.013983 6.777539 847.087582 -1.657027 17.372831 0.000000 0.045027
522.000000 53.273000 8.000000 5.000000 9.000000 124.818111 8.634969 811.553827 183.869195 18.758816 0.000000 0.079654
523.000000 49.285000 9.000000 5.000000 9.000000 119.181869 10.010369 785.019445 330.634346 20.278273 0.000000 0.106768
524.000000 45.594000 10.000000 5.000000 9.000000 114.065529 11.068705 764.449897 451.216082 21.922198 0.000000 0.126748
526.000000 56.685000 7.000000 6.000000 9.000000 135.125589 15.043965 685.722454 -178.387849 17.627005 0.000000 0.027414
527.000000 52.741000 8.000000 6.000000 9.000000 128.783567 15.687197 672.726811 42.685050 18.946608 0.000000 0.038606
528.000000 45.492000 10.000000 6.000000 9.000000 117.772752 16.510493 655.972695 349.812346 21.969445 0.000000 0.093729
530.000000 55.387000 7.000000 7.000000 9.000000 138.089101 24.041692 494.864178 -371.993827 18.039184 0.000000 0.089592
531.000000 51.788000 8.000000 7.000000 9.000000 131.817864 23.242019 512.765076 -106.968820 19.294554 0.000000 0.042302
532.000000 48.327000 9.000000 7.000000 9.000000 126.079689 22.665350 525.540955 91.100357 20.677974 0.000000 0.025960
534.000000 50.506000 8.000000 8.000000 9.000000 133.915052 31.072399 326.444729 -268.885255 19.783349 0.000000 0.116659
535.000000 47.353000 9.000000 8.000000 9.000000 128.368129 29.395742 368.644709 -37.003672 21.102302 0.000000 0.058791
539.000000 45.874000 4.000000 -3.000000 10.000000 79.547162 -46.562883 2111.673372 1229.794714 21.799300 0.000000 0.229000
540.000000 53.650000 3.000000 -2.000000 10.000000 89.564314 -51.809462 2343.190932 954.237493 18.636262 0.000000 0.311837
541.000000 48.403000 5.000000 -2.000000 10.000000 87.851225 -39.450286 1860.661202 993.298183 20.658052 0.000000 0.112318
542.000000 59.011000 3.000000 -1.000000 10.000000 99.850611 -50.954272 2301.945941 644.325054 16.940417 0.000000 0.282144
543.000000 56.064000 4.000000 -1.000000 10.000000 98.714227 -43.793165 2006.882657 712.460353 17.831421 0.000000 0.128621
544.000000 52.773000 5.000000 -1.000000 10.000000 96.922092 -37.440662 1799.100099 776.428537 18.944521 0.000000 0.073602
545.000000 49.353000 6.000000 -1.000000 10.000000 94.711509 -31.897197 1644.861141 836.517779 20.258622 0.000000 0.090193
546.000000 45.960000 7.000000 -1.000000 10.000000 92.272117 -27.102697 1525.831545 893.028474 21.755216 0.000000 0.115344
548.000000 60.207000 4.000000 0.000000 10.000000 108.526132 -41.908410 1940.988831 456.368968 16.601767 0.000000 0.105736
549.000000 52.721000 6.000000 0.000000 10.000000 103.123204 -29.115072 1574.428603 653.788057 18.961555 0.000000 0.080449
550.000000 48.979000 7.000000 0.000000 10.000000 100.017279 -24.139900 1457.349464 732.666763 20.411466 0.000000 0.116634
552.000000 63.420000 4.000000 1.000000 10.000000 118.263624 -39.515398 1862.714455 190.930749 15.758337 0.000000 0.111077
553.000000 59.471000 5.000000 1.000000 10.000000 115.025749 -31.987236 1647.209958 348.576854 16.805974 0.000000 0.007578
554.000000 55.418000 6.000000 1.000000 10.000000 111.376899 -25.770888 1494.626494 473.175479 18.036309 0.000000 0.070475
555.000000 51.435000 7.000000 1.000000 10.000000 107.585532 -20.663661 1380.917804 576.424603 19.434308 0.000000 0.113575
556.000000 47.635000 8.000000 1.000000 10.000000 103.825162 -16.455606 1292.905997 664.823189 20.986548 0.000000 0.140578
558.000000 61.521000 5.000000 2.000000 10.000000 123.711707 -28.196583 1552.021277 126.191148 16.243599 0.000000 0.023125
559.000000 53.254000 7.000000 2.000000 10.000000 114.831674 -16.561360 1295.067060 421.404616 18.768175 0.000000 0.104422
560.000000 45.664000 9.000000 2.000000 10.000000 106.314647 -9.106546 1147.520539 621.949438 21.891682 0.000000 0.154113
562.000000 62.644000 5.000000 3.000000 10.000000 131.898418 -23.333392 1439.269339 -110.659197 15.950751 0.000000 0.048865
563.000000 58.503000 6.000000 3.000000 10.000000 126.737214 -16.718740 1298.287503 102.210053 17.081227 0.000000 0.043241
564.000000 54.408000 7.000000 3.000000 10.000000 121.603967 -11.702651 1197.941756 264.698633 18.368190 0.000000 0.088502
565.000000 50.477000 8.000000 3.000000 10.000000 116.676670 -7.823096 1122.875994 395.149166 19.800287 0.000000 0.121528
566.000000 46.780000 9.000000 3.000000 10.000000 112.040576 -4.759128 1064.605816 503.754499 21.367234 0.000000 0.143999
567.000000 62.884000 5.000000 4.000000 10.000000 139.371068 -16.977751 1303.599235 -370.613999 15.888485 0.000000 0.063488
568.000000 54.913000 7.000000 4.000000 10.000000 127.747721 -5.949540 1087.164815 103.199655 18.197714 0.000000 0.065528
569.000000 47.429000 9.000000 4.000000 10.000000 117.275514 0.117941 972.784481 386.064295 21.072837 0.000000 0.126202
570.000000 58.593000 6.000000 5.000000 10.000000 139.335945 -2.966466 1030.774554 -313.577732 17.052058 0.000000 0.011333
571.000000 54.822000 7.000000 5.000000 10.000000 133.109601 0.817601 959.640418 -66.619303 18.226537 0.000000 0.035524
572.000000 51.144000 8.000000 5.000000 10.000000 127.298089 3.522287 908.750784 119.588533 19.538668 0.000000 0.071610
573.000000 47.636000 9.000000 5.000000 10.000000 121.927112 5.543495 870.539972 267.207763 20.979520 0.000000 0.100470
575.000000 54.215000 7.000000 6.000000 10.000000 137.545871 8.650250 811.260141 -248.995034 18.429528 0.000000 0.016953
576.000000 47.444000 9.000000 6.000000 10.000000 125.917617 11.501777 755.990701 145.411829 21.062982 0.000000 0.066841
579.000000 50.003000 8.000000 7.000000 10.000000 134.820799 17.733296 630.821392 -181.939583 19.982473 0.000000 0.034677
580.000000 46.908000 9.000000 7.000000 10.000000 129.190510 17.928592 626.773198 18.706898 21.302683 0.000000 0.030535
582.000000 46.087000 9.000000 8.000000 10.000000 131.717432 24.703631 479.877299 -115.191669 21.681151 0.000000 0.049753
586.000000 48.277000 4.000000 -2.000000 11.000000 91.075040 -47.388379 2144.984880 911.168235 20.710293 0.000000 0.203326
587.000000 45.981000 5.000000 -2.000000 11.000000 90.126486 -41.730856 1934.983468 937.816172 21.745371 0.000000 0.122387
589.000000 52.376000 4.000000 -1.000000 11.000000 100.128420 -46.173907 2096.326641 663.345284 19.086426 0.000000 0.169937
590.000000 49.713000 5.000000 -1.000000 11.000000 98.659158 -40.043208 1879.502130 726.893735 20.109824 0.000000 0.082825
591.000000 46.886000 6.000000 -1.000000 11.000000 96.757316 -34.605092 1717.626871 786.062136 21.323336 0.000000 0.074789
593.000000 58.663000 4.000000 1.000000 11.000000 118.367045 -42.818424 1972.302480 148.714560 17.036035 0.000000 0.167012
594.000000 55.501000 5.000000 1.000000 11.000000 115.729229 -35.516417 1743.178648 303.783412 18.007557 0.000000 0.042498
595.000000 52.186000 6.000000 1.000000 11.000000 112.623406 -29.328853 1579.701068 426.521529 19.152600 0.000000 0.038804
596.000000 48.860000 7.000000 1.000000 11.000000 109.287731 -24.132938 1457.192432 528.273195 20.457891 0.000000 0.089257
597.000000 45.622000 8.000000 1.000000 11.000000 105.890467 -19.775353 1361.966865 615.401382 21.911476 0.000000 0.122676
599.000000 57.350000 5.000000 2.000000 11.000000 123.998779 -32.404422 1658.153652 81.177861 17.424993 0.000000 0.060422
600.000000 53.936000 6.000000 2.000000 11.000000 120.250896 -25.842726 1496.291512 243.552176 18.529097 0.000000 0.026775
601.000000 50.509000 7.000000 2.000000 11.000000 116.312698 -20.501851 1377.449572 372.774494 19.787882 0.000000 0.079597
602.000000 47.169000 8.000000 2.000000 11.000000 112.369218 -16.140889 1286.488645 479.883057 21.190342 0.000000 0.116055
604.000000 58.448000 5.000000 3.000000 11.000000 131.897370 -28.436837 1557.844749 -157.109498 17.095814 0.000000 0.085129
605.000000 55.036000 6.000000 3.000000 11.000000 127.491218 -21.564269 1400.358820 53.255520 18.156733 0.000000 0.025117
606.000000 51.600000 7.000000 3.000000 11.000000 122.956141 -16.187005 1287.427698 214.412949 19.367373 0.000000 0.065782
607.000000 48.241000 8.000000 3.000000 11.000000 118.486577 -11.934455 1202.486847 344.042990 20.717550 0.000000 0.103631
610.000000 55.503000 6.000000 4.000000 11.000000 134.194449 -16.256995 1288.853742 -149.031751 18.002311 0.000000 0.032003
611.000000 52.142000 7.000000 4.000000 11.000000 129.087484 -11.040621 1185.002414 50.222896 19.164116 0.000000 0.047675
612.000000 48.840000 8.000000 4.000000 11.000000 124.132593 -7.067062 1108.431248 205.815399 20.461697 0.000000 0.085156
613.000000 45.664000 9.000000 4.000000 11.000000 119.424961 -3.967006 1049.639032 332.463409 21.886395 0.000000 0.114193
615.000000 55.389000 6.000000 5.000000 11.000000 140.195995 -9.631468 1157.649640 -369.091604 18.038237 0.000000 0.035556
616.000000 52.174000 7.000000 5.000000 11.000000 134.571525 -4.907907 1067.420599 -123.217728 19.151189 0.000000 0.024919
617.000000 48.992000 8.000000 5.000000 11.000000 129.198634 -1.458412 1002.402017 62.954107 20.396462 0.000000 0.060510
618.000000 45.913000 9.000000 5.000000 11.000000 124.145636 1.153796 953.323144 210.895037 21.765953 0.000000 0.091308
621.000000 51.752000 7.000000 6.000000 11.000000 139.270796 2.338389 931.049240 -310.059961 19.305943 0.000000 0.004230
622.000000 48.743000 8.000000 6.000000 11.000000 133.581545 4.940781 881.957294 -87.100517 20.499617 0.000000 0.030730
623.000000 45.807000 9.000000 6.000000 11.000000 128.274953 6.854960 845.612463 85.643168 21.814800 0.000000 0.062007
626.000000 48.147000 8.000000 7.000000 11.000000 137.190915 12.116270 743.942808 -247.395554 20.752258 0.000000 0.025439
632.000000 49.066000 4.000000 -1.000000 12.000000 101.263345 -48.273748 2181.892415 618.948086 20.373461 0.000000 0.215522
633.000000 46.890000 5.000000 -1.000000 12.000000 100.068691 -42.374522 1956.914438 682.307412 21.319953 0.000000 0.106746
634.000000 49.674000 5.000000 0.000000 12.000000 108.152245 -40.683144 1900.208356 475.667517 20.122146 0.000000 0.086174
636.000000 54.494000 4.000000 1.000000 12.000000 118.321908 -45.657694 2076.291711 111.096474 18.339369 0.000000 0.223269
637.000000 51.933000 5.000000 1.000000 12.000000 116.178304 -38.627699 1835.046655 263.729670 19.244615 0.000000 0.085838
638.000000 49.199000 6.000000 1.000000 12.000000 113.543448 -32.536964 1661.651654 384.734246 20.314962 0.000000 0.012652
639.000000 46.407000 7.000000 1.000000 12.000000 110.622937 -27.320788 1531.011521 485.100534 21.538606 0.000000 0.063194
640.000000 53.603000 5.000000 2.000000 12.000000 124.038759 -36.083955 1759.385703 41.383444 18.642874 0.000000 0.103048
641.000000 47.905000 7.000000 2.000000 12.000000 117.415362 -24.125384 1457.022064 329.306380 20.862683 0.000000 0.052839
643.000000 54.661000 5.000000 3.000000 12.000000 131.620546 -32.869201 1670.465600 -197.535329 18.280309 0.000000 0.126117
644.000000 48.935000 7.000000 3.000000 12.000000 123.901866 -20.325040 1373.668170 169.685184 20.421783 0.000000 0.041966
645.000000 46.059000 8.000000 3.000000 12.000000 119.879102 -15.800094 1279.562496 298.344495 21.698486 0.000000 0.083632
647.000000 49.499000 7.000000 4.000000 12.000000 129.974194 -15.774926 1279.051926 3.394652 20.187278 0.000000 0.031563
649.000000 52.370000 6.000000 5.000000 12.000000 140.530204 -15.735892 1278.260301 -416.945607 19.077845 0.000000 0.064002
650.000000 49.624000 7.000000 5.000000 12.000000 135.517434 -10.306677 1170.725391 -172.885276 20.135008 0.000000 0.022881
651.000000 46.870000 8.000000 5.000000 12.000000 130.609066 -6.240777 1092.698073 12.707573 21.319512 0.000000 0.047413
652.000000 49.353000 7.000000 6.000000 12.000000 140.408774 -3.746380 1045.475770 -363.209052 20.244442 0.000000 0.017251
655.000000 46.274000 8.000000 7.000000 12.000000 138.993824 6.496812 852.432417 -304.866175 21.591533 0.000000 0.014260
658.000000 46.097000 4.000000 -1.000000 13.000000 102.185109 -50.134875 2263.826860 578.415602 21.685537 0.000000 0.263047
660.000000 48.728000 5.000000 1.000000 13.000000 116.445437 -41.375737 1923.071309 227.583451 20.510294 0.000000 0.130042
661.000000 46.455000 6.000000 1.000000 13.000000 114.215310 -35.427039 1740.647222 346.965548 21.514693 0.000000 0.035048
663.000000 50.241000 5.000000 2.000000 13.000000 123.912877 -39.303586 1856.049158 5.887064 19.890494 0.000000 0.147253
664.000000 47.895000 6.000000 2.000000 13.000000 121.226585 -32.898775 1671.253344 163.861758 20.865682 0.000000 0.045617
665.000000 45.464000 7.000000 2.000000 13.000000 118.221578 -27.443115 1533.925898 290.131030 21.982829 0.000000 0.024703
668.000000 48.886000 6.000000 3.000000 13.000000 128.004126 -29.818872 1591.870415 -28.359619 20.440847 0.000000 0.066450
669.000000 46.432000 7.000000 3.000000 13.000000 124.531161 -24.117159 1456.836587 129.595232 21.522036 0.000000 0.021799
671.000000 49.430000 6.000000 4.000000 13.000000 134.454605 -26.009913 1500.174316 -234.002938 20.213848 0.000000 0.085665
672.000000 47.005000 7.000000 4.000000 13.000000 130.506861 -20.131045 1369.529176 -38.292080 21.257927 0.000000 0.028818
675.000000 47.200000 7.000000 5.000000 13.000000 136.053370 -15.319169 1269.827872 -216.750906 21.168684 0.000000 0.036989
677.000000 47.049000 7.000000 6.000000 13.000000 141.066064 -9.488713 1154.891944 -409.731267 21.235605 0.000000 0.039026
683.000000 45.846000 5.000000 1.000000 14.000000 116.582386 -43.809975 2007.488852 194.707599 21.799395 0.000000 0.174634
684.000000 47.220000 5.000000 2.000000 14.000000 123.677747 -42.127535 1948.446463 -26.021952 21.162675 0.000000 0.192299
686.000000 46.187000 6.000000 3.000000 14.000000 127.938164 -33.293603 1681.821183 -62.775170 21.634904 0.000000 0.100435
#UB matrix in q= (UB) B0 G* 
#[[-0.284415086 -0.565762319 -0.772561173]
# [ 0.313847188  0.707098991 -0.633356816]
# [ 0.905874164 -0.423232381 -0.023637444]]
#B0 matrix in q= UB (B0) G*
#[[ 0.19670273 -0.          0.03056101]
# [ 0.          0.19187965 -0.        ]
# [ 0.          0.          0.18806537]]
#UBB0 matrix in q= (UB B0) G* i.e. recip. basis vectors are columns in LT frame: astar = UBB0[:,0], bstar = UBB0[:,1], cstar = UBB0[:,2]. (abcstar as columns on xyzlab1, xlab1 = ui, ui = unit vector along incident beam)
#[[-0.05594522 -0.10855828 -0.15398402]
# [ 0.0617346   0.13567791 -0.109521  ]
# [ 0.17818792 -0.08120968  0.02323904]]
#Euler angles phi theta psi (deg)
#[ 64.975  91.35  129.295]
#deviatoric strain in direct crystal frame (10-3 unit)
#[[-1.59  0.22  0.2 ]
# [ 0.22 -1.14  0.79]
# [ 0.2   0.79  2.73]]
#deviatoric strain in sample2 frame (10-3 unit)
#[[ 0.71  1.37 -1.76]
# [ 1.37 -0.32 -0.99]
# [-1.76 -0.99 -0.39]]
#new lattice parameters
#[ 5.1505     5.2139673  5.3214495 89.9566303 99.2107649 89.9750927]
#CCDLabel
#sCMOS
#DetectorParameters
#[79.0, 975.0, 941.0, 0.0, 0.0]
#pixelsize
#0.0734
#Frame dimensions
#[2018, 2016]
#
