#Strain and Orientation Refinement from experimental file: /home/micha/LaueProjects/DepthEffects/testZrO2_15.cor
#File created at Wed Jun 28 14:18:36 2023 with indexingSpotsSet.py
#Number of indexed spots: 508
#Element
#ZrO2
#grainIndex
#G_0
#Mean Deviation(pixel): 0.118
##spot_index intensity h k l 2theta Chi Xexp Yexp Energy GrainIndex PixDev
0.000000 45.470000 6.000000 2.000000 -17.000000 135.798556 2.182269 933.986499 -166.525140 21.980134 0.000000 0.025866
1.000000 45.765000 5.000000 3.000000 -17.000000 137.163721 15.008551 686.435645 -260.814125 21.837813 0.000000 0.035345
2.000000 45.912000 6.000000 3.000000 -17.000000 141.287749 7.350512 836.158986 -412.973242 21.766856 0.000000 0.020708
8.000000 45.736000 1.000000 0.000000 -4.000000 118.022417 5.453179 872.252262 365.579669 5.464497 0.000000 0.120077
9.000000 46.232000 5.000000 0.000000 -16.000000 121.834926 -0.842649 990.830210 272.688360 21.622172 0.000000 0.104690
10.000000 46.333000 3.000000 0.000000 -8.000000 124.931599 -7.712764 1120.764860 182.421312 10.787121 0.000000 0.081377
11.000000 46.063000 7.000000 0.000000 -16.000000 127.230014 -15.018753 1263.769790 94.234574 21.699605 0.000000 0.050835
12.000000 45.463000 2.000000 0.000000 -4.000000 128.693194 -22.550231 1421.921574 7.568879 5.496285 0.000000 0.033596
13.000000 46.110000 3.000000 1.000000 -16.000000 119.150676 15.612979 674.230415 317.695915 21.680445 0.000000 0.091349
14.000000 46.994000 4.000000 1.000000 -16.000000 123.921026 9.759372 789.877556 206.558214 21.270746 0.000000 0.084073
15.000000 47.467000 5.000000 1.000000 -16.000000 128.065672 3.071293 917.250807 96.905886 21.057510 0.000000 0.070178
16.000000 47.537000 6.000000 1.000000 -16.000000 131.440274 -4.421832 1058.228875 -12.063290 21.025530 0.000000 0.049520
17.000000 47.231000 7.000000 1.000000 -16.000000 133.927476 -12.576380 1215.114448 -121.221991 21.161128 0.000000 0.032677
18.000000 46.589000 8.000000 1.000000 -16.000000 135.461625 -21.121012 1390.760934 -231.548792 21.451969 0.000000 0.061665
20.000000 45.724000 1.000000 1.000000 -8.000000 118.680440 25.833824 453.914926 286.848812 10.931548 0.000000 0.040571
21.000000 46.993000 3.000000 2.000000 -16.000000 124.291674 20.846928 565.145093 155.615405 21.270943 0.000000 0.043083
22.000000 47.860000 2.000000 1.000000 -8.000000 129.451912 14.913098 688.356757 24.414483 10.442114 0.000000 0.041185
23.000000 48.313000 5.000000 2.000000 -16.000000 133.988339 7.902913 825.596054 -107.904036 20.687100 0.000000 0.031977
24.000000 48.362000 3.000000 1.000000 -8.000000 137.719358 -0.234397 979.403149 -242.644992 10.332649 0.000000 0.016738
25.000000 48.033000 7.000000 2.000000 -16.000000 140.477782 -9.389199 1152.970915 -381.333697 20.805958 0.000000 0.034462
28.000000 46.237000 2.000000 3.000000 -16.000000 122.925107 31.627525 312.146379 122.473187 21.619143 0.000000 0.037434
29.000000 47.481000 3.000000 3.000000 -16.000000 128.897041 26.897689 429.019322 -32.708074 21.050953 0.000000 0.044129
30.000000 48.326000 4.000000 3.000000 -16.000000 134.469834 21.079405 560.137022 -191.330406 20.681037 0.000000 0.047261
31.000000 48.763000 5.000000 3.000000 -16.000000 139.456385 13.918625 708.272764 -355.299429 20.494528 0.000000 0.040200
35.000000 46.373000 1.000000 2.000000 -8.000000 126.531207 38.045407 132.732282 -71.445174 10.777144 0.000000 0.138324
36.000000 47.584000 3.000000 4.000000 -16.000000 132.832370 33.803950 254.376329 -259.787265 21.004104 0.000000 0.136265
43.000000 46.180000 3.000000 -1.000000 -15.000000 108.245240 5.970053 862.445642 584.255658 21.651832 0.000000 0.154032
44.000000 47.113000 4.000000 -1.000000 -15.000000 112.465797 0.100962 973.103439 495.936177 21.221402 0.000000 0.144315
45.000000 47.576000 5.000000 -1.000000 -15.000000 116.017825 -6.291325 1093.659053 412.458544 21.013466 0.000000 0.126218
46.000000 47.584000 6.000000 -1.000000 -15.000000 118.805723 -13.102076 1225.502625 333.343556 21.008691 0.000000 0.098511
47.000000 47.176000 7.000000 -1.000000 -15.000000 120.775666 -20.167089 1370.297407 258.154829 21.189920 0.000000 0.060128
48.000000 46.404000 8.000000 -1.000000 -15.000000 121.925114 -27.280382 1530.050297 186.490136 21.541875 0.000000 0.019360
49.000000 46.257000 1.000000 1.000000 -15.000000 109.020142 25.087286 471.118129 531.332005 21.614813 0.000000 0.089154
50.000000 48.097000 2.000000 1.000000 -15.000000 114.962605 20.370703 575.356076 406.545986 20.786227 0.000000 0.090334
51.000000 49.483000 3.000000 1.000000 -15.000000 120.509198 14.831650 689.994640 284.922346 20.202036 0.000000 0.087483
52.000000 50.379000 4.000000 1.000000 -15.000000 125.481955 8.368452 816.672179 165.541459 19.841159 0.000000 0.078371
53.000000 50.776000 5.000000 1.000000 -15.000000 129.696109 0.937360 957.390232 47.447165 19.684871 0.000000 0.061501
54.000000 50.692000 6.000000 1.000000 -15.000000 132.980730 -7.391301 1114.620058 -70.388039 19.716485 0.000000 0.038688
55.000000 50.170000 7.000000 1.000000 -15.000000 135.210051 -16.384242 1291.449015 -189.106746 19.921078 0.000000 0.040537
56.000000 49.268000 8.000000 1.000000 -15.000000 136.337645 -25.648104 1491.785314 -310.024298 20.285269 0.000000 0.096874
59.000000 47.251000 1.000000 2.000000 -15.000000 113.731384 30.470934 341.749457 392.014191 21.158267 0.000000 0.030074
60.000000 49.073000 2.000000 2.000000 -15.000000 120.054162 25.957401 451.046434 248.371322 20.370673 0.000000 0.033099
61.000000 50.439000 3.000000 2.000000 -15.000000 126.023502 20.501201 572.564349 105.430810 19.817234 0.000000 0.037060
62.000000 51.313000 4.000000 2.000000 -15.000000 131.447201 13.908517 708.474292 -38.166420 19.478387 0.000000 0.034908
63.000000 51.685000 5.000000 2.000000 -15.000000 136.107968 6.020161 861.493988 -183.950652 19.336688 0.000000 0.023111
64.000000 51.577000 6.000000 2.000000 -15.000000 139.780073 -3.194545 1035.071400 -333.704956 19.376533 0.000000 0.014486
68.000000 45.616000 0.000000 1.000000 -5.000000 111.047673 39.768665 79.262195 402.149569 7.305782 0.000000 0.070434
69.000000 47.793000 1.000000 3.000000 -15.000000 117.850352 36.420565 180.890965 234.291224 20.916495 0.000000 0.055710
70.000000 49.579000 2.000000 3.000000 -15.000000 124.522557 32.297160 294.669669 65.156116 20.161124 0.000000 0.055108
71.000000 50.914000 1.000000 1.000000 -5.000000 130.909430 27.155522 422.915657 -107.163533 6.543599 0.000000 0.059670
72.000000 51.763000 4.000000 3.000000 -15.000000 136.817995 20.687267 568.575600 -284.901597 19.307282 0.000000 0.058903
76.000000 45.784000 0.000000 4.000000 -15.000000 114.251015 45.676433 -127.012512 247.066295 21.835294 0.000000 0.186184
77.000000 47.899000 1.000000 4.000000 -15.000000 121.274777 42.882674 -24.548035 48.813657 20.868843 0.000000 0.175851
85.000000 46.943000 3.000000 -2.000000 -14.000000 101.731013 0.932275 957.485785 717.472958 21.302832 0.000000 0.169227
86.000000 47.904000 2.000000 -1.000000 -7.000000 105.734372 -5.039621 1069.913565 636.593734 10.436932 0.000000 0.159494
87.000000 48.326000 5.000000 -2.000000 -14.000000 109.026033 -11.408603 1192.187185 562.373984 20.689995 0.000000 0.140160
88.000000 48.235000 3.000000 -1.000000 -7.000000 111.532698 -18.045733 1325.659244 494.356105 10.363911 0.000000 0.109920
89.000000 47.683000 7.000000 -2.000000 -14.000000 113.229835 -24.783513 1471.941985 432.172142 20.966834 0.000000 0.067213
90.000000 46.741000 4.000000 -1.000000 -7.000000 114.144387 -31.438764 1632.972739 375.538490 10.694484 0.000000 0.011038
91.000000 45.487000 9.000000 -2.000000 -14.000000 114.348065 -37.841217 1811.100213 324.254024 21.978268 0.000000 0.065136
92.000000 46.041000 1.000000 -1.000000 -14.000000 98.275554 15.397860 678.582419 778.626254 21.721345 0.000000 0.154691
93.000000 48.070000 2.000000 -1.000000 -14.000000 103.752821 10.270271 779.981019 673.286913 20.802327 0.000000 0.157918
94.000000 49.575000 3.000000 -1.000000 -14.000000 108.737607 4.498543 890.321340 574.778721 20.168820 0.000000 0.154063
95.000000 50.513000 4.000000 -1.000000 -14.000000 113.067431 -1.907251 1010.840711 482.390460 19.792783 0.000000 0.141648
96.000000 50.877000 5.000000 -1.000000 -14.000000 116.600457 -8.872594 1143.015792 395.493575 19.649734 0.000000 0.119232
97.000000 50.698000 6.000000 -1.000000 -14.000000 119.236391 -16.245692 1288.623377 313.527616 19.718197 0.000000 0.085282
98.000000 50.034000 7.000000 -1.000000 -14.000000 120.934588 -23.805276 1449.820735 235.987710 19.979259 0.000000 0.039120
99.000000 48.962000 8.000000 -1.000000 -14.000000 121.722221 -31.294404 1629.253206 162.413424 20.416194 0.000000 0.035302
100.000000 47.568000 9.000000 -1.000000 -14.000000 121.687769 -38.469906 1830.200509 92.378427 21.014160 0.000000 0.118212
102.000000 45.650000 0.000000 0.000000 -4.000000 98.016841 24.426979 486.160041 774.511535 6.259129 0.000000 0.123799
103.000000 48.177000 1.000000 0.000000 -14.000000 104.242822 19.954562 584.227263 650.350020 20.755412 0.000000 0.129351
104.000000 50.233000 2.000000 0.000000 -14.000000 110.154050 14.761337 691.407629 532.498149 19.903830 0.000000 0.130755
105.000000 51.739000 3.000000 0.000000 -14.000000 115.565071 8.766075 809.033329 420.047360 19.322872 0.000000 0.125651
106.000000 52.650000 4.000000 0.000000 -14.000000 120.282584 1.931167 938.709514 312.146041 18.986906 0.000000 0.112211
107.000000 52.963000 5.000000 0.000000 -14.000000 124.125421 -5.697867 1082.387979 207.975679 18.873439 0.000000 0.088874
108.000000 52.712000 6.000000 0.000000 -14.000000 126.952511 -13.955675 1242.466081 106.726245 18.962648 0.000000 0.055424
109.000000 50.785000 8.000000 0.000000 -14.000000 129.367232 -31.109263 1624.499568 -90.376624 19.680923 0.000000 0.089833
112.000000 47.265000 0.000000 1.000000 -14.000000 103.170825 29.451755 367.257790 651.756677 21.156084 0.000000 0.083876
113.000000 49.809000 1.000000 1.000000 -14.000000 109.809759 25.141450 469.877105 512.729488 20.073269 0.000000 0.085762
114.000000 51.866000 2.000000 1.000000 -14.000000 116.168669 20.007791 583.095170 378.158744 19.274976 0.000000 0.086719
115.000000 53.358000 3.000000 1.000000 -14.000000 122.047083 13.900035 708.643391 246.900498 18.734364 0.000000 0.082815
116.000000 54.241000 4.000000 1.000000 -14.000000 127.221783 6.695404 848.652012 117.788747 18.427867 0.000000 0.071346
117.000000 54.514000 5.000000 1.000000 -14.000000 131.464023 -1.637679 1005.771980 -10.409205 18.334706 0.000000 0.050932
118.000000 54.210000 6.000000 1.000000 -14.000000 134.572823 -10.955570 1183.344394 -139.047865 18.436491 0.000000 0.031414
119.000000 53.396000 7.000000 1.000000 -14.000000 136.423357 -20.883455 1385.640735 -269.675705 18.716888 0.000000 0.066225
122.000000 45.456000 -1.000000 2.000000 -14.000000 100.723890 38.285835 125.425961 681.317143 21.998449 0.000000 0.063588
123.000000 48.368000 0.000000 1.000000 -7.000000 107.800944 34.990380 221.639903 519.174491 10.335802 0.000000 0.034203
124.000000 50.893000 1.000000 2.000000 -14.000000 114.821876 30.995080 328.422924 360.260561 19.643894 0.000000 0.019807
125.000000 52.926000 1.000000 1.000000 -7.000000 121.620666 26.104770 447.617751 203.046098 9.443605 0.000000 0.025417
126.000000 54.391000 3.000000 2.000000 -14.000000 127.993176 20.081703 581.521920 45.894288 18.376861 0.000000 0.031809
127.000000 55.246000 2.000000 1.000000 -7.000000 133.695040 12.670071 733.037313 -113.017005 9.045533 0.000000 0.029009
128.000000 55.490000 5.000000 2.000000 -14.000000 138.447763 3.674358 905.882862 -275.798043 18.010539 0.000000 0.012973
129.000000 55.158000 3.000000 1.000000 -7.000000 141.967893 -6.882054 1104.903875 -444.989973 9.059070 0.000000 0.028956
132.000000 46.091000 -1.000000 3.000000 -14.000000 104.450352 43.836420 -58.443205 556.491341 21.693400 0.000000 0.119127
133.000000 48.949000 0.000000 3.000000 -14.000000 111.789038 41.006936 39.162899 370.855612 20.424513 0.000000 0.090941
134.000000 51.421000 1.000000 3.000000 -14.000000 119.132553 37.506627 148.932553 184.827285 19.440626 0.000000 0.077491
135.000000 53.406000 2.000000 3.000000 -14.000000 126.330890 33.103065 273.290553 -3.873318 18.715874 0.000000 0.076674
136.000000 54.832000 3.000000 3.000000 -14.000000 133.192967 27.473380 415.352082 -197.897926 18.227430 0.000000 0.078620
137.000000 55.660000 4.000000 3.000000 -14.000000 139.473907 20.191258 579.187243 -400.455423 17.955071 0.000000 0.071963
140.000000 46.262000 -1.000000 4.000000 -14.000000 107.531688 49.658137 -292.244445 415.765613 21.611802 0.000000 0.249069
141.000000 49.029000 0.000000 2.000000 -7.000000 115.043219 47.417911 -196.195853 197.815014 10.194935 0.000000 0.228971
148.000000 46.824000 3.000000 -3.000000 -13.000000 93.965274 -3.929970 1048.939997 866.217816 21.360247 0.000000 0.171168
149.000000 47.810000 4.000000 -3.000000 -13.000000 97.748763 -9.903995 1162.920754 792.330877 20.917643 0.000000 0.163182
150.000000 48.196000 5.000000 -3.000000 -13.000000 100.804908 -16.150234 1286.678889 727.150927 20.748984 0.000000 0.144651
151.000000 48.017000 6.000000 -3.000000 -13.000000 103.083955 -22.532397 1421.528847 670.182803 20.825249 0.000000 0.114742
152.000000 47.341000 7.000000 -3.000000 -13.000000 104.587074 -28.895323 1569.031745 621.076398 21.121373 0.000000 0.073780
153.000000 46.257000 8.000000 -3.000000 -13.000000 105.362872 -35.086592 1731.056074 579.621178 21.615602 0.000000 0.038020
154.000000 46.536000 1.000000 -2.000000 -13.000000 91.486671 10.480236 775.904634 912.592910 21.492981 0.000000 0.165664
155.000000 48.759000 2.000000 -2.000000 -13.000000 96.830784 5.079719 879.327299 811.564786 20.511313 0.000000 0.171680
156.000000 50.370000 3.000000 -2.000000 -13.000000 101.616736 -0.887988 991.682087 719.714290 19.853404 0.000000 0.169125
157.000000 51.321000 4.000000 -2.000000 -13.000000 105.685817 -7.368175 1114.178358 636.238226 19.483862 0.000000 0.156549
158.000000 51.613000 5.000000 -2.000000 -13.000000 108.915169 -14.245509 1248.254114 560.482899 19.372275 0.000000 0.132512
159.000000 51.292000 6.000000 -2.000000 -13.000000 111.236908 -21.346339 1395.632708 491.927480 19.492359 0.000000 0.095386
160.000000 50.439000 7.000000 -2.000000 -13.000000 112.648850 -28.459578 1558.397323 430.173295 19.821286 0.000000 0.043411
161.000000 49.154000 8.000000 -2.000000 -13.000000 113.212249 -35.371960 1739.090059 374.938718 20.339130 0.000000 0.029648
162.000000 47.542000 9.000000 -2.000000 -13.000000 113.036852 -41.904189 1940.845665 326.059862 21.028423 0.000000 0.120800
163.000000 45.705000 10.000000 -2.000000 -13.000000 112.258884 -47.933870 2167.574940 283.497889 21.873785 0.000000 0.239710
164.000000 46.724000 0.000000 -1.000000 -13.000000 92.031564 19.587845 592.006114 900.476136 21.405926 0.000000 0.147262
165.000000 49.571000 1.000000 -1.000000 -13.000000 98.236840 14.700021 692.639068 779.924778 20.174485 0.000000 0.156451
166.000000 51.854000 2.000000 -1.000000 -13.000000 104.047395 9.109602 802.420584 668.263900 19.284056 0.000000 0.159311
167.000000 53.476000 3.000000 -1.000000 -13.000000 109.259317 2.784217 922.657615 564.500402 18.697533 0.000000 0.153665
168.000000 54.386000 4.000000 -1.000000 -13.000000 113.676131 -4.246613 1054.918511 467.775318 18.383007 0.000000 0.137717
169.000000 54.591000 5.000000 -1.000000 -13.000000 117.135936 -11.863858 1201.101802 377.339884 18.312882 0.000000 0.109652
170.000000 54.144000 6.000000 -1.000000 -13.000000 119.540377 -19.848908 1363.527923 292.535895 18.463176 0.000000 0.067561
171.000000 53.135000 7.000000 -1.000000 -13.000000 120.875672 -27.908099 1545.063301 212.779242 18.812943 0.000000 0.016947
172.000000 51.676000 8.000000 -1.000000 -13.000000 121.215105 -35.731411 1749.290980 137.545713 19.343812 0.000000 0.078428
173.000000 49.882000 9.000000 -1.000000 -13.000000 120.699872 -43.059420 1980.749503 66.358246 20.039597 0.000000 0.186767
175.000000 47.606000 -1.000000 1.000000 -13.000000 96.250495 33.723350 256.567042 799.267583 21.006924 0.000000 0.084685
176.000000 51.012000 0.000000 1.000000 -13.000000 103.547207 29.859757 357.108868 641.969193 19.601917 0.000000 0.080066
177.000000 53.942000 1.000000 1.000000 -13.000000 110.720954 25.205294 468.412887 491.007593 18.535028 0.000000 0.081701
178.000000 56.254000 2.000000 1.000000 -13.000000 117.556944 19.573729 592.304822 344.908993 17.771067 0.000000 0.082385
179.000000 57.849000 3.000000 1.000000 -13.000000 123.799960 12.770830 731.048108 202.208655 17.279565 0.000000 0.077108
180.000000 58.678000 4.000000 1.000000 -13.000000 129.165169 4.648657 887.483430 61.391236 17.034004 0.000000 0.062573
181.000000 58.753000 5.000000 1.000000 -13.000000 133.366649 -4.791876 1065.225276 -79.180646 17.011202 0.000000 0.038710
182.000000 58.137000 6.000000 1.000000 -13.000000 136.173048 -15.275425 1268.944674 -221.358534 17.190799 0.000000 0.040515
185.000000 48.837000 -1.000000 2.000000 -13.000000 100.790815 39.343073 92.711325 675.749297 20.475396 0.000000 0.068617
186.000000 52.221000 0.000000 2.000000 -13.000000 108.458954 35.886402 196.282090 497.560873 19.146035 0.000000 0.032116
187.000000 55.122000 1.000000 2.000000 -13.000000 116.071980 31.618248 312.386733 322.583673 18.136405 0.000000 0.007376
188.000000 57.400000 2.000000 2.000000 -13.000000 123.422824 26.283535 443.447021 148.796375 17.414482 0.000000 0.020078
189.000000 58.959000 3.000000 2.000000 -13.000000 130.251455 19.562067 592.551574 -26.013964 16.952379 0.000000 0.029356
190.000000 59.754000 4.000000 2.000000 -13.000000 136.240281 11.107027 763.702365 -204.384077 16.725704 0.000000 0.024507
191.000000 59.796000 5.000000 2.000000 -13.000000 141.024250 0.682470 962.179284 -389.357909 16.713022 0.000000 0.003127
194.000000 45.837000 -2.000000 3.000000 -13.000000 96.866707 47.678328 -206.933560 748.496073 21.816305 0.000000 0.187727
195.000000 49.473000 -1.000000 3.000000 -13.000000 104.656606 45.345231 -114.343292 540.493360 20.210199 0.000000 0.145908
196.000000 52.781000 0.000000 3.000000 -13.000000 112.607789 42.455460 -9.703900 333.534085 18.941462 0.000000 0.117576
197.000000 55.607000 1.000000 3.000000 -13.000000 120.580628 38.804425 109.500301 124.836660 17.976445 0.000000 0.104916
198.000000 57.823000 2.000000 3.000000 -13.000000 128.392283 34.091103 246.537700 -88.797775 17.285830 0.000000 0.103374
199.000000 59.334000 3.000000 3.000000 -13.000000 135.803901 27.874958 405.733664 -311.223958 16.843957 0.000000 0.101454
209.000000 45.481000 3.000000 -4.000000 -12.000000 84.902798 -8.560092 1137.007470 1038.085225 21.994439 0.000000 0.156064
210.000000 46.503000 1.000000 -1.000000 -3.000000 88.485641 -14.449899 1252.344773 970.383184 5.377427 0.000000 0.152535
211.000000 46.875000 5.000000 -4.000000 -12.000000 91.355528 -20.498472 1377.377227 913.810211 21.337514 0.000000 0.138070
212.000000 46.646000 3.000000 -2.000000 -6.000000 93.483544 -26.575006 1513.380914 867.741506 10.720337 0.000000 0.113439
213.000000 45.901000 7.000000 -4.000000 -12.000000 94.889721 -32.545078 1661.866138 831.771159 21.787677 0.000000 0.084438
214.000000 45.927000 1.000000 -3.000000 -12.000000 83.333492 5.593029 869.600631 1067.399501 21.781860 0.000000 0.157192
215.000000 48.329000 2.000000 -3.000000 -12.000000 88.496265 0.009492 974.821685 969.253973 20.696980 0.000000 0.168086
216.000000 50.040000 1.000000 -1.000000 -4.000000 93.059245 -6.043354 1088.946555 883.156319 6.662585 0.000000 0.168986
217.000000 51.005000 4.000000 -3.000000 -12.000000 96.875424 -12.476994 1213.155334 808.083352 19.607888 0.000000 0.158557
218.000000 51.235000 5.000000 -3.000000 -12.000000 99.845926 -19.154456 1348.846296 743.255495 19.518384 0.000000 0.135737
219.000000 50.796000 2.000000 -1.000000 -4.000000 101.934300 -25.902944 1497.688764 688.109655 6.562058 0.000000 0.100067
220.000000 49.790000 7.000000 -3.000000 -12.000000 103.168931 -32.538495 1661.692130 642.283686 20.083026 0.000000 0.056427
221.000000 48.340000 8.000000 -3.000000 -12.000000 103.632686 -38.894747 1843.297102 605.611611 20.684691 0.000000 0.060884
222.000000 46.571000 3.000000 -1.000000 -4.000000 103.443832 -44.845303 2045.497990 578.129916 7.156743 0.000000 0.145715
223.000000 46.875000 0.000000 -1.000000 -6.000000 84.695126 14.646079 693.721835 1044.293551 10.670118 0.000000 0.152312
224.000000 50.042000 1.000000 -2.000000 -12.000000 90.803168 9.409349 796.640205 925.705830 19.987443 0.000000 0.166506
225.000000 52.552000 1.000000 -1.000000 -6.000000 96.446818 3.524126 908.716108 819.153231 9.515553 0.000000 0.172601
226.000000 54.282000 3.000000 -2.000000 -12.000000 101.413652 -2.990577 1031.228690 723.417803 18.422615 0.000000 0.168374
227.000000 55.181000 2.000000 -1.000000 -6.000000 105.516863 -10.047866 1165.706962 637.521363 9.060497 0.000000 0.152074
228.000000 55.267000 5.000000 -2.000000 -12.000000 108.625236 -17.482551 1313.993944 560.692147 18.091461 0.000000 0.121925
229.000000 54.622000 3.000000 -1.000000 -6.000000 110.686699 -25.063256 1478.331634 492.342497 9.152149 0.000000 0.075962
230.000000 53.367000 7.000000 -2.000000 -12.000000 111.736050 -32.530286 1661.475156 432.056312 18.733962 0.000000 0.016732
231.000000 51.645000 4.000000 -1.000000 -6.000000 111.882636 -39.646125 1866.848458 379.586009 9.679190 0.000000 0.080333
232.000000 49.595000 9.000000 -2.000000 -12.000000 111.282968 -46.235963 2098.760387 334.859864 20.158375 0.000000 0.196132
234.000000 46.525000 -1.000000 -1.000000 -12.000000 84.612498 23.796351 500.379530 1051.933898 21.500237 0.000000 0.134793
235.000000 50.372000 0.000000 -1.000000 -12.000000 91.517515 19.210481 599.973902 910.805655 19.855916 0.000000 0.148379
236.000000 53.679000 1.000000 -1.000000 -12.000000 98.181051 13.886597 708.911271 781.608368 18.630628 0.000000 0.158387
237.000000 56.262000 2.000000 -1.000000 -12.000000 104.361759 7.747477 828.571044 662.881466 17.773261 0.000000 0.160675
238.000000 57.994000 3.000000 -1.000000 -12.000000 109.803954 0.765558 960.618227 553.391716 17.240689 0.000000 0.152599
239.000000 58.823000 4.000000 -1.000000 -12.000000 114.269211 -6.996279 1107.081374 452.090213 16.996274 0.000000 0.131935
240.000000 58.776000 5.000000 -1.000000 -12.000000 117.577114 -15.350345 1270.457535 358.078638 17.008687 0.000000 0.096334
241.000000 57.948000 6.000000 -1.000000 -12.000000 119.644604 -23.984836 1453.855803 270.582487 17.250984 0.000000 0.043560
242.000000 56.477000 7.000000 -1.000000 -12.000000 120.506505 -32.519761 1661.197061 188.929552 17.699860 0.000000 0.038162
243.000000 54.520000 8.000000 -1.000000 -12.000000 120.303794 -40.600052 1897.497449 112.532390 18.335059 0.000000 0.141139
246.000000 49.287000 -1.000000 0.000000 -12.000000 90.574917 28.861825 381.788945 928.668096 20.292703 0.000000 0.116884
247.000000 56.648000 1.000000 0.000000 -12.000000 105.254694 19.141578 601.424774 630.295282 17.651566 0.000000 0.129947
248.000000 59.266000 1.000000 0.000000 -6.000000 112.022841 12.855133 729.382571 494.457429 8.434905 0.000000 0.129873
249.000000 61.745000 2.000000 0.000000 -6.000000 122.951540 -3.074087 1032.801828 242.334475 8.094777 0.000000 0.097829
250.000000 61.589000 5.000000 0.000000 -12.000000 126.555925 -12.546713 1214.529497 123.433040 16.229550 0.000000 0.061523
251.000000 58.981000 7.000000 0.000000 -12.000000 129.382315 -32.505782 1660.827785 -106.649548 16.946057 0.000000 0.103852
254.000000 46.983000 -2.000000 1.000000 -12.000000 88.177622 37.859492 138.349169 984.374165 21.288328 0.000000 0.106130
255.000000 51.383000 -1.000000 1.000000 -12.000000 96.041529 34.464361 236.268722 802.837628 19.462641 0.000000 0.082808
256.000000 55.399000 0.000000 1.000000 -12.000000 103.982316 30.339615 345.065741 630.475037 18.049438 0.000000 0.075502
257.000000 58.808000 1.000000 1.000000 -12.000000 111.783995 25.281666 466.659315 465.298685 17.000845 0.000000 0.076768
258.000000 61.420000 2.000000 1.000000 -12.000000 119.171258 19.045389 603.448181 305.395024 16.276122 0.000000 0.077130
259.000000 63.103000 3.000000 1.000000 -12.000000 125.812327 11.374955 758.470566 148.840014 15.840380 0.000000 0.070032
260.000000 63.810000 4.000000 1.000000 -12.000000 131.336535 2.094767 935.632505 -6.397419 15.663566 0.000000 0.051520
261.000000 63.579000 5.000000 1.000000 -12.000000 135.384197 -8.717963 1140.041511 -162.576388 15.719656 0.000000 0.029162
262.000000 62.517000 6.000000 1.000000 -12.000000 137.702788 -20.551222 1378.507017 -322.348694 15.986001 0.000000 0.072203
265.000000 48.365000 -1.000000 1.000000 -6.000000 92.629532 43.491020 -46.044597 872.865796 10.338915 0.000000 0.127916
266.000000 52.743000 -1.000000 2.000000 -12.000000 100.844384 40.570312 53.471178 669.572875 18.958950 0.000000 0.077975
267.000000 56.722000 0.000000 1.000000 -6.000000 109.206847 36.945875 165.547019 471.846069 8.813217 0.000000 0.036113
268.000000 60.087000 1.000000 2.000000 -12.000000 117.518511 32.371223 292.720934 277.103004 16.637313 0.000000 0.008563
269.000000 62.650000 1.000000 1.000000 -6.000000 125.516935 26.504918 438.264117 82.583739 7.977381 0.000000 0.023473
270.000000 64.286000 3.000000 2.000000 -12.000000 132.863847 18.901705 606.466325 -114.824090 15.547041 0.000000 0.032385
271.000000 64.952000 2.000000 1.000000 -6.000000 139.135214 9.076114 803.065773 -318.825731 7.693322 0.000000 0.022108
274.000000 49.086000 -2.000000 3.000000 -12.000000 96.395990 49.409589 -281.159468 755.570036 20.372335 0.000000 0.225660
275.000000 53.356000 -1.000000 3.000000 -12.000000 104.846702 47.095091 -183.031590 521.912442 18.739355 0.000000 0.181163
276.000000 57.224000 0.000000 1.000000 -4.000000 113.512240 44.170330 -70.566589 288.165638 5.823444 0.000000 0.152482
277.000000 60.485000 1.000000 3.000000 -12.000000 122.224831 40.380745 59.625288 50.386466 16.526416 0.000000 0.140221
278.000000 62.963000 2.000000 3.000000 -12.000000 130.759695 35.330035 212.093808 -196.132333 15.874091 0.000000 0.137169
285.000000 46.339000 2.000000 -4.000000 -11.000000 78.691415 -4.868976 1066.683936 1157.012038 21.590063 0.000000 0.141329
286.000000 48.144000 3.000000 -4.000000 -11.000000 83.030249 -10.904955 1182.358139 1074.995213 20.778827 0.000000 0.149184
287.000000 49.143000 4.000000 -4.000000 -11.000000 86.630789 -17.193841 1308.041954 1007.327440 20.354690 0.000000 0.144690
288.000000 49.356000 5.000000 -4.000000 -11.000000 89.418002 -23.594276 1445.093375 952.930498 20.265428 0.000000 0.128045
289.000000 48.865000 6.000000 -4.000000 -11.000000 91.380399 -29.949224 1595.127684 911.067395 20.467807 0.000000 0.102486
290.000000 47.793000 7.000000 -4.000000 -11.000000 92.565492 -36.108136 1760.081407 881.309040 20.925727 0.000000 0.084407
291.000000 46.281000 8.000000 -4.000000 -11.000000 93.064798 -41.946938 1942.296361 863.520020 21.608811 0.000000 0.113963
292.000000 45.621000 0.000000 -3.000000 -11.000000 75.849709 9.673170 791.544339 1216.264618 21.930627 0.000000 0.131699
293.000000 49.079000 1.000000 -3.000000 -11.000000 81.782352 4.171799 896.494475 1096.847713 20.383695 0.000000 0.153393
294.000000 51.795000 2.000000 -3.000000 -11.000000 87.204785 -1.893847 1010.588643 993.578200 19.312715 0.000000 0.165486
295.000000 53.628000 3.000000 -3.000000 -11.000000 91.907350 -8.459540 1135.076319 904.763159 18.650849 0.000000 0.165521
296.000000 54.522000 4.000000 -3.000000 -11.000000 95.723055 -15.399240 1271.445486 829.117419 18.343218 0.000000 0.152011
297.000000 54.515000 5.000000 -3.000000 -11.000000 98.555501 -22.530287 1421.482395 765.701429 18.344334 0.000000 0.124023
298.000000 53.716000 6.000000 -3.000000 -11.000000 100.393182 -29.637415 1587.350247 713.882072 18.616182 0.000000 0.082953
299.000000 52.280000 7.000000 -3.000000 -11.000000 101.304641 -36.509572 1771.694161 673.312940 19.126737 0.000000 0.053797
300.000000 50.377000 8.000000 -3.000000 -11.000000 101.416902 -42.975008 1977.783293 643.932958 19.848838 0.000000 0.113066
301.000000 48.167000 9.000000 -3.000000 -11.000000 100.886316 -48.921319 2209.706398 625.984511 20.759292 0.000000 0.229209
303.000000 46.066000 -1.000000 -2.000000 -11.000000 76.595494 18.883838 606.841252 1212.089859 21.718377 0.000000 0.129991
304.000000 50.386000 0.000000 -2.000000 -11.000000 83.435625 13.881184 709.019167 1068.579281 19.853857 0.000000 0.151037
305.000000 54.086000 1.000000 -2.000000 -11.000000 89.973032 8.165118 820.572425 941.511775 18.493336 0.000000 0.167043
306.000000 56.934000 2.000000 -2.000000 -11.000000 95.942131 1.710792 942.853423 828.925904 17.566459 0.000000 0.173144
307.000000 58.772000 3.000000 -2.000000 -11.000000 101.080125 -5.439466 1077.487810 729.273735 17.015381 0.000000 0.166639
308.000000 59.548000 4.000000 -2.000000 -11.000000 105.168805 -13.149765 1226.447169 641.349253 16.792109 0.000000 0.145391
309.000000 59.316000 5.000000 -2.000000 -11.000000 108.076466 -21.185153 1392.146207 564.239634 16.856488 0.000000 0.107221
310.000000 58.215000 6.000000 -2.000000 -11.000000 109.784368 -29.242742 1577.574658 497.295227 17.174664 0.000000 0.050512
311.000000 56.428000 7.000000 -2.000000 -11.000000 110.384835 -37.014712 1786.479287 440.116391 17.717896 0.000000 0.041431
312.000000 54.154000 8.000000 -2.000000 -11.000000 110.051023 -44.253830 2023.619692 392.557471 18.461623 0.000000 0.150725
315.000000 50.048000 -1.000000 -1.000000 -11.000000 83.424190 23.747128 501.483577 1076.547620 19.987407 0.000000 0.134222
316.000000 54.630000 0.000000 -1.000000 -11.000000 90.907556 18.769492 609.238927 922.992623 18.308738 0.000000 0.149542
317.000000 58.516000 1.000000 -1.000000 -11.000000 98.100412 12.926707 727.967649 783.829573 17.090598 0.000000 0.160515
318.000000 61.453000 2.000000 -1.000000 -11.000000 104.692046 6.128495 859.435898 657.177114 16.271904 0.000000 0.161918
319.000000 63.274000 3.000000 -1.000000 -11.000000 110.357313 -1.639719 1005.810330 541.478676 15.801914 0.000000 0.150488
320.000000 63.931000 4.000000 -1.000000 -11.000000 114.807158 -10.257873 1169.778450 435.438256 15.638135 0.000000 0.123388
321.000000 63.494000 5.000000 -1.000000 -11.000000 117.850360 -19.432771 1354.715133 337.971878 15.744708 0.000000 0.077481
322.000000 62.125000 6.000000 -1.000000 -11.000000 119.444180 -28.727167 1564.917382 248.170922 16.091162 0.000000 0.013788
323.000000 60.033000 7.000000 -1.000000 -11.000000 119.704675 -37.669581 1805.942376 165.274767 16.651439 0.000000 0.093366
324.000000 57.440000 8.000000 -1.000000 -11.000000 118.865872 -45.885983 2085.105971 88.651174 17.403124 0.000000 0.231374
326.000000 50.521000 -2.000000 1.000000 -11.000000 87.193953 38.902650 106.457819 1008.787810 19.797528 0.000000 0.112392
327.000000 55.800000 -1.000000 1.000000 -11.000000 95.783548 35.332184 212.033160 807.374064 17.922063 0.000000 0.081315
328.000000 60.604000 0.000000 1.000000 -11.000000 104.490858 30.912057 330.543520 616.781568 16.499086 0.000000 0.069964
329.000000 64.619000 1.000000 1.000000 -11.000000 113.040043 25.374656 464.521210 434.375574 15.471731 0.000000 0.070678
330.000000 67.579000 2.000000 1.000000 -11.000000 121.070319 18.388441 617.205699 257.603547 14.792279 0.000000 0.070691
331.000000 69.314000 3.000000 1.000000 -11.000000 128.139496 9.607735 792.808979 83.856039 14.420388 0.000000 0.061119
332.000000 69.786000 4.000000 1.000000 -11.000000 133.754389 -1.166210 996.910131 -89.699138 14.321721 0.000000 0.037836
333.000000 69.082000 5.000000 1.000000 -11.000000 137.463450 -13.684256 1237.058955 -266.337146 14.466869 0.000000 0.039850
336.000000 46.634000 -3.000000 2.000000 -11.000000 83.293946 47.408163 -195.795991 1127.992044 21.448439 0.000000 0.215215
337.000000 52.064000 -2.000000 2.000000 -11.000000 91.893700 45.001658 -101.356564 890.672511 19.208796 0.000000 0.149626
338.000000 57.301000 -1.000000 2.000000 -11.000000 100.874282 42.010685 5.536779 662.729411 17.450812 0.000000 0.093206
339.000000 62.044000 0.000000 2.000000 -11.000000 110.062488 38.217042 127.521418 440.704102 16.114275 0.000000 0.048622
340.000000 65.990000 1.000000 2.000000 -11.000000 119.210044 33.298914 268.035994 221.024659 15.148609 0.000000 0.028238
341.000000 68.881000 2.000000 2.000000 -11.000000 127.978263 26.786212 431.649697 -0.235832 14.511020 0.000000 0.037588
342.000000 70.556000 3.000000 2.000000 -11.000000 135.915857 18.034772 624.568511 -227.683596 14.165051 0.000000 0.041398
346.000000 52.773000 -2.000000 3.000000 -11.000000 95.784890 51.398754 -373.190426 766.228680 18.949019 0.000000 0.275978
347.000000 57.849000 -1.000000 3.000000 -11.000000 105.002909 49.144577 -269.463208 500.046659 17.283904 0.000000 0.228435
348.000000 62.427000 0.000000 3.000000 -11.000000 114.509144 46.228320 -148.460341 231.672577 16.013941 0.000000 0.199283
349.000000 66.224000 1.000000 3.000000 -11.000000 124.100815 42.332643 -5.473920 -44.770400 15.093753 0.000000 0.187146
357.000000 45.669000 2.000000 -2.000000 -4.000000 77.762273 -27.583186 1537.270931 1204.381004 8.762346 0.000000 0.116560
358.000000 46.117000 1.000000 -4.000000 -10.000000 71.108419 -0.928594 992.445054 1309.369590 21.697273 0.000000 0.107711
359.000000 49.003000 1.000000 -2.000000 -5.000000 76.275976 -7.060633 1108.308625 1205.858942 10.208634 0.000000 0.130810
360.000000 50.940000 3.000000 -4.000000 -10.000000 80.727735 -13.555695 1234.502183 1121.750271 19.638815 0.000000 0.140059
361.000000 51.874000 2.000000 -2.000000 -5.000000 84.321237 -20.269009 1372.471663 1055.090441 9.641894 0.000000 0.134974
362.000000 51.855000 5.000000 -4.000000 -10.000000 86.990922 -27.023102 1523.946065 1004.511114 19.289489 0.000000 0.117433
363.000000 51.017000 3.000000 -2.000000 -5.000000 88.752962 -33.634041 1691.010291 969.140004 9.802507 0.000000 0.097340
364.000000 49.540000 7.000000 -4.000000 -10.000000 89.691795 -39.940079 1876.201680 948.551220 20.188609 0.000000 0.107496
365.000000 47.612000 4.000000 -2.000000 -5.000000 89.935123 -45.822297 2082.639785 942.748789 10.502848 0.000000 0.176018
366.000000 48.544000 0.000000 -3.000000 -10.000000 73.583872 8.529020 813.589379 1261.645920 20.611126 0.000000 0.122216
367.000000 52.590000 1.000000 -3.000000 -10.000000 79.899380 2.529888 927.445452 1132.916284 19.023417 0.000000 0.147640
368.000000 55.675000 2.000000 -3.000000 -10.000000 85.597213 -4.092331 1052.004930 1024.080818 17.967265 0.000000 0.161318
369.000000 57.615000 3.000000 -3.000000 -10.000000 90.423625 -11.237880 1188.851568 932.886541 17.360414 0.000000 0.160261
370.000000 58.362000 4.000000 -3.000000 -10.000000 94.192845 -18.728284 1339.897790 857.685686 17.136748 0.000000 0.142946
371.000000 58.000000 5.000000 -3.000000 -10.000000 96.822377 -26.322964 1507.474615 797.336706 17.242515 0.000000 0.109321
372.000000 56.711000 6.000000 -3.000000 -10.000000 98.342919 -33.760891 1694.452813 751.145928 17.633570 0.000000 0.068948
373.000000 54.724000 7.000000 -3.000000 -10.000000 98.879168 -40.811481 1904.408731 718.843491 18.273315 0.000000 0.087716
374.000000 52.269000 8.000000 -3.000000 -10.000000 98.611654 -47.311904 2141.855257 700.592229 19.131159 0.000000 0.191504
377.000000 49.234000 -1.000000 -2.000000 -10.000000 74.527739 18.445788 616.008994 1255.056901 20.321611 0.000000 0.124565
378.000000 54.413000 0.000000 -1.000000 -5.000000 81.920267 12.988231 726.750735 1097.802550 9.192588 0.000000 0.148746
379.000000 58.789000 1.000000 -2.000000 -10.000000 88.947016 6.703268 848.502240 960.918568 17.014322 0.000000 0.167056
380.000000 62.035000 1.000000 -1.000000 -5.000000 95.267115 -0.425401 982.991253 841.775482 8.061049 0.000000 0.173050
381.000000 63.947000 3.000000 -2.000000 -10.000000 100.552876 -8.316295 1132.326983 738.362294 15.638510 0.000000 0.163403
382.000000 64.485000 2.000000 -1.000000 -5.000000 104.554086 -16.758967 1299.111528 649.172131 7.753287 0.000000 0.135492
383.000000 63.770000 5.000000 -2.000000 -10.000000 107.155236 -25.423049 1486.592790 573.128849 15.679432 0.000000 0.086895
384.000000 62.031000 3.000000 -1.000000 -5.000000 108.398921 -33.923404 1698.878075 509.547017 8.059098 0.000000 0.027223
385.000000 59.547000 7.000000 -2.000000 -10.000000 108.461659 -41.915770 1941.238476 458.122753 16.790326 0.000000 0.104516
386.000000 56.587000 4.000000 -1.000000 -5.000000 107.595342 -49.169378 2220.552497 418.957697 8.834190 0.000000 0.250857
388.000000 48.076000 -2.000000 -1.000000 -10.000000 73.829473 28.253521 396.600990 1295.303208 20.810487 0.000000 0.124180
389.000000 54.113000 -1.000000 -1.000000 -10.000000 82.006219 23.689570 502.773498 1106.052155 18.486221 0.000000 0.133243
390.000000 59.660000 0.000000 -1.000000 -10.000000 90.172314 18.247374 620.146069 937.591706 16.765295 0.000000 0.150716
391.000000 64.291000 1.000000 -1.000000 -10.000000 97.982728 11.777595 750.589612 786.821682 15.555551 0.000000 0.162840
392.000000 67.643000 2.000000 -1.000000 -10.000000 105.028738 4.175938 896.416310 651.259922 14.782694 0.000000 0.162875
393.000000 69.500000 3.000000 -1.000000 -10.000000 110.890889 -4.542940 1060.517864 528.904573 14.386159 0.000000 0.146710
394.000000 69.834000 4.000000 -1.000000 -10.000000 115.222284 -14.160713 1246.559198 418.134840 14.316081 0.000000 0.110593
395.000000 68.797000 5.000000 -1.000000 -10.000000 117.841857 -24.224336 1459.255411 317.639746 14.531034 0.000000 0.050173
396.000000 66.660000 6.000000 -1.000000 -10.000000 118.791289 -34.139074 1704.776960 226.368405 14.996315 0.000000 0.043745
397.000000 63.742000 7.000000 -1.000000 -10.000000 118.312696 -43.359427 1991.358126 143.498275 15.682636 0.000000 0.176214
399.000000 51.802000 -2.000000 0.000000 -10.000000 80.218910 33.920074 251.212771 1164.594526 19.310700 0.000000 0.122606
400.000000 58.131000 -1.000000 0.000000 -10.000000 89.082146 29.660029 362.087333 960.843170 17.205893 0.000000 0.116117
401.000000 68.686000 1.000000 0.000000 -10.000000 106.655121 17.968897 625.936626 602.504549 14.557512 0.000000 0.130560
402.000000 72.079000 2.000000 0.000000 -10.000000 114.532184 10.032023 784.599977 442.146936 13.870495 0.000000 0.127284
403.000000 73.864000 3.000000 0.000000 -10.000000 121.126415 0.465500 966.255455 291.039373 13.533631 0.000000 0.108378
404.000000 74.027000 4.000000 0.000000 -10.000000 125.949982 -10.593221 1176.291194 146.927785 13.502724 0.000000 0.069814
405.000000 70.307000 6.000000 0.000000 -10.000000 129.359762 -34.439070 1713.032587 -129.429159 14.216295 0.000000 0.125088
407.000000 47.994000 -3.000000 1.000000 -10.000000 76.973701 43.133554 -33.361285 1282.210587 20.843207 0.000000 0.182416
408.000000 54.590000 -2.000000 1.000000 -10.000000 86.003833 40.117074 68.127752 1039.321669 18.322208 0.000000 0.122123
409.000000 61.030000 -1.000000 1.000000 -10.000000 95.458704 36.361894 182.591771 813.278682 16.386295 0.000000 0.080767
410.000000 66.876000 0.000000 1.000000 -10.000000 105.092790 31.606582 312.688891 600.184534 14.951464 0.000000 0.063150
411.000000 71.671000 1.000000 1.000000 -10.000000 114.546491 25.490348 461.856516 396.440752 13.949058 0.000000 0.063021
412.000000 75.032000 2.000000 1.000000 -10.000000 123.334316 17.549676 634.619514 198.525880 13.322413 0.000000 0.062740
413.000000 76.741000 3.000000 1.000000 -10.000000 130.848868 7.303475 837.057180 2.752333 13.024353 0.000000 0.049694
414.000000 76.788000 4.000000 1.000000 -10.000000 136.417727 -5.441874 1077.533441 -195.040981 13.015281 0.000000 0.024901
415.000000 75.358000 5.000000 1.000000 -10.000000 139.487689 -20.053677 1367.881365 -399.928613 13.261717 0.000000 0.080180
417.000000 49.762000 -3.000000 2.000000 -10.000000 81.589898 49.151895 -269.784485 1184.292987 20.100705 0.000000 0.255081
418.000000 56.316000 -1.000000 1.000000 -5.000000 90.974316 46.759111 -169.499147 914.281213 8.879335 0.000000 0.179703
419.000000 62.679000 -1.000000 2.000000 -10.000000 100.863562 43.722591 -54.341376 655.192119 15.953328 0.000000 0.116356
420.000000 73.109000 1.000000 2.000000 -10.000000 121.211647 34.469404 236.129350 149.996246 13.672971 0.000000 0.054033
421.000000 78.004000 3.000000 2.000000 -10.000000 139.520106 16.847041 649.083143 -376.624505 12.811943 0.000000 0.053893
430.000000 45.788000 3.000000 -5.000000 -9.000000 68.027224 -18.243959 1329.782810 1398.240865 21.853269 0.000000 0.096284
431.000000 46.849000 4.000000 -5.000000 -9.000000 71.494156 -24.658402 1469.093644 1337.391530 21.356722 0.000000 0.111134
432.000000 46.964000 5.000000 -5.000000 -9.000000 74.136516 -31.001033 1621.729250 1297.817547 21.302661 0.000000 0.120532
433.000000 46.276000 6.000000 -5.000000 -9.000000 75.981547 -37.123779 1789.697373 1278.021475 21.617974 0.000000 0.139003
434.000000 48.444000 1.000000 -4.000000 -9.000000 67.912782 -2.916415 1029.831866 1378.324534 20.655947 0.000000 0.087951
435.000000 51.719000 2.000000 -4.000000 -9.000000 73.311296 -9.564905 1156.363515 1268.221511 19.345876 0.000000 0.116690
436.000000 53.782000 3.000000 -4.000000 -9.000000 77.865094 -16.562463 1295.089622 1182.440920 18.601939 0.000000 0.128482
437.000000 54.588000 4.000000 -4.000000 -9.000000 81.423187 -23.717946 1447.862294 1118.304432 18.325865 0.000000 0.124241
438.000000 54.243000 5.000000 -4.000000 -9.000000 83.940503 -30.812903 1616.928703 1074.031292 18.440884 0.000000 0.110426
439.000000 52.961000 6.000000 -4.000000 -9.000000 85.474082 -37.639550 1805.042360 1048.588710 18.886150 0.000000 0.110410
440.000000 50.997000 7.000000 -4.000000 -9.000000 86.155116 -44.034383 2015.614241 1041.614825 19.612818 0.000000 0.161318
441.000000 48.596000 8.000000 -4.000000 -9.000000 86.151194 -49.895161 2252.921472 1053.402383 20.581222 0.000000 0.268941
443.000000 46.032000 -1.000000 -3.000000 -9.000000 63.683473 13.041684 725.692981 1487.418332 21.739360 0.000000 0.077151
444.000000 51.687000 0.000000 -1.000000 -3.000000 70.833161 7.198302 839.064823 1318.078983 6.452974 0.000000 0.108456
445.000000 56.475000 1.000000 -3.000000 -9.000000 77.575639 0.615017 963.446534 1178.132081 17.715607 0.000000 0.138960
446.000000 59.993000 2.000000 -3.000000 -9.000000 83.562201 -6.652119 1100.523763 1063.267924 16.674658 0.000000 0.154861
447.000000 62.482000 4.000000 -3.000000 -9.000000 92.147270 -22.527612 1421.423479 897.311225 16.007226 0.000000 0.130880
448.000000 61.601000 5.000000 -3.000000 -9.000000 94.498142 -30.574795 1610.879761 842.655706 16.234996 0.000000 0.093662
449.000000 59.655000 2.000000 -1.000000 -3.000000 95.635120 -38.287793 1824.633745 805.700536 5.587910 0.000000 0.078315
450.000000 56.977000 7.000000 -3.000000 -9.000000 95.756536 -45.432837 2067.679961 786.383745 17.551253 0.000000 0.157314
451.000000 53.871000 8.000000 -3.000000 -9.000000 95.102385 -51.876345 2346.482505 785.334340 18.562925 0.000000 0.305318
453.000000 45.929000 -2.000000 -2.000000 -9.000000 63.940154 23.047051 517.096721 1512.990296 21.787410 0.000000 0.107035
454.000000 52.743000 -1.000000 -2.000000 -9.000000 72.028175 17.932884 626.684132 1307.951447 18.970540 0.000000 0.116826
455.000000 59.054000 0.000000 -2.000000 -9.000000 80.064794 11.932690 747.547794 1133.688765 16.940948 0.000000 0.144852
456.000000 64.303000 1.000000 -2.000000 -9.000000 87.652592 4.963751 881.522553 985.286552 15.555812 0.000000 0.166180
457.000000 68.015000 2.000000 -2.000000 -9.000000 94.345925 -2.971224 1030.864164 859.095292 14.704887 0.000000 0.171896
458.000000 69.925000 3.000000 -2.000000 -9.000000 99.734104 -11.724883 1198.377334 752.431678 14.301718 0.000000 0.157855
459.000000 70.037000 4.000000 -2.000000 -9.000000 103.541484 -20.974146 1387.593529 663.386146 14.277548 0.000000 0.120933
460.000000 68.594000 5.000000 -2.000000 -9.000000 105.700953 -30.263758 1603.022668 590.708340 14.577016 0.000000 0.060471
461.000000 65.975000 6.000000 -2.000000 -9.000000 106.358321 -39.126811 1850.517228 533.755949 15.155040 0.000000 0.061861
462.000000 62.590000 7.000000 -2.000000 -9.000000 105.804566 -47.212773 2137.811985 492.504152 15.974539 0.000000 0.198492
464.000000 51.395000 -2.000000 -1.000000 -9.000000 71.318248 28.574933 388.796018 1355.400680 19.467194 0.000000 0.124463
465.000000 58.842000 -1.000000 -1.000000 -9.000000 80.285484 23.621366 504.300550 1142.104915 17.001087 0.000000 0.131637
466.000000 65.688000 0.000000 -1.000000 -9.000000 89.269175 17.619587 633.174346 955.404989 15.226914 0.000000 0.151831
467.000000 71.296000 1.000000 -1.000000 -9.000000 97.808161 10.378465 777.881161 790.954985 14.027160 0.000000 0.165348
468.000000 75.130000 2.000000 -1.000000 -9.000000 105.351156 1.781191 941.529753 645.383234 13.309493 0.000000 0.163250
469.000000 76.907000 3.000000 -1.000000 -9.000000 111.349736 -8.095845 1128.099733 516.058709 13.000367 0.000000 0.140208
470.000000 76.664000 4.000000 -1.000000 -9.000000 115.399776 -18.865284 1342.769470 400.931357 13.040467 0.000000 0.091034
471.000000 74.707000 5.000000 -1.000000 -9.000000 117.378228 -29.840257 1592.404217 298.425785 13.381435 0.000000 0.010180
472.000000 71.489000 6.000000 -1.000000 -9.000000 117.483327 -40.254761 1886.303909 207.377233 13.983445 0.000000 0.117420
474.000000 51.181000 -3.000000 1.000000 -9.000000 74.620656 44.645034 -88.040241 1357.098755 19.545822 0.000000 0.211669
475.000000 59.298000 -2.000000 1.000000 -9.000000 84.538394 41.547300 21.190105 1078.501764 16.867795 0.000000 0.137037
476.000000 67.313000 -1.000000 1.000000 -9.000000 95.039955 37.602553 146.065407 821.191353 14.856930 0.000000 0.082257
477.000000 74.577000 0.000000 1.000000 -9.000000 105.815812 32.466619 290.206164 579.639500 13.407429 0.000000 0.054710
478.000000 80.397000 1.000000 1.000000 -9.000000 116.385763 25.638210 458.443373 348.745263 12.434742 0.000000 0.053221
479.000000 84.206000 2.000000 1.000000 -9.000000 126.075096 16.442063 657.370582 123.435961 11.870485 0.000000 0.052929
480.000000 85.726000 3.000000 1.000000 -9.000000 134.017790 4.185889 896.228382 -101.792979 11.658756 0.000000 0.034820
481.000000 85.029000 4.000000 1.000000 -9.000000 139.274367 -11.213776 1188.380947 -333.508127 11.753407 0.000000 0.037381
484.000000 53.197000 -3.000000 2.000000 -9.000000 79.503683 51.161119 -361.781496 1258.967568 18.803315 0.000000 0.309288
485.000000 61.230000 -2.000000 2.000000 -9.000000 89.803843 48.824966 -255.522531 946.596937 16.333664 0.000000 0.221871
486.000000 69.105000 -1.000000 2.000000 -9.000000 100.783787 45.786669 -131.262596 647.024502 14.469813 0.000000 0.150613
487.000000 76.194000 0.000000 2.000000 -9.000000 112.188207 41.701808 15.995839 353.055922 13.121096 0.000000 0.103385
488.000000 81.838000 1.000000 2.000000 -9.000000 123.611688 35.990855 193.288886 56.813640 12.214080 0.000000 0.088903
489.000000 85.505000 2.000000 2.000000 -9.000000 134.453435 27.661766 410.848736 -251.219789 11.688656 0.000000 0.089509
497.000000 46.819000 3.000000 -5.000000 -8.000000 63.669655 -21.388591 1396.547892 1513.044824 21.373347 0.000000 0.095309
498.000000 47.843000 4.000000 -5.000000 -8.000000 67.156850 -28.143130 1550.729226 1455.176592 20.914025 0.000000 0.119344
499.000000 47.758000 5.000000 -5.000000 -8.000000 69.744040 -34.724628 1720.946145 1424.262537 20.949910 0.000000 0.145418
500.000000 46.774000 6.000000 -5.000000 -8.000000 71.489558 -40.976620 1909.837541 1418.287439 21.389179 0.000000 0.189631
501.000000 45.556000 0.000000 -1.000000 -2.000000 57.620142 1.515835 946.518584 1623.745417 5.492242 0.000000 0.009701
502.000000 50.586000 1.000000 -4.000000 -8.000000 63.984088 -5.212152 1073.180627 1468.494972 19.782790 0.000000 0.061310
503.000000 54.319000 1.000000 -2.000000 -4.000000 69.623721 -12.441871 1212.463336 1350.377301 9.210541 0.000000 0.098800
504.000000 56.491000 3.000000 -4.000000 -8.000000 74.267097 -19.981798 1366.351907 1263.621086 17.710952 0.000000 0.115591
505.000000 56.307000 5.000000 -4.000000 -8.000000 80.100468 -34.985127 1728.213077 1170.261760 17.765921 0.000000 0.118309
506.000000 54.480000 3.000000 -2.000000 -4.000000 81.394854 -41.965175 1942.915824 1160.047518 9.180267 0.000000 0.155667
507.000000 51.959000 7.000000 -4.000000 -8.000000 81.831352 -48.372980 2186.108539 1173.575918 19.250619 0.000000 0.251050
510.000000 48.097000 -1.000000 -3.000000 -8.000000 59.728052 12.065729 744.935779 1583.420974 20.807251 0.000000 0.059802
511.000000 54.963000 0.000000 -3.000000 -8.000000 67.434651 5.633190 868.838924 1390.424963 18.206111 0.000000 0.088029
512.000000 60.700000 1.000000 -3.000000 -8.000000 74.653513 -1.641484 1005.843509 1236.500869 16.483426 0.000000 0.125809
513.000000 64.724000 2.000000 -3.000000 -8.000000 80.937728 -9.657022 1158.143539 1115.135162 15.456606 0.000000 0.145093
514.000000 66.729000 3.000000 -3.000000 -8.000000 85.917328 -18.180027 1328.451862 1021.858968 14.990384 0.000000 0.141648
515.000000 66.758000 4.000000 -3.000000 -8.000000 89.395437 -26.863067 1520.163191 953.730864 14.982420 0.000000 0.116529
516.000000 65.139000 5.000000 -3.000000 -8.000000 91.388066 -35.318571 1737.582685 909.037558 15.353854 0.000000 0.088279
517.000000 62.339000 6.000000 -3.000000 -8.000000 92.088309 -43.215428 1986.253114 887.148646 16.042939 0.000000 0.131631
518.000000 58.826000 7.000000 -3.000000 -8.000000 91.783030 -50.344081 2273.434017 888.499055 17.000637 0.000000 0.266760
520.000000 48.146000 -1.000000 -1.000000 -4.000000 60.127145 22.928356 519.727646 1612.252124 10.392592 0.000000 0.108029
521.000000 56.574000 -1.000000 -2.000000 -8.000000 68.949960 17.324256 639.271747 1374.914116 17.686739 0.000000 0.105820
522.000000 64.414000 0.000000 -1.000000 -4.000000 77.744751 10.666667 772.280525 1178.900404 7.765935 0.000000 0.138341
523.000000 70.813000 1.000000 -2.000000 -8.000000 85.979347 2.863504 921.164601 1016.746280 14.126159 0.000000 0.163787
524.000000 76.813000 3.000000 -2.000000 -8.000000 98.470220 -15.795451 1279.468280 774.428817 13.019355 0.000000 0.148752
525.000000 73.669000 5.000000 -2.000000 -8.000000 103.490352 -35.760550 1750.121941 622.806031 13.573091 0.000000 0.045119
527.000000 45.765000 -3.000000 -1.000000 -8.000000 58.825796 33.356655 266.482352 1720.591589 21.865611 0.000000 0.177952
528.000000 54.998000 -2.000000 -1.000000 -8.000000 68.239790 28.955168 379.500782 1431.995222 18.192920 0.000000 0.126529
529.000000 64.382000 -1.000000 -1.000000 -8.000000 78.154532 23.539260 506.136740 1187.230813 15.538958 0.000000 0.129066
530.000000 73.035000 0.000000 -1.000000 -8.000000 88.133962 16.850649 649.009156 977.638834 13.695640 0.000000 0.152734
531.000000 79.956000 1.000000 -1.000000 -8.000000 97.543061 8.640136 811.454526 796.844198 12.507939 0.000000 0.167973
532.000000 84.326000 2.000000 -1.000000 -8.000000 105.616194 -1.213068 997.790741 640.097849 11.857990 0.000000 0.162484
533.000000 85.787000 3.000000 -1.000000 -8.000000 111.629498 -12.504966 1213.706566 503.853525 11.654583 0.000000 0.129107
534.000000 84.537000 4.000000 -1.000000 -8.000000 115.146748 -24.559789 1466.852584 385.498335 11.826031 0.000000 0.060242
535.000000 81.176000 5.000000 -1.000000 -8.000000 116.201590 -36.374267 1767.766673 283.193632 12.315213 0.000000 0.055155
536.000000 76.452000 6.000000 -1.000000 -8.000000 115.253907 -47.054261 2131.377965 195.808445 13.076052 0.000000 0.234949
538.000000 50.805000 -3.000000 0.000000 -8.000000 65.614957 39.646315 83.145496 1574.625254 19.694158 0.000000 0.199711
539.000000 60.711000 -1.000000 0.000000 -4.000000 75.900049 35.753339 200.083744 1274.126496 8.239125 0.000000 0.135802
540.000000 70.728000 -1.000000 0.000000 -8.000000 86.847610 30.807179 333.217047 1010.015473 14.141902 0.000000 0.115730
541.000000 87.095000 1.000000 0.000000 -8.000000 108.715642 16.132138 663.689509 561.420432 11.480158 0.000000 0.130935
542.000000 86.949000 5.000000 0.000000 -8.000000 129.234606 -37.283677 1794.432041 -163.620774 11.495283 0.000000 0.160450
543.000000 54.595000 -3.000000 1.000000 -8.000000 71.727689 46.409177 -155.582860 1456.404708 18.324267 0.000000 0.252736
544.000000 64.772000 -2.000000 1.000000 -8.000000 82.696109 43.254087 -37.621293 1130.409012 15.442585 0.000000 0.159796
545.000000 74.988000 -1.000000 1.000000 -8.000000 94.484663 39.124760 99.546789 832.184364 13.336347 0.000000 0.087820
546.000000 84.247000 0.000000 1.000000 -8.000000 106.699337 33.558760 261.027917 553.525264 11.868236 0.000000 0.044472
549.000000 66.929000 -1.000000 1.000000 -4.000000 88.281289 51.281109 -367.527507 992.631459 7.471525 0.000000 0.282510
550.000000 76.887000 -1.000000 2.000000 -8.000000 100.585914 48.316590 -233.710681 638.526507 13.005123 0.000000 0.201646
554.000000 47.036000 3.000000 -5.000000 -7.000000 58.343385 -24.908309 1474.788889 1672.664864 21.276296 0.000000 0.123361
555.000000 48.028000 4.000000 -5.000000 -7.000000 61.870082 -31.985062 1647.153187 1619.400622 20.834883 0.000000 0.156214
556.000000 47.737000 5.000000 -5.000000 -7.000000 64.430869 -38.761102 1839.160425 1601.406946 20.960111 0.000000 0.203012
557.000000 46.466000 6.000000 -5.000000 -7.000000 66.120622 -45.081785 2054.371313 1615.814902 21.532288 0.000000 0.277175
558.000000 46.235000 0.000000 -4.000000 -7.000000 52.335237 -0.502987 984.448787 1771.829950 21.648189 0.000000 0.053836
559.000000 52.195000 1.000000 -4.000000 -7.000000 59.081517 -7.883956 1124.040995 1591.771641 19.174352 0.000000 0.036964
560.000000 56.473000 2.000000 -4.000000 -7.000000 64.974836 -15.763140 1278.812860 1463.094292 17.719620 0.000000 0.081808
561.000000 58.733000 3.000000 -4.000000 -7.000000 69.699672 -23.874845 1451.382766 1376.396471 17.036025 0.000000 0.107920
562.000000 59.025000 4.000000 -4.000000 -7.000000 73.116058 -31.902834 1645.008039 1325.799400 16.950009 0.000000 0.124303
563.000000 57.705000 5.000000 -4.000000 -7.000000 75.271655 -39.549536 1863.792503 1307.929199 17.336464 0.000000 0.158797
564.000000 55.259000 6.000000 -4.000000 -7.000000 76.350129 -46.595759 2112.980565 1321.380074 18.102926 0.000000 0.242819
567.000000 49.695000 -1.000000 -3.000000 -7.000000 54.814396 10.910164 767.540372 1713.805515 20.139653 0.000000 0.060978
568.000000 58.152000 0.000000 -3.000000 -7.000000 63.149759 3.768870 904.099951 1487.041391 17.209067 0.000000 0.056789
569.000000 65.118000 1.000000 -3.000000 -7.000000 70.899482 -4.330701 1056.506969 1314.778409 15.366025 0.000000 0.105784
570.000000 69.726000 2.000000 -3.000000 -7.000000 77.484047 -13.212483 1227.689940 1186.419581 14.348603 0.000000 0.130803
571.000000 71.593000 3.000000 -3.000000 -7.000000 82.464427 -22.524106 1421.346307 1095.134305 13.972736 0.000000 0.127790
572.000000 70.913000 4.000000 -3.000000 -7.000000 85.675656 -31.795455 1642.212537 1036.756646 14.105289 0.000000 0.106471
573.000000 68.284000 5.000000 -3.000000 -7.000000 87.244349 -40.568096 1896.456672 1009.196734 14.647579 0.000000 0.120714
574.000000 64.422000 6.000000 -3.000000 -7.000000 87.491190 -48.517151 2192.263398 1012.192829 15.524913 0.000000 0.233969
576.000000 50.002000 -2.000000 -2.000000 -7.000000 55.397885 22.787327 522.847641 1746.407305 20.015036 0.000000 0.121831
577.000000 60.618000 -1.000000 -2.000000 -7.000000 65.073865 16.590535 654.336341 1462.923842 16.507902 0.000000 0.090785
578.000000 70.579000 0.000000 -2.000000 -7.000000 74.769357 9.121939 802.182872 1237.794401 14.175933 0.000000 0.127387
579.000000 78.528000 1.000000 -2.000000 -7.000000 83.752687 0.285217 969.642193 1058.823780 12.738961 0.000000 0.158762
580.000000 83.356000 2.000000 -2.000000 -7.000000 91.213594 -9.799270 1160.894189 917.861781 11.999318 0.000000 0.163154
581.000000 84.656000 3.000000 -2.000000 -7.000000 96.516902 -20.686006 1381.397339 809.577344 11.813556 0.000000 0.134329
582.000000 82.815000 4.000000 -2.000000 -7.000000 99.440204 -31.649306 1638.418082 730.779771 12.075045 0.000000 0.074750
583.000000 78.719000 5.000000 -2.000000 -7.000000 100.222275 -41.933701 1941.846938 680.100592 12.702876 0.000000 0.099004
584.000000 73.339000 6.000000 -2.000000 -7.000000 99.390998 -51.029242 2305.500583 657.967834 13.634546 0.000000 0.282513
586.000000 47.160000 -3.000000 -1.000000 -7.000000 54.054328 34.159352 244.666853 1884.123930 21.220032 0.000000 0.214141
587.000000 58.771000 -2.000000 -1.000000 -7.000000 64.384442 29.411956 368.243411 1533.384891 17.025883 0.000000 0.133076
588.000000 70.898000 -1.000000 -1.000000 -7.000000 75.449021 23.438521 508.386512 1245.495229 14.111487 0.000000 0.125007
589.000000 82.161000 0.000000 -1.000000 -7.000000 86.665522 15.887329 668.666839 1006.199060 12.174789 0.000000 0.153118
590.000000 90.903000 1.000000 -1.000000 -7.000000 97.127343 6.427000 853.760647 805.567673 11.001857 0.000000 0.170539
591.000000 88.001000 5.000000 -1.000000 -7.000000 113.943313 -43.857369 2009.199800 278.201943 11.360286 0.000000 0.160336
594.000000 58.112000 -3.000000 1.000000 -7.000000 68.104008 48.490750 -241.133717 1593.713647 17.216129 0.000000 0.311990
595.000000 71.144000 -2.000000 1.000000 -7.000000 80.322095 45.322109 -113.464368 1202.046610 14.059940 0.000000 0.194782
596.000000 84.549000 -1.000000 1.000000 -7.000000 93.722336 41.033510 38.285945 848.172500 11.828279 0.000000 0.101025
600.000000 86.449000 -1.000000 2.000000 -7.000000 100.182512 51.475914 -376.920430 630.622269 11.566655 0.000000 0.280555
601.000000 45.892000 3.000000 -5.000000 -6.000000 51.815079 -28.842702 1567.742803 1907.383976 21.808229 0.000000 0.195616
602.000000 46.916000 4.000000 -5.000000 -6.000000 55.434251 -36.201935 1762.784143 1859.948320 21.330139 0.000000 0.235451
603.000000 46.488000 5.000000 -5.000000 -6.000000 58.037886 -43.106460 1982.405995 1860.829772 21.525008 0.000000 0.305652
604.000000 45.506000 0.000000 -2.000000 -3.000000 45.709578 -2.882363 1029.190561 1992.290379 10.998160 0.000000 0.144773
605.000000 52.626000 1.000000 -4.000000 -6.000000 52.870511 -11.017451 1184.550632 1771.166876 19.018581 0.000000 0.077425
606.000000 57.571000 1.000000 -2.000000 -3.000000 59.040065 -19.611921 1358.503498 1626.443104 8.691552 0.000000 0.090730
607.000000 59.916000 3.000000 -4.000000 -6.000000 63.857371 -28.303074 1554.599242 1540.992383 16.700924 0.000000 0.125868
608.000000 59.841000 2.000000 -2.000000 -3.000000 67.212578 -36.703701 1777.353175 1504.968527 8.360065 0.000000 0.169446
609.000000 57.930000 5.000000 -4.000000 -6.000000 69.230540 -44.498006 2032.597810 1513.275195 17.270378 0.000000 0.248027
612.000000 50.181000 -1.000000 -3.000000 -6.000000 48.582006 9.521647 794.472062 1903.745538 19.946285 0.000000 0.113977
613.000000 69.323000 1.000000 -3.000000 -6.000000 65.959792 -7.574235 1118.115744 1425.328210 14.435208 0.000000 0.076197
614.000000 74.596000 2.000000 -3.000000 -6.000000 72.842302 -17.448620 1313.293461 1289.325941 13.412925 0.000000 0.112126
615.000000 74.395000 4.000000 -3.000000 -6.000000 80.639690 -37.367774 1796.930298 1164.230041 13.446005 0.000000 0.124976
616.000000 70.475000 5.000000 -3.000000 -6.000000 81.768342 -46.306571 2101.536279 1166.396037 14.193104 0.000000 0.212709
618.000000 50.914000 -1.000000 -1.000000 -3.000000 49.400949 22.617007 526.607055 1940.316156 9.828950 0.000000 0.163478
619.000000 64.539000 -1.000000 -2.000000 -6.000000 60.059985 15.689071 672.688827 1584.886327 15.506353 0.000000 0.075181
620.000000 87.619000 1.000000 -2.000000 -6.000000 80.684423 -2.940196 1030.279748 1117.783137 11.417957 0.000000 0.149046
621.000000 83.191000 5.000000 -2.000000 -6.000000 95.511281 -48.746705 2202.136026 783.506882 12.020659 0.000000 0.224089
622.000000 47.557000 -3.000000 -1.000000 -6.000000 48.061621 35.118772 218.040773 2123.214591 21.044364 0.000000 0.275151
623.000000 62.392000 -2.000000 -1.000000 -6.000000 59.429958 29.970921 354.329312 1674.896687 16.038897 0.000000 0.150398
624.000000 78.536000 -1.000000 -1.000000 -6.000000 71.905123 23.311994 511.207334 1323.942776 12.739788 0.000000 0.118782
625.000000 55.563000 -1.000000 0.000000 -2.000000 56.220311 42.763407 -20.383349 1921.658502 6.003243 0.000000 0.298600
626.000000 72.062000 -2.000000 0.000000 -6.000000 68.951894 38.446659 120.511649 1469.848963 13.884054 0.000000 0.173912
627.000000 89.909000 -1.000000 0.000000 -6.000000 83.147061 32.594115 286.836839 1094.528589 11.125653 0.000000 0.117821
630.000000 78.501000 -2.000000 1.000000 -6.000000 77.170684 47.872034 -214.990321 1306.401591 12.742829 0.000000 0.249872
633.000000 50.716000 1.000000 -4.000000 -5.000000 44.893318 -14.719064 1257.743324 2057.964903 19.736517 0.000000 0.186935
634.000000 56.529000 2.000000 -4.000000 -5.000000 51.390793 -24.080440 1456.008820 1882.404800 17.704955 0.000000 0.163556
635.000000 59.053000 3.000000 -4.000000 -5.000000 56.362235 -33.320105 1682.533963 1797.987402 16.946258 0.000000 0.199184
636.000000 58.677000 4.000000 -4.000000 -5.000000 59.745663 -41.991903 1943.824344 1785.661177 17.053145 0.000000 0.274845
639.000000 48.268000 -1.000000 -3.000000 -5.000000 40.491740 7.824098 827.104830 2213.391758 20.738218 0.000000 0.228955
640.000000 61.593000 0.000000 -3.000000 -5.000000 50.295675 -1.251892 998.520378 1834.907336 16.250487 0.000000 0.079665
641.000000 72.319000 1.000000 -3.000000 -5.000000 59.289976 -11.534335 1194.646307 1593.488450 13.838452 0.000000 0.052345
642.000000 78.360000 2.000000 -3.000000 -5.000000 66.476156 -22.519315 1421.240838 1448.191909 12.769761 0.000000 0.101148
643.000000 79.277000 3.000000 -3.000000 -5.000000 71.302632 -33.448824 1686.001969 1377.552983 12.620326 0.000000 0.134033
644.000000 76.206000 4.000000 -3.000000 -5.000000 73.851733 -43.586547 1999.459414 1371.242045 13.127576 0.000000 0.209263
647.000000 49.677000 -2.000000 -2.000000 -5.000000 41.598884 22.407217 531.224893 2252.313739 20.148827 0.000000 0.254408
648.000000 67.440000 -1.000000 -2.000000 -5.000000 53.358426 14.555568 695.537445 1768.084862 14.840673 0.000000 0.087627
649.000000 84.886000 0.000000 -2.000000 -5.000000 65.421915 4.743333 885.692950 1434.959857 11.788716 0.000000 0.074124
652.000000 65.028000 -2.000000 -1.000000 -5.000000 52.860076 30.670513 336.692186 1888.750715 15.389989 0.000000 0.192339
653.000000 87.264000 -1.000000 -1.000000 -5.000000 67.073174 23.148327 514.848230 1436.098745 11.466500 0.000000 0.110445
662.000000 58.220000 0.000000 -3.000000 -4.000000 40.323992 -4.714748 1063.766408 2213.351172 17.193476 0.000000 0.233638
663.000000 71.830000 1.000000 -3.000000 -4.000000 50.054260 -16.424302 1292.266758 1880.729041 13.934259 0.000000 0.130646
664.000000 78.892000 2.000000 -3.000000 -4.000000 57.608798 -28.590914 1561.593284 1718.630450 12.684921 0.000000 0.152030
665.000000 79.135000 3.000000 -3.000000 -4.000000 62.427474 -40.175823 1883.760967 1676.557360 12.644296 0.000000 0.231447
668.000000 67.004000 -1.000000 -2.000000 -4.000000 44.038714 13.088556 724.765080 2083.715689 14.938928 0.000000 0.184022
#UB matrix in q= (UB) B0 G* 
#[[-0.369604326 -0.427020224  0.824244304]
# [-0.862964919  0.487168581 -0.134582959]
# [-0.344505719 -0.761963145 -0.549162857]]
#B0 matrix in q= UB (B0) G*
#[[ 0.19670273 -0.          0.03056101]
# [ 0.          0.19187965 -0.        ]
# [ 0.          0.          0.18806537]]
#UBB0 matrix in q= (UB B0) G* i.e. recip. basis vectors are columns in LT frame: astar = UBB0[:,0], bstar = UBB0[:,1], cstar = UBB0[:,2]. (abcstar as columns on xyzlab1, xlab1 = ui, ui = unit vector along incident beam)
#[[-0.07270218 -0.08193649  0.14371633]
# [-0.16974756  0.09347774 -0.05168347]
# [-0.06776522 -0.14620522 -0.11380696]]
#Euler angles phi theta psi (deg)
#[335.669 123.263  99.256]
#deviatoric strain in direct crystal frame (10-3 unit)
#[[ 4.51  0.11 -0.75]
# [ 0.11  4.25 -0.84]
# [-0.75 -0.84 -8.76]]
#deviatoric strain in sample2 frame (10-3 unit)
#[[ 3.99  0.57  2.53]
# [ 0.58  4.04 -1.9 ]
# [ 2.55 -1.9  -8.03]]
#new lattice parameters
#[ 5.1505     5.2102758  5.3191317 90.0520611 99.2725244 89.9870762]
#CCDLabel
#sCMOS
#DetectorParameters
#[79.0, 975.0, 941.0, 0.0, 0.0]
#pixelsize
#0.0734
#Frame dimensions
#[2018, 2016]
#
