#Strain and Orientation Refinement from experimental file: /home/micha/LaueProjects/DepthEffects/testZrO2_96.cor
#File created at Wed Jun 28 14:24:12 2023 with indexingSpotsSet.py
#Number of indexed spots: 526
#Element
#ZrO2
#grainIndex
#G_0
#Mean Deviation(pixel): 0.112
##spot_index intensity h k l 2theta Chi Xexp Yexp Energy GrainIndex PixDev
0.000000 45.513000 -1.000000 -4.000000 -2.000000 98.157459 -25.493503 1488.216229 770.077214 7.323680 0.000000 0.111007
1.000000 46.388000 -1.000000 -6.000000 -3.000000 98.179966 -19.217645 1350.177012 777.157647 10.778537 0.000000 0.137213
2.000000 46.788000 -1.000000 -12.000000 -6.000000 97.491486 -12.775677 1219.047627 795.873005 21.373528 0.000000 0.155762
3.000000 46.657000 0.000000 -4.000000 -2.000000 96.058858 -6.326186 1094.321915 826.059030 7.144651 0.000000 0.165987
4.000000 45.975000 1.000000 -12.000000 -6.000000 93.900252 -0.028852 975.541973 867.620856 21.752984 0.000000 0.168246
5.000000 45.472000 -4.000000 -11.000000 -6.000000 93.425643 -33.091643 1676.403738 864.099548 21.992513 0.000000 0.085618
6.000000 46.981000 -3.000000 -11.000000 -6.000000 94.192129 -27.032389 1524.165917 852.434773 21.286005 0.000000 0.110278
7.000000 48.043000 -2.000000 -11.000000 -6.000000 94.302107 -20.622507 1380.035026 854.489758 20.816136 0.000000 0.136045
8.000000 48.553000 -1.000000 -11.000000 -6.000000 93.661901 -14.001503 1243.380298 870.008620 20.597955 0.000000 0.154695
9.000000 48.437000 0.000000 -11.000000 -6.000000 92.225382 -7.339711 1113.634748 898.829900 20.647816 0.000000 0.164579
10.000000 47.665000 1.000000 -11.000000 -6.000000 90.006264 -0.813755 990.287310 940.882324 20.983519 0.000000 0.165820
11.000000 46.255000 2.000000 -11.000000 -6.000000 87.078087 5.420267 872.876109 996.182152 21.624476 0.000000 0.159246
12.000000 46.473000 -2.000000 -5.000000 -3.000000 88.774274 -34.783047 1722.571811 969.038615 10.760184 0.000000 0.093449
13.000000 48.255000 -3.000000 -10.000000 -6.000000 89.638971 -28.647481 1562.972278 948.727984 20.725985 0.000000 0.109035
14.000000 49.535000 -1.000000 -5.000000 -3.000000 89.830759 -22.107414 1412.200037 944.431463 10.095306 0.000000 0.132483
15.000000 50.178000 -1.000000 -10.000000 -6.000000 89.235842 -15.305035 1269.542454 955.883310 19.932605 0.000000 0.150376
16.000000 50.081000 0.000000 -5.000000 -3.000000 87.792395 -8.422311 1134.361592 982.942453 9.986047 0.000000 0.159298
17.000000 49.198000 1.000000 -10.000000 -6.000000 85.508105 -1.654311 1006.084674 1025.588269 20.331207 0.000000 0.158890
18.000000 47.557000 1.000000 -5.000000 -3.000000 82.462538 4.822469 884.195974 1083.918737 10.517161 0.000000 0.150009
19.000000 47.100000 -4.000000 -9.000000 -6.000000 83.449145 -36.543356 1772.676942 1094.839987 21.235977 0.000000 0.108460
20.000000 49.182000 -1.000000 -3.000000 -2.000000 84.389280 -30.341821 1604.989901 1063.516310 6.778979 0.000000 0.108598
21.000000 50.712000 -2.000000 -9.000000 -6.000000 84.647613 -23.677233 1446.950167 1051.105898 19.724031 0.000000 0.126014
22.000000 51.507000 -1.000000 -9.000000 -6.000000 84.088091 -16.692416 1297.748483 1057.353377 19.420155 0.000000 0.141408
23.000000 51.428000 0.000000 -3.000000 -2.000000 82.630473 -9.580440 1156.663638 1082.173128 6.483570 0.000000 0.148213
24.000000 50.412000 1.000000 -9.000000 -6.000000 80.274751 -2.556254 1023.050817 1125.646289 19.843966 0.000000 0.145119
25.000000 48.490000 2.000000 -9.000000 -6.000000 77.107081 4.180416 896.331742 1188.021514 20.631465 0.000000 0.132973
26.000000 45.792000 1.000000 -3.000000 -2.000000 73.283574 10.476032 775.986306 1269.719519 7.282839 0.000000 0.114703
27.000000 47.149000 -2.000000 -4.000000 -3.000000 77.340824 -38.373338 1827.245167 1249.358576 10.607894 0.000000 0.135016
28.000000 49.544000 -3.000000 -8.000000 -6.000000 78.316054 -32.118198 1650.634592 1203.795361 20.190485 0.000000 0.112729
29.000000 51.339000 -1.000000 -4.000000 -3.000000 78.610623 -25.336893 1484.610116 1180.886713 9.742479 0.000000 0.117078
30.000000 52.298000 -1.000000 -8.000000 -6.000000 78.065225 -18.170213 1328.247631 1180.432595 19.128584 0.000000 0.126165
31.000000 52.229000 0.000000 -4.000000 -3.000000 76.579103 -10.821235 1180.727550 1202.473926 9.577227 0.000000 0.128495
32.000000 51.045000 1.000000 -8.000000 -6.000000 74.143154 -3.526064 1041.320433 1247.294087 19.599976 0.000000 0.120804
33.000000 48.789000 1.000000 -4.000000 -3.000000 70.850929 3.489186 909.374923 1315.427019 10.253800 0.000000 0.103938
34.000000 45.636000 3.000000 -8.000000 -6.000000 66.880306 10.047115 784.307573 1407.672318 21.925709 0.000000 0.083682
35.000000 46.349000 -4.000000 -7.000000 -6.000000 70.330423 -40.273257 1886.900608 1445.245822 21.584275 0.000000 0.178926
36.000000 49.029000 -3.000000 -7.000000 -6.000000 71.275386 -33.979049 1700.397184 1380.945084 20.404758 0.000000 0.129720
37.000000 51.075000 -2.000000 -7.000000 -6.000000 71.553179 -27.091297 1525.561334 1344.257143 19.588017 0.000000 0.110376
38.000000 52.182000 -1.000000 -7.000000 -6.000000 70.982612 -19.745391 1361.331389 1335.137235 19.173180 0.000000 0.104577
39.000000 52.098000 0.000000 -7.000000 -6.000000 69.442091 -12.152574 1206.770695 1353.903253 19.205209 0.000000 0.096772
40.000000 50.700000 1.000000 -7.000000 -6.000000 66.913117 -4.571075 1061.049735 1401.251152 19.736033 0.000000 0.080120
41.000000 48.049000 2.000000 -7.000000 -6.000000 63.497978 2.743129 923.431242 1478.283604 20.825952 0.000000 0.056287
42.000000 47.219000 -1.000000 -2.000000 -2.000000 63.112825 -35.926333 1754.861254 1614.933308 7.063146 0.000000 0.172740
43.000000 49.435000 -1.000000 -3.000000 -3.000000 63.288170 -28.945214 1570.254997 1559.910631 10.120189 0.000000 0.123377
44.000000 50.623000 -1.000000 -6.000000 -6.000000 62.625820 -21.425271 1397.342840 1539.652786 19.766357 0.000000 0.090089
45.000000 50.458000 0.000000 -2.000000 -2.000000 60.986880 -13.583138 1235.047729 1555.098105 6.610740 0.000000 0.059876
46.000000 48.781000 1.000000 -6.000000 -6.000000 58.345887 -5.699604 1082.420941 1607.839383 20.515178 0.000000 0.022971
47.000000 45.682000 1.000000 -3.000000 -3.000000 54.816348 1.935740 938.623515 1700.215540 10.953954 0.000000 0.029145
48.000000 45.781000 -2.000000 -5.000000 -6.000000 53.621986 -30.903130 1619.228690 1865.057352 21.858769 0.000000 0.186618
49.000000 46.880000 -1.000000 -5.000000 -6.000000 52.762372 -23.217460 1436.688595 1831.155483 21.347241 0.000000 0.136357
50.000000 46.498000 0.000000 -5.000000 -6.000000 50.954163 -15.122450 1265.858957 1845.308271 21.523681 0.000000 0.106817
51.000000 45.966000 -2.000000 -14.000000 -5.000000 111.329179 -15.700961 1277.552152 504.449932 21.749917 0.000000 0.117803
52.000000 46.215000 -1.000000 -14.000000 -5.000000 110.466192 -8.929252 1144.106203 534.385901 21.632934 0.000000 0.137712
53.000000 46.033000 0.000000 -14.000000 -5.000000 108.840928 -2.254913 1017.380159 573.456807 21.719267 0.000000 0.148980
54.000000 46.174000 -4.000000 -13.000000 -5.000000 107.999298 -30.475126 1608.356560 535.250889 21.652541 0.000000 0.051119
55.000000 47.380000 -3.000000 -13.000000 -5.000000 108.734111 -23.933898 1452.709993 541.640898 21.101440 0.000000 0.090307
56.000000 48.186000 -2.000000 -13.000000 -5.000000 108.739152 -17.076800 1305.634359 559.034474 20.748725 0.000000 0.121663
57.000000 48.524000 -1.000000 -13.000000 -5.000000 107.937559 -10.085731 1166.440670 587.118527 20.604653 0.000000 0.143089
58.000000 48.348000 0.000000 -13.000000 -5.000000 106.306712 -3.164850 1034.511857 625.651692 20.680199 0.000000 0.155086
59.000000 47.644000 1.000000 -13.000000 -5.000000 103.884458 3.493497 909.293627 674.458609 20.987123 0.000000 0.158542
60.000000 46.427000 2.000000 -13.000000 -5.000000 100.762474 9.738218 790.286675 733.425405 21.538038 0.000000 0.154533
61.000000 46.232000 -5.000000 -12.000000 -5.000000 103.191539 -38.365073 1826.992593 619.250354 21.626504 0.000000 0.056507
62.000000 48.048000 -4.000000 -12.000000 -5.000000 104.720707 -32.222651 1653.373059 606.742101 20.809173 0.000000 0.053421
63.000000 49.511000 -3.000000 -12.000000 -5.000000 105.621428 -25.570375 1489.989726 607.383507 20.194382 0.000000 0.091602
64.000000 50.514000 -2.000000 -12.000000 -5.000000 105.755836 -18.540216 1335.963262 620.712586 19.793344 0.000000 0.124843
65.000000 50.967000 -1.000000 -12.000000 -5.000000 105.025107 -11.322902 1190.512248 646.367611 19.618114 0.000000 0.147758
66.000000 50.804000 0.000000 -12.000000 -5.000000 103.392012 -4.141848 1052.939922 684.078096 19.681673 0.000000 0.160403
67.000000 50.003000 1.000000 -12.000000 -5.000000 100.891561 2.786055 922.623012 733.657712 19.998016 0.000000 0.163649
68.000000 48.586000 2.000000 -12.000000 -5.000000 97.625057 9.286922 799.002302 794.998877 20.582252 0.000000 0.158686
69.000000 46.623000 3.000000 -12.000000 -5.000000 93.740413 15.249698 681.574603 868.068803 21.450720 0.000000 0.147143
70.000000 47.725000 -5.000000 -11.000000 -5.000000 99.239493 -40.231366 1885.549624 711.666373 20.951491 0.000000 0.079109
71.000000 49.885000 -4.000000 -11.000000 -5.000000 100.947912 -34.051539 1702.379142 689.718706 20.043896 0.000000 0.058838
72.000000 51.662000 -3.000000 -11.000000 -5.000000 102.021483 -27.298104 1530.471794 683.080941 19.354723 0.000000 0.092454
73.000000 52.913000 -2.000000 -11.000000 -5.000000 102.295569 -20.097744 1368.819712 691.206610 18.897249 0.000000 0.126971
74.000000 53.513000 -1.000000 -11.000000 -5.000000 101.644604 -12.648234 1216.531797 713.678731 18.685851 0.000000 0.151220
75.000000 53.372000 0.000000 -11.000000 -5.000000 100.012327 -5.192969 1072.817284 750.198371 18.736119 0.000000 0.164342
76.000000 52.454000 1.000000 -11.000000 -5.000000 97.428805 2.023552 936.972003 800.575950 19.064991 0.000000 0.167095
77.000000 50.790000 2.000000 -11.000000 -5.000000 94.006105 8.800728 808.366848 864.724895 19.690895 0.000000 0.160792
78.000000 48.472000 3.000000 -11.000000 -5.000000 89.914781 15.008433 686.438028 942.657364 20.633926 0.000000 0.147397
79.000000 45.639000 4.000000 -11.000000 -5.000000 85.351650 20.589214 570.678810 1034.481853 21.916028 0.000000 0.130286
80.000000 46.229000 -6.000000 -10.000000 -5.000000 92.391715 -47.687072 2157.295932 874.221074 21.631580 0.000000 0.200502
81.000000 49.030000 -2.000000 -4.000000 -2.000000 94.707836 -42.164901 1949.723316 821.418533 8.158071 0.000000 0.108433
82.000000 51.595000 -4.000000 -10.000000 -5.000000 96.586445 -35.963615 1755.929765 787.460362 19.381086 0.000000 0.069502
83.000000 53.750000 -3.000000 -10.000000 -5.000000 97.832985 -29.121521 1574.587335 771.509324 18.603963 0.000000 0.093122
84.000000 55.309000 -2.000000 -10.000000 -5.000000 98.252840 -21.756224 1404.533409 772.917672 18.079779 0.000000 0.127542
85.000000 56.098000 -1.000000 -10.000000 -5.000000 97.688366 -14.069916 1244.745746 791.208044 17.825974 0.000000 0.152719
86.000000 54.928000 1.000000 -10.000000 -5.000000 93.386616 1.199607 952.462241 877.294684 18.207661 0.000000 0.167805
87.000000 52.956000 2.000000 -10.000000 -5.000000 89.795736 8.275503 818.455588 944.877457 18.887059 0.000000 0.159613
88.000000 50.200000 3.000000 -10.000000 -5.000000 85.484032 14.748404 691.667430 1028.904204 19.925132 0.000000 0.143876
89.000000 46.854000 4.000000 -10.000000 -5.000000 80.681647 20.549503 571.529810 1129.605052 21.349823 0.000000 0.125288
90.000000 46.776000 -6.000000 -9.000000 -5.000000 87.070362 -49.639854 2241.425218 1026.055219 21.380562 0.000000 0.254442
91.000000 50.009000 -5.000000 -9.000000 -5.000000 89.497681 -44.164740 2020.362484 954.154508 19.997945 0.000000 0.146828
92.000000 53.035000 -4.000000 -9.000000 -5.000000 91.523058 -37.960131 1814.687815 904.703965 18.856441 0.000000 0.087967
93.000000 55.639000 -3.000000 -9.000000 -5.000000 92.930932 -31.044790 1622.848519 876.682112 17.973836 0.000000 0.094550
94.000000 57.575000 -2.000000 -9.000000 -5.000000 93.494320 -23.522736 1443.494001 869.321788 17.369707 0.000000 0.125931
95.000000 58.603000 -1.000000 -9.000000 -5.000000 93.018004 -15.596896 1275.443917 882.085267 17.065658 0.000000 0.151100
96.000000 58.537000 0.000000 -9.000000 -5.000000 91.390484 -7.550508 1117.662168 914.646302 17.085586 0.000000 0.163885
97.000000 57.299000 1.000000 -9.000000 -5.000000 88.622684 0.306865 969.235518 966.878061 17.455996 0.000000 0.164057
98.000000 54.941000 2.000000 -9.000000 -5.000000 84.852161 7.706451 829.355906 1038.846311 18.206363 0.000000 0.153184
99.000000 51.645000 3.000000 -9.000000 -5.000000 80.309605 14.467345 697.305733 1130.807418 19.369564 0.000000 0.134584
100.000000 47.679000 4.000000 -9.000000 -5.000000 75.265158 20.506749 572.445542 1243.211013 20.982380 0.000000 0.115533
101.000000 46.780000 -6.000000 -8.000000 -5.000000 81.014515 -51.638724 2334.832434 1215.224688 21.380452 0.000000 0.324888
102.000000 50.460000 -5.000000 -8.000000 -5.000000 83.496883 -46.229230 2098.496051 1118.351852 19.820847 0.000000 0.197827
103.000000 53.991000 -4.000000 -8.000000 -5.000000 85.624032 -40.041634 1879.451690 1048.581881 18.524424 0.000000 0.117336
104.000000 57.109000 -3.000000 -8.000000 -5.000000 87.162368 -33.071640 1675.868520 1004.662185 17.513220 0.000000 0.099311
105.000000 59.492000 -2.000000 -8.000000 -5.000000 87.851997 -25.404486 1486.165360 985.690378 16.811798 0.000000 0.121634
106.000000 60.811000 -1.000000 -8.000000 -5.000000 87.455351 -17.238894 1308.969523 991.082200 16.447629 0.000000 0.144655
107.000000 60.800000 0.000000 -8.000000 -5.000000 85.823333 -8.876116 1143.083554 1020.550122 16.451529 0.000000 0.155696
108.000000 59.337000 1.000000 -8.000000 -5.000000 82.951230 -0.663170 987.458129 1074.091285 16.858187 0.000000 0.153012
109.000000 56.497000 2.000000 -8.000000 -5.000000 78.991731 7.087976 841.169838 1151.983997 17.706792 0.000000 0.138297
110.000000 52.540000 3.000000 -8.000000 -5.000000 74.215070 14.162612 703.402848 1254.792499 19.041789 0.000000 0.116680
111.000000 47.841000 4.000000 -8.000000 -5.000000 68.938734 20.460588 573.433681 1383.380165 20.913786 0.000000 0.101542
113.000000 50.112000 -5.000000 -7.000000 -5.000000 76.583041 -48.355942 2185.383497 1327.374318 19.960750 0.000000 0.266914
114.000000 54.149000 -4.000000 -7.000000 -5.000000 78.735790 -42.207821 1951.191793 1230.404642 18.472450 0.000000 0.162051
115.000000 57.814000 -3.000000 -7.000000 -5.000000 80.343571 -35.205176 1734.387709 1165.126401 17.301520 0.000000 0.113225
116.000000 60.698000 -2.000000 -7.000000 -5.000000 81.116421 -27.408650 1533.104136 1130.499242 16.479708 0.000000 0.115413
117.000000 62.352000 -1.000000 -7.000000 -5.000000 80.772136 -19.006387 1345.732049 1125.941416 16.043137 0.000000 0.131110
118.000000 62.395000 0.000000 -7.000000 -5.000000 79.118105 -10.314510 1170.877407 1151.307551 16.033096 0.000000 0.137640
119.000000 60.644000 1.000000 -7.000000 -5.000000 76.129766 -1.720357 1007.326408 1206.882430 16.496988 0.000000 0.129826
120.000000 57.207000 2.000000 -7.000000 -5.000000 71.977097 6.413510 854.017270 1293.390323 17.489516 0.000000 0.109619
121.000000 52.458000 3.000000 -7.000000 -5.000000 66.977303 13.831104 710.017153 1412.020479 19.074135 0.000000 0.087697
122.000000 46.924000 4.000000 -7.000000 -5.000000 61.502165 20.410595 574.503169 1564.470491 21.324879 0.000000 0.093809
124.000000 53.070000 -4.000000 -6.000000 -5.000000 70.690519 -44.457398 2031.099486 1469.338398 18.850250 0.000000 0.229428
125.000000 57.241000 -3.000000 -6.000000 -5.000000 72.261736 -37.447653 1799.308438 1374.653485 17.476918 0.000000 0.146629
126.000000 60.618000 -2.000000 -6.000000 -5.000000 73.033010 -29.542171 1584.984179 1318.449281 16.503779 0.000000 0.113897
127.000000 62.605000 -1.000000 -6.000000 -5.000000 72.680798 -20.910557 1386.224064 1300.287189 15.980539 0.000000 0.109455
128.000000 62.668000 0.000000 -6.000000 -5.000000 70.967016 -11.878658 1201.392102 1320.415949 15.965494 0.000000 0.104171
129.000000 60.541000 1.000000 -6.000000 -5.000000 67.845123 -2.876164 1029.073825 1379.791818 16.527465 0.000000 0.085931
130.000000 56.381000 2.000000 -6.000000 -5.000000 63.505583 5.675306 868.040022 1480.132257 17.748285 0.000000 0.059141
131.000000 50.731000 3.000000 -6.000000 -5.000000 58.319674 13.469154 717.217371 1624.008288 19.726032 0.000000 0.065051
134.000000 54.665000 -3.000000 -5.000000 -5.000000 62.686985 -39.800230 1871.741901 1664.467813 18.303092 0.000000 0.214618
135.000000 58.381000 -2.000000 -5.000000 -5.000000 63.308165 -31.811472 1642.629096 1577.779998 17.138560 0.000000 0.140500
136.000000 60.582000 -1.000000 -5.000000 -5.000000 62.833302 -22.963165 1431.043419 1540.887092 16.516839 0.000000 0.096094
137.000000 57.921000 1.000000 -5.000000 -5.000000 57.705083 -4.143981 1052.980204 1623.054509 17.278052 0.000000 0.014696
138.000000 52.934000 2.000000 -5.000000 -5.000000 53.204422 4.864164 883.407109 1748.951250 18.906751 0.000000 0.052937
139.000000 46.369000 3.000000 -5.000000 -5.000000 47.914143 13.072400 725.084960 1938.884150 21.584851 0.000000 0.139395
141.000000 52.789000 -2.000000 -4.000000 -5.000000 51.638433 -34.222115 1707.056294 1971.261209 18.957030 0.000000 0.234294
142.000000 54.829000 -1.000000 -4.000000 -5.000000 50.843757 -25.176343 1480.922961 1909.434944 18.252753 0.000000 0.165322
143.000000 54.409000 0.000000 -4.000000 -5.000000 48.735204 -15.444261 1272.355555 1920.755569 18.394846 0.000000 0.131526
144.000000 51.101000 1.000000 -4.000000 -5.000000 45.252705 -5.539476 1079.383834 2012.847464 19.586856 0.000000 0.149808
145.000000 45.790000 -3.000000 -15.000000 -4.000000 120.518249 -20.437095 1376.063649 263.935303 21.829619 0.000000 0.057004
146.000000 46.340000 -2.000000 -15.000000 -4.000000 120.291055 -13.126353 1225.983421 295.421881 21.570723 0.000000 0.087265
147.000000 46.515000 -1.000000 -15.000000 -4.000000 119.238048 -5.794525 1084.222078 335.446977 21.490313 0.000000 0.107153
148.000000 46.288000 0.000000 -15.000000 -4.000000 117.366041 1.324946 950.106605 383.762110 21.596278 0.000000 0.117783
149.000000 45.654000 1.000000 -15.000000 -4.000000 114.738240 8.036645 823.034675 440.170659 21.896977 0.000000 0.120237
150.000000 45.677000 -5.000000 -14.000000 -4.000000 116.348454 -35.999511 1756.959544 282.092385 21.884848 0.000000 0.049677
151.000000 47.077000 -2.000000 -7.000000 -2.000000 117.789528 -29.291069 1578.767588 290.633536 10.616764 0.000000 0.011724
152.000000 48.159000 -3.000000 -14.000000 -4.000000 118.525040 -22.074472 1411.479280 309.736692 20.756486 0.000000 0.058370
153.000000 48.853000 -1.000000 -7.000000 -2.000000 118.433527 -14.538659 1254.123532 338.957357 10.230879 0.000000 0.091993
154.000000 49.104000 -1.000000 -14.000000 -4.000000 117.444232 -6.931232 1105.841245 377.932398 20.357884 0.000000 0.114045
155.000000 48.875000 0.000000 -7.000000 -2.000000 115.553946 0.486038 965.869619 426.370964 10.226974 0.000000 0.125837
156.000000 48.157000 1.000000 -14.000000 -4.000000 112.828198 7.488181 833.529029 484.047113 20.759614 0.000000 0.128616
157.000000 46.971000 1.000000 -7.000000 -2.000000 109.386786 13.921673 708.211986 550.793844 10.642592 0.000000 0.123702
158.000000 45.743000 -6.000000 -13.000000 -4.000000 111.366529 -44.052716 2016.280755 355.123058 21.854622 0.000000 0.149542
159.000000 47.693000 -5.000000 -13.000000 -4.000000 113.599360 -37.958912 1814.650967 344.632625 20.960472 0.000000 0.062262
160.000000 49.381000 -4.000000 -13.000000 -4.000000 115.275106 -31.180850 1626.335415 346.999078 20.243547 0.000000 0.010227
161.000000 50.711000 -3.000000 -13.000000 -4.000000 116.221032 -23.815825 1450.057476 361.566935 19.712535 0.000000 0.059409
162.000000 51.591000 -2.000000 -13.000000 -4.000000 116.286821 -16.052927 1284.698686 387.799092 19.376699 0.000000 0.096655
163.000000 51.943000 -1.000000 -13.000000 -4.000000 115.376446 -8.157159 1129.274980 425.262090 19.245930 0.000000 0.121089
164.000000 51.716000 0.000000 -13.000000 -4.000000 113.472551 -0.421453 982.917090 473.614259 19.330796 0.000000 0.134125
165.000000 50.898000 1.000000 -13.000000 -4.000000 110.641872 6.894743 844.854287 532.596218 19.642606 0.000000 0.137177
166.000000 49.513000 2.000000 -13.000000 -4.000000 107.019511 13.610873 714.400796 602.023303 20.193473 0.000000 0.131761
167.000000 47.623000 3.000000 -13.000000 -4.000000 102.780495 19.637996 590.944409 681.779615 20.996389 0.000000 0.119837
168.000000 47.442000 -3.000000 -6.000000 -2.000000 107.959294 -46.078264 2092.586364 438.078665 10.536562 0.000000 0.177357
169.000000 49.758000 -5.000000 -12.000000 -4.000000 110.433161 -40.000109 1878.121612 417.557620 20.091366 0.000000 0.079416
170.000000 51.801000 -2.000000 -6.000000 -2.000000 112.360331 -33.170028 1678.503400 412.065486 9.649365 0.000000 0.016088
171.000000 53.444000 -3.000000 -12.000000 -4.000000 113.539658 -25.667842 1492.241653 420.794077 18.705282 0.000000 0.060131
172.000000 54.563000 -1.000000 -6.000000 -2.000000 113.786446 -17.678253 1318.039245 443.088813 9.160908 0.000000 0.101108
173.000000 55.051000 -1.000000 -12.000000 -4.000000 112.972538 -9.481970 1154.761744 478.429004 18.159917 0.000000 0.128125
174.000000 54.836000 0.000000 -6.000000 -2.000000 111.060865 -1.405779 1001.412681 526.412199 9.116021 0.000000 0.142467
175.000000 53.894000 1.000000 -12.000000 -4.000000 108.117549 6.250705 857.113197 586.741834 18.551596 0.000000 0.145694
176.000000 52.260000 1.000000 -6.000000 -2.000000 104.295492 13.274266 721.085188 659.217576 9.566517 0.000000 0.139546
177.000000 50.018000 3.000000 -12.000000 -4.000000 99.799057 19.558017 592.637267 743.727930 19.991950 0.000000 0.126349
178.000000 47.294000 1.000000 -3.000000 -1.000000 94.846117 25.085763 471.153016 840.244747 5.286302 0.000000 0.110051
180.000000 49.067000 -6.000000 -11.000000 -4.000000 104.055362 -48.164143 2177.254556 537.018536 20.376148 0.000000 0.213070
181.000000 51.822000 -5.000000 -11.000000 -4.000000 106.771057 -42.122826 1948.285664 503.686466 19.292521 0.000000 0.102407
182.000000 54.300000 -4.000000 -11.000000 -4.000000 108.962125 -35.261471 1735.972753 488.102984 18.411561 0.000000 0.028694
183.000000 56.339000 -3.000000 -11.000000 -4.000000 110.396591 -27.637160 1538.562187 489.260470 17.745069 0.000000 0.060689
184.000000 57.770000 -2.000000 -11.000000 -4.000000 110.849333 -19.424393 1354.538159 506.353827 17.305778 0.000000 0.105134
185.000000 58.441000 -1.000000 -11.000000 -4.000000 110.151602 -10.916532 1182.583698 538.753710 17.107451 0.000000 0.134890
186.000000 58.247000 0.000000 -11.000000 -4.000000 108.239157 -2.476466 1021.549097 585.985617 17.164984 0.000000 0.150557
187.000000 57.154000 1.000000 -11.000000 -4.000000 105.174663 5.549496 870.426180 647.713708 17.494528 0.000000 0.153788
188.000000 55.204000 2.000000 -11.000000 -4.000000 101.131783 12.908524 728.327171 723.728469 18.113622 0.000000 0.146584
189.000000 52.519000 3.000000 -11.000000 -4.000000 96.351084 19.471470 594.467245 813.937602 19.041346 0.000000 0.131744
190.000000 49.270000 4.000000 -11.000000 -4.000000 91.090255 25.216748 468.150021 918.359652 20.298495 0.000000 0.114267
191.000000 45.655000 5.000000 -11.000000 -4.000000 85.586049 30.193093 348.755446 1037.120047 21.907772 0.000000 0.104147
193.000000 50.528000 -3.000000 -5.000000 -2.000000 99.570712 -50.307319 2271.739755 656.853522 9.894197 0.000000 0.259295
194.000000 53.798000 -5.000000 -10.000000 -4.000000 102.518069 -44.325873 2026.260858 606.959715 18.584888 0.000000 0.133023
195.000000 56.809000 -2.000000 -5.000000 -2.000000 104.977361 -37.457261 1799.594829 578.271597 8.799795 0.000000 0.047210
196.000000 59.348000 -3.000000 -10.000000 -4.000000 106.684411 -29.730172 1589.658826 569.517328 16.846522 0.000000 0.061601
197.000000 61.184000 -1.000000 -5.000000 -2.000000 107.367456 -21.301706 1394.666529 579.696995 8.170465 0.000000 0.108421
198.000000 62.104000 -1.000000 -10.000000 -4.000000 106.806997 -12.473028 1213.077186 608.045709 16.099430 0.000000 0.140944
199.000000 61.950000 0.000000 -5.000000 -2.000000 104.901713 -3.644545 1043.554818 654.005354 8.070078 0.000000 0.157874
200.000000 60.665000 1.000000 -10.000000 -4.000000 101.706505 4.783388 884.935292 717.203261 16.482944 0.000000 0.160825
201.000000 58.312000 1.000000 -5.000000 -2.000000 97.419314 12.509729 736.199553 797.436530 8.574765 0.000000 0.152095
202.000000 55.060000 3.000000 -10.000000 -4.000000 92.325804 19.377512 596.451705 894.661082 18.163789 0.000000 0.135149
203.000000 51.156000 2.000000 -5.000000 -2.000000 86.733130 25.358151 464.900955 1008.984798 9.776002 0.000000 0.116613
204.000000 46.867000 5.000000 -10.000000 -4.000000 80.919181 30.506623 340.846632 1140.664308 21.343170 0.000000 0.109864
207.000000 55.555000 -5.000000 -9.000000 -4.000000 97.560624 -46.607015 2113.428464 733.058442 17.998669 0.000000 0.173881
208.000000 59.206000 -4.000000 -9.000000 -4.000000 100.278284 -39.758466 1870.413585 687.113660 16.888299 0.000000 0.072901
209.000000 62.371000 -3.000000 -9.000000 -4.000000 102.265781 -31.952774 1646.310420 665.217926 16.031034 0.000000 0.064218
210.000000 64.736000 -2.000000 -9.000000 -4.000000 103.199145 -23.321035 1438.994050 666.116733 15.445466 0.000000 0.110541
211.000000 65.992000 -1.000000 -9.000000 -4.000000 102.796417 -14.165077 1246.646407 688.876832 15.152047 0.000000 0.145558
212.000000 65.902000 0.000000 -9.000000 -4.000000 100.906308 -4.922820 1067.702813 732.847672 15.173341 0.000000 0.163530
213.000000 64.375000 1.000000 -9.000000 -4.000000 97.569609 3.943252 900.809319 797.633296 15.534291 0.000000 0.165727
214.000000 61.497000 2.000000 -9.000000 -4.000000 93.012726 12.073232 744.788389 883.072800 16.262551 0.000000 0.154787
215.000000 57.519000 3.000000 -9.000000 -4.000000 87.577974 19.275150 598.611071 989.228050 17.388862 0.000000 0.135195
216.000000 52.793000 4.000000 -9.000000 -4.000000 81.634114 25.511261 461.374281 1116.377782 18.947489 0.000000 0.116365
217.000000 47.690000 5.000000 -9.000000 -4.000000 75.507866 30.843881 332.282123 1265.017608 20.976751 0.000000 0.116910
220.000000 56.886000 -5.000000 -8.000000 -4.000000 91.765012 -48.962874 2211.515826 890.484232 17.579051 0.000000 0.228909
221.000000 65.224000 -3.000000 -8.000000 -4.000000 96.965186 -34.310052 1709.474896 781.812810 15.331191 0.000000 0.071485
222.000000 69.977000 -1.000000 -8.000000 -4.000000 97.927821 -16.007821 1283.781428 785.072892 14.290451 0.000000 0.147525
223.000000 68.146000 1.000000 -8.000000 -4.000000 92.568250 3.018232 918.250369 892.656330 14.676249 0.000000 0.166622
224.000000 64.581000 1.000000 -4.000000 -2.000000 87.715863 11.593480 754.196148 984.824080 7.743832 0.000000 0.152471
225.000000 59.668000 3.000000 -8.000000 -4.000000 81.915592 19.163204 600.969533 1102.849018 16.764615 0.000000 0.129792
226.000000 53.919000 2.000000 -4.000000 -2.000000 75.612638 25.677594 457.532832 1247.344998 9.276821 0.000000 0.113413
227.000000 47.852000 5.000000 -8.000000 -4.000000 69.190217 31.207640 322.976848 1419.263126 20.907702 0.000000 0.129211
229.000000 57.489000 -5.000000 -7.000000 -4.000000 84.978187 -51.388838 2322.711984 1092.557092 17.396822 0.000000 0.304202
230.000000 62.725000 -4.000000 -7.000000 -4.000000 88.076249 -44.674882 2039.148470 991.837617 15.944018 0.000000 0.158223
231.000000 67.577000 -3.000000 -7.000000 -4.000000 90.559971 -36.805900 1780.343869 927.861854 14.799184 0.000000 0.088608
232.000000 71.476000 -2.000000 -7.000000 -4.000000 91.995399 -27.830214 1543.191146 898.596964 13.991961 0.000000 0.109673
233.000000 73.777000 -1.000000 -7.000000 -4.000000 91.939928 -18.017961 1325.082266 902.664777 13.555922 0.000000 0.144863
234.000000 73.926000 0.000000 -7.000000 -4.000000 90.091252 -7.871989 1123.811887 939.269533 13.529242 0.000000 0.162526
235.000000 71.674000 1.000000 -7.000000 -4.000000 86.431952 1.995345 937.502526 1008.152837 13.955518 0.000000 0.160161
236.000000 67.205000 2.000000 -7.000000 -4.000000 81.261380 11.063787 764.545816 1109.571755 14.884766 0.000000 0.141333
237.000000 61.096000 3.000000 -7.000000 -4.000000 75.083864 19.040263 603.555955 1244.297923 16.374644 0.000000 0.116161
238.000000 54.106000 4.000000 -7.000000 -4.000000 68.437873 25.858936 453.332496 1413.637183 18.491978 0.000000 0.111313
239.000000 46.944000 5.000000 -7.000000 -4.000000 61.768545 31.601119 312.830359 1619.470793 21.314650 0.000000 0.156138
242.000000 63.008000 -2.000000 -3.000000 -2.000000 80.161977 -47.284992 2140.756098 1216.143156 7.937220 0.000000 0.229659
243.000000 68.865000 -3.000000 -6.000000 -4.000000 82.773376 -39.442583 1860.418530 1117.722140 14.524169 0.000000 0.123149
244.000000 76.817000 -1.000000 -6.000000 -4.000000 84.476760 -20.213707 1371.291562 1051.906677 13.021293 0.000000 0.134567
245.000000 74.337000 1.000000 -6.000000 -4.000000 78.783969 0.858959 958.863342 1154.448961 13.457548 0.000000 0.140057
246.000000 61.091000 3.000000 -6.000000 -4.000000 66.746308 18.904623 606.405069 1429.864399 16.378411 0.000000 0.094288
247.000000 52.667000 2.000000 -3.000000 -2.000000 59.819593 26.057412 448.720516 1637.746914 9.499862 0.000000 0.127077
251.000000 68.181000 -3.000000 -5.000000 -4.000000 73.276454 -42.220242 1951.617159 1377.673296 14.672046 0.000000 0.186279
252.000000 74.130000 -2.000000 -5.000000 -4.000000 74.926180 -33.037929 1674.967091 1286.789762 13.494918 0.000000 0.118886
253.000000 77.986000 -1.000000 -5.000000 -4.000000 75.059606 -22.614588 1423.339626 1252.113191 12.828200 0.000000 0.114354
254.000000 78.467000 0.000000 -5.000000 -4.000000 73.160025 -11.475063 1193.486764 1273.416486 12.750457 0.000000 0.114292
255.000000 74.909000 1.000000 -5.000000 -4.000000 69.101436 -0.409861 982.699325 1351.976424 13.357247 0.000000 0.093749
256.000000 67.768000 2.000000 -5.000000 -4.000000 63.287123 9.820264 788.699663 1490.676813 14.765985 0.000000 0.064403
257.000000 58.445000 3.000000 -5.000000 -4.000000 56.468412 18.754214 609.559035 1694.228861 17.122566 0.000000 0.097626
258.000000 48.557000 4.000000 -5.000000 -4.000000 49.407043 26.275564 443.633260 1969.539855 20.610557 0.000000 0.199002
260.000000 64.174000 -3.000000 -4.000000 -4.000000 61.713785 -45.136394 2056.430794 1762.056312 15.590650 0.000000 0.298398
261.000000 75.271000 -1.000000 -4.000000 -4.000000 63.072468 -25.241045 1482.407722 1545.391965 13.293463 0.000000 0.105544
262.000000 71.090000 1.000000 -4.000000 -4.000000 56.679977 -1.834208 1009.467145 1648.894462 14.077548 0.000000 0.007031
263.000000 62.235000 1.000000 -2.000000 -2.000000 50.627079 9.084156 802.910829 1835.445092 8.040873 0.000000 0.093470
264.000000 51.249000 3.000000 -4.000000 -4.000000 43.721192 18.586486 613.069548 2128.373022 19.529707 0.000000 0.217611
268.000000 65.406000 -1.000000 -3.000000 -4.000000 47.809802 -28.113717 1550.018805 2047.091868 15.301152 0.000000 0.216734
269.000000 65.001000 0.000000 -3.000000 -4.000000 45.264889 -15.936101 1282.323792 2050.009069 15.397816 0.000000 0.176205
270.000000 58.981000 1.000000 -3.000000 -4.000000 40.653722 -3.442410 1039.743175 2196.619404 16.970512 0.000000 0.219845
272.000000 45.535000 -3.000000 -16.000000 -3.000000 128.807816 -18.100047 1326.788171 30.331436 21.949124 0.000000 0.025130
273.000000 45.976000 -2.000000 -16.000000 -3.000000 128.397731 -10.065034 1166.039607 74.676372 21.738604 0.000000 0.049895
274.000000 46.073000 -1.000000 -16.000000 -3.000000 127.092996 -2.123245 1014.903174 126.652753 21.693526 0.000000 0.067527
275.000000 45.806000 0.000000 -16.000000 -3.000000 124.927472 5.437907 872.541751 186.001356 21.820607 0.000000 0.075776
276.000000 45.877000 -5.000000 -15.000000 -3.000000 125.338908 -35.315461 1737.494944 5.737961 21.786308 0.000000 0.098129
277.000000 47.113000 -4.000000 -15.000000 -3.000000 126.801089 -27.856024 1543.811258 30.265282 21.214574 0.000000 0.036626
278.000000 48.040000 -1.000000 -5.000000 -1.000000 127.460178 -19.824904 1363.018318 64.362963 6.934925 0.000000 0.025058
279.000000 48.604000 -2.000000 -15.000000 -3.000000 127.192162 -11.494689 1193.870643 107.564136 20.563750 0.000000 0.053734
280.000000 48.759000 -1.000000 -15.000000 -3.000000 125.941356 -3.205519 1035.278193 159.485529 20.498723 0.000000 0.073750
281.000000 48.481000 0.000000 -5.000000 -1.000000 123.734870 4.712143 886.282856 219.816592 6.872447 0.000000 0.083241
282.000000 47.764000 1.000000 -15.000000 -3.000000 120.674295 12.009550 746.039072 288.310704 20.927698 0.000000 0.083204
283.000000 46.629000 2.000000 -15.000000 -3.000000 116.910356 18.551650 613.797778 364.778036 21.438371 0.000000 0.074987
284.000000 46.379000 -6.000000 -14.000000 -3.000000 120.861387 -44.199496 2021.632026 43.874789 21.551624 0.000000 0.204864
285.000000 48.147000 -5.000000 -14.000000 -3.000000 123.248554 -37.466466 1799.869269 51.996397 20.759624 0.000000 0.110765
286.000000 49.647000 -4.000000 -14.000000 -3.000000 124.989706 -29.909952 1594.145446 71.904030 20.132216 0.000000 0.040304
287.000000 50.796000 -3.000000 -14.000000 -3.000000 125.890679 -21.675720 1402.781266 102.896714 19.676745 0.000000 0.024191
288.000000 51.518000 -2.000000 -14.000000 -3.000000 125.793095 -13.042540 1224.323965 144.399147 19.401001 0.000000 0.057662
289.000000 51.753000 -1.000000 -14.000000 -3.000000 124.614103 -4.383807 1057.510351 195.943513 19.313250 0.000000 0.080491
290.000000 51.465000 0.000000 -14.000000 -3.000000 122.369918 3.920599 901.236865 257.154941 19.422274 0.000000 0.091437
291.000000 50.646000 1.000000 -14.000000 -3.000000 119.170183 11.576162 754.535132 327.739870 19.737412 0.000000 0.091827
292.000000 49.321000 2.000000 -14.000000 -3.000000 115.187954 18.419777 616.551878 407.476729 20.268599 0.000000 0.083321
293.000000 47.547000 3.000000 -14.000000 -3.000000 110.622297 24.410548 486.532324 496.208492 21.026424 0.000000 0.068426
296.000000 50.565000 -5.000000 -13.000000 -3.000000 120.819590 -39.718495 1869.143769 106.230634 19.767665 0.000000 0.126695
297.000000 52.395000 -4.000000 -13.000000 -3.000000 122.870559 -32.087685 1649.835792 120.093368 19.076629 0.000000 0.045649
298.000000 53.828000 -3.000000 -13.000000 -3.000000 124.049489 -23.662500 1446.620227 146.914592 18.568828 0.000000 0.022267
299.000000 54.759000 -2.000000 -13.000000 -3.000000 124.155870 -14.721315 1257.788511 185.977478 18.253219 0.000000 0.061616
300.000000 55.104000 -1.000000 -13.000000 -3.000000 123.070888 -5.670335 1081.865684 236.705380 18.139350 0.000000 0.087751
301.000000 54.810000 0.000000 -13.000000 -3.000000 120.793923 3.054255 917.571784 298.642095 18.237412 0.000000 0.100379
302.000000 53.865000 1.000000 -13.000000 -3.000000 117.442194 11.102502 763.790649 371.436270 18.558297 0.000000 0.101231
303.000000 52.304000 2.000000 -13.000000 -3.000000 113.215558 18.276252 619.544533 454.829065 19.113653 0.000000 0.092333
304.000000 50.200000 3.000000 -13.000000 -3.000000 108.348526 24.523408 483.973290 548.644462 19.915957 0.000000 0.076747
305.000000 47.662000 4.000000 -13.000000 -3.000000 103.070476 29.891443 356.317213 652.781700 20.978585 0.000000 0.061500
308.000000 53.116000 -5.000000 -12.000000 -3.000000 117.984042 -42.071383 1946.530487 170.579444 18.818898 0.000000 0.147141
309.000000 55.364000 -4.000000 -12.000000 -3.000000 120.375962 -34.393882 1711.785281 176.492878 18.054452 0.000000 0.053665
310.000000 57.163000 -1.000000 -4.000000 -1.000000 121.872609 -25.795461 1495.195791 197.713384 5.828700 0.000000 0.018995
311.000000 58.371000 -2.000000 -12.000000 -3.000000 122.222276 -16.545075 1294.734134 233.336680 17.124247 0.000000 0.065508
312.000000 58.868000 -1.000000 -12.000000 -3.000000 121.258772 -7.079243 1108.663588 282.644257 16.980047 0.000000 0.095505
313.000000 58.576000 0.000000 -4.000000 -1.000000 118.956126 2.102442 935.488148 345.076136 5.688490 0.000000 0.110062
314.000000 57.475000 1.000000 -12.000000 -3.000000 115.437779 10.582758 773.912219 420.209652 17.393383 0.000000 0.111383
315.000000 55.611000 2.000000 -12.000000 -3.000000 110.936002 18.119461 622.808141 507.742933 17.977631 0.000000 0.101926
316.000000 53.089000 1.000000 -4.000000 -1.000000 105.729715 24.645936 481.189836 607.482152 6.277711 0.000000 0.085423
317.000000 50.057000 4.000000 -12.000000 -3.000000 100.091476 30.215526 348.191264 719.331816 19.975990 0.000000 0.070296
318.000000 46.678000 5.000000 -12.000000 -3.000000 94.256220 34.940014 223.048695 843.287562 21.423603 0.000000 0.074355
321.000000 55.768000 -5.000000 -11.000000 -3.000000 114.658195 -44.523593 2033.542986 247.990983 17.924786 0.000000 0.173810
322.000000 58.543000 -4.000000 -11.000000 -3.000000 117.420240 -36.832104 1781.111955 243.369456 17.074717 0.000000 0.065694
323.000000 60.819000 -3.000000 -11.000000 -3.000000 119.277043 -28.084747 1549.319453 257.044513 16.435500 0.000000 0.014272
324.000000 62.399000 -2.000000 -11.000000 -3.000000 119.915445 -18.529236 1335.733804 287.859475 16.019368 0.000000 0.069215
325.000000 63.109000 -1.000000 -11.000000 -3.000000 119.107180 -8.626889 1138.290906 334.908359 15.839522 0.000000 0.103686
326.000000 62.831000 0.000000 -11.000000 -3.000000 116.788775 1.052468 955.227300 397.497587 15.910222 0.000000 0.120434
327.000000 61.533000 1.000000 -11.000000 -3.000000 113.087075 10.009960 785.027364 475.116645 16.246903 0.000000 0.122183
328.000000 59.278000 2.000000 -11.000000 -3.000000 108.273852 17.947478 626.381243 567.415678 16.866290 0.000000 0.111909
329.000000 56.216000 3.000000 -11.000000 -3.000000 102.684404 24.779428 478.151086 674.188590 17.786544 0.000000 0.094199
330.000000 52.555000 4.000000 -11.000000 -3.000000 96.645724 30.565976 339.343699 795.360551 19.027414 0.000000 0.079330
331.000000 48.524000 5.000000 -11.000000 -3.000000 90.434627 35.436387 209.088275 930.979177 20.610416 0.000000 0.087194
333.000000 58.457000 -5.000000 -10.000000 -3.000000 110.738941 -47.072006 2132.096329 342.634676 17.101242 0.000000 0.209126
334.000000 61.898000 -4.000000 -10.000000 -3.000000 113.894428 -39.404415 1859.217001 323.901222 16.150036 0.000000 0.083477
335.000000 64.799000 -3.000000 -10.000000 -3.000000 116.154125 -30.540039 1609.999301 327.336655 15.426773 0.000000 0.010102
336.000000 66.883000 -2.000000 -10.000000 -3.000000 117.132438 -20.690488 1381.493532 351.438118 14.946045 0.000000 0.072571
337.000000 67.895000 -1.000000 -10.000000 -3.000000 116.520391 -10.332199 1171.220721 395.048176 14.723719 0.000000 0.112150
338.000000 67.653000 0.000000 -10.000000 -3.000000 114.199707 -0.110851 977.082321 457.299876 14.777071 0.000000 0.131346
339.000000 66.101000 1.000000 -10.000000 -3.000000 110.295411 9.375682 797.289936 537.575469 15.124957 0.000000 0.133404
340.000000 63.331000 2.000000 -10.000000 -3.000000 105.127816 17.757988 630.310058 635.475644 15.787991 0.000000 0.121932
341.000000 59.561000 3.000000 -10.000000 -3.000000 99.104803 24.925424 474.820228 750.796984 16.788757 0.000000 0.102643
342.000000 55.094000 4.000000 -10.000000 -3.000000 92.622680 30.946120 329.673928 883.516069 18.152048 0.000000 0.088475
343.000000 50.247000 5.000000 -10.000000 -3.000000 86.009214 35.970518 193.872272 1033.779069 19.905148 0.000000 0.102112
345.000000 61.069000 -5.000000 -9.000000 -3.000000 106.099721 -49.711734 2244.649667 460.587742 16.371022 0.000000 0.256617
346.000000 65.347000 -4.000000 -9.000000 -3.000000 109.659546 -42.110957 1947.880432 422.683308 15.298561 0.000000 0.109365
347.000000 71.842000 -2.000000 -9.000000 -3.000000 113.733422 -23.046604 1432.893368 426.746608 13.915180 0.000000 0.075373
348.000000 73.285000 -1.000000 -9.000000 -3.000000 113.366116 -12.217023 1208.037809 465.226573 13.641386 0.000000 0.120602
349.000000 71.230000 1.000000 -9.000000 -3.000000 106.931750 8.669649 810.887280 609.558121 14.036674 0.000000 0.144590
350.000000 67.768000 2.000000 -9.000000 -3.000000 101.359258 17.548177 634.650486 714.224037 14.755350 0.000000 0.131340
351.000000 57.548000 4.000000 -9.000000 -3.000000 87.877624 31.359858 319.061754 987.710500 17.379397 0.000000 0.097714
352.000000 51.686000 5.000000 -9.000000 -3.000000 80.843001 36.546782 177.223322 1156.956008 19.352533 0.000000 0.120421
353.000000 45.850000 2.000000 -3.000000 -1.000000 74.014398 40.840637 44.634773 1348.557087 7.272741 0.000000 0.180398
356.000000 68.727000 -4.000000 -8.000000 -3.000000 104.538531 -44.949493 2049.398403 546.610856 14.547419 0.000000 0.146755
357.000000 73.520000 -3.000000 -8.000000 -3.000000 107.704799 -35.981731 1756.449363 516.399408 13.598617 0.000000 0.034178
358.000000 77.241000 -2.000000 -8.000000 -3.000000 109.525738 -25.616049 1491.044551 517.716042 12.943350 0.000000 0.077449
359.000000 79.310000 -1.000000 -8.000000 -3.000000 109.457827 -14.306483 1249.473668 548.585898 12.605953 0.000000 0.128475
360.000000 79.267000 0.000000 -8.000000 -3.000000 107.190129 -2.854411 1028.664168 607.620818 12.613528 0.000000 0.153116
361.000000 76.938000 1.000000 -8.000000 -3.000000 102.810442 7.879210 826.049873 693.933167 12.996349 0.000000 0.154824
362.000000 72.527000 2.000000 -8.000000 -3.000000 96.774530 17.314599 639.470788 807.076136 13.788341 0.000000 0.138929
363.000000 66.553000 3.000000 -8.000000 -3.000000 89.710917 25.262665 467.095794 947.004731 15.027641 0.000000 0.115294
364.000000 59.691000 4.000000 -8.000000 -3.000000 82.219633 31.811800 307.362352 1114.053669 16.757280 0.000000 0.107551
365.000000 52.579000 5.000000 -8.000000 -3.000000 74.762331 37.170238 158.929003 1308.929861 19.025992 0.000000 0.144821
366.000000 45.706000 6.000000 -8.000000 -3.000000 67.640163 41.563770 20.637600 1532.718269 21.889189 0.000000 0.221898
368.000000 71.734000 -4.000000 -7.000000 -3.000000 98.307641 -47.914984 2166.784901 706.512798 13.939019 0.000000 0.200921
369.000000 77.907000 -3.000000 -7.000000 -3.000000 101.933056 -38.979668 1845.933721 648.398531 12.834135 0.000000 0.063405
370.000000 82.927000 -2.000000 -7.000000 -3.000000 104.240608 -28.417323 1557.370760 630.420519 12.057052 0.000000 0.078989
371.000000 85.906000 -1.000000 -7.000000 -3.000000 104.527068 -16.629249 1296.455616 649.935519 11.639141 0.000000 0.134687
372.000000 86.083000 0.000000 -7.000000 -3.000000 102.321921 -4.483612 1059.396449 705.176828 11.615911 0.000000 0.161906
373.000000 83.143000 1.000000 -7.000000 -3.000000 97.661768 6.988629 843.064495 795.126757 12.027710 0.000000 0.162302
374.000000 77.406000 2.000000 -7.000000 -3.000000 91.097434 17.052983 644.855202 919.434157 12.920580 0.000000 0.142453
375.000000 69.717000 3.000000 -7.000000 -3.000000 83.426432 25.458835 462.582849 1078.367511 14.347297 0.000000 0.116771
376.000000 61.115000 4.000000 -7.000000 -3.000000 75.396037 32.307431 294.399620 1272.797968 16.368650 0.000000 0.120354
377.000000 52.505000 5.000000 -7.000000 -3.000000 67.548849 37.846763 138.732726 1504.209595 19.055023 0.000000 0.180902
379.000000 73.837000 -4.000000 -6.000000 -3.000000 90.690062 -50.999226 2304.076046 920.401376 13.543595 0.000000 0.280549
380.000000 88.482000 -2.000000 -6.000000 -3.000000 97.500078 -31.467954 1633.726228 774.869196 11.301430 0.000000 0.081806
381.000000 89.513000 1.000000 -6.000000 -3.000000 91.083636 5.978115 862.292541 920.530282 11.173225 0.000000 0.163333
382.000000 81.900000 2.000000 -6.000000 -3.000000 83.926256 16.757970 650.908909 1060.603256 12.213366 0.000000 0.137656
383.000000 61.114000 4.000000 -6.000000 -3.000000 67.074390 32.853319 279.957252 1482.878399 16.371127 0.000000 0.144104
384.000000 50.814000 5.000000 -6.000000 -3.000000 58.933897 38.583217 116.321624 1770.463253 19.691364 0.000000 0.240050
387.000000 83.972000 -3.000000 -5.000000 -3.000000 85.592401 -45.534016 2071.546475 1059.431997 11.910251 0.000000 0.179140
388.000000 84.844000 2.000000 -5.000000 -3.000000 74.668698 16.422749 657.764969 1248.623389 11.791563 0.000000 0.116813
389.000000 71.800000 3.000000 -5.000000 -3.000000 65.741650 25.923075 451.843802 1480.285906 13.935471 0.000000 0.113064
390.000000 58.500000 4.000000 -5.000000 -3.000000 56.827595 33.457401 263.766574 1784.306428 17.105393 0.000000 0.199925
393.000000 82.931000 -3.000000 -4.000000 -3.000000 74.053759 -49.078135 2216.550395 1410.490232 12.061908 0.000000 0.295352
394.000000 83.703000 2.000000 -4.000000 -3.000000 62.454003 16.038526 665.594221 1525.118131 11.954839 0.000000 0.077685
395.000000 67.074000 3.000000 -4.000000 -3.000000 53.100986 26.200483 445.386279 1841.609043 14.919936 0.000000 0.166069
398.000000 88.704000 -2.000000 -3.000000 -3.000000 62.297335 -42.242782 1952.389441 1704.378120 11.279335 0.000000 0.248593
399.000000 73.333000 2.000000 -3.000000 -3.000000 46.060269 15.593754 674.619704 2017.815146 13.648245 0.000000 0.172841
406.000000 46.472000 -2.000000 -8.000000 -1.000000 135.009903 -26.083269 1501.881461 -257.752085 10.752185 0.000000 0.079743
407.000000 47.239000 -3.000000 -16.000000 -2.000000 135.515336 -17.057735 1305.242471 -205.255765 21.155409 0.000000 0.029464
408.000000 47.672000 -1.000000 -8.000000 -1.000000 134.989673 -7.800517 1122.443873 -144.955111 10.481812 0.000000 0.014405
409.000000 47.737000 -1.000000 -16.000000 -2.000000 133.404950 1.220259 952.074113 -77.207953 20.935216 0.000000 0.031375
410.000000 47.419000 0.000000 -8.000000 -1.000000 130.832105 9.602648 792.907274 -2.302479 10.538355 0.000000 0.039330
411.000000 46.715000 1.000000 -16.000000 -2.000000 127.416513 17.100735 643.873534 79.533153 21.394991 0.000000 0.037185
412.000000 45.646000 1.000000 -8.000000 -1.000000 123.339507 23.633228 504.035084 168.123100 10.948657 0.000000 0.026888
415.000000 49.074000 -4.000000 -15.000000 -2.000000 133.825275 -28.326841 1555.175302 -232.569813 20.364734 0.000000 0.089622
416.000000 50.026000 -3.000000 -15.000000 -2.000000 134.591832 -19.015806 1345.929988 -181.313821 19.977089 0.000000 0.033588
417.000000 50.586000 -2.000000 -15.000000 -2.000000 134.234904 -9.347893 1152.173855 -121.030377 19.756080 0.000000 0.016834
418.000000 50.709000 -1.000000 -15.000000 -2.000000 132.699606 0.146478 972.248428 -52.165306 19.708726 0.000000 0.034888
419.000000 50.369000 0.000000 -15.000000 -2.000000 130.053151 8.990023 804.723844 24.925665 19.842442 0.000000 0.043246
420.000000 49.565000 1.000000 -15.000000 -2.000000 126.458889 16.882260 648.360774 109.963894 20.165075 0.000000 0.040155
421.000000 48.323000 2.000000 -15.000000 -2.000000 122.128063 23.720534 502.079706 202.737508 20.684931 0.000000 0.027027
422.000000 46.688000 3.000000 -15.000000 -2.000000 117.276451 29.545387 364.935993 303.093197 21.410808 0.000000 0.009755
425.000000 51.939000 -2.000000 -7.000000 -1.000000 132.416183 -30.728174 1614.772818 -202.960067 9.620780 0.000000 0.101200
426.000000 53.130000 -3.000000 -14.000000 -2.000000 133.490190 -21.142951 1391.234622 -153.706886 18.809998 0.000000 0.038017
427.000000 53.859000 -1.000000 -7.000000 -1.000000 133.341820 -11.047976 1185.145845 -93.912625 9.277868 0.000000 0.019331
428.000000 54.061000 -1.000000 -14.000000 -2.000000 131.878666 -1.040088 994.540080 -24.139502 18.486781 0.000000 0.039277
429.000000 53.700000 0.000000 -7.000000 -1.000000 129.159048 8.313029 817.735689 55.168569 9.305818 0.000000 0.048453
430.000000 52.774000 1.000000 -14.000000 -2.000000 125.366453 16.641874 653.286050 143.668082 18.939331 0.000000 0.044748
431.000000 51.314000 1.000000 -7.000000 -1.000000 120.748903 23.815942 499.939892 241.101911 9.739730 0.000000 0.029433
432.000000 49.385000 3.000000 -14.000000 -2.000000 115.561779 29.879751 356.609395 347.288308 20.242241 0.000000 0.003993
433.000000 47.072000 2.000000 -7.000000 -1.000000 110.033345 34.965204 222.344344 462.112277 10.619276 0.000000 0.031202
436.000000 55.099000 -4.000000 -13.000000 -2.000000 130.730181 -33.295148 1681.862723 -167.741627 18.138549 0.000000 0.115063
437.000000 56.602000 -3.000000 -13.000000 -2.000000 132.165577 -23.455371 1441.989552 -121.543993 17.656701 0.000000 0.042899
438.000000 57.555000 -2.000000 -13.000000 -2.000000 132.274764 -12.921062 1221.920728 -62.906078 17.364259 0.000000 0.021687
439.000000 57.869000 -1.000000 -13.000000 -2.000000 130.913422 -2.356995 1019.300860 7.453431 17.270454 0.000000 0.044510
440.000000 57.490000 0.000000 -13.000000 -2.000000 128.122912 7.561180 832.133827 88.973821 17.385125 0.000000 0.054993
441.000000 56.411000 1.000000 -13.000000 -2.000000 124.108904 16.376118 658.716794 181.227247 17.718774 0.000000 0.051017
442.000000 54.675000 2.000000 -13.000000 -2.000000 119.165120 23.920633 497.588254 283.899350 18.282619 0.000000 0.034231
443.000000 52.371000 3.000000 -13.000000 -2.000000 113.596919 30.243524 347.486741 396.774282 19.088658 0.000000 0.008961
444.000000 49.617000 4.000000 -13.000000 -2.000000 107.675036 35.498907 207.317734 519.723146 20.149738 0.000000 0.034977
445.000000 46.550000 5.000000 -13.000000 -2.000000 101.617979 39.867130 76.126928 652.695166 21.479629 0.000000 0.082629
448.000000 58.581000 -2.000000 -6.000000 -1.000000 128.700148 -36.034099 1757.952660 -125.296566 8.530302 0.000000 0.132069
449.000000 60.495000 -3.000000 -12.000000 -2.000000 130.559108 -25.969780 1499.241262 -83.625545 16.520609 0.000000 0.048513
450.000000 61.754000 -1.000000 -6.000000 -1.000000 130.986072 -14.990290 1263.196690 -27.093621 8.091942 0.000000 0.023659
451.000000 62.227000 -1.000000 -12.000000 -2.000000 129.765394 -3.825316 1046.965055 43.366335 16.061182 0.000000 0.050565
452.000000 61.834000 0.000000 -6.000000 -1.000000 126.908994 6.721644 848.152270 127.036404 8.082013 0.000000 0.062921
453.000000 60.561000 1.000000 -12.000000 -2.000000 122.646237 16.080764 664.735028 223.377681 16.504783 0.000000 0.058975
454.000000 58.469000 1.000000 -6.000000 -1.000000 117.328311 24.036030 494.991703 332.002991 8.548369 0.000000 0.041215
455.000000 55.682000 3.000000 -12.000000 -2.000000 111.324563 30.640732 337.448140 452.656155 17.954185 0.000000 0.018355
456.000000 52.367000 2.000000 -6.000000 -1.000000 104.959281 36.076290 190.834736 585.196300 9.546262 0.000000 0.042289
457.000000 48.710000 5.000000 -12.000000 -2.000000 98.488613 40.552462 54.052146 729.586133 20.528371 0.000000 0.094112
459.000000 62.411000 -4.000000 -11.000000 -2.000000 126.239556 -38.949098 1844.983850 -73.356655 16.014358 0.000000 0.153506
460.000000 64.872000 -3.000000 -11.000000 -2.000000 128.592554 -28.702808 1564.322455 -38.299160 15.406356 0.000000 0.055383
461.000000 66.551000 -2.000000 -11.000000 -2.000000 129.411017 -17.281831 1309.853966 14.760221 15.017656 0.000000 0.024933
462.000000 67.255000 -1.000000 -11.000000 -2.000000 128.382007 -5.470451 1078.075149 84.589316 14.860939 0.000000 0.057431
463.000000 66.858000 0.000000 -11.000000 -2.000000 125.468776 5.778563 866.080839 170.254797 14.949885 0.000000 0.072307
464.000000 65.335000 1.000000 -11.000000 -2.000000 120.924583 15.750596 671.441534 271.069528 15.299267 0.000000 0.068635
465.000000 62.773000 2.000000 -11.000000 -2.000000 115.173825 24.163863 492.109876 386.553333 15.925071 0.000000 0.050096
466.000000 59.353000 3.000000 -11.000000 -2.000000 108.669114 31.076163 326.348356 516.403784 16.844615 0.000000 0.029096
467.000000 55.313000 4.000000 -11.000000 -2.000000 101.803092 36.702811 172.672836 660.474601 18.076698 0.000000 0.052973
468.000000 50.911000 5.000000 -11.000000 -2.000000 94.877731 41.289314 29.807989 818.759974 19.641755 0.000000 0.109481
469.000000 46.382000 6.000000 -11.000000 -2.000000 88.105942 45.054617 -103.348180 991.383605 21.562044 0.000000 0.179713
471.000000 66.594000 -2.000000 -5.000000 -1.000000 123.236061 -42.041112 1945.499033 -8.655085 7.504502 0.000000 0.181330
472.000000 69.794000 -3.000000 -10.000000 -2.000000 126.160741 -31.670095 1638.957099 16.772534 14.320408 0.000000 0.064457
473.000000 73.102000 -1.000000 -10.000000 -2.000000 126.689868 -7.323110 1113.317744 132.455807 13.672513 0.000000 0.065091
474.000000 70.870000 1.000000 -10.000000 -2.000000 118.869736 15.379098 678.961543 325.557529 14.104959 0.000000 0.080018
475.000000 67.675000 1.000000 -5.000000 -1.000000 112.613498 24.306256 488.893027 449.079785 7.386153 0.000000 0.060621
476.000000 63.407000 3.000000 -10.000000 -2.000000 105.529115 31.555553 314.009731 590.031520 15.768350 0.000000 0.041036
477.000000 58.420000 2.000000 -5.000000 -1.000000 98.097545 37.384850 152.561760 748.277759 8.558275 0.000000 0.066998
478.000000 53.074000 5.000000 -10.000000 -2.000000 90.676385 42.083448 3.058141 923.879384 18.842646 0.000000 0.129658
479.000000 47.684000 3.000000 -5.000000 -1.000000 83.505241 45.903347 -135.779354 1117.079387 10.487476 0.000000 0.209237
481.000000 71.104000 -4.000000 -9.000000 -2.000000 119.542914 -45.307121 2062.895019 73.664401 14.057678 0.000000 0.218577
482.000000 75.310000 -3.000000 -9.000000 -2.000000 123.120522 -34.885033 1725.415385 85.001273 13.272063 0.000000 0.077389
483.000000 78.413000 -2.000000 -9.000000 -2.000000 125.007664 -22.651478 1424.153053 124.147805 12.746661 0.000000 0.023379
484.000000 79.962000 -1.000000 -9.000000 -2.000000 124.583985 -9.420490 1153.574827 188.814010 12.499968 0.000000 0.073508
485.000000 79.633000 0.000000 -9.000000 -2.000000 121.611142 3.497401 909.220026 277.334752 12.552279 0.000000 0.095814
486.000000 77.338000 1.000000 -9.000000 -2.000000 116.376772 14.958031 687.452629 388.546827 12.925906 0.000000 0.093117
487.000000 73.268000 2.000000 -9.000000 -2.000000 109.524261 24.465843 485.279129 521.701756 13.645441 0.000000 0.072530
488.000000 67.844000 3.000000 -9.000000 -2.000000 101.765820 32.085835 300.212607 676.404282 14.738047 0.000000 0.054203
489.000000 61.601000 4.000000 -9.000000 -2.000000 93.697849 38.129907 130.169928 852.569907 16.233809 0.000000 0.084777
490.000000 55.055000 5.000000 -9.000000 -2.000000 85.744621 42.941469 -26.607016 1050.397012 18.166138 0.000000 0.156133
491.000000 48.622000 6.000000 -9.000000 -2.000000 78.171604 46.811855 -171.612319 1270.350641 20.572240 0.000000 0.247856
493.000000 81.430000 -3.000000 -8.000000 -2.000000 119.274738 -38.357089 1826.748669 171.558109 12.275190 0.000000 0.096961
494.000000 88.072000 -1.000000 -8.000000 -2.000000 121.909965 -11.807600 1199.998599 256.318373 11.349475 0.000000 0.082570
495.000000 84.949000 1.000000 -8.000000 -2.000000 113.292761 14.476820 697.115873 462.440841 11.768372 0.000000 0.107820
496.000000 72.600000 3.000000 -8.000000 -2.000000 97.185689 32.675461 284.682135 779.793294 13.773707 0.000000 0.068684
497.000000 64.677000 2.000000 -4.000000 -1.000000 88.409290 38.946848 105.086035 979.431082 7.731602 0.000000 0.107444
498.000000 56.610000 5.000000 -8.000000 -2.000000 79.902238 43.870976 -59.691536 1206.880472 17.668988 0.000000 0.191491
499.000000 48.936000 3.000000 -4.000000 -1.000000 71.949534 47.786178 -211.411934 1463.038955 10.221036 0.000000 0.299617
501.000000 88.063000 -3.000000 -7.000000 -2.000000 114.349012 -42.089758 1947.157090 284.650254 11.351436 0.000000 0.127743
502.000000 86.796000 2.000000 -7.000000 -2.000000 100.969418 24.850756 476.524741 711.098071 11.520367 0.000000 0.098498
503.000000 77.472000 3.000000 -7.000000 -2.000000 91.513215 33.334832 267.069778 906.968794 12.908906 0.000000 0.084764
504.000000 67.292000 4.000000 -7.000000 -2.000000 81.967764 39.846218 76.793551 1138.821556 14.863885 0.000000 0.137488
505.000000 57.329000 5.000000 -7.000000 -2.000000 72.918153 44.880734 -96.822773 1407.763721 17.449374 0.000000 0.240451
507.000000 81.953000 3.000000 -6.000000 -2.000000 84.348866 34.076893 246.926842 1069.580456 12.204664 0.000000 0.103679
508.000000 56.546000 5.000000 -6.000000 -2.000000 64.500735 45.980887 -138.791552 1679.739881 17.693124 0.000000 0.312190
510.000000 84.887000 3.000000 -5.000000 -2.000000 75.106118 34.917936 223.665714 1290.105161 11.784683 0.000000 0.130668
511.000000 67.893000 4.000000 -5.000000 -2.000000 64.067641 41.945306 7.759059 1644.661740 14.736562 0.000000 0.248929
513.000000 83.773000 3.000000 -4.000000 -2.000000 62.928370 35.878732 196.501589 1619.912707 11.943658 0.000000 0.185918
522.000000 46.270000 -2.000000 -17.000000 -1.000000 141.827276 -3.265963 1036.417262 -430.293872 21.596678 0.000000 0.016219
523.000000 46.259000 -1.000000 -17.000000 -1.000000 139.838150 6.493369 852.497933 -342.578019 21.602361 0.000000 0.038419
524.000000 45.913000 0.000000 -17.000000 -1.000000 136.858776 15.237561 681.819527 -249.342919 21.766185 0.000000 0.058613
528.000000 49.067000 -2.000000 -16.000000 -1.000000 141.610406 -4.749892 1064.431124 -422.133652 20.365648 0.000000 0.014894
529.000000 49.092000 -1.000000 -16.000000 -1.000000 139.632599 5.609610 869.286158 -331.192789 20.355692 0.000000 0.034654
530.000000 48.717000 0.000000 -16.000000 -1.000000 136.533415 14.884392 688.934171 -233.926418 20.513502 0.000000 0.055316
531.000000 47.942000 1.000000 -16.000000 -1.000000 132.537186 22.836772 521.754515 -130.519699 20.845767 0.000000 0.070020
532.000000 46.792000 2.000000 -16.000000 -1.000000 127.886715 29.488186 366.354936 -21.105302 21.359534 0.000000 0.083822
536.000000 52.215000 -2.000000 -15.000000 -1.000000 141.336924 -6.406533 1095.850015 -412.663909 19.138130 0.000000 0.015735
537.000000 52.291000 -1.000000 -15.000000 -1.000000 139.389366 4.619756 888.029886 -318.353959 19.110493 0.000000 0.030633
538.000000 51.883000 0.000000 -15.000000 -1.000000 136.163068 14.490370 696.844366 -216.729828 19.261496 0.000000 0.051783
539.000000 50.993000 1.000000 -15.000000 -1.000000 131.919173 22.899206 520.373076 -108.026921 19.598750 0.000000 0.066052
540.000000 49.650000 2.000000 -15.000000 -1.000000 126.946000 29.864905 356.980285 7.588046 20.130304 0.000000 0.079776
541.000000 47.906000 3.000000 -15.000000 -1.000000 121.503920 35.571303 205.264046 130.007160 20.864679 0.000000 0.099544
542.000000 45.832000 4.000000 -15.000000 -1.000000 115.805637 40.244844 64.015877 259.173667 21.810899 0.000000 0.129142
546.000000 55.780000 -2.000000 -14.000000 -1.000000 140.989528 -8.264581 1131.334915 -401.558833 17.914868 0.000000 0.019037
547.000000 55.931000 -1.000000 -14.000000 -1.000000 139.098343 3.504196 909.091914 -303.762773 17.867081 0.000000 0.026360
548.000000 55.488000 0.000000 -14.000000 -1.000000 135.737806 14.048016 705.691450 -197.423905 18.010314 0.000000 0.048038
549.000000 54.454000 1.000000 -14.000000 -1.000000 131.213529 22.968666 518.834673 -82.845517 18.353306 0.000000 0.061588
550.000000 52.868000 2.000000 -14.000000 -1.000000 125.871418 30.279453 346.582073 39.760506 18.905337 0.000000 0.075147
551.000000 50.801000 3.000000 -14.000000 -1.000000 120.022428 36.199506 187.285911 170.259823 19.676272 0.000000 0.096981
552.000000 48.347000 4.000000 -14.000000 -1.000000 113.916622 40.995582 39.537344 308.585100 20.676605 0.000000 0.130951
553.000000 45.614000 5.000000 -14.000000 -1.000000 107.743638 44.908853 -97.875360 454.728017 21.917513 0.000000 0.176689
557.000000 59.850000 -2.000000 -13.000000 -1.000000 140.544411 -10.358422 1171.729723 -388.379201 16.696832 0.000000 0.024429
558.000000 60.106000 -1.000000 -13.000000 -1.000000 138.745758 2.238391 932.930698 -287.032141 16.625869 0.000000 0.021877
559.000000 59.627000 0.000000 -13.000000 -1.000000 135.244573 13.547920 715.652352 -175.592178 16.760149 0.000000 0.044159
560.000000 58.413000 1.000000 -13.000000 -1.000000 130.400261 23.046410 517.110941 -54.455963 17.109810 0.000000 0.056557
561.000000 56.515000 2.000000 -13.000000 -1.000000 124.632665 30.737779 334.982986 76.103792 17.685669 0.000000 0.069832
562.000000 54.034000 3.000000 -13.000000 -1.000000 118.317333 36.885749 167.313924 215.918486 18.499279 0.000000 0.094536
563.000000 51.101000 4.000000 -13.000000 -1.000000 111.750820 41.806927 12.447683 364.908819 19.562994 0.000000 0.134124
564.000000 47.860000 5.000000 -13.000000 -1.000000 105.152513 45.780601 -131.028201 523.073771 20.890038 0.000000 0.186939
567.000000 64.532000 -2.000000 -12.000000 -1.000000 139.968292 -12.729169 1218.129226 -372.519962 15.485309 0.000000 0.031531
568.000000 64.944000 -1.000000 -12.000000 -1.000000 138.312476 0.791325 960.134109 -267.651187 15.387408 0.000000 0.017313
569.000000 64.429000 0.000000 -12.000000 -1.000000 134.665860 12.978081 726.951539 -150.699680 15.511261 0.000000 0.040329
570.000000 62.982000 1.000000 -12.000000 -1.000000 129.452827 23.134012 515.166245 -22.193127 15.868769 0.000000 0.050896
571.000000 60.678000 2.000000 -12.000000 -1.000000 123.189688 31.247135 321.962245 117.512492 16.472701 0.000000 0.063720
572.000000 57.659000 3.000000 -12.000000 -1.000000 116.335823 37.638239 144.996920 268.203864 17.336774 0.000000 0.092516
573.000000 54.111000 4.000000 -12.000000 -1.000000 109.246267 42.686158 -17.694440 429.789087 18.475742 0.000000 0.139320
574.000000 50.230000 5.000000 -12.000000 -1.000000 102.175958 46.715923 -167.771885 602.282192 19.905496 0.000000 0.200719
575.000000 46.202000 6.000000 -12.000000 -1.000000 95.298309 49.977336 -306.647655 785.792053 21.643175 0.000000 0.273854
578.000000 69.970000 -2.000000 -11.000000 -1.000000 139.213826 -15.425677 1271.979826 -353.126625 14.282049 0.000000 0.040249
579.000000 70.612000 -1.000000 -11.000000 -1.000000 137.771283 -0.876624 991.468564 -244.931135 14.152452 0.000000 0.013056
580.000000 70.063000 0.000000 -11.000000 -1.000000 133.977659 12.322956 739.878140 -122.047000 14.264006 0.000000 0.036945
581.000000 68.312000 1.000000 -11.000000 -1.000000 128.335220 23.233474 512.955187 14.809875 14.630880 0.000000 0.044589
582.000000 65.466000 2.000000 -11.000000 -1.000000 121.488506 31.816449 307.241416 165.167446 15.268377 0.000000 0.056711
583.000000 61.734000 3.000000 -11.000000 -1.000000 114.007679 38.466752 119.896128 328.753817 16.193046 0.000000 0.091471
584.000000 57.383000 4.000000 -11.000000 -1.000000 106.322180 43.641695 -51.435754 505.466008 17.422814 0.000000 0.147477
585.000000 52.690000 5.000000 -11.000000 -1.000000 98.729267 47.721481 -208.723210 695.347820 18.977131 0.000000 0.219285
586.000000 47.900000 6.000000 -11.000000 -1.000000 91.421339 50.989717 -353.625123 898.574484 20.877139 0.000000 0.303714
589.000000 76.345000 -2.000000 -10.000000 -1.000000 138.212378 -18.505266 1335.233025 -328.956909 13.089489 0.000000 0.050768
590.000000 77.336000 -1.000000 -10.000000 -1.000000 137.082461 -2.816612 1027.952377 -217.919868 12.922055 0.000000 0.010212
591.000000 76.765000 0.000000 -10.000000 -1.000000 133.146166 11.562066 754.811031 -88.700769 13.018886 0.000000 0.034781
592.000000 74.604000 1.000000 -10.000000 -1.000000 126.997362 23.347378 510.419018 57.706832 13.397135 0.000000 0.037782
593.000000 71.016000 2.000000 -10.000000 -1.000000 119.454696 32.456836 290.464279 220.665850 14.075473 0.000000 0.048792
594.000000 66.319000 3.000000 -10.000000 -1.000000 111.237781 39.383018 91.456036 399.827797 15.074259 0.000000 0.092345
595.000000 60.907000 4.000000 -10.000000 -1.000000 102.871786 44.683317 -89.461846 595.085670 16.415739 0.000000 0.159923
596.000000 55.173000 5.000000 -10.000000 -1.000000 94.703719 48.804798 -254.648818 806.541644 18.124264 0.000000 0.244397
597.000000 49.444000 6.000000 -10.000000 -1.000000 86.943771 52.070054 -406.071113 1034.485654 20.226551 0.000000 0.342583
599.000000 83.900000 -2.000000 -9.000000 -1.000000 136.862351 -22.033669 1410.586995 -298.141872 11.911129 0.000000 0.063596
600.000000 85.431000 -1.000000 -9.000000 -1.000000 136.186267 -5.095342 1070.968515 -185.261591 11.697745 0.000000 0.010687
601.000000 84.864000 0.000000 -9.000000 -1.000000 132.122299 10.667897 772.256594 -49.384810 11.776633 0.000000 0.035096
602.000000 82.135000 1.000000 -9.000000 -1.000000 125.367555 23.479115 507.480344 108.072451 12.168986 0.000000 0.031149
603.000000 77.502000 2.000000 -9.000000 -1.000000 116.982960 33.182297 271.167622 286.233277 12.898093 0.000000 0.040290
604.000000 71.465000 3.000000 -9.000000 -1.000000 107.894588 40.401204 58.962787 484.650636 13.989609 0.000000 0.096638
605.000000 64.627000 4.000000 -9.000000 -1.000000 98.751966 45.822412 -132.644233 703.234185 15.471864 0.000000 0.178548
606.000000 57.553000 5.000000 -9.000000 -1.000000 89.958842 49.974385 -306.513639 942.202158 17.376219 0.000000 0.278614
609.000000 85.132000 2.000000 -8.000000 -1.000000 113.919771 34.010702 248.737813 365.088176 11.742580 0.000000 0.032766
610.000000 77.186000 3.000000 -8.000000 -1.000000 103.792055 41.538552 21.483449 588.025310 12.953444 0.000000 0.106562
611.000000 68.406000 4.000000 -8.000000 -1.000000 93.768301 47.072293 -182.107974 836.915543 14.618546 0.000000 0.206106
612.000000 59.604000 5.000000 -8.000000 -1.000000 84.312494 51.239873 -365.549430 1112.215546 16.779766 0.000000 0.325834
614.000000 83.400000 3.000000 -7.000000 -1.000000 98.660654 42.816205 -22.225027 717.507954 11.989468 0.000000 0.125161
615.000000 71.941000 4.000000 -7.000000 -1.000000 87.653726 48.448567 -239.331107 1007.485222 13.901598 0.000000 0.246883
618.000000 89.770000 3.000000 -6.000000 -1.000000 92.100389 44.260292 -73.856328 885.883379 11.139838 0.000000 0.156825
619.000000 74.621000 4.000000 -6.000000 -1.000000 80.039374 49.969568 -306.294855 1234.872541 13.403996 0.000000 0.308212
#UB matrix in q= (UB) B0 G* 
#[[ 0.190336102  0.944264818 -0.265180089]
# [ 0.958509539 -0.120664413  0.25833253 ]
# [ 0.21220658  -0.303673461 -0.929228906]]
#B0 matrix in q= UB (B0) G*
#[[ 0.19670273 -0.          0.03056101]
# [ 0.          0.19187965 -0.        ]
# [ 0.          0.          0.18806537]]
#UBB0 matrix in q= (UB B0) G* i.e. recip. basis vectors are columns in LT frame: astar = UBB0[:,0], bstar = UBB0[:,1], cstar = UBB0[:,2]. (abcstar as columns on xyzlab1, xlab1 = ui, ui = unit vector along incident beam)
#[[ 0.03743963  0.18118521 -0.04405433]
# [ 0.18854145 -0.02315305  0.07787642]
# [ 0.04174161 -0.05826876 -0.16827053]]
#Euler angles phi theta psi (deg)
#[ 34.931 158.247  45.797]
#deviatoric strain in direct crystal frame (10-3 unit)
#[[-0.89  0.23  0.12]
# [ 0.23 -0.08 -0.51]
# [ 0.12 -0.51  0.98]]
#deviatoric strain in sample2 frame (10-3 unit)
#[[ 0.98 -0.53  0.18]
# [-0.53 -0.72 -0.35]
# [ 0.18 -0.35 -0.26]]
#new lattice parameters
#[ 5.1505     5.2158141  5.3159875 90.0349902 99.2249861 89.9733462]
#CCDLabel
#sCMOS
#DetectorParameters
#[79.0, 975.0, 941.0, 0.0, 0.0]
#pixelsize
#0.0734
#Frame dimensions
#[2018, 2016]
#
