#Strain and Orientation Refinement from experimental file: /home/micha/LaueProjects/DepthEffects/testZrO2_25.cor
#File created at Wed Jun 28 14:19:08 2023 with indexingSpotsSet.py
#Number of indexed spots: 535
#Element
#ZrO2
#grainIndex
#G_0
#Mean Deviation(pixel): 0.115
##spot_index intensity h k l 2theta Chi Xexp Yexp Energy GrainIndex PixDev
9.000000 171.633000 1.000000 1.000000 1.000000 43.971998 20.029600 582.631100 2128.447786 5.831150 0.000000 0.201692
11.000000 181.106000 1.000000 3.000000 1.000000 93.126980 40.902430 42.604762 863.206494 5.521457 0.000000 0.104226
12.000000 116.102000 2.000000 3.000000 1.000000 64.282712 41.282044 30.049841 1630.827732 8.617027 0.000000 0.228170
14.000000 152.386000 1.000000 4.000000 1.000000 101.920868 47.347359 -193.305084 605.645328 6.560904 0.000000 0.196794
15.000000 112.789000 2.000000 4.000000 1.000000 77.654218 46.016942 -140.195087 1280.221880 8.868014 0.000000 0.223792
19.000000 103.881000 2.000000 5.000000 1.000000 86.658593 49.838915 -300.378351 1038.434331 9.626843 0.000000 0.264931
20.000000 78.774000 3.000000 5.000000 1.000000 68.868854 48.395827 -237.081617 1567.493723 12.698888 0.000000 0.314564
24.000000 76.114000 3.000000 6.000000 1.000000 77.134996 51.087573 -358.274284 1332.339031 13.140849 0.000000 0.331197
43.000000 112.654000 1.000000 1.000000 2.000000 40.421059 1.484429 947.108935 2205.124383 8.884653 0.000000 0.206327
44.000000 154.361000 1.000000 2.000000 2.000000 69.536809 11.993570 746.352826 1351.584696 6.481584 0.000000 0.102598
45.000000 198.111000 0.000000 3.000000 2.000000 115.940791 10.967971 766.413905 407.690742 5.045758 0.000000 0.112133
46.000000 152.214000 1.000000 3.000000 2.000000 87.719516 21.196350 557.611845 986.971351 6.570615 0.000000 0.136245
47.000000 102.684000 2.000000 3.000000 2.000000 63.288540 26.512095 438.095764 1546.235889 9.743978 0.000000 0.120432
50.000000 165.699000 0.000000 4.000000 2.000000 123.326312 23.068758 516.615068 171.789356 6.031910 0.000000 0.029877
51.000000 137.194000 1.000000 4.000000 2.000000 98.793492 28.941394 379.838687 750.746215 7.288231 0.000000 0.090783
52.000000 103.531000 2.000000 4.000000 2.000000 76.815840 32.086127 300.204965 1238.584509 9.661795 0.000000 0.122333
53.000000 73.356000 3.000000 4.000000 2.000000 58.497272 34.034321 248.091930 1736.972633 13.640054 0.000000 0.186469
54.000000 139.755000 0.000000 5.000000 2.000000 126.840276 32.633612 285.791114 -16.507373 7.151225 0.000000 0.090507
55.000000 121.063000 1.000000 5.000000 2.000000 105.720173 35.329662 212.104327 569.674462 8.258178 0.000000 0.037207
56.000000 97.975000 2.000000 5.000000 2.000000 86.315500 36.844967 168.510806 1027.607301 10.207750 0.000000 0.106774
57.000000 75.342000 3.000000 5.000000 2.000000 69.402980 37.814584 139.701697 1453.011471 13.278080 0.000000 0.168321
58.000000 55.946000 4.000000 5.000000 2.000000 55.135064 38.487949 119.246410 1898.987820 17.884856 0.000000 0.253758
60.000000 106.864000 1.000000 6.000000 2.000000 110.228037 40.566915 53.581782 418.918974 9.354541 0.000000 0.092142
61.000000 73.620000 3.000000 6.000000 2.000000 77.738117 41.124366 35.282324 1251.533911 13.586405 0.000000 0.161986
63.000000 94.991000 1.000000 7.000000 2.000000 113.280219 44.871237 -96.467523 287.565607 10.523234 0.000000 0.181917
64.000000 83.080000 2.000000 7.000000 2.000000 98.138453 44.370129 -77.886552 725.683345 12.035027 0.000000 0.138154
65.000000 70.253000 3.000000 7.000000 2.000000 84.189913 44.027951 -65.380471 1093.318904 14.235803 0.000000 0.167807
66.000000 57.853000 4.000000 7.000000 2.000000 71.659173 43.779459 -56.388666 1435.178947 17.290740 0.000000 0.220086
67.000000 46.703000 5.000000 7.000000 2.000000 60.594612 43.590818 -49.612326 1778.510404 21.422406 0.000000 0.283559
69.000000 66.304000 3.000000 8.000000 2.000000 89.263154 46.583321 -162.485826 961.140182 15.082318 0.000000 0.190719
70.000000 47.111000 5.000000 8.000000 2.000000 67.179350 45.580384 -123.323047 1588.069371 21.234450 0.000000 0.272359
72.000000 70.058000 2.000000 9.000000 2.000000 104.843394 49.918193 -303.964582 497.996435 14.270075 0.000000 0.265870
73.000000 62.290000 3.000000 9.000000 2.000000 93.317453 48.841033 -256.219046 846.207554 16.053017 0.000000 0.229052
74.000000 54.302000 4.000000 9.000000 2.000000 82.575474 48.027204 -221.487842 1150.718035 18.417647 0.000000 0.239014
75.000000 46.583000 5.000000 9.000000 2.000000 72.714240 47.390897 -195.088083 1435.739184 21.473455 0.000000 0.272395
77.000000 58.448000 3.000000 10.000000 2.000000 96.607905 50.844309 -346.752788 743.540226 17.106994 0.000000 0.277822
78.000000 45.498000 5.000000 10.000000 2.000000 77.397616 49.042319 -264.983469 1308.088897 21.983292 0.000000 0.281767
81.000000 49.513000 4.000000 11.000000 2.000000 90.082301 51.476970 -376.971544 938.517742 20.196170 0.000000 0.299493
85.000000 159.876000 -1.000000 1.000000 3.000000 73.693494 -43.169399 1984.626412 1372.713155 6.256715 0.000000 0.205997
86.000000 127.130000 0.000000 1.000000 3.000000 56.735944 -23.258707 1437.606280 1709.480516 7.871167 0.000000 0.118602
88.000000 180.016000 -1.000000 2.000000 3.000000 100.774505 -33.288070 1681.672446 695.979663 5.554239 0.000000 0.062768
89.000000 155.013000 0.000000 2.000000 3.000000 82.832609 -13.416343 1231.733916 1080.142543 6.452715 0.000000 0.144535
90.000000 111.437000 1.000000 2.000000 3.000000 61.552568 0.180066 971.617464 1524.105029 8.979533 0.000000 0.043843
91.000000 69.665000 2.000000 2.000000 3.000000 42.386946 9.124999 802.123907 2135.346906 14.366909 0.000000 0.184596
93.000000 171.116000 -1.000000 3.000000 3.000000 119.127145 -21.644710 1402.106889 295.779021 5.841388 0.000000 0.054815
94.000000 153.071000 0.000000 3.000000 3.000000 100.657597 -3.330185 1037.627660 738.114332 6.532360 0.000000 0.164686
95.000000 120.639000 1.000000 3.000000 3.000000 79.606677 8.016098 823.428321 1140.355239 8.291877 0.000000 0.142714
96.000000 85.974000 2.000000 3.000000 3.000000 60.176105 15.206256 682.451115 1580.381907 11.638916 0.000000 0.073246
98.000000 152.777000 -1.000000 4.000000 3.000000 130.352523 -8.888506 1143.321983 15.423172 6.541446 0.000000 0.042810
99.000000 139.758000 0.000000 4.000000 3.000000 112.004367 6.398287 854.306842 503.327311 7.153034 0.000000 0.135859
100.000000 116.769000 1.000000 4.000000 3.000000 92.173246 15.237865 681.813393 898.667990 8.564474 0.000000 0.151972
101.000000 90.438000 2.000000 4.000000 3.000000 73.632433 20.751481 567.196762 1279.038622 11.061793 0.000000 0.118272
102.000000 66.330000 3.000000 4.000000 3.000000 57.583900 24.455546 485.512586 1691.823245 15.085852 0.000000 0.122448
103.000000 46.867000 4.000000 4.000000 3.000000 44.227712 27.095028 424.350243 2183.015487 21.353513 0.000000 0.242039
104.000000 134.081000 -1.000000 5.000000 3.000000 136.616933 3.822729 903.083755 -200.362689 7.452922 0.000000 0.018174
105.000000 124.482000 0.000000 5.000000 3.000000 119.026047 15.283277 680.896829 321.864458 8.029778 0.000000 0.084974
106.000000 108.119000 1.000000 5.000000 3.000000 100.809273 21.715890 546.344689 719.807308 9.247968 0.000000 0.121767
107.000000 88.600000 2.000000 5.000000 3.000000 83.638977 25.738627 456.120581 1074.199921 11.288974 0.000000 0.123788
108.000000 69.429000 3.000000 5.000000 3.000000 68.348628 28.467223 391.416862 1427.015970 14.409880 0.000000 0.123054
109.000000 52.701000 4.000000 5.000000 3.000000 55.186388 30.431459 342.747276 1809.003134 18.987322 0.000000 0.175200
110.000000 117.738000 -1.000000 6.000000 3.000000 139.725870 15.354062 679.467367 -376.302047 8.487086 0.000000 0.059344
111.000000 98.548000 1.000000 6.000000 3.000000 106.789830 27.419779 416.630579 575.155816 10.144937 0.000000 0.073107
112.000000 84.010000 2.000000 6.000000 3.000000 91.096508 30.183390 348.999420 917.168675 11.903858 0.000000 0.103306
113.000000 55.149000 4.000000 6.000000 3.000000 64.185971 33.473221 263.339550 1565.144419 18.141674 0.000000 0.156772
115.000000 98.445000 0.000000 7.000000 3.000000 125.947025 29.713386 360.759281 42.393177 10.152196 0.000000 0.056358
116.000000 89.521000 1.000000 7.000000 3.000000 110.998441 32.386748 292.312013 451.786714 11.166972 0.000000 0.019655
117.000000 78.517000 2.000000 7.000000 3.000000 96.718023 34.124386 245.625737 787.852571 12.735196 0.000000 0.073878
118.000000 66.788000 3.000000 7.000000 3.000000 83.503368 35.342345 211.746322 1091.254505 14.975240 0.000000 0.112434
119.000000 55.447000 4.000000 7.000000 3.000000 71.563464 36.242685 186.039658 1385.871617 18.041824 0.000000 0.149560
121.000000 88.341000 0.000000 8.000000 3.000000 127.533052 35.308642 212.697427 -72.241958 11.313018 0.000000 0.126578
122.000000 81.478000 1.000000 8.000000 3.000000 114.016183 36.689587 173.059205 342.956835 12.268560 0.000000 0.052746
123.000000 72.983000 2.000000 8.000000 3.000000 101.019876 37.611212 145.806263 676.413031 13.699649 0.000000 0.059050
124.000000 63.722000 3.000000 8.000000 3.000000 88.832755 38.269689 125.918125 968.932072 15.694140 0.000000 0.102596
125.000000 54.471000 4.000000 8.000000 3.000000 77.632500 38.763523 110.764773 1243.664595 18.362944 0.000000 0.144004
126.000000 45.790000 5.000000 8.000000 3.000000 67.493124 39.147549 98.835243 1516.053435 21.848134 0.000000 0.188225
128.000000 74.462000 1.000000 9.000000 3.000000 116.221353 40.413367 58.568705 244.769677 13.423883 0.000000 0.117539
129.000000 67.773000 2.000000 9.000000 3.000000 104.364963 40.696331 49.360793 577.438070 14.751796 0.000000 0.083149
130.000000 52.793000 4.000000 9.000000 3.000000 82.657352 41.059235 37.436350 1124.932568 18.944926 0.000000 0.141975
131.000000 45.475000 5.000000 9.000000 3.000000 73.035886 41.182540 33.354777 1377.237563 21.997034 0.000000 0.182727
133.000000 68.381000 1.000000 10.000000 3.000000 117.861962 43.641791 -51.439173 154.792198 14.617205 0.000000 0.184472
134.000000 63.015000 2.000000 10.000000 3.000000 107.007106 43.430280 -43.878896 487.685552 15.864770 0.000000 0.129727
135.000000 57.015000 3.000000 10.000000 3.000000 96.627639 43.273323 -38.302700 769.239179 17.537328 0.000000 0.123124
136.000000 50.766000 4.000000 10.000000 3.000000 86.850474 43.152227 -34.020145 1022.178830 19.699720 0.000000 0.147416
139.000000 58.730000 2.000000 11.000000 3.000000 109.125014 45.859249 -134.070029 405.080867 17.021660 0.000000 0.183625
140.000000 53.803000 3.000000 11.000000 3.000000 99.514319 45.412567 -116.906994 684.038132 18.583205 0.000000 0.155871
141.000000 48.603000 4.000000 11.000000 3.000000 90.379002 45.063311 -103.675487 930.920218 20.574895 0.000000 0.162469
143.000000 54.891000 2.000000 12.000000 3.000000 110.845999 48.024153 -221.359713 328.224375 18.211296 0.000000 0.240300
144.000000 46.428000 4.000000 12.000000 3.000000 93.373340 46.811471 -171.596931 848.304212 21.537281 0.000000 0.186516
147.000000 48.012000 3.000000 13.000000 3.000000 103.947763 49.101836 -267.588569 532.719095 20.822807 0.000000 0.242178
153.000000 106.633000 -1.000000 1.000000 4.000000 62.061862 -40.163262 1883.356864 1687.897149 9.382620 0.000000 0.232116
154.000000 85.058000 0.000000 1.000000 4.000000 48.958177 -25.615815 1491.039154 1980.120305 11.765485 0.000000 0.188470
156.000000 132.760000 -2.000000 2.000000 4.000000 93.759987 -49.808809 2249.019540 831.395066 7.531793 0.000000 0.255582
157.000000 128.172000 -1.000000 2.000000 4.000000 84.682384 -33.004723 1674.079821 1060.455638 7.803227 0.000000 0.108487
158.000000 109.591000 0.000000 2.000000 4.000000 70.851671 -18.404698 1333.133468 1334.863387 9.129015 0.000000 0.107738
159.000000 82.797000 1.000000 2.000000 4.000000 55.199371 -7.017475 1107.485551 1694.707611 12.086606 0.000000 0.037349
160.000000 135.664000 -2.000000 3.000000 4.000000 111.906621 -42.604268 1964.851294 352.977502 7.368469 0.000000 0.132823
161.000000 132.229000 -1.000000 3.000000 4.000000 102.301724 -24.972161 1476.247736 682.091397 7.561480 0.000000 0.101942
162.000000 117.357000 0.000000 3.000000 4.000000 88.019464 -10.893991 1182.144544 978.902010 8.522365 0.000000 0.156363
163.000000 94.826000 1.000000 3.000000 4.000000 71.956738 -0.568634 985.682068 1291.625169 10.550684 0.000000 0.112392
164.000000 70.847000 2.000000 3.000000 4.000000 56.538451 6.878786 845.158406 1657.502934 14.125103 0.000000 0.033678
165.000000 49.891000 3.000000 3.000000 4.000000 43.003040 12.334052 739.659745 2122.327993 20.060782 0.000000 0.183775
166.000000 129.391000 -2.000000 4.000000 4.000000 125.499173 -33.987805 1700.636410 15.131657 7.724114 0.000000 0.091382
167.000000 126.352000 -1.000000 4.000000 4.000000 115.078232 -16.261558 1288.946745 416.335407 7.911458 0.000000 0.098895
168.000000 97.069000 1.000000 4.000000 4.000000 84.832694 5.664317 868.248480 1038.808819 10.304289 0.000000 0.157203
169.000000 58.553000 3.000000 4.000000 4.000000 55.803934 16.586042 654.428211 1704.091423 17.090524 0.000000 0.084154
170.000000 119.380000 -2.000000 5.000000 4.000000 135.112118 -24.006552 1454.344578 -241.830938 8.370839 0.000000 0.074777
171.000000 116.559000 -1.000000 5.000000 4.000000 123.896575 -7.220443 1111.357753 212.073198 8.574915 0.000000 0.081625
172.000000 107.621000 0.000000 5.000000 4.000000 109.649816 4.029811 899.175416 555.741582 9.289478 0.000000 0.145868
173.000000 93.979000 1.000000 5.000000 4.000000 94.465056 11.554772 754.953765 855.215720 10.640943 0.000000 0.159204
174.000000 78.141000 2.000000 5.000000 4.000000 79.757209 16.775541 650.548884 1144.130531 12.801213 0.000000 0.135396
175.000000 62.493000 3.000000 5.000000 4.000000 66.318509 20.552207 571.471877 1445.132178 16.010174 0.000000 0.101576
176.000000 48.547000 4.000000 5.000000 4.000000 54.467923 23.388461 509.503206 1778.430585 20.612984 0.000000 0.129487
178.000000 106.043000 -1.000000 6.000000 4.000000 129.741124 1.716587 942.744466 45.735745 9.424416 0.000000 0.054331
179.000000 88.559000 1.000000 6.000000 4.000000 101.607894 17.017569 645.582906 709.790473 11.290542 0.000000 0.138046
180.000000 63.306000 3.000000 6.000000 4.000000 74.854908 24.226273 490.700841 1260.448567 15.802170 0.000000 0.119824
182.000000 96.152000 -1.000000 7.000000 4.000000 133.459638 10.143316 782.443179 -95.119328 10.393359 0.000000 0.029882
183.000000 90.605000 0.000000 7.000000 4.000000 120.307138 17.337471 638.999337 281.940892 11.031780 0.000000 0.070630
184.000000 82.438000 1.000000 7.000000 4.000000 106.911564 22.009764 539.935522 588.035457 12.127505 0.000000 0.103882
185.000000 72.628000 2.000000 7.000000 4.000000 93.926214 25.248769 467.414920 859.328332 13.768819 0.000000 0.118664
186.000000 62.249000 3.000000 7.000000 4.000000 81.766906 27.612419 412.029874 1116.748178 16.068294 0.000000 0.120153
187.000000 52.182000 4.000000 7.000000 4.000000 70.659215 29.407700 368.348767 1374.649939 19.171760 0.000000 0.123940
188.000000 87.325000 -1.000000 8.000000 4.000000 135.711961 17.780002 629.854054 -217.725781 11.443542 0.000000 0.049886
189.000000 76.397000 1.000000 8.000000 4.000000 110.875490 26.523650 437.824651 482.246947 13.085514 0.000000 0.062203
190.000000 60.173000 3.000000 8.000000 4.000000 87.379585 30.722236 335.378124 998.300396 16.620696 0.000000 0.108225
192.000000 79.615000 -1.000000 9.000000 4.000000 136.981690 24.503122 484.433609 -326.607493 12.551483 0.000000 0.097687
193.000000 75.946000 0.000000 9.000000 4.000000 125.408788 28.155620 398.968973 73.179034 13.159904 0.000000 0.040916
194.000000 70.764000 1.000000 9.000000 4.000000 113.865046 30.576555 339.075641 387.933615 14.126248 0.000000 0.016387
195.000000 64.487000 2.000000 9.000000 4.000000 102.643871 32.293322 294.770564 655.374986 15.504297 0.000000 0.059051
196.000000 57.607000 3.000000 9.000000 4.000000 91.964434 33.572032 260.668837 896.693111 17.359182 0.000000 0.090507
197.000000 50.590000 4.000000 9.000000 4.000000 81.973499 34.560471 233.609708 1125.293672 19.770529 0.000000 0.115346
199.000000 65.650000 1.000000 10.000000 4.000000 116.142520 34.200947 243.525153 302.286112 15.226015 0.000000 0.033280
200.000000 54.865000 3.000000 10.000000 4.000000 95.738067 36.180672 187.829100 807.010734 18.225431 0.000000 0.074462
202.000000 64.562000 0.000000 11.000000 4.000000 127.817900 36.560236 176.831679 -99.047065 15.479773 0.000000 0.145044
203.000000 61.062000 1.000000 11.000000 4.000000 117.895332 37.436623 151.020262 223.446602 16.369384 0.000000 0.083665
204.000000 56.835000 2.000000 11.000000 4.000000 108.203325 38.078164 131.739666 491.368134 17.589716 0.000000 0.053609
205.000000 52.122000 3.000000 11.000000 4.000000 98.869692 38.567991 116.789603 726.181454 19.183187 0.000000 0.070359
206.000000 47.172000 4.000000 11.000000 4.000000 89.992685 38.954177 104.858384 941.176699 21.199796 0.000000 0.101532
208.000000 56.966000 1.000000 12.000000 4.000000 119.257779 40.325333 61.417638 150.129405 17.545870 0.000000 0.135196
209.000000 49.475000 3.000000 12.000000 4.000000 101.490396 40.753699 47.484420 652.181419 20.208727 0.000000 0.084713
212.000000 53.312000 1.000000 13.000000 4.000000 120.326740 42.907507 -25.417194 81.410378 18.748100 0.000000 0.187425
213.000000 50.324000 2.000000 13.000000 4.000000 111.895046 42.822906 -22.458991 351.246641 19.863858 0.000000 0.136080
214.000000 46.969000 3.000000 13.000000 4.000000 103.701636 42.756688 -20.149191 583.618695 21.285876 0.000000 0.112661
219.000000 77.121000 -1.000000 1.000000 5.000000 54.678975 -38.458062 1829.837616 1914.933585 12.974400 0.000000 0.262876
220.000000 62.323000 0.000000 1.000000 5.000000 44.099915 -27.003930 1523.492320 2187.558395 16.058120 0.000000 0.250517
222.000000 101.675000 -2.000000 2.000000 5.000000 82.266400 -45.724691 2078.871006 1150.371206 9.836651 0.000000 0.203956
223.000000 95.255000 -1.000000 2.000000 5.000000 73.773178 -32.851330 1669.989816 1313.867444 10.501741 0.000000 0.128251
224.000000 81.638000 0.000000 2.000000 5.000000 62.627428 -21.337415 1395.439476 1539.252375 12.256404 0.000000 0.096989
225.000000 63.963000 1.000000 2.000000 5.000000 50.408710 -11.724088 1198.361760 1850.078171 15.646261 0.000000 0.096236
226.000000 46.222000 2.000000 2.000000 5.000000 38.585741 -3.987156 1050.019372 2293.211742 21.654232 0.000000 0.237778
228.000000 108.382000 -2.000000 3.000000 5.000000 98.602060 -40.015224 1878.605569 728.414298 9.225469 0.000000 0.085009
229.000000 103.241000 -1.000000 3.000000 5.000000 89.841899 -26.725082 1516.910101 944.325128 9.686829 0.000000 0.116444
230.000000 91.509000 0.000000 3.000000 5.000000 78.300965 -15.423394 1271.933676 1172.197046 10.931559 0.000000 0.131334
231.000000 75.538000 1.000000 3.000000 5.000000 65.577722 -6.363309 1095.027895 1432.763132 13.246148 0.000000 0.075592
232.000000 58.606000 2.000000 3.000000 5.000000 53.099472 0.730233 961.281912 1749.185756 17.076167 0.000000 0.037146
234.000000 107.941000 -2.000000 4.000000 5.000000 111.779638 -33.543943 1688.571341 425.027795 9.261119 0.000000 0.018671
235.000000 103.682000 -1.000000 4.000000 5.000000 102.633258 -20.161465 1370.177533 684.017057 9.643454 0.000000 0.123641
236.000000 93.964000 0.000000 4.000000 5.000000 90.885666 -9.377075 1152.736953 924.136196 10.643493 0.000000 0.161027
237.000000 80.420000 1.000000 4.000000 5.000000 78.048372 -1.054238 994.805964 1168.862440 12.439154 0.000000 0.139053
238.000000 65.467000 2.000000 4.000000 5.000000 65.384339 5.313726 874.895140 1436.250216 15.283936 0.000000 0.075176
239.000000 51.185000 3.000000 4.000000 5.000000 53.680458 10.230625 780.750120 1744.964440 19.551827 0.000000 0.061726
241.000000 103.373000 -2.000000 5.000000 5.000000 121.977053 -26.345591 1508.003807 191.174198 9.668892 0.000000 0.015815
242.000000 99.753000 -1.000000 5.000000 5.000000 112.427466 -13.299001 1229.405372 484.538831 10.021545 0.000000 0.119431
243.000000 80.737000 1.000000 5.000000 5.000000 88.003859 4.115506 897.557477 978.609422 12.387946 0.000000 0.163344
244.000000 68.113000 2.000000 5.000000 5.000000 75.506701 9.713384 790.766870 1223.260806 14.687399 0.000000 0.127933
245.000000 55.554000 3.000000 5.000000 5.000000 63.824894 13.999746 706.654757 1486.216388 18.011096 0.000000 0.079703
247.000000 96.931000 -2.000000 6.000000 5.000000 129.593314 -18.552155 1336.212773 2.029302 10.310345 0.000000 0.027276
248.000000 93.811000 -1.000000 6.000000 5.000000 119.719676 -6.321756 1094.237672 322.843749 10.654991 0.000000 0.104227
249.000000 87.392000 0.000000 6.000000 5.000000 108.095887 2.585479 926.399094 588.939937 11.440036 0.000000 0.151119
250.000000 78.404000 1.000000 6.000000 5.000000 95.827265 9.071635 803.152041 829.765207 12.754506 0.000000 0.162782
251.000000 67.982000 2.000000 6.000000 5.000000 83.725505 13.891694 708.809676 1062.904624 14.713157 0.000000 0.147079
252.000000 57.278000 3.000000 6.000000 5.000000 72.314038 17.566547 634.270860 1300.985984 17.466493 0.000000 0.114847
253.000000 47.163000 4.000000 6.000000 5.000000 61.874280 20.439150 573.892389 1554.961486 21.215862 0.000000 0.095480
255.000000 89.963000 -2.000000 7.000000 5.000000 135.080662 -10.401884 1172.573548 -156.363606 11.108133 0.000000 0.022274
256.000000 87.253000 -1.000000 7.000000 5.000000 125.028830 0.567125 964.346275 186.526282 11.454837 0.000000 0.081479
257.000000 82.019000 0.000000 7.000000 5.000000 113.694229 8.254510 818.858262 463.724615 12.188197 0.000000 0.126890
258.000000 74.750000 1.000000 7.000000 5.000000 101.934726 13.758322 711.466777 706.787709 13.376233 0.000000 0.147019
259.000000 66.214000 2.000000 7.000000 5.000000 90.358444 17.824084 628.940586 933.927094 15.103916 0.000000 0.145636
260.000000 57.229000 3.000000 7.000000 5.000000 79.367803 20.921525 563.539810 1157.310318 17.478798 0.000000 0.129216
261.000000 48.475000 4.000000 7.000000 5.000000 69.196397 23.346666 510.434883 1386.390085 20.639041 0.000000 0.111618
263.000000 83.164000 -2.000000 8.000000 5.000000 138.872102 -2.209158 1016.519351 -292.484037 12.015654 0.000000 0.004771
264.000000 80.798000 -1.000000 8.000000 5.000000 128.816270 7.179263 839.428154 68.291826 12.369148 0.000000 0.054845
265.000000 76.492000 0.000000 8.000000 5.000000 117.881715 13.589552 714.824755 355.170233 13.067755 0.000000 0.096145
266.000000 70.580000 1.000000 8.000000 5.000000 106.698271 18.139767 622.385789 601.245814 14.165217 0.000000 0.121751
267.000000 63.584000 2.000000 8.000000 5.000000 95.709263 21.497954 551.080803 825.350113 15.727042 0.000000 0.131254
268.000000 56.083000 3.000000 8.000000 5.000000 85.218643 24.062048 494.405633 1039.593635 17.833920 0.000000 0.128066
269.000000 48.593000 4.000000 8.000000 5.000000 75.415776 26.076475 448.276740 1252.773209 20.586380 0.000000 0.120086
271.000000 76.846000 -2.000000 9.000000 5.000000 141.355584 5.701939 867.534754 -411.802416 13.003152 0.000000 0.024757
272.000000 74.772000 -1.000000 9.000000 5.000000 131.462177 13.369141 719.203048 -36.447122 13.365563 0.000000 0.033188
273.000000 71.192000 0.000000 9.000000 5.000000 121.003480 18.535766 614.129745 258.820373 14.039912 0.000000 0.061928
274.000000 66.338000 1.000000 9.000000 5.000000 110.422845 22.198757 535.799670 508.158436 15.069771 0.000000 0.090414
275.000000 60.573000 2.000000 9.000000 5.000000 100.038933 24.910746 475.155445 730.921448 16.507221 0.000000 0.108621
276.000000 54.307000 3.000000 9.000000 5.000000 90.080083 26.990948 426.814854 939.311759 18.415041 0.000000 0.116633
277.000000 47.928000 4.000000 9.000000 5.000000 80.698268 28.633100 387.378457 1141.845504 20.869599 0.000000 0.118997
280.000000 69.288000 -1.000000 10.000000 5.000000 133.266364 19.047140 603.411368 -130.733087 14.422871 0.000000 0.042837
281.000000 62.254000 1.000000 10.000000 5.000000 113.347946 25.933355 451.605057 424.384940 16.057515 0.000000 0.055146
282.000000 57.466000 2.000000 10.000000 5.000000 103.560099 28.067641 401.093305 646.811599 17.398511 0.000000 0.080860
283.000000 52.211000 3.000000 10.000000 5.000000 94.135100 29.715109 360.716360 851.405953 19.153005 0.000000 0.098815
284.000000 46.778000 4.000000 10.000000 5.000000 85.194878 31.023268 327.702113 1046.577924 21.380952 0.000000 0.110952
286.000000 64.362000 -1.000000 11.000000 5.000000 134.458145 24.177047 491.812324 -216.673202 15.526586 0.000000 0.077399
287.000000 61.806000 0.000000 11.000000 5.000000 125.052037 27.188522 422.132397 92.118237 16.170640 0.000000 0.032884
288.000000 58.432000 1.000000 11.000000 5.000000 115.657737 29.352911 369.704221 347.840367 17.107134 0.000000 0.017352
289.000000 54.420000 2.000000 11.000000 5.000000 106.441432 30.979286 328.826629 570.538394 18.371298 0.000000 0.050741
290.000000 49.985000 3.000000 11.000000 5.000000 97.534821 32.244197 296.061270 772.679612 20.004259 0.000000 0.078023
292.000000 59.959000 -1.000000 12.000000 5.000000 135.208942 28.764012 384.182250 -295.780377 16.666480 0.000000 0.119456
293.000000 57.767000 0.000000 12.000000 5.000000 126.331558 30.912097 330.542486 18.424279 17.300880 0.000000 0.069674
294.000000 54.909000 1.000000 12.000000 5.000000 117.492477 32.474253 290.004684 277.081129 18.204020 0.000000 0.022499
295.000000 51.516000 2.000000 12.000000 5.000000 108.815019 33.659820 258.290909 500.418031 19.405634 0.000000 0.025632
296.000000 47.749000 3.000000 12.000000 5.000000 100.401664 34.589593 232.802816 701.009961 20.940010 0.000000 0.058841
299.000000 54.133000 0.000000 13.000000 5.000000 127.277051 34.266831 241.714486 -50.301173 18.462153 0.000000 0.111994
300.000000 51.688000 1.000000 13.000000 5.000000 118.958679 35.318516 212.418875 211.071968 19.337828 0.000000 0.063234
301.000000 48.794000 2.000000 13.000000 5.000000 110.783794 36.125293 189.424691 435.264564 20.487589 0.000000 0.035602
302.000000 45.569000 3.000000 13.000000 5.000000 102.833863 36.763556 170.896226 634.929150 21.940461 0.000000 0.050122
305.000000 50.864000 0.000000 14.000000 5.000000 127.971750 37.285113 155.525325 -114.814928 19.648317 0.000000 0.156234
306.000000 48.754000 1.000000 14.000000 5.000000 120.137302 37.908748 136.863806 149.047923 20.501028 0.000000 0.104841
307.000000 46.264000 2.000000 14.000000 5.000000 112.427966 38.392488 122.169394 374.215843 21.607141 0.000000 0.068605
309.000000 46.085000 1.000000 15.000000 5.000000 121.090088 40.268256 63.260779 90.428973 21.688006 0.000000 0.147049
317.000000 73.736000 -1.000000 2.000000 6.000000 66.019801 -32.755167 1667.432970 1510.271128 13.568397 0.000000 0.146536
318.000000 51.189000 1.000000 2.000000 6.000000 46.773729 -15.001365 1263.419660 1988.330057 19.551367 0.000000 0.149447
319.000000 87.545000 -2.000000 3.000000 6.000000 88.341709 -38.464870 1830.046198 980.795545 11.423394 0.000000 0.106923
320.000000 82.263000 -1.000000 3.000000 6.000000 80.476099 -27.805316 1542.593230 1145.142201 12.159213 0.000000 0.118114
321.000000 61.386000 1.000000 3.000000 6.000000 60.426703 -10.460732 1173.716468 1562.079544 16.301142 0.000000 0.053767
322.000000 49.061000 2.000000 3.000000 6.000000 50.082545 -3.897230 1048.322106 1843.566076 20.399355 0.000000 0.075506
323.000000 90.700000 -3.000000 4.000000 6.000000 106.379627 -45.158037 2057.248123 492.367558 11.022234 0.000000 0.162152
324.000000 85.515000 -1.000000 4.000000 6.000000 92.675293 -22.553452 1421.992498 886.543683 11.694328 0.000000 0.129184
325.000000 67.085000 1.000000 4.000000 6.000000 72.182038 -5.906149 1086.340929 1288.778607 14.913416 0.000000 0.112908
327.000000 89.515000 -3.000000 5.000000 6.000000 116.922450 -39.892079 1874.668895 228.633882 11.166359 0.000000 0.112682
328.000000 88.861000 -2.000000 5.000000 6.000000 110.976433 -27.661242 1539.138724 475.109576 11.249954 0.000000 0.054065
329.000000 85.024000 -1.000000 5.000000 6.000000 102.637598 -17.066298 1305.418469 688.562154 11.759803 0.000000 0.135234
330.000000 78.214000 0.000000 5.000000 6.000000 92.697872 -8.365647 1133.273981 889.737873 12.786334 0.000000 0.163206
331.000000 69.236000 1.000000 5.000000 6.000000 82.026808 -1.394655 1001.203606 1091.794466 14.447500 0.000000 0.151642
332.000000 59.200000 2.000000 5.000000 6.000000 71.359457 4.162355 896.672832 1305.021235 16.900112 0.000000 0.109761
333.000000 49.154000 3.000000 5.000000 6.000000 61.207946 8.617942 811.881035 1539.258045 20.357284 0.000000 0.054523
334.000000 82.262000 -1.000000 6.000000 6.000000 110.581811 -11.433441 1192.672787 528.654748 12.152793 0.000000 0.130870
335.000000 68.951000 1.000000 6.000000 6.000000 90.125321 3.019867 918.219585 938.642590 14.504904 0.000000 0.166256
337.000000 81.935000 -3.000000 7.000000 6.000000 132.304570 -27.469874 1534.564268 -162.979158 12.196825 0.000000 0.080460
338.000000 81.171000 -2.000000 7.000000 6.000000 125.491387 -15.340784 1270.264409 145.175083 12.312921 0.000000 0.051801
339.000000 78.326000 -1.000000 7.000000 6.000000 116.805362 -5.760159 1083.569910 394.438486 12.762197 0.000000 0.118160
340.000000 73.522000 0.000000 7.000000 6.000000 106.996700 1.613848 944.676046 611.881059 13.598490 0.000000 0.154262
341.000000 67.168000 1.000000 7.000000 6.000000 96.718265 7.290328 837.308194 813.183334 14.887896 0.000000 0.164690
342.000000 59.847000 2.000000 7.000000 6.000000 86.476364 11.714467 751.826730 1008.684405 16.712470 0.000000 0.154366
343.000000 52.169000 3.000000 7.000000 6.000000 76.627813 15.220761 682.158502 1206.158806 19.175353 0.000000 0.128904
344.000000 77.194000 -3.000000 8.000000 6.000000 137.560354 -20.430311 1375.918515 -315.065668 12.945051 0.000000 0.067800
345.000000 73.918000 -1.000000 8.000000 6.000000 121.612544 -0.156301 977.936097 278.532023 13.522061 0.000000 0.099533
346.000000 64.562000 1.000000 8.000000 6.000000 102.057857 11.378936 758.392741 706.480648 15.487214 0.000000 0.152381
347.000000 51.802000 3.000000 8.000000 6.000000 82.635986 18.290016 619.257745 1087.500045 19.308988 0.000000 0.138409
349.000000 71.608000 -2.000000 9.000000 6.000000 133.980208 -2.447896 1021.011421 -98.595677 13.955550 0.000000 0.029097
350.000000 69.452000 -1.000000 9.000000 6.000000 125.280480 5.276075 875.608483 176.251460 14.390759 0.000000 0.077058
351.000000 61.573000 1.000000 9.000000 6.000000 106.375217 15.258336 681.400270 613.179173 16.237568 0.000000 0.132843
352.000000 56.361000 2.000000 9.000000 6.000000 96.893193 18.573739 613.336046 803.734261 17.742199 0.000000 0.140111
354.000000 65.148000 -1.000000 10.000000 6.000000 128.046865 10.452973 776.434240 84.473322 15.340724 0.000000 0.053152
355.000000 58.472000 1.000000 10.000000 6.000000 109.868261 18.911471 606.261342 529.868428 17.097540 0.000000 0.108373
356.000000 49.255000 3.000000 10.000000 6.000000 92.024689 23.938629 497.183622 899.369599 20.303445 0.000000 0.125999
358.000000 62.783000 -2.000000 11.000000 6.000000 138.473096 9.788842 789.307546 -292.335016 15.916257 0.000000 0.031282
359.000000 61.113000 -1.000000 11.000000 6.000000 130.108421 15.314332 680.269815 1.028576 16.352973 0.000000 0.034210
360.000000 58.620000 0.000000 11.000000 6.000000 121.439924 19.320224 597.660566 243.730041 17.050862 0.000000 0.056143
361.000000 55.415000 1.000000 11.000000 6.000000 112.700279 22.330512 532.909817 454.269028 18.039586 0.000000 0.080506
362.000000 51.661000 2.000000 11.000000 6.000000 104.067877 24.663453 480.791473 644.221192 19.353474 0.000000 0.098951
363.000000 47.544000 3.000000 11.000000 6.000000 95.679704 26.518847 437.937350 821.370033 21.032479 0.000000 0.110202
364.000000 57.388000 -1.000000 12.000000 6.000000 131.624069 19.824972 586.980242 -75.640834 17.414010 0.000000 0.038197
365.000000 52.488000 1.000000 12.000000 6.000000 115.003209 25.515233 461.282667 384.796225 19.044679 0.000000 0.050321
368.000000 53.978000 -1.000000 13.000000 6.000000 132.719931 23.971756 496.438501 -146.686709 18.513974 0.000000 0.064040
369.000000 52.101000 0.000000 13.000000 6.000000 124.798939 26.530029 437.674970 104.949792 19.182994 0.000000 0.028485
370.000000 49.732000 1.000000 13.000000 6.000000 116.882442 28.471216 391.319793 320.311272 20.099250 0.000000 0.018943
371.000000 46.962000 2.000000 13.000000 6.000000 109.073505 29.991339 353.818115 511.323747 21.287597 0.000000 0.045538
373.000000 50.868000 -1.000000 14.000000 6.000000 133.494755 27.758723 408.524950 -212.981886 19.645494 0.000000 0.097259
374.000000 47.163000 1.000000 14.000000 6.000000 118.421670 31.208146 322.963856 259.972621 21.193364 0.000000 0.016523
376.000000 48.037000 -1.000000 15.000000 6.000000 134.025079 31.201800 323.126791 -275.202250 20.802950 0.000000 0.133661
383.000000 64.522000 -2.000000 2.000000 7.000000 67.160735 -41.426233 1924.757209 1545.555430 15.504966 0.000000 0.217918
384.000000 59.064000 -1.000000 2.000000 7.000000 60.274326 -32.689241 1665.683286 1671.201821 16.940339 0.000000 0.168424
385.000000 51.271000 0.000000 2.000000 7.000000 52.343923 -24.612048 1468.039769 1854.533396 19.517950 0.000000 0.153056
387.000000 73.884000 -3.000000 3.000000 7.000000 85.721211 -46.860960 2123.583479 1058.767883 13.535752 0.000000 0.210625
388.000000 71.858000 -2.000000 3.000000 7.000000 80.324992 -37.433976 1798.900898 1172.081415 13.919324 0.000000 0.128687
389.000000 67.000000 -1.000000 3.000000 7.000000 73.275584 -28.537264 1560.286789 1309.128996 14.931054 0.000000 0.118947
390.000000 59.716000 0.000000 3.000000 7.000000 65.054377 -20.505287 1377.523136 1475.507715 16.755159 0.000000 0.096376
391.000000 50.912000 1.000000 3.000000 7.000000 56.273723 -13.482898 1233.055643 1679.876192 19.655692 0.000000 0.065479
393.000000 77.219000 -3.000000 4.000000 7.000000 97.407774 -42.868454 1974.050641 750.071686 12.948671 0.000000 0.119848
394.000000 75.569000 -2.000000 4.000000 7.000000 91.903823 -33.121635 1677.206684 898.282725 13.233104 0.000000 0.091728
395.000000 71.302000 -1.000000 4.000000 7.000000 84.682387 -24.165207 1457.920444 1050.800462 14.027556 0.000000 0.125779
396.000000 64.728000 0.000000 4.000000 7.000000 76.252675 -16.279288 1289.308174 1215.312358 15.455002 0.000000 0.124802
397.000000 56.588000 1.000000 4.000000 7.000000 67.224998 -9.526627 1155.624120 1399.199105 17.681407 0.000000 0.087339
398.000000 47.797000 2.000000 4.000000 7.000000 58.157649 -3.828958 1047.033771 1610.927998 20.936311 0.000000 0.021262
399.000000 77.078000 -4.000000 5.000000 7.000000 111.184080 -49.034197 2214.628451 304.761971 12.969125 0.000000 0.267380
400.000000 77.817000 -3.000000 5.000000 7.000000 107.499441 -38.470747 1830.226299 507.571069 12.847078 0.000000 0.060137
401.000000 76.395000 -2.000000 5.000000 7.000000 101.803521 -28.503756 1559.471461 685.057536 13.087862 0.000000 0.083922
402.000000 72.670000 -1.000000 5.000000 7.000000 94.414689 -19.609650 1358.455426 852.789992 13.761009 0.000000 0.138017
403.000000 66.880000 0.000000 5.000000 7.000000 85.860365 -11.976303 1203.308194 1020.631433 14.955029 0.000000 0.151935
404.000000 59.602000 1.000000 5.000000 7.000000 76.725630 -5.568686 1079.937715 1196.120899 16.784364 0.000000 0.132891
405.000000 51.576000 2.000000 5.000000 7.000000 67.529599 -0.238929 979.488271 1386.168294 19.399627 0.000000 0.086983
406.000000 75.909000 -4.000000 6.000000 7.000000 119.983884 -44.674032 2039.116891 67.734197 13.167073 0.000000 0.217424
407.000000 76.486000 -3.000000 6.000000 7.000000 116.021048 -33.662793 1691.789687 309.708005 13.068779 0.000000 0.026725
408.000000 75.204000 -2.000000 6.000000 7.000000 110.079819 -23.612682 1445.505129 511.611065 13.293286 0.000000 0.083736
409.000000 71.960000 -1.000000 6.000000 7.000000 102.544697 -14.919404 1261.770113 693.155151 13.894795 0.000000 0.142160
410.000000 66.936000 0.000000 6.000000 7.000000 93.945378 -7.643537 1119.440807 866.103726 14.940362 0.000000 0.164337
411.000000 60.569000 1.000000 6.000000 7.000000 84.822655 -1.646514 1005.938088 1038.561647 16.513944 0.000000 0.158332
412.000000 53.435000 2.000000 6.000000 7.000000 75.640076 3.280451 913.309694 1216.995333 18.722092 0.000000 0.129738
413.000000 46.104000 3.000000 6.000000 7.000000 66.744256 7.344068 836.282050 1407.366200 21.702088 0.000000 0.085115
414.000000 73.562000 -4.000000 7.000000 7.000000 127.408132 -39.788035 1871.353880 -130.203514 13.585886 0.000000 0.184733
415.000000 73.945000 -3.000000 7.000000 7.000000 123.079809 -28.461484 1558.443632 143.528692 13.516588 0.000000 0.023640
416.000000 72.756000 -2.000000 7.000000 7.000000 116.874249 -18.500313 1335.129567 365.850197 13.738961 0.000000 0.081563
417.000000 69.929000 -1.000000 7.000000 7.000000 109.229416 -10.153259 1167.749585 559.602199 14.296585 0.000000 0.138007
418.000000 60.101000 1.000000 7.000000 7.000000 91.641612 2.204437 933.569472 910.131229 16.640103 0.000000 0.167723
419.000000 53.865000 2.000000 7.000000 7.000000 82.581731 6.705646 848.456961 1082.100448 18.569828 0.000000 0.151604
420.000000 47.345000 3.000000 7.000000 7.000000 73.777168 10.395638 777.547738 1259.383743 21.130569 0.000000 0.120942
422.000000 70.735000 -3.000000 8.000000 7.000000 128.822229 -22.912102 1429.912419 0.768171 14.128725 0.000000 0.030330
423.000000 69.621000 -2.000000 8.000000 7.000000 122.365531 -13.237089 1228.177704 240.252549 14.356426 0.000000 0.075208
424.000000 67.151000 -1.000000 8.000000 7.000000 114.659466 -5.376013 1076.285172 444.699064 14.886582 0.000000 0.127372
425.000000 63.432000 0.000000 8.000000 7.000000 106.179153 0.915861 957.794190 628.692335 15.761809 0.000000 0.156315
426.000000 58.708000 1.000000 8.000000 7.000000 97.341684 5.952523 862.778533 801.575825 17.033123 0.000000 0.165760
427.000000 53.307000 2.000000 8.000000 7.000000 88.483203 10.017019 784.890623 969.940669 18.762119 0.000000 0.158993
428.000000 47.580000 3.000000 8.000000 7.000000 79.855391 13.334918 719.882135 1138.918061 21.023861 0.000000 0.139413
430.000000 67.232000 -3.000000 9.000000 7.000000 133.407415 -17.091661 1305.939894 -124.104266 14.864039 0.000000 0.031135
431.000000 66.184000 -2.000000 9.000000 7.000000 126.739567 -7.907547 1124.492675 129.885568 15.100972 0.000000 0.064799
432.000000 64.018000 -1.000000 9.000000 7.000000 119.027678 -0.653371 987.274033 343.681629 15.613807 0.000000 0.111971
433.000000 60.819000 0.000000 9.000000 7.000000 110.693579 5.051085 879.869403 532.855125 16.437757 0.000000 0.141758
434.000000 56.765000 1.000000 9.000000 7.000000 102.086696 9.571234 793.514235 707.270292 17.614297 0.000000 0.155803
435.000000 52.106000 2.000000 9.000000 7.000000 93.482948 13.199227 722.572783 873.714995 19.192617 0.000000 0.156252
436.000000 47.109000 3.000000 9.000000 7.000000 85.089993 16.153415 663.256336 1037.260682 21.231502 0.000000 0.145562
438.000000 63.673000 -3.000000 10.000000 7.000000 136.993255 -11.106521 1186.287752 -234.936343 15.694060 0.000000 0.024689
439.000000 62.688000 -2.000000 10.000000 7.000000 130.173534 -2.602806 1023.927054 31.374257 15.942169 0.000000 0.051199
440.000000 60.782000 -1.000000 10.000000 7.000000 122.512823 3.953347 900.618771 253.349983 16.444168 0.000000 0.093200
441.000000 58.019000 0.000000 10.000000 7.000000 114.369856 9.038741 803.785657 447.323573 17.229675 0.000000 0.122820
442.000000 54.535000 1.000000 10.000000 7.000000 106.029419 13.039929 725.727720 623.594503 18.333100 0.000000 0.140168
443.000000 50.517000 2.000000 10.000000 7.000000 97.713942 16.241257 661.467016 789.152768 19.794659 0.000000 0.146312
444.000000 46.170000 3.000000 10.000000 7.000000 89.592447 18.845645 607.642467 949.089626 21.661647 0.000000 0.142896
446.000000 60.202000 -3.000000 11.000000 7.000000 139.730145 -5.082957 1070.734018 -334.493046 16.598465 0.000000 0.011826
447.000000 59.278000 -2.000000 11.000000 7.000000 132.828500 2.588504 926.342153 -57.673343 16.858582 0.000000 0.036238
448.000000 57.593000 -1.000000 11.000000 7.000000 125.272731 8.391644 816.227078 171.471094 17.354003 0.000000 0.072329
449.000000 55.196000 0.000000 11.000000 7.000000 117.355899 12.850281 729.478468 369.847886 18.110003 0.000000 0.100819
450.000000 52.190000 1.000000 11.000000 7.000000 109.304748 16.343996 659.372195 548.110094 19.155610 0.000000 0.120463
451.000000 48.717000 2.000000 11.000000 7.000000 101.296211 19.136184 601.538299 713.434397 20.524332 0.000000 0.131191
453.000000 56.896000 -3.000000 12.000000 7.000000 141.758043 0.847872 959.071665 -424.816608 17.562355 0.000000 0.008944
454.000000 56.032000 -2.000000 12.000000 7.000000 134.846543 7.588718 831.607389 -139.003482 17.834680 0.000000 0.025939
455.000000 54.535000 -1.000000 12.000000 7.000000 127.442588 12.620701 734.011405 96.436058 18.326374 0.000000 0.051135
456.000000 52.444000 0.000000 12.000000 7.000000 119.777316 16.465774 656.886332 298.830328 19.059272 0.000000 0.076814
457.000000 49.839000 1.000000 12.000000 7.000000 112.028002 19.474518 594.402820 479.112219 20.058206 0.000000 0.097820
458.000000 46.827000 2.000000 12.000000 7.000000 104.334195 21.880728 542.752948 644.621200 21.351536 0.000000 0.112302
461.000000 52.988000 -2.000000 13.000000 7.000000 136.350163 12.337103 739.599692 -213.923761 18.858929 0.000000 0.033094
462.000000 51.652000 -1.000000 13.000000 7.000000 129.135828 16.612421 653.888661 27.053717 19.348835 0.000000 0.034455
463.000000 49.818000 0.000000 13.000000 7.000000 121.738751 19.873467 585.950549 233.102720 20.063340 0.000000 0.052043
464.000000 47.547000 1.000000 13.000000 7.000000 114.295846 22.427611 530.776608 415.371075 21.023935 0.000000 0.073063
467.000000 50.158000 -2.000000 14.000000 7.000000 137.442920 16.792419 650.202980 -283.435093 19.922592 0.000000 0.054479
468.000000 48.960000 -1.000000 14.000000 7.000000 130.446220 20.350871 575.779933 -37.578741 20.412040 0.000000 0.035142
471.000000 47.542000 -2.000000 15.000000 7.000000 138.210829 20.932306 563.307667 -348.318542 21.018922 0.000000 0.081671
472.000000 46.463000 -1.000000 15.000000 7.000000 131.450399 23.830629 499.610224 -98.159746 21.508829 0.000000 0.054777
476.000000 56.137000 -3.000000 2.000000 8.000000 67.217949 -47.957583 2168.567753 1616.002027 17.820211 0.000000 0.322862
477.000000 48.649000 -1.000000 2.000000 8.000000 55.866614 -32.641229 1664.410654 1807.466909 20.568248 0.000000 0.192719
479.000000 62.372000 -3.000000 3.000000 8.000000 79.133866 -44.750702 2041.968723 1231.916215 16.036009 0.000000 0.202260
480.000000 59.981000 -2.000000 3.000000 8.000000 73.952410 -36.699367 1777.226534 1327.127433 16.677254 0.000000 0.145293
481.000000 55.696000 -1.000000 3.000000 8.000000 67.611309 -29.065823 1573.217078 1448.249941 17.963090 0.000000 0.124413
482.000000 49.848000 0.000000 3.000000 8.000000 60.454870 -22.061353 1411.192347 1599.253521 20.073524 0.000000 0.101480
484.000000 66.135000 -3.000000 4.000000 8.000000 89.941743 -41.267004 1919.449960 942.455940 15.120993 0.000000 0.120646
485.000000 60.216000 -1.000000 4.000000 8.000000 78.199179 -25.323267 1484.296809 1189.770288 16.611989 0.000000 0.120031
486.000000 48.326000 1.000000 4.000000 8.000000 63.055858 -12.311182 1209.890157 1500.955032 20.705300 0.000000 0.069760
488.000000 67.893000 -4.000000 5.000000 8.000000 103.420695 -46.376756 2104.302596 568.749841 14.725593 0.000000 0.180824
489.000000 67.752000 -3.000000 5.000000 8.000000 99.517901 -37.498247 1800.817332 713.546041 14.757621 0.000000 0.065993
490.000000 65.964000 -2.000000 5.000000 8.000000 94.135032 -29.089226 1573.792650 851.957254 15.159583 0.000000 0.100780
491.000000 62.508000 -1.000000 5.000000 8.000000 87.519594 -21.435560 1397.565888 991.087885 16.000121 0.000000 0.133872
492.000000 57.601000 0.000000 5.000000 8.000000 80.040799 -14.672235 1256.803129 1136.360172 17.365982 0.000000 0.136652
493.000000 51.655000 1.000000 5.000000 8.000000 72.105794 -8.808250 1141.777856 1292.660751 19.368402 0.000000 0.112151
495.000000 67.703000 -3.000000 6.000000 8.000000 107.839693 -33.444631 1685.888832 525.881163 14.766238 0.000000 0.032984
496.000000 63.049000 -1.000000 6.000000 8.000000 95.571323 -17.431709 1312.944442 830.958579 15.860543 0.000000 0.143948
497.000000 53.330000 1.000000 6.000000 8.000000 80.032974 -5.309368 1075.022300 1130.956097 18.757316 0.000000 0.144488
499.000000 66.638000 -4.000000 7.000000 8.000000 119.244210 -38.475873 1830.383378 171.254434 14.999341 0.000000 0.105424
500.000000 66.474000 -3.000000 7.000000 8.000000 114.954820 -29.117715 1574.493643 367.695419 15.037560 0.000000 0.023470
501.000000 65.042000 -2.000000 7.000000 8.000000 109.247322 -20.683061 1381.334119 539.308008 15.370478 0.000000 0.102195
502.000000 62.332000 -1.000000 7.000000 8.000000 102.426611 -13.346942 1230.356435 697.253681 16.041028 0.000000 0.146664
503.000000 58.478000 0.000000 7.000000 8.000000 94.855893 -7.102299 1109.103387 848.856584 17.100907 0.000000 0.164965
504.000000 53.736000 1.000000 7.000000 8.000000 86.892600 -1.840388 1009.583351 999.459584 18.612936 0.000000 0.162174
505.000000 48.433000 2.000000 7.000000 8.000000 78.847175 2.583632 926.433868 1153.407154 20.654219 0.000000 0.141957
507.000000 64.480000 -3.000000 8.000000 8.000000 120.952389 -24.542995 1466.471290 231.401470 15.501294 0.000000 0.028687
508.000000 60.782000 -1.000000 8.000000 8.000000 108.198144 -9.221153 1149.729442 582.538738 16.448424 0.000000 0.142821
509.000000 53.234000 1.000000 8.000000 8.000000 92.778273 1.574145 945.422438 888.749808 18.786373 0.000000 0.168476
511.000000 62.307000 -4.000000 9.000000 8.000000 130.757289 -29.153148 1575.366061 -121.190625 16.039422 0.000000 0.083030
512.000000 62.038000 -3.000000 9.000000 8.000000 125.941341 -19.761399 1361.670875 111.880888 16.110170 0.000000 0.032827
513.000000 60.844000 -2.000000 9.000000 8.000000 119.918851 -11.755947 1198.986081 308.362039 16.427996 0.000000 0.091875
514.000000 58.727000 -1.000000 9.000000 8.000000 113.014748 -5.096711 1070.994437 481.998377 17.022530 0.000000 0.133815
515.000000 55.768000 0.000000 9.000000 8.000000 105.547702 0.390331 967.667570 641.545021 17.928335 0.000000 0.157745
516.000000 52.120000 1.000000 9.000000 8.000000 97.800108 4.911972 882.502482 793.020483 19.185982 0.000000 0.166377
517.000000 47.983000 2.000000 9.000000 8.000000 90.006141 8.658709 811.097561 940.883305 20.843411 0.000000 0.162020
519.000000 59.377000 -3.000000 10.000000 8.000000 130.036695 -14.828915 1259.950366 5.550860 16.831230 0.000000 0.032239
520.000000 56.403000 -1.000000 10.000000 8.000000 117.005985 -1.015902 994.085598 392.372819 17.722710 0.000000 0.120892
521.000000 50.621000 1.000000 10.000000 8.000000 102.070298 8.153882 820.787826 708.495564 19.752263 0.000000 0.158099
523.000000 56.996000 -4.000000 11.000000 8.000000 138.658404 -18.606998 1337.359399 -349.798543 17.532273 0.000000 0.063695
524.000000 56.649000 -3.000000 11.000000 8.000000 133.351760 -9.813835 1161.175960 -90.175143 17.640793 0.000000 0.026930
525.000000 55.639000 -2.000000 11.000000 8.000000 127.133302 -2.711445 1025.972220 125.107765 17.962960 0.000000 0.068818
526.000000 53.970000 -1.000000 11.000000 8.000000 120.293579 2.981615 918.940118 311.373872 18.520544 0.000000 0.105059
527.000000 51.694000 0.000000 11.000000 8.000000 113.079593 7.562663 832.105475 478.350245 19.338375 0.000000 0.130343
528.000000 48.903000 1.000000 11.000000 8.000000 105.694805 11.284182 760.244165 632.611058 20.444905 0.000000 0.145246
529.000000 45.716000 2.000000 11.000000 8.000000 98.303529 14.343246 699.790706 778.863999 21.872887 0.000000 0.150736
531.000000 53.954000 -3.000000 12.000000 8.000000 135.994105 -4.791676 1065.221492 -177.214046 18.521406 0.000000 0.017733
532.000000 51.532000 -1.000000 12.000000 8.000000 122.987328 6.860964 845.498041 237.345818 19.395555 0.000000 0.087166
533.000000 47.079000 1.000000 12.000000 8.000000 108.769303 14.290879 700.838484 563.563110 21.235625 0.000000 0.128986
536.000000 51.351000 -3.000000 13.000000 8.000000 138.063521 0.161411 971.967902 -257.018997 19.459919 0.000000 0.008896
537.000000 50.489000 -2.000000 13.000000 8.000000 131.820474 6.014911 861.593716 -27.341465 19.793600 0.000000 0.039812
538.000000 49.156000 -1.000000 13.000000 8.000000 125.183708 10.593566 773.702095 169.059192 20.332619 0.000000 0.068091
539.000000 47.383000 0.000000 13.000000 8.000000 118.324042 14.229866 702.058647 342.529899 21.095719 0.000000 0.091996
541.000000 48.872000 -3.000000 14.000000 8.000000 139.650937 4.975365 881.302738 -330.713496 20.446242 0.000000 0.018582
542.000000 46.877000 -1.000000 14.000000 8.000000 126.965969 14.157873 703.497550 105.580422 21.320319 0.000000 0.049244
545.000000 46.536000 -3.000000 15.000000 8.000000 140.837798 9.591654 793.119704 -399.181384 21.472497 0.000000 0.038328
546.000000 45.798000 -2.000000 15.000000 8.000000 134.735041 14.071642 705.219804 -158.375129 21.820022 0.000000 0.033429
549.000000 47.684000 -3.000000 2.000000 9.000000 62.848743 -46.045882 2091.322950 1736.270707 20.980743 0.000000 0.315716
551.000000 54.349000 -4.000000 3.000000 9.000000 77.583195 -50.330260 2272.796751 1312.215447 18.403164 0.000000 0.316404
552.000000 50.868000 -2.000000 3.000000 9.000000 68.797285 -36.149526 1761.273244 1458.072339 19.666754 0.000000 0.159635
553.000000 47.145000 -1.000000 3.000000 9.000000 63.060751 -29.465363 1583.079378 1569.220989 21.222636 0.000000 0.135470
555.000000 57.915000 -4.000000 4.000000 9.000000 87.581862 -47.502856 2149.686663 1008.280267 17.267269 0.000000 0.216895
556.000000 57.098000 -3.000000 4.000000 9.000000 83.696155 -40.085682 1880.864363 1096.404331 17.516212 0.000000 0.132904
557.000000 54.948000 -2.000000 4.000000 9.000000 78.733542 -32.918093 1671.768223 1196.417352 18.203772 0.000000 0.119410
558.000000 51.511000 -1.000000 4.000000 9.000000 72.873010 -26.194909 1504.483668 1310.628121 19.420895 0.000000 0.116116
559.000000 47.005000 0.000000 4.000000 9.000000 66.376339 -20.040902 1367.609435 1442.092866 21.285537 0.000000 0.097677
561.000000 59.909000 -4.000000 5.000000 9.000000 96.677353 -44.438046 2030.386193 764.525420 16.690264 0.000000 0.144176
562.000000 59.244000 -3.000000 5.000000 9.000000 92.738374 -36.791343 1779.917383 876.717007 16.879046 0.000000 0.086940
563.000000 57.330000 -2.000000 5.000000 9.000000 87.685133 -29.519634 1584.424980 990.998656 17.444757 0.000000 0.109825
564.000000 54.199000 -1.000000 5.000000 9.000000 81.712050 -22.807512 1427.598520 1111.081466 18.455183 0.000000 0.126861
565.000000 50.031000 0.000000 5.000000 9.000000 75.087046 -16.753470 1298.998907 1240.346441 19.995408 0.000000 0.121018
566.000000 60.109000 -5.000000 6.000000 9.000000 107.630841 -49.217800 2222.682332 417.322645 16.631303 0.000000 0.257620
567.000000 60.581000 -4.000000 6.000000 9.000000 104.816972 -41.124473 1914.721203 563.040474 16.502713 0.000000 0.091980
568.000000 58.291000 -2.000000 6.000000 9.000000 95.612929 -25.966548 1499.166133 823.346020 17.154835 0.000000 0.111876
569.000000 55.464000 -1.000000 6.000000 9.000000 89.542454 -19.321611 1352.368692 950.108141 18.031802 0.000000 0.140173
570.000000 47.158000 1.000000 6.000000 9.000000 75.766302 -8.238772 1130.839891 1216.865026 21.213662 0.000000 0.128068
572.000000 59.817000 -5.000000 7.000000 9.000000 114.952267 -45.945574 2087.418721 220.788203 16.710717 0.000000 0.213048
573.000000 60.229000 -4.000000 7.000000 9.000000 112.000060 -37.555524 1802.528009 392.472363 16.597386 0.000000 0.057218
574.000000 59.699000 -3.000000 7.000000 9.000000 107.815198 -29.583990 1586.022497 543.274442 16.746336 0.000000 0.054716
575.000000 58.154000 -2.000000 7.000000 9.000000 102.536326 -22.277097 1415.917947 682.371614 17.193161 0.000000 0.114625
576.000000 55.616000 -1.000000 7.000000 9.000000 96.387291 -15.759611 1278.741296 815.810066 17.980202 0.000000 0.148053
577.000000 52.204000 0.000000 7.000000 9.000000 89.634018 -10.051391 1165.775265 947.982195 19.158223 0.000000 0.159168
578.000000 48.116000 1.000000 7.000000 9.000000 82.544211 -5.103877 1071.130118 1082.412714 20.788615 0.000000 0.151678
580.000000 58.807000 -5.000000 8.000000 9.000000 121.404362 -42.370502 1956.776079 51.607501 16.995924 0.000000 0.182837
581.000000 59.134000 -4.000000 8.000000 9.000000 118.261959 -33.731439 1693.652610 245.270273 16.903107 0.000000 0.039403
582.000000 58.625000 -3.000000 8.000000 9.000000 113.909107 -25.694839 1492.866062 411.487031 17.051271 0.000000 0.054285
583.000000 57.226000 -2.000000 8.000000 9.000000 108.513405 -18.475441 1334.610124 561.012222 17.470145 0.000000 0.114476
584.000000 54.955000 -1.000000 8.000000 9.000000 102.307905 -12.147231 1206.665672 700.796208 18.194559 0.000000 0.149784
585.000000 51.907000 0.000000 8.000000 9.000000 95.549439 -6.681607 1101.085264 835.712153 19.265582 0.000000 0.165328
586.000000 48.242000 1.000000 8.000000 9.000000 88.485857 -1.994230 1012.476498 969.466852 20.731991 0.000000 0.164498
587.000000 57.303000 -5.000000 9.000000 9.000000 127.029327 -38.480382 1830.521585 -96.158833 17.440672 0.000000 0.161572
588.000000 57.537000 -4.000000 9.000000 9.000000 123.659882 -29.661528 1587.949977 116.212373 17.370778 0.000000 0.035994
589.000000 55.766000 -2.000000 9.000000 9.000000 113.624052 -14.591123 1255.175606 454.551602 17.926082 0.000000 0.110822
590.000000 53.735000 -1.000000 9.000000 9.000000 107.386706 -8.512498 1136.093273 600.229996 18.605732 0.000000 0.146255
591.000000 47.758000 1.000000 9.000000 9.000000 93.661515 1.072479 954.851257 872.113033 20.939867 0.000000 0.168849
593.000000 55.483000 -5.000000 10.000000 9.000000 131.880444 -34.272367 1708.437801 -226.807103 18.011601 0.000000 0.144683
594.000000 55.629000 -4.000000 10.000000 9.000000 128.262386 -25.366165 1485.283415 1.568635 17.965436 0.000000 0.038004
595.000000 55.136000 -3.000000 10.000000 9.000000 123.550897 -17.466067 1313.653619 192.742060 18.127538 0.000000 0.053465
596.000000 53.974000 -2.000000 10.000000 9.000000 117.957597 -10.657974 1177.550391 359.717648 18.519647 0.000000 0.103956
597.000000 52.158000 -1.000000 10.000000 9.000000 111.714574 -4.884494 1066.977559 510.811049 19.166633 0.000000 0.138523
598.000000 49.750000 0.000000 10.000000 9.000000 105.045483 -0.019567 975.367568 651.691864 20.097089 0.000000 0.158786
599.000000 46.850000 1.000000 10.000000 9.000000 98.150271 4.080016 898.227582 786.465407 21.344050 0.000000 0.166737
602.000000 53.551000 -4.000000 11.000000 9.000000 132.142467 -20.878028 1385.523969 -101.399183 18.661504 0.000000 0.038650
603.000000 53.064000 -3.000000 11.000000 9.000000 127.264996 -13.198836 1227.419476 99.903337 18.834289 0.000000 0.049453
604.000000 52.001000 -2.000000 11.000000 9.000000 121.604697 -6.712488 1101.673357 274.166707 19.221331 0.000000 0.094387
605.000000 50.374000 -1.000000 11.000000 9.000000 115.382616 -1.291985 999.273888 430.208170 19.844089 0.000000 0.127518
606.000000 48.235000 0.000000 11.000000 9.000000 108.800240 3.229420 914.271407 574.011719 20.726982 0.000000 0.148862
607.000000 45.661000 1.000000 11.000000 9.000000 102.032223 7.014059 842.579587 709.864090 21.897930 0.000000 0.159704
609.000000 51.405000 -4.000000 12.000000 9.000000 135.373515 -16.242086 1288.549886 -194.748871 19.439845 0.000000 0.035715
610.000000 49.950000 -2.000000 12.000000 9.000000 124.652483 -2.791850 1027.486107 196.174275 20.009499 0.000000 0.082652
611.000000 48.490000 -1.000000 12.000000 9.000000 118.477298 2.237927 932.939425 356.726304 20.614049 0.000000 0.113995
614.000000 49.260000 -4.000000 13.000000 9.000000 138.027171 -11.513882 1194.246118 -280.058585 20.285849 0.000000 0.028831
615.000000 48.790000 -3.000000 13.000000 9.000000 132.892426 -4.583398 1061.282701 -62.097090 20.482483 0.000000 0.033994
616.000000 47.893000 -2.000000 13.000000 9.000000 127.181911 1.068139 954.932815 124.441718 20.867927 0.000000 0.069314
617.000000 46.580000 -1.000000 13.000000 9.000000 121.077900 5.680945 867.933052 289.102092 21.458655 0.000000 0.098579
620.000000 47.161000 -4.000000 14.000000 9.000000 140.172231 -6.756092 1102.503866 -358.560373 21.188173 0.000000 0.018328
621.000000 46.704000 -3.000000 14.000000 9.000000 134.958150 -0.331486 981.226985 -133.741122 21.397017 0.000000 0.024273
622.000000 45.877000 -2.000000 14.000000 9.000000 129.266511 4.834937 883.960088 57.971234 21.784209 0.000000 0.055116
625.000000 47.384000 -4.000000 3.000000 10.000000 72.985780 -48.302260 2183.102154 1436.111011 21.109921 0.000000 0.294816
626.000000 46.071000 -3.000000 3.000000 10.000000 69.153993 -41.942045 1942.130220 1491.985965 21.713778 0.000000 0.213556
627.000000 50.997000 -5.000000 4.000000 10.000000 85.208169 -52.324389 2368.787851 1088.620849 19.610137 0.000000 0.339609
628.000000 49.728000 -3.000000 4.000000 10.000000 78.430326 -39.179045 1852.148901 1225.242545 20.114120 0.000000 0.145689
630.000000 53.058000 -4.000000 5.000000 10.000000 90.824399 -42.964324 1977.408432 919.836077 18.847263 0.000000 0.136040
631.000000 52.103000 -3.000000 5.000000 10.000000 86.949114 -36.254453 1764.300252 1012.136959 19.194438 0.000000 0.104474
632.000000 50.198000 -2.000000 5.000000 10.000000 82.218186 -29.849344 1592.631101 1110.583380 19.925320 0.000000 0.114834
633.000000 47.394000 -1.000000 5.000000 10.000000 76.785729 -23.874955 1451.385218 1217.374476 21.106858 0.000000 0.119800
634.000000 54.185000 -5.000000 6.000000 10.000000 101.582422 -47.089755 2132.815331 617.012627 18.451603 0.000000 0.193435
635.000000 53.349000 -3.000000 6.000000 10.000000 94.655814 -33.170250 1678.509342 836.284547 18.743901 0.000000 0.083834
636.000000 49.048000 -1.000000 6.000000 10.000000 84.323113 -20.791958 1383.672993 1055.443011 20.392270 0.000000 0.133544
638.000000 54.413000 -5.000000 7.000000 10.000000 108.652660 -44.155314 2020.018465 434.605754 18.372150 0.000000 0.149200
639.000000 54.428000 -4.000000 7.000000 10.000000 105.582478 -36.874615 1782.359191 565.786854 18.368477 0.000000 0.046797
640.000000 53.667000 -3.000000 7.000000 10.000000 101.539523 -29.932316 1594.704706 687.429848 18.630672 0.000000 0.076655
641.000000 52.098000 -2.000000 7.000000 10.000000 96.637985 -23.490566 1442.775355 804.426950 19.193998 0.000000 0.121003
642.000000 49.755000 -1.000000 7.000000 10.000000 91.048189 -17.640392 1317.255959 920.336020 20.100240 0.000000 0.144874
643.000000 46.741000 0.000000 7.000000 10.000000 84.970076 -12.408747 1211.810898 1037.995866 21.399293 0.000000 0.149897
644.000000 53.973000 -5.000000 8.000000 10.000000 114.976417 -40.996146 1910.481243 276.750153 18.519954 0.000000 0.119760
645.000000 53.268000 -3.000000 8.000000 10.000000 107.621829 -26.551039 1512.818154 558.822163 18.768082 0.000000 0.075465
646.000000 49.718000 -1.000000 8.000000 10.000000 96.989504 -14.437545 1252.097309 804.744877 20.113081 0.000000 0.150999
648.000000 53.039000 -5.000000 9.000000 10.000000 120.579259 -37.606890 1804.064378 138.197884 18.844809 0.000000 0.101803
649.000000 53.004000 -4.000000 9.000000 10.000000 117.228558 -30.029944 1597.149006 301.312440 18.858241 0.000000 0.003521
650.000000 52.347000 -3.000000 9.000000 10.000000 112.945961 -23.041700 1432.784580 445.833451 19.096810 0.000000 0.075319
651.000000 51.046000 -2.000000 9.000000 10.000000 107.876185 -16.756908 1299.069333 578.465951 19.585492 0.000000 0.123111
652.000000 49.127000 -1.000000 9.000000 10.000000 102.196905 -11.202541 1188.161615 703.839058 20.353097 0.000000 0.152052
653.000000 46.657000 0.000000 9.000000 10.000000 96.095178 -6.345260 1094.684631 825.360529 21.433038 0.000000 0.165542
654.000000 51.064000 -3.000000 10.000000 10.000000 117.567820 -19.424565 1354.541793 345.182602 19.574887 0.000000 0.073977
655.000000 48.144000 -1.000000 10.000000 10.000000 106.732018 -7.955699 1125.414766 614.296143 20.766926 0.000000 0.148811
657.000000 50.247000 -5.000000 11.000000 10.000000 129.780968 -30.146485 1600.073161 -95.293735 19.889304 0.000000 0.084556
658.000000 50.141000 -4.000000 11.000000 10.000000 126.079621 -22.510724 1421.051711 92.056126 19.932402 0.000000 0.023876
659.000000 49.550000 -3.000000 11.000000 10.000000 121.549376 -15.724551 1278.030353 254.476867 20.171784 0.000000 0.070686
660.000000 48.463000 -2.000000 11.000000 10.000000 116.353093 -9.812085 1161.142093 399.905559 20.626161 0.000000 0.112987
661.000000 46.898000 -1.000000 11.000000 10.000000 110.661236 -4.717788 1063.823909 533.754436 21.316703 0.000000 0.142087
662.000000 48.602000 -5.000000 12.000000 10.000000 133.472497 -26.099404 1502.257237 -195.244064 20.561320 0.000000 0.078304
663.000000 47.902000 -3.000000 12.000000 10.000000 124.954186 -11.970456 1203.193423 171.928787 20.864760 0.000000 0.065330
664.000000 45.491000 -1.000000 12.000000 10.000000 114.050995 -1.509237 1003.357390 460.487941 21.974820 0.000000 0.132589
666.000000 46.892000 -5.000000 13.000000 10.000000 136.622394 -21.872958 1407.077572 -286.398475 21.310463 0.000000 0.070777
667.000000 46.729000 -4.000000 13.000000 10.000000 132.575164 -14.503106 1253.410884 -80.390169 21.386240 0.000000 0.026582
668.000000 46.191000 -3.000000 13.000000 10.000000 127.844558 -8.193755 1129.976625 96.174968 21.636531 0.000000 0.058064
670.000000 47.592000 -5.000000 5.000000 11.000000 88.743893 -47.915276 2166.797111 976.211247 21.012213 0.000000 0.221935
671.000000 47.214000 -4.000000 5.000000 11.000000 85.731715 -41.807629 1937.576050 1048.766618 21.182292 0.000000 0.140288
672.000000 46.116000 -3.000000 5.000000 11.000000 81.973148 -35.832896 1752.187697 1128.211657 21.688644 0.000000 0.117811
674.000000 48.597000 -6.000000 6.000000 11.000000 98.428009 -51.762993 2340.909747 683.338211 20.574211 0.000000 0.308099
675.000000 48.917000 -5.000000 6.000000 11.000000 96.188127 -45.429770 2067.562966 774.713110 20.440470 0.000000 0.161377
676.000000 48.615000 -4.000000 6.000000 11.000000 93.145999 -39.153424 1851.348262 864.713904 20.569358 0.000000 0.094320
677.000000 47.629000 -3.000000 6.000000 11.000000 89.334161 -33.078374 1676.048666 955.927666 20.996818 0.000000 0.098293
678.000000 45.952000 -2.000000 6.000000 11.000000 84.838442 -27.322585 1531.054276 1050.430899 21.765668 0.000000 0.117952
680.000000 49.185000 -6.000000 7.000000 11.000000 105.277211 -49.331044 2227.679784 489.893148 20.325889 0.000000 0.253214
681.000000 49.509000 -5.000000 7.000000 11.000000 102.997172 -42.776654 1970.845127 602.547800 20.194119 0.000000 0.115293
682.000000 49.249000 -4.000000 7.000000 11.000000 99.894036 -36.350599 1767.081074 707.914862 20.302014 0.000000 0.061648
683.000000 48.355000 -3.000000 7.000000 11.000000 96.012057 -30.202406 1601.478728 809.843959 20.679369 0.000000 0.091550
684.000000 46.817000 -2.000000 7.000000 11.000000 91.446236 -24.444429 1464.235425 911.151314 21.361131 0.000000 0.123283
686.000000 49.198000 -6.000000 8.000000 11.000000 111.524065 -46.712850 2117.649085 321.904678 20.318569 0.000000 0.212805
687.000000 49.497000 -5.000000 8.000000 11.000000 109.165978 -39.950949 1876.549085 453.012040 20.196964 0.000000 0.081706
688.000000 49.258000 -4.000000 8.000000 11.000000 105.975676 -33.400855 1684.708369 571.913563 20.296378 0.000000 0.041182
689.000000 48.438000 -3.000000 8.000000 11.000000 102.011060 -27.212201 1528.429875 683.510215 20.641978 0.000000 0.090605
690.000000 47.028000 -2.000000 8.000000 11.000000 97.376428 -21.486189 1398.663936 791.257812 21.262905 0.000000 0.128071
692.000000 48.755000 -6.000000 9.000000 11.000000 117.175570 -43.898420 2010.683946 174.162714 20.501562 0.000000 0.183744
693.000000 49.012000 -5.000000 9.000000 11.000000 114.707389 -36.950364 1784.585001 321.336405 20.394879 0.000000 0.059683
694.000000 48.779000 -4.000000 9.000000 11.000000 111.409683 -30.309181 1604.166970 452.180608 20.493680 0.000000 0.032767
695.000000 48.020000 -3.000000 9.000000 11.000000 107.354891 -24.118022 1456.856034 572.469558 20.819551 0.000000 0.090916
696.000000 46.728000 -2.000000 9.000000 11.000000 102.655837 -18.460838 1334.305204 686.206590 21.397213 0.000000 0.130247
698.000000 47.965000 -6.000000 10.000000 11.000000 122.250389 -40.880002 1906.658015 42.815177 20.837463 0.000000 0.162978
699.000000 48.174000 -5.000000 10.000000 11.000000 119.646608 -33.776144 1694.867428 204.032902 20.748352 0.000000 0.048346
700.000000 47.939000 -4.000000 10.000000 11.000000 116.227615 -27.084341 1525.396478 345.442605 20.851522 0.000000 0.033029
701.000000 47.231000 -3.000000 10.000000 11.000000 112.080191 -20.933265 1386.712977 473.542096 21.165720 0.000000 0.090352
702.000000 46.047000 -2.000000 10.000000 11.000000 107.324066 -15.383426 1271.125892 592.800441 21.712211 0.000000 0.129447
704.000000 46.925000 -6.000000 11.000000 11.000000 126.774666 -37.653215 1805.451787 -75.049045 21.298065 0.000000 0.147607
705.000000 47.082000 -5.000000 11.000000 11.000000 124.016611 -30.433925 1607.315042 98.490108 21.227870 0.000000 0.044906
706.000000 46.841000 -4.000000 11.000000 11.000000 120.468838 -23.739220 1448.339121 249.273573 21.338549 0.000000 0.035881
707.000000 46.179000 -3.000000 11.000000 11.000000 116.231180 -17.674337 1317.958226 384.396818 21.646556 0.000000 0.088133
708.000000 45.713000 -6.000000 12.000000 11.000000 130.778829 -34.218324 1706.952150 -181.672229 21.861700 0.000000 0.135118
709.000000 45.821000 -5.000000 12.000000 11.000000 127.854701 -26.934501 1521.850397 2.712784 21.810939 0.000000 0.044882
710.000000 45.573000 -4.000000 12.000000 11.000000 124.176800 -20.290928 1372.939613 161.836190 21.931071 0.000000 0.037801
#UB matrix in q= (UB) B0 G* 
#[[ 0.387908537 -0.879787102 -0.271253457]
# [ 0.619126285  0.467505295 -0.630910305]
# [ 0.682795438  0.076848658  0.726990529]]
#B0 matrix in q= UB (B0) G*
#[[ 0.19670273 -0.          0.03056101]
# [ 0.          0.19187965 -0.        ]
# [ 0.          0.          0.18806537]]
#UBB0 matrix in q= (UB B0) G* i.e. recip. basis vectors are columns in LT frame: astar = UBB0[:,0], bstar = UBB0[:,1], cstar = UBB0[:,2]. (abcstar as columns on xyzlab1, xlab1 = ui, ui = unit vector along incident beam)
#[[ 0.07630267 -0.16881324 -0.03915851]
# [ 0.12178383  0.08970475 -0.09973126]
# [ 0.13430773  0.01474569  0.15758866]]
#Euler angles phi theta psi (deg)
#[ 96.39   43.398 156.694]
#deviatoric strain in direct crystal frame (10-3 unit)
#[[ 2.66 -0.35 -0.47]
# [-0.35  3.33  0.31]
# [-0.47  0.31 -6.  ]]
#deviatoric strain in sample2 frame (10-3 unit)
#[[ 2.38  1.54 -2.39]
# [ 1.54 -0.66  3.86]
# [-2.38  3.86 -1.73]]
#new lattice parameters
#[ 5.1505     5.2150873  5.316469  89.9747312 99.2601349 90.0402737]
#CCDLabel
#sCMOS
#DetectorParameters
#[79.0, 975.0, 941.0, 0.0, 0.0]
#pixelsize
#0.0734
#Frame dimensions
#[2018, 2016]
#
