#Strain and Orientation Refinement from experimental file: /home/micha/LaueProjects/DepthEffects/testZrO2_22.cor
#File created at Wed Jun 28 14:18:57 2023 with indexingSpotsSet.py
#Number of indexed spots: 508
#Element
#ZrO2
#grainIndex
#G_0
#Mean Deviation(pixel): 0.117
##spot_index intensity h k l 2theta Chi Xexp Yexp Energy GrainIndex PixDev
24.000000 47.138000 -14.000000 3.000000 -4.000000 124.455954 39.857882 76.421777 -21.042576 21.218728 0.000000 0.156690
25.000000 49.935000 -13.000000 3.000000 -4.000000 123.208880 42.136673 1.241442 -9.102826 20.030480 0.000000 0.184849
30.000000 47.329000 -13.000000 4.000000 -4.000000 115.766308 42.703911 -18.311816 234.042837 21.135906 0.000000 0.145562
31.000000 49.944000 -3.000000 1.000000 -1.000000 113.763003 44.901385 -97.595698 271.993718 5.007482 0.000000 0.176189
32.000000 52.753000 -11.000000 4.000000 -4.000000 111.384339 47.270340 -190.158156 319.878528 18.963824 0.000000 0.215198
33.000000 55.738000 -5.000000 2.000000 -2.000000 108.539630 49.822559 -299.639942 381.522119 8.974421 0.000000 0.265778
36.000000 46.623000 -12.000000 5.000000 -4.000000 106.138024 45.119893 -105.808094 499.646525 21.459074 0.000000 0.152310
37.000000 48.830000 -11.000000 5.000000 -4.000000 103.291638 47.225311 -188.322513 566.603112 20.490151 0.000000 0.189264
38.000000 51.069000 -10.000000 5.000000 -4.000000 99.950744 49.474513 -284.044184 650.403147 19.592671 0.000000 0.236457
39.000000 53.255000 -9.000000 5.000000 -4.000000 96.006030 51.875075 -396.419880 757.583048 18.789602 0.000000 0.297888
43.000000 46.349000 -5.000000 3.000000 -2.000000 91.882597 49.199977 -271.897929 886.858658 10.795597 0.000000 0.233514
44.000000 47.697000 -9.000000 6.000000 -4.000000 87.529320 51.331773 -369.962668 1015.326949 20.982120 0.000000 0.293873
51.000000 45.574000 -16.000000 1.000000 -3.000000 136.993895 24.306429 488.889114 -325.175235 21.943261 0.000000 0.089703
52.000000 48.424000 -15.000000 1.000000 -3.000000 137.046501 26.100990 447.705813 -346.347719 20.651864 0.000000 0.103396
59.000000 46.963000 -15.000000 2.000000 -3.000000 130.368367 28.958050 379.430068 -104.715229 21.296082 0.000000 0.076822
60.000000 49.938000 -14.000000 2.000000 -3.000000 129.871021 30.868357 331.658219 -106.356948 20.027728 0.000000 0.089633
61.000000 53.286000 -13.000000 2.000000 -3.000000 129.245720 33.000824 276.024324 -107.377615 18.769483 0.000000 0.105876
62.000000 57.074000 -12.000000 2.000000 -3.000000 128.452803 35.389527 210.413511 -107.382290 17.523719 0.000000 0.126696
63.000000 61.384000 -11.000000 2.000000 -3.000000 127.437644 38.073611 131.877670 -105.735462 16.293613 0.000000 0.153801
64.000000 66.310000 -10.000000 2.000000 -3.000000 126.123963 41.097231 36.180256 -101.385937 15.083521 0.000000 0.189838
68.000000 47.875000 -14.000000 3.000000 -3.000000 122.730161 32.918783 278.213389 116.917808 20.892906 0.000000 0.056038
69.000000 50.852000 -13.000000 3.000000 -3.000000 121.564214 34.870628 224.986672 135.078475 19.670164 0.000000 0.068802
70.000000 54.169000 -4.000000 1.000000 -1.000000 120.161351 37.019423 163.381897 157.655772 6.155300 0.000000 0.085580
71.000000 57.871000 -11.000000 3.000000 -3.000000 118.456760 39.389506 91.251985 186.223556 17.284941 0.000000 0.107618
72.000000 62.002000 -10.000000 3.000000 -3.000000 116.363401 42.007425 5.647677 223.128170 16.133960 0.000000 0.136824
73.000000 71.640000 -8.000000 3.000000 -3.000000 110.493038 48.100158 -224.556231 338.660212 13.964360 0.000000 0.230574
75.000000 45.522000 -14.000000 4.000000 -3.000000 115.719653 34.510888 234.982267 311.839148 21.975396 0.000000 0.029086
76.000000 48.081000 -13.000000 4.000000 -3.000000 114.061119 36.301431 184.341869 344.691047 20.806303 0.000000 0.042658
77.000000 50.873000 -12.000000 4.000000 -3.000000 112.109796 38.247341 126.598989 384.236051 19.664966 0.000000 0.060046
78.000000 53.906000 -11.000000 4.000000 -3.000000 109.794662 40.364634 60.146718 432.590658 18.558838 0.000000 0.082308
79.000000 57.176000 -10.000000 4.000000 -3.000000 107.023189 42.670382 -17.146130 492.818008 17.498301 0.000000 0.111141
80.000000 60.645000 -9.000000 4.000000 -3.000000 103.673881 45.182371 -108.167831 569.500246 16.498265 0.000000 0.149147
81.000000 64.219000 -8.000000 4.000000 -3.000000 99.586259 47.918518 -216.932703 669.768057 15.580939 0.000000 0.200413
82.000000 67.700000 -7.000000 4.000000 -3.000000 94.547918 50.895962 -349.189126 805.265390 14.780914 0.000000 0.271600
86.000000 47.327000 -12.000000 5.000000 -3.000000 104.374251 39.204854 97.043962 585.040382 21.140788 0.000000 0.062896
87.000000 49.683000 -11.000000 5.000000 -3.000000 101.534925 41.115788 35.566278 649.437707 20.139171 0.000000 0.086461
88.000000 52.101000 -10.000000 5.000000 -3.000000 98.195397 43.174667 -34.812437 728.447916 19.205742 0.000000 0.116759
89.000000 54.494000 -9.000000 5.000000 -3.000000 94.238161 45.393387 -116.176147 827.421451 18.363572 0.000000 0.156282
90.000000 56.709000 -8.000000 5.000000 -3.000000 89.514104 47.783835 -211.314429 954.584326 17.647461 0.000000 0.208886
91.000000 58.487000 -7.000000 5.000000 -3.000000 83.835306 50.357404 -324.048738 1123.214090 17.112480 0.000000 0.280724
95.000000 47.009000 -10.000000 6.000000 -3.000000 89.936533 43.571100 -48.906476 942.645522 21.289220 0.000000 0.141015
96.000000 48.443000 -3.000000 2.000000 -1.000000 85.509685 45.557670 -122.452407 1061.714397 6.886707 0.000000 0.182829
97.000000 49.505000 -8.000000 6.000000 -3.000000 80.321771 47.679985 -207.002191 1213.629451 20.218543 0.000000 0.238408
98.000000 49.925000 -7.000000 6.000000 -3.000000 74.215650 49.945997 -305.225088 1413.787344 20.050225 0.000000 0.313896
109.000000 46.926000 -16.000000 0.000000 -2.000000 139.992972 11.942087 747.363376 -369.725814 21.310710 0.000000 0.041062
110.000000 50.019000 -15.000000 0.000000 -2.000000 140.461215 13.010896 726.302296 -397.205472 19.992765 0.000000 0.047193
111.000000 53.541000 -14.000000 0.000000 -2.000000 140.978012 14.256085 701.534395 -429.268073 18.677510 0.000000 0.054957
117.000000 45.915000 -16.000000 1.000000 -2.000000 134.162833 16.735155 651.376278 -150.523276 21.781183 0.000000 0.037378
118.000000 48.863000 -15.000000 1.000000 -2.000000 134.186760 17.976952 625.769386 -158.861057 20.467435 0.000000 0.040772
119.000000 52.205000 -14.000000 1.000000 -2.000000 134.190502 19.389545 596.197695 -168.214404 19.157007 0.000000 0.045610
120.000000 56.025000 -13.000000 1.000000 -2.000000 134.164065 21.008640 561.663109 -178.773250 17.850631 0.000000 0.052322
121.000000 60.431000 -12.000000 1.000000 -2.000000 134.092512 22.879834 520.801836 -190.774387 16.549270 0.000000 0.061492
122.000000 65.562000 -11.000000 1.000000 -2.000000 133.953131 25.061873 471.700008 -204.514331 15.254216 0.000000 0.073961
123.000000 71.603000 -10.000000 1.000000 -2.000000 133.710699 27.631000 411.585242 -220.364080 13.967251 0.000000 0.091018
124.000000 78.804000 -9.000000 1.000000 -2.000000 133.309329 30.686568 336.284448 -238.781917 12.690897 0.000000 0.114751
126.000000 47.340000 -15.000000 2.000000 -2.000000 127.727414 21.757949 545.429026 44.450484 21.127558 0.000000 0.031018
127.000000 50.425000 -7.000000 1.000000 -1.000000 127.219397 23.209857 513.480484 51.482923 9.917558 0.000000 0.029927
128.000000 53.920000 -13.000000 2.000000 -2.000000 126.602677 24.839191 476.788570 60.103914 18.549518 0.000000 0.029852
129.000000 57.908000 -6.000000 1.000000 -1.000000 125.844916 26.677399 434.212208 70.838816 8.636216 0.000000 0.031751
130.000000 62.490000 -11.000000 2.000000 -2.000000 124.901219 28.762778 384.212421 84.451213 16.006115 0.000000 0.036860
131.000000 67.795000 -5.000000 1.000000 -1.000000 123.708031 31.141958 324.662316 102.085869 7.376848 0.000000 0.046459
132.000000 73.985000 -9.000000 2.000000 -2.000000 122.173433 33.871515 252.536711 125.523048 13.519649 0.000000 0.061977
133.000000 89.821000 -7.000000 2.000000 -2.000000 117.465207 40.665753 50.359581 203.445318 11.136794 0.000000 0.121170
134.000000 45.499000 -15.000000 3.000000 -2.000000 121.215697 24.709103 479.752758 223.034266 21.984474 0.000000 0.032332
135.000000 48.265000 -14.000000 3.000000 -2.000000 120.217514 26.139719 446.803377 242.723158 20.724844 0.000000 0.027096
136.000000 51.358000 -13.000000 3.000000 -2.000000 119.041934 27.719400 409.467912 265.892201 19.477264 0.000000 0.020527
137.000000 54.829000 -12.000000 3.000000 -2.000000 117.643296 29.469902 366.808129 293.515715 18.244741 0.000000 0.012192
138.000000 58.736000 -11.000000 3.000000 -2.000000 115.960421 31.416655 317.597653 326.957146 17.031378 0.000000 0.001860
139.000000 63.144000 -10.000000 3.000000 -2.000000 113.910043 33.589275 260.202146 368.179499 15.842914 0.000000 0.012894
140.000000 68.113000 -9.000000 3.000000 -2.000000 111.376905 36.022019 192.394291 420.105596 14.687639 0.000000 0.031835
141.000000 73.684000 -8.000000 3.000000 -2.000000 108.198656 38.754031 111.058021 487.266707 13.577975 0.000000 0.057903
142.000000 79.829000 -7.000000 3.000000 -2.000000 104.142589 41.829149 11.696109 577.043890 12.533433 0.000000 0.094849
143.000000 86.360000 -6.000000 3.000000 -2.000000 98.869924 45.294884 -112.430416 702.230424 11.586504 0.000000 0.149265
144.000000 45.805000 -7.000000 2.000000 -1.000000 113.296334 28.446803 391.913134 413.915830 10.920181 0.000000 0.040737
145.000000 48.446000 -13.000000 4.000000 -2.000000 111.608324 29.953484 354.765730 448.963225 20.650397 0.000000 0.037145
146.000000 51.343000 -6.000000 2.000000 -1.000000 109.631331 31.600393 312.849174 490.249808 9.742863 0.000000 0.034655
147.000000 54.513000 -11.000000 4.000000 -2.000000 107.294031 33.404921 265.182039 539.580381 18.353437 0.000000 0.035500
148.000000 57.957000 -5.000000 2.000000 -1.000000 104.502278 35.386687 210.493779 599.521854 8.631768 0.000000 0.042721
149.000000 61.649000 -9.000000 4.000000 -2.000000 101.130365 37.567640 147.109801 673.849045 16.230625 0.000000 0.058552
150.000000 65.502000 -4.000000 2.000000 -1.000000 97.008670 39.972026 72.776977 768.342297 7.638445 0.000000 0.084637
151.000000 69.315000 -7.000000 4.000000 -2.000000 91.906532 42.626136 -15.609807 892.307744 14.437743 0.000000 0.124004
152.000000 74.725000 -5.000000 4.000000 -2.000000 77.394335 48.794553 -254.205258 1306.370776 13.395314 0.000000 0.273152
155.000000 47.609000 -12.000000 5.000000 -2.000000 101.910995 33.275058 268.677318 669.452243 21.017019 0.000000 0.059157
156.000000 50.036000 -11.000000 5.000000 -2.000000 99.014359 34.946659 222.862933 732.694804 19.998482 0.000000 0.064723
157.000000 52.536000 -10.000000 5.000000 -2.000000 95.607002 36.760243 170.993210 809.108608 19.047911 0.000000 0.075973
158.000000 55.019000 -9.000000 5.000000 -2.000000 91.563976 38.730562 111.782687 903.329810 18.189575 0.000000 0.095145
159.000000 57.319000 -8.000000 5.000000 -2.000000 86.723848 40.873539 43.554348 1022.476968 17.460860 0.000000 0.125003
160.000000 59.148000 -7.000000 5.000000 -2.000000 80.878639 43.206057 -35.921750 1178.078999 16.922512 0.000000 0.169749
161.000000 60.014000 -6.000000 5.000000 -2.000000 73.763854 45.745589 -129.676830 1390.137796 16.680259 0.000000 0.236651
165.000000 45.499000 -11.000000 6.000000 -2.000000 91.193517 36.175459 187.979372 913.221317 21.995875 0.000000 0.090502
166.000000 47.137000 -5.000000 3.000000 -1.000000 87.295768 37.842906 138.848910 1005.374701 10.616373 0.000000 0.106283
167.000000 48.561000 -9.000000 6.000000 -2.000000 82.742590 39.636576 83.454044 1118.979839 20.611647 0.000000 0.130659
168.000000 49.573000 -4.000000 3.000000 -1.000000 77.390727 41.567421 20.515068 1262.800414 10.096313 0.000000 0.166962
169.000000 49.868000 -7.000000 6.000000 -2.000000 71.065669 43.646880 -51.621751 1451.247074 20.075139 0.000000 0.220342
170.000000 48.990000 -3.000000 3.000000 -1.000000 63.560809 45.886644 -135.131598 1709.869809 10.218357 0.000000 0.299475
178.000000 47.692000 -16.000000 -1.000000 -1.000000 141.066834 -2.134099 1015.107339 -392.212036 20.968083 0.000000 0.005956
179.000000 50.913000 -15.000000 -1.000000 -1.000000 141.700986 -2.166346 1015.713949 -422.847916 19.641436 0.000000 0.005601
180.000000 54.596000 -14.000000 -1.000000 -1.000000 142.423948 -2.204387 1016.429583 -458.841586 18.316331 0.000000 0.005903
186.000000 45.951000 -16.000000 1.000000 -1.000000 130.575606 9.883496 787.476030 5.413613 21.765347 0.000000 0.046831
187.000000 48.937000 -15.000000 1.000000 -1.000000 130.459690 10.628750 773.017975 7.042662 20.437523 0.000000 0.046067
188.000000 52.333000 -14.000000 1.000000 -1.000000 130.318584 11.474276 756.528640 9.009074 19.111141 0.000000 0.045134
189.000000 56.231000 -13.000000 1.000000 -1.000000 130.144540 12.441315 737.547603 11.415919 17.786528 0.000000 0.043981
190.000000 60.748000 -12.000000 1.000000 -1.000000 129.926619 13.557400 715.463925 14.409426 16.464123 0.000000 0.042544
191.000000 66.041000 -11.000000 1.000000 -1.000000 129.649001 14.858782 689.449161 18.202815 15.144517 0.000000 0.040744
192.000000 72.326000 -10.000000 1.000000 -1.000000 129.288147 16.394036 658.351107 23.117079 13.828538 0.000000 0.038488
193.000000 79.902000 -9.000000 1.000000 -1.000000 128.807878 18.229489 620.518525 29.654124 12.517374 0.000000 0.035707
194.000000 89.200000 -8.000000 1.000000 -1.000000 128.150439 20.457575 573.498154 38.635399 11.212794 0.000000 0.032527
195.000000 47.365000 -15.000000 2.000000 -1.000000 124.312843 15.061993 685.359318 180.315083 21.117732 0.000000 0.064377
196.000000 50.489000 -14.000000 2.000000 -1.000000 123.686238 16.070653 664.940737 194.397964 19.811037 0.000000 0.063781
197.000000 54.041000 -13.000000 2.000000 -1.000000 122.948913 17.203420 641.760856 210.738529 18.509216 0.000000 0.062882
198.000000 58.110000 -12.000000 2.000000 -1.000000 122.070830 18.483628 615.218916 229.923836 17.213505 0.000000 0.061563
199.000000 62.810000 -11.000000 2.000000 -1.000000 121.010670 19.940497 584.526264 252.762654 15.925592 0.000000 0.059662
200.000000 68.290000 -10.000000 2.000000 -1.000000 119.710280 21.610965 548.626659 280.400455 14.647850 0.000000 0.056942
201.000000 74.743000 -9.000000 2.000000 -1.000000 118.085659 23.542145 506.072263 314.513906 13.383727 0.000000 0.053085
202.000000 82.413000 -8.000000 2.000000 -1.000000 116.011815 25.794623 454.823628 357.656920 12.138425 0.000000 0.047710
204.000000 48.255000 -14.000000 3.000000 -1.000000 116.935519 19.693761 589.763075 360.150021 20.730809 0.000000 0.079647
205.000000 51.379000 -13.000000 3.000000 -1.000000 115.650302 20.891467 564.186837 387.794823 19.470415 0.000000 0.079203
206.000000 54.896000 -12.000000 3.000000 -1.000000 114.138476 22.222623 535.276625 419.982129 18.223467 0.000000 0.078450
207.000000 58.871000 -11.000000 3.000000 -1.000000 112.339245 23.709138 502.335092 457.947731 16.993789 0.000000 0.077323
208.000000 63.374000 -10.000000 3.000000 -1.000000 110.169519 25.377497 464.455834 503.426545 15.786808 0.000000 0.075795
209.000000 68.479000 -9.000000 3.000000 -1.000000 107.513414 27.259816 420.438703 558.936157 14.610489 0.000000 0.073985
210.000000 74.243000 -8.000000 3.000000 -1.000000 104.205710 29.395111 368.660325 628.280726 13.477020 0.000000 0.072464
211.000000 80.657000 -7.000000 3.000000 -1.000000 100.005277 31.830743 306.869496 717.506906 12.406033 0.000000 0.073104
212.000000 87.543000 -6.000000 3.000000 -1.000000 94.551815 34.623911 231.851188 836.873500 11.431315 0.000000 0.080909
214.000000 45.714000 -14.000000 4.000000 -1.000000 110.203672 22.601547 526.947836 511.973164 21.885698 0.000000 0.091915
215.000000 48.362000 -13.000000 4.000000 -1.000000 108.408925 23.809606 500.082096 549.454699 20.688007 0.000000 0.091670
216.000000 51.270000 -12.000000 4.000000 -1.000000 106.317577 25.134504 470.036320 592.955887 19.515284 0.000000 0.091220
217.000000 54.454000 -11.000000 4.000000 -1.000000 103.856403 26.592407 436.210366 644.105649 18.374841 0.000000 0.090621
218.000000 57.916000 -10.000000 4.000000 -1.000000 100.928089 28.202196 397.842948 705.197961 17.277157 0.000000 0.090087
219.000000 61.627000 -9.000000 4.000000 -1.000000 97.401472 29.985927 353.953644 779.579198 16.237795 0.000000 0.090228
220.000000 65.491000 -8.000000 4.000000 -1.000000 93.097334 31.969313 303.257947 872.347877 15.280918 0.000000 0.092586
221.000000 69.282000 -7.000000 4.000000 -1.000000 87.767887 34.182215 244.039454 991.711314 14.446169 0.000000 0.100696
222.000000 72.516000 -6.000000 4.000000 -1.000000 81.068157 36.659025 173.951685 1151.864482 13.803444 0.000000 0.121660
223.000000 74.218000 -5.000000 4.000000 -1.000000 72.519790 39.438827 89.699753 1379.876323 13.488551 0.000000 0.167940
224.000000 72.529000 -4.000000 4.000000 -1.000000 61.478035 42.565060 -13.492659 1735.170747 13.804866 0.000000 0.261903
226.000000 47.397000 -12.000000 5.000000 -1.000000 98.739910 27.455285 415.783825 754.535128 21.112611 0.000000 0.099784
227.000000 49.793000 -11.000000 5.000000 -1.000000 95.711303 28.858899 381.860609 818.093461 20.097646 0.000000 0.099650
228.000000 52.247000 -10.000000 5.000000 -1.000000 92.153187 30.389261 343.813037 894.088317 19.154988 0.000000 0.100377
229.000000 54.656000 -9.000000 5.000000 -1.000000 87.933284 32.061843 300.840273 986.830051 18.311971 0.000000 0.103404
230.000000 56.834000 -8.000000 5.000000 -1.000000 82.878808 33.894149 251.919800 1102.991084 17.611693 0.000000 0.111719
231.000000 58.451000 -7.000000 5.000000 -1.000000 76.764148 35.905863 195.725010 1253.541862 17.126295 0.000000 0.130893
232.000000 58.939000 -6.000000 5.000000 -1.000000 69.297695 38.118931 130.503081 1458.009174 16.986378 0.000000 0.170159
233.000000 57.363000 -5.000000 5.000000 -1.000000 60.113304 40.557480 53.888863 1755.163685 17.455276 0.000000 0.244486
235.000000 46.639000 -10.000000 6.000000 -1.000000 83.941756 32.128009 299.108452 1075.885496 21.461511 0.000000 0.110088
236.000000 47.926000 -9.000000 6.000000 -1.000000 79.200554 33.691443 257.433157 1187.747839 20.886770 0.000000 0.118769
237.000000 48.734000 -8.000000 6.000000 -1.000000 73.621425 35.384708 210.549716 1329.004642 20.542283 0.000000 0.137155
238.000000 48.718000 -7.000000 6.000000 -1.000000 67.015410 37.221320 157.416767 1514.295758 20.550744 0.000000 0.172284
239.000000 47.363000 -6.000000 6.000000 -1.000000 59.156336 39.215991 96.695503 1770.554535 21.140849 0.000000 0.234637
244.000000 47.793000 -8.000000 -1.000000 0.000000 139.880801 -16.442032 1292.628769 -390.730656 10.461870 0.000000 0.056252
245.000000 51.002000 -15.000000 -2.000000 0.000000 140.337266 -17.607852 1316.583010 -420.927104 19.607320 0.000000 0.064810
251.000000 47.434000 -16.000000 -1.000000 0.000000 135.985192 -8.448808 1134.870272 -185.180886 21.083341 0.000000 0.024579
252.000000 50.634000 -15.000000 -1.000000 0.000000 136.268491 -8.940575 1144.324164 -197.875581 19.750926 0.000000 0.024124
253.000000 54.294000 -14.000000 -1.000000 0.000000 136.588462 -9.509700 1155.297204 -212.542654 18.419296 0.000000 0.024100
254.000000 58.522000 -13.000000 -1.000000 0.000000 136.952506 -10.175847 1168.187552 -229.682496 17.088628 0.000000 0.024783
255.000000 63.458000 -12.000000 -1.000000 0.000000 137.370064 -10.965905 1183.545825 -249.981205 15.759156 0.000000 0.026547
256.000000 69.297000 -11.000000 -1.000000 0.000000 137.853305 -11.917585 1202.155797 -274.405998 14.431197 0.000000 0.029861
257.000000 76.308000 -10.000000 -1.000000 0.000000 138.418051 -13.085400 1225.172424 -304.366528 13.105193 0.000000 0.035305
258.000000 84.879000 -9.000000 -1.000000 0.000000 139.084962 -14.551006 1254.371078 -342.002443 11.781773 0.000000 0.043671
259.000000 46.717000 -4.000000 0.000000 0.000000 131.404530 -1.742905 1007.750364 -8.471537 5.352115 0.000000 0.050873
260.000000 45.654000 -16.000000 1.000000 0.000000 126.333672 3.820093 903.133486 147.646312 21.908770 0.000000 0.078208
261.000000 48.609000 -15.000000 1.000000 0.000000 125.982462 4.154898 896.813636 157.470415 20.576817 0.000000 0.079814
262.000000 51.971000 -14.000000 1.000000 0.000000 125.579395 4.532413 889.681136 168.618872 19.245751 0.000000 0.081614
263.000000 55.830000 -13.000000 1.000000 0.000000 125.112168 4.961325 881.568474 181.380110 17.915782 0.000000 0.083647
264.000000 60.302000 -12.000000 1.000000 0.000000 124.564286 5.452839 872.258696 196.133346 16.587191 0.000000 0.085957
265.000000 65.546000 -11.000000 1.000000 0.000000 123.913125 6.021649 861.465726 213.387607 15.260366 0.000000 0.088603
266.000000 71.776000 -10.000000 1.000000 0.000000 123.126828 6.687399 848.804440 233.842944 13.935852 0.000000 0.091658
267.000000 79.296000 -9.000000 1.000000 0.000000 122.159115 7.476944 833.743752 258.490246 12.614447 0.000000 0.095218
268.000000 88.543000 -8.000000 1.000000 0.000000 120.940200 8.427947 815.530213 288.781760 11.297363 0.000000 0.099403
269.000000 100.167000 -7.000000 1.000000 0.000000 119.359971 9.594846 793.058038 326.939563 9.986537 0.000000 0.104360
270.000000 115.179000 -6.000000 1.000000 0.000000 117.234630 11.059169 764.635881 376.555326 8.685265 0.000000 0.110247
271.000000 135.197000 -5.000000 1.000000 0.000000 114.234598 12.948326 727.540097 443.872074 7.399655 0.000000 0.117165
272.000000 162.883000 -4.000000 1.000000 0.000000 109.710724 15.471910 677.085359 540.904662 6.142424 0.000000 0.124823
273.000000 47.003000 -15.000000 2.000000 0.000000 120.204440 8.980113 804.914650 306.695170 21.282009 0.000000 0.101775
274.000000 53.584000 -13.000000 2.000000 0.000000 118.381336 10.283248 779.729230 350.009976 18.668834 0.000000 0.107178
275.000000 62.213000 -11.000000 2.000000 0.000000 115.873766 11.940081 747.402753 407.444699 16.079874 0.000000 0.113579
276.000000 73.930000 -9.000000 2.000000 0.000000 112.225388 14.112879 704.396362 487.529003 13.532446 0.000000 0.120957
277.000000 90.420000 -7.000000 2.000000 0.000000 106.483198 17.076579 644.370192 607.842536 11.065561 0.000000 0.128449
278.000000 101.172000 -6.000000 2.000000 0.000000 102.211015 18.996737 604.470714 694.664190 9.890351 0.000000 0.131126
279.000000 113.858000 -5.000000 2.000000 0.000000 96.335742 21.329656 554.728495 812.708815 8.789349 0.000000 0.131310
280.000000 127.856000 -4.000000 2.000000 0.000000 87.861862 24.213516 490.988955 985.059536 7.828263 0.000000 0.126013
281.000000 139.376000 -3.000000 2.000000 0.000000 74.909640 27.848211 406.376498 1269.224486 7.182860 0.000000 0.116459
282.000000 132.895000 -2.000000 2.000000 0.000000 53.836942 32.526280 288.630707 1874.010621 7.535390 0.000000 0.203020
283.000000 47.801000 -14.000000 3.000000 0.000000 112.943460 13.705195 712.524345 472.040745 20.929381 0.000000 0.119676
284.000000 50.859000 -13.000000 3.000000 0.000000 111.451723 14.542066 695.808159 504.086507 19.671128 0.000000 0.122248
285.000000 58.163000 -11.000000 3.000000 0.000000 107.655346 16.510548 655.971563 583.702417 17.202097 0.000000 0.127299
286.000000 62.529000 -10.000000 3.000000 0.000000 105.196738 17.677443 631.977517 634.154197 16.001773 0.000000 0.129499
287.000000 72.949000 -8.000000 3.000000 0.000000 98.521269 20.498657 572.618817 768.836966 13.717790 0.000000 0.131677
288.000000 78.973000 -7.000000 3.000000 0.000000 93.868271 22.221375 535.303983 862.385675 12.672493 0.000000 0.130339
289.000000 90.902000 -5.000000 3.000000 0.000000 79.900185 26.537484 437.500007 1155.290827 11.012156 0.000000 0.118723
290.000000 93.779000 -4.000000 3.000000 0.000000 69.041325 29.273772 371.659503 1413.616590 10.676307 0.000000 0.121165
292.000000 47.779000 -13.000000 4.000000 0.000000 104.505553 17.991915 625.458702 648.223338 20.942086 0.000000 0.129975
293.000000 53.640000 -11.000000 4.000000 0.000000 99.522109 20.104125 581.044357 748.749208 18.655454 0.000000 0.131678
294.000000 60.402000 -9.000000 4.000000 0.000000 92.512646 22.691979 524.953383 889.807237 16.569138 0.000000 0.129581
295.000000 67.220000 -7.000000 4.000000 0.000000 82.118084 25.921338 451.884159 1106.669075 14.891213 0.000000 0.120611
296.000000 70.163000 -5.000000 4.000000 0.000000 65.717412 30.033847 352.753182 1501.881404 14.270566 0.000000 0.129478
298.000000 46.641000 -12.000000 5.000000 0.000000 94.892242 21.857008 543.270308 841.740654 21.456828 0.000000 0.130809
299.000000 48.887000 -11.000000 5.000000 0.000000 91.655951 22.982756 518.522428 907.201665 20.472039 0.000000 0.129028
300.000000 53.282000 -9.000000 5.000000 0.000000 83.370276 25.563389 460.171526 1079.672198 18.786178 0.000000 0.121779
301.000000 55.086000 -8.000000 5.000000 0.000000 77.998181 27.048805 425.445359 1197.910080 18.172804 0.000000 0.117437
302.000000 56.169000 -7.000000 5.000000 0.000000 71.505826 28.688926 386.016451 1351.380009 17.824371 0.000000 0.117863
303.000000 55.880000 -6.000000 5.000000 0.000000 63.582380 30.506090 340.860126 1561.595549 17.918680 0.000000 0.137481
305.000000 46.359000 -7.000000 6.000000 0.000000 62.096381 30.827930 332.688541 1604.734438 21.598937 0.000000 0.144366
314.000000 47.186000 -16.000000 -2.000000 1.000000 133.902155 -21.022284 1388.631010 -168.678182 21.194563 0.000000 0.046366
315.000000 50.299000 -15.000000 -2.000000 1.000000 133.895399 -22.347437 1417.461801 -178.666979 19.882899 0.000000 0.052854
316.000000 53.841000 -14.000000 -2.000000 1.000000 133.860722 -23.858461 1451.014733 -189.964791 18.574962 0.000000 0.061249
317.000000 57.904000 -13.000000 -2.000000 1.000000 133.785258 -25.594788 1490.553435 -202.840623 17.271604 0.000000 0.072116
318.000000 62.607000 -12.000000 -2.000000 1.000000 133.649797 -27.606835 1537.836549 -217.639468 15.973955 0.000000 0.086283
319.000000 68.110000 -11.000000 -2.000000 1.000000 133.425118 -29.959565 1595.386440 -234.808941 14.683550 0.000000 0.105017
320.000000 74.620000 -10.000000 -2.000000 1.000000 133.065793 -32.737140 1666.954259 -254.935687 13.402534 0.000000 0.130351
324.000000 46.814000 -16.000000 -1.000000 1.000000 130.407906 -13.560778 1234.603224 -1.530457 21.364095 0.000000 0.039877
325.000000 49.916000 -15.000000 -1.000000 1.000000 130.276238 -14.331183 1249.967876 -0.288599 20.036701 0.000000 0.038721
326.000000 53.453000 -14.000000 -1.000000 1.000000 130.116092 -15.207056 1267.565018 1.253324 18.710844 0.000000 0.037373
327.000000 57.523000 -13.000000 -1.000000 1.000000 129.918627 -16.211140 1287.919340 3.195972 17.386882 0.000000 0.035803
328.000000 62.255000 -12.000000 -1.000000 1.000000 129.671306 -17.373032 1311.733929 5.685278 16.065297 0.000000 0.033998
329.000000 67.822000 -11.000000 -1.000000 1.000000 129.355890 -18.731881 1339.973133 8.939043 14.746746 0.000000 0.031991
330.000000 74.460000 -10.000000 -1.000000 1.000000 128.945058 -20.340401 1373.996336 13.293618 13.432153 0.000000 0.029973
331.000000 82.503000 -9.000000 -1.000000 1.000000 128.396464 -22.270960 1415.783323 19.290018 12.122862 0.000000 0.028564
332.000000 92.430000 -8.000000 -1.000000 1.000000 127.641805 -24.624983 1468.333779 27.842541 10.820902 0.000000 0.029410
333.000000 104.957000 -7.000000 -1.000000 1.000000 126.565580 -27.547636 1536.421149 40.594023 9.529487 0.000000 0.035748
334.000000 121.178000 -6.000000 -1.000000 1.000000 124.961125 -31.250767 1628.131125 60.736519 8.254036 0.000000 0.052075
335.000000 142.801000 -5.000000 -1.000000 1.000000 122.432576 -36.047496 1758.337551 95.148566 7.004441 0.000000 0.085250
336.000000 172.438000 -4.000000 -1.000000 1.000000 118.156468 -42.397865 1957.718196 160.950228 5.800901 0.000000 0.151913
337.000000 47.857000 -15.000000 1.000000 1.000000 120.892191 -1.455445 1002.346238 296.842574 20.901926 0.000000 0.108054
338.000000 51.089000 -14.000000 1.000000 1.000000 120.137573 -1.438405 1002.025936 315.953746 19.579894 0.000000 0.111638
339.000000 54.781000 -13.000000 1.000000 1.000000 119.266676 -1.419217 1001.665274 337.649594 18.260477 0.000000 0.115661
340.000000 59.037000 -12.000000 1.000000 1.000000 118.250509 -1.397449 1001.256109 362.501835 16.944376 0.000000 0.120194
341.000000 63.993000 -11.000000 1.000000 1.000000 117.049628 -1.372541 1000.787953 391.268144 15.632562 0.000000 0.125323
342.000000 69.829000 -10.000000 1.000000 1.000000 115.608986 -1.343763 1000.247057 424.976707 14.326430 0.000000 0.131138
343.000000 76.790000 -9.000000 1.000000 1.000000 113.849448 -1.310136 999.615039 465.063257 13.028050 0.000000 0.137730
344.000000 85.214000 -8.000000 1.000000 1.000000 111.653145 -1.270322 998.866755 513.604663 11.740641 0.000000 0.145150
345.000000 95.565000 -7.000000 1.000000 1.000000 108.836843 -1.222440 997.966875 573.743484 10.469486 0.000000 0.153327
346.000000 108.478000 -6.000000 1.000000 1.000000 105.100323 -1.163762 996.864135 650.527099 9.223911 0.000000 0.161808
347.000000 124.742000 -5.000000 1.000000 1.000000 99.918316 -1.090172 995.481227 752.767936 8.022066 0.000000 0.169032
348.000000 144.953000 -4.000000 1.000000 1.000000 92.292164 -0.995160 993.695843 897.912484 6.904585 0.000000 0.169866
349.000000 167.264000 -3.000000 1.000000 1.000000 80.113873 -0.867778 991.302356 1128.596412 5.985040 0.000000 0.145724
350.000000 174.264000 -2.000000 1.000000 1.000000 58.377435 -0.688090 987.926318 1603.772902 5.746811 0.000000 0.012546
351.000000 46.234000 -15.000000 2.000000 1.000000 115.507031 3.549208 908.243156 426.485000 21.637856 0.000000 0.129966
352.000000 49.181000 -14.000000 2.000000 1.000000 114.363486 3.835505 902.842694 452.503936 20.341343 0.000000 0.134043
353.000000 52.512000 -13.000000 2.000000 1.000000 113.044948 4.154434 896.822403 481.937155 19.051795 0.000000 0.138441
354.000000 56.297000 -12.000000 2.000000 1.000000 111.508522 4.511889 890.069078 515.532966 17.771124 0.000000 0.143157
355.000000 60.629000 -11.000000 2.000000 1.000000 109.696294 4.915265 882.440158 554.287253 16.502014 0.000000 0.148147
356.000000 65.616000 -10.000000 2.000000 1.000000 107.528253 5.373970 873.753553 599.561378 15.248353 0.000000 0.153304
357.000000 71.389000 -9.000000 2.000000 1.000000 104.890911 5.900152 863.772919 653.278864 14.015989 0.000000 0.158377
358.000000 78.090000 -8.000000 2.000000 1.000000 101.618322 6.509771 852.185832 718.273802 12.814153 0.000000 0.162838
359.000000 85.839000 -7.000000 2.000000 1.000000 97.459115 7.224202 838.570493 798.956837 11.658309 0.000000 0.165567
360.000000 94.629000 -6.000000 2.000000 1.000000 92.016687 8.072729 822.343268 902.721805 10.576486 0.000000 0.164127
361.000000 103.996000 -5.000000 2.000000 1.000000 84.635798 9.096509 802.672850 1043.348533 9.625296 0.000000 0.152916
362.000000 112.004000 -4.000000 2.000000 1.000000 74.180285 10.355177 778.333274 1251.009939 8.938835 0.000000 0.118201
363.000000 112.141000 -3.000000 2.000000 1.000000 58.604201 11.938276 747.438185 1612.385907 8.930201 0.000000 0.050390
365.000000 46.881000 -14.000000 3.000000 1.000000 108.333221 8.242666 819.085416 580.634599 21.341883 0.000000 0.147172
366.000000 49.768000 -13.000000 3.000000 1.000000 106.552167 8.760274 809.144893 617.345201 20.104358 0.000000 0.150628
367.000000 52.982000 -12.000000 3.000000 1.000000 104.482735 9.333771 798.098599 659.267297 18.885767 0.000000 0.153927
368.000000 56.559000 -11.000000 3.000000 1.000000 102.051292 9.972589 785.751164 707.694265 17.692015 0.000000 0.156820
369.000000 60.532000 -10.000000 3.000000 1.000000 99.157867 10.688372 771.858307 764.427043 16.531752 0.000000 0.158890
370.000000 64.908000 -9.000000 3.000000 1.000000 95.663849 11.495652 756.110519 832.072260 15.418167 0.000000 0.159406
371.000000 69.637000 -8.000000 3.000000 1.000000 91.372613 12.412777 738.109728 914.593421 14.372425 0.000000 0.157084
372.000000 74.527000 -7.000000 3.000000 1.000000 85.998403 13.463222 717.335185 1018.419496 13.430763 0.000000 0.149598
373.000000 79.070000 -6.000000 3.000000 1.000000 79.115857 14.677447 693.092257 1154.933891 12.660816 0.000000 0.132743
374.000000 82.036000 -5.000000 3.000000 1.000000 70.079306 16.095596 664.433245 1346.966516 12.205022 0.000000 0.100490
375.000000 80.608000 -4.000000 3.000000 1.000000 57.904106 17.771480 630.030585 1649.877254 12.423570 0.000000 0.080610
376.000000 68.755000 -3.000000 3.000000 1.000000 41.144885 19.778549 587.965332 2250.054285 14.567885 0.000000 0.253852
377.000000 46.675000 -13.000000 4.000000 1.000000 99.977494 12.583956 734.736139 746.995759 21.439366 0.000000 0.154030
378.000000 49.263000 -12.000000 4.000000 1.000000 97.401912 13.290708 720.759116 797.329211 20.313932 0.000000 0.154784
379.000000 52.032000 -11.000000 4.000000 1.000000 94.394300 14.068940 705.273759 855.733718 19.234165 0.000000 0.154272
380.000000 54.942000 -10.000000 4.000000 1.000000 90.843642 14.929738 688.021986 924.597430 18.216549 0.000000 0.151757
381.000000 57.903000 -9.000000 4.000000 1.000000 86.600623 15.886519 668.683271 1007.470721 17.286591 0.000000 0.146103
382.000000 60.720000 -8.000000 4.000000 1.000000 81.461651 16.955652 646.854552 1109.933204 16.485960 0.000000 0.135585
383.000000 63.014000 -7.000000 4.000000 1.000000 75.145995 18.157263 622.021826 1241.413976 15.887714 0.000000 0.118063
384.000000 64.051000 -6.000000 4.000000 1.000000 67.264610 19.516319 593.519170 1419.496335 15.632705 0.000000 0.094841
385.000000 62.465000 -5.000000 4.000000 1.000000 57.283144 21.064057 560.468122 1681.925078 16.031961 0.000000 0.100917
386.000000 55.845000 -4.000000 4.000000 1.000000 44.496543 22.839890 521.685550 2129.569183 17.934946 0.000000 0.222404
387.000000 47.293000 -11.000000 5.000000 1.000000 86.926673 17.422476 637.246082 1001.566103 21.164356 0.000000 0.143297
388.000000 49.192000 -10.000000 5.000000 1.000000 82.822646 18.358293 617.834505 1083.803321 20.348770 0.000000 0.135848
389.000000 50.863000 -9.000000 5.000000 1.000000 77.978585 19.385815 596.276434 1183.969067 19.682352 0.000000 0.124559
390.000000 52.038000 -8.000000 5.000000 1.000000 72.203792 20.518449 572.194998 1309.883952 19.239630 0.000000 0.109381
391.000000 52.275000 -7.000000 5.000000 1.000000 65.250444 21.772155 545.119619 1475.280622 19.154695 0.000000 0.096524
392.000000 50.845000 -6.000000 5.000000 1.000000 56.801070 23.166025 514.454952 1707.045740 19.695571 0.000000 0.115527
393.000000 46.611000 -5.000000 5.000000 1.000000 46.463976 24.722991 479.436601 2066.846615 21.487092 0.000000 0.209956
396.000000 46.249000 -16.000000 -3.000000 2.000000 130.045244 -32.129880 1650.940540 -127.162114 21.624799 0.000000 0.099347
397.000000 49.133000 -15.000000 -3.000000 2.000000 129.543225 -33.983184 1700.510156 -130.624883 20.355615 0.000000 0.115392
398.000000 52.374000 -14.000000 -3.000000 2.000000 128.917006 -36.048217 1758.358283 -133.785242 19.096276 0.000000 0.135386
399.000000 56.034000 -13.000000 -3.000000 2.000000 128.129063 -38.357059 1826.747736 -136.338548 17.849055 0.000000 0.160690
404.000000 49.156000 -15.000000 -2.000000 2.000000 127.153903 -26.003894 1500.034340 33.545306 20.347214 0.000000 0.031633
405.000000 56.259000 -13.000000 -2.000000 2.000000 125.847922 -29.284942 1578.616284 49.439443 17.778588 0.000000 0.042336
406.000000 65.587000 -11.000000 -2.000000 2.000000 123.849341 -33.487693 1687.051220 75.465877 15.250197 0.000000 0.065897
407.000000 78.208000 -9.000000 -2.000000 2.000000 120.593622 -38.992727 1846.339736 122.245746 12.789849 0.000000 0.112535
408.000000 95.647000 -7.000000 -2.000000 2.000000 114.849777 -46.349152 2103.213749 218.878596 10.458655 0.000000 0.211013
411.000000 45.829000 -16.000000 -1.000000 2.000000 124.477137 -17.721933 1318.943349 165.095068 21.825379 0.000000 0.054767
412.000000 48.754000 -15.000000 -1.000000 2.000000 123.895915 -18.651611 1338.292676 177.788317 20.515890 0.000000 0.053682
413.000000 52.067000 -14.000000 -1.000000 2.000000 123.216668 -19.692384 1360.207736 192.467852 19.210669 0.000000 0.052251
414.000000 55.847000 -13.000000 -1.000000 2.000000 122.413960 -20.864602 1385.235094 209.635515 17.910750 0.000000 0.050359
415.000000 60.194000 -12.000000 -1.000000 2.000000 121.453212 -22.193650 1414.088421 229.976377 16.617532 0.000000 0.047842
416.000000 65.238000 -11.000000 -1.000000 2.000000 120.286391 -23.711492 1447.717649 254.450107 15.332952 0.000000 0.044469
417.000000 71.147000 -10.000000 -1.000000 2.000000 118.845131 -25.458766 1487.415556 284.442662 14.059775 0.000000 0.039937
418.000000 78.139000 -9.000000 -1.000000 2.000000 117.029382 -27.487619 1534.987778 322.030124 12.802085 0.000000 0.033919
419.000000 86.491000 -8.000000 -1.000000 2.000000 114.687987 -29.865522 1593.035136 370.464205 11.566183 0.000000 0.026607
420.000000 96.544000 -7.000000 -1.000000 2.000000 111.584085 -32.680275 1665.445525 435.129823 10.362322 0.000000 0.022335
421.000000 108.650000 -6.000000 -1.000000 2.000000 107.330765 -36.046276 1758.302499 525.607317 9.208387 0.000000 0.035977
422.000000 122.943000 -5.000000 -1.000000 2.000000 101.266181 -40.111402 1881.690048 660.657222 8.138613 0.000000 0.075873
423.000000 138.455000 -4.000000 -1.000000 2.000000 92.203945 -45.062045 2053.627810 882.357941 7.227816 0.000000 0.155895
424.000000 149.913000 -3.000000 -1.000000 2.000000 77.948183 -51.119371 2309.789258 1307.084106 6.676833 0.000000 0.329321
426.000000 47.923000 -15.000000 0.000000 2.000000 119.902018 -12.064918 1205.048300 308.072406 20.873195 0.000000 0.097236
427.000000 51.129000 -14.000000 0.000000 2.000000 119.020671 -12.667278 1216.907585 328.996428 19.564631 0.000000 0.099697
428.000000 54.780000 -13.000000 0.000000 2.000000 117.996594 -13.343278 1230.283734 352.931222 18.260948 0.000000 0.102393
429.000000 58.972000 -12.000000 0.000000 2.000000 116.792918 -14.107071 1245.487653 380.590744 16.963472 0.000000 0.105348
430.000000 63.824000 -11.000000 0.000000 2.000000 115.359185 -14.976617 1262.921444 412.939671 15.674051 0.000000 0.108577
431.000000 69.496000 -10.000000 0.000000 2.000000 113.624615 -15.975012 1283.114494 451.317177 14.395350 0.000000 0.112078
432.000000 76.188000 -9.000000 0.000000 2.000000 111.487039 -17.132422 1306.778159 497.644375 13.131354 0.000000 0.115815
433.000000 84.158000 -8.000000 0.000000 2.000000 108.793964 -18.488906 1334.891312 554.791967 11.888304 0.000000 0.119665
434.000000 93.716000 -7.000000 0.000000 2.000000 105.308659 -20.098656 1368.839140 627.279520 10.676555 0.000000 0.123335
435.000000 105.169000 -6.000000 0.000000 2.000000 100.646191 -22.036476 1410.648374 722.733347 9.514633 0.000000 0.126152
436.000000 118.584000 -5.000000 0.000000 2.000000 94.145773 -24.407884 1463.407334 855.329286 8.439274 0.000000 0.126751
437.000000 132.836000 -4.000000 0.000000 2.000000 84.601973 -27.365069 1532.065738 1055.517341 7.535102 0.000000 0.123701
438.000000 142.004000 -3.000000 0.000000 2.000000 69.686553 -31.132137 1625.085868 1406.456930 7.050358 0.000000 0.134193
440.000000 46.678000 -15.000000 1.000000 2.000000 115.329384 -6.276625 1093.379563 428.490381 21.431710 0.000000 0.128613
441.000000 49.684000 -14.000000 1.000000 2.000000 114.163588 -6.524106 1098.086979 454.968619 20.135406 0.000000 0.132728
442.000000 53.085000 -13.000000 1.000000 2.000000 112.817645 -6.800092 1103.342079 484.969442 18.846197 0.000000 0.137179
443.000000 56.955000 -12.000000 1.000000 2.000000 111.246899 -7.109792 1109.246346 519.276383 17.566060 0.000000 0.141965
444.000000 61.389000 -11.000000 1.000000 2.000000 109.390852 -7.459765 1115.927988 558.936421 16.297783 0.000000 0.147045
445.000000 66.502000 -10.000000 1.000000 2.000000 107.165592 -7.858379 1123.551352 605.387705 15.045425 0.000000 0.152312
446.000000 72.428000 -9.000000 1.000000 2.000000 104.451547 -8.316485 1132.330621 660.674384 13.815138 0.000000 0.157508
447.000000 79.312000 -8.000000 1.000000 2.000000 101.072902 -8.848400 1142.550264 727.831069 12.616715 0.000000 0.162083
448.000000 87.274000 -7.000000 1.000000 2.000000 96.761561 -9.473409 1154.596428 811.627591 11.466742 0.000000 0.164852
449.000000 96.276000 -6.000000 1.000000 2.000000 91.091134 -10.218095 1169.006840 920.170334 10.395737 0.000000 0.163210
450.000000 105.740000 -5.000000 1.000000 2.000000 83.350485 -11.120130 1186.553264 1068.875043 9.466657 0.000000 0.151134
451.000000 113.341000 -4.000000 1.000000 2.000000 72.293574 -12.234646 1208.384386 1292.608080 8.833609 0.000000 0.114447
452.000000 111.271000 -3.000000 1.000000 2.000000 55.657252 -13.645500 1236.287909 1697.735100 9.000374 0.000000 0.077380
454.000000 50.827000 -13.000000 2.000000 2.000000 107.109269 -1.194667 997.444921 609.626011 19.685327 0.000000 0.157586
455.000000 58.070000 -11.000000 2.000000 2.000000 102.736773 -1.129165 996.213977 697.673396 17.231576 0.000000 0.165762
456.000000 67.178000 -9.000000 2.000000 2.000000 96.504291 -1.045889 994.649081 818.269647 14.897074 0.000000 0.170866
457.000000 78.120000 -7.000000 2.000000 2.000000 86.981701 -0.936468 992.593006 997.758473 12.812936 0.000000 0.163331
458.000000 87.724000 -5.000000 2.000000 2.000000 70.965838 -0.786299 989.771450 1312.350767 11.413707 0.000000 0.104724
459.000000 74.087000 -3.000000 2.000000 2.000000 40.519776 -0.567414 985.659150 2200.360033 13.520028 0.000000 0.229186
460.000000 45.498000 -14.000000 3.000000 2.000000 103.217665 3.325821 912.454585 687.780866 21.992909 0.000000 0.163693
461.000000 48.111000 -13.000000 3.000000 2.000000 101.086114 3.574846 907.759672 729.699184 20.799233 0.000000 0.166357
462.000000 50.969000 -12.000000 3.000000 2.000000 98.616480 3.849523 902.578180 777.540325 19.633999 0.000000 0.168328
463.000000 54.077000 -11.000000 3.000000 2.000000 95.724573 4.154014 896.830334 832.821140 18.506531 0.000000 0.169100
464.000000 57.418000 -10.000000 3.000000 2.000000 92.297123 4.493434 890.417907 897.692582 17.430727 0.000000 0.167846
465.000000 60.927000 -9.000000 3.000000 2.000000 88.178919 4.874129 883.218566 975.344514 16.428262 0.000000 0.163168
466.000000 64.437000 -8.000000 3.000000 2.000000 83.153196 5.304075 875.077992 1070.787852 15.534907 0.000000 0.152620
467.000000 67.580000 -7.000000 3.000000 2.000000 76.911598 5.793431 865.798689 1192.516553 14.814208 0.000000 0.131754
468.000000 69.578000 -6.000000 3.000000 2.000000 69.008875 6.355335 855.123759 1356.512927 14.390947 0.000000 0.092197
469.000000 68.836000 -5.000000 3.000000 2.000000 58.798979 7.007077 842.712738 1597.758480 14.548309 0.000000 0.028704
470.000000 62.227000 -4.000000 3.000000 2.000000 45.363647 7.771854 828.104622 2013.570356 16.096097 0.000000 0.156425
471.000000 49.653000 -11.000000 4.000000 2.000000 88.624565 8.559521 813.003502 967.133430 20.158047 0.000000 0.160315
472.000000 54.204000 -9.000000 4.000000 2.000000 79.891962 9.691769 791.184791 1135.651122 18.468943 0.000000 0.139930
473.000000 56.910000 -7.000000 4.000000 2.000000 67.213347 11.098934 763.860254 1401.755317 17.594654 0.000000 0.083656
474.000000 52.020000 -5.000000 4.000000 2.000000 47.843508 12.892452 728.644931 1940.636042 19.253570 0.000000 0.135963
475.000000 46.442000 -10.000000 5.000000 2.000000 77.176851 12.910400 728.290081 1192.339090 21.556474 0.000000 0.128329
476.000000 47.472000 -9.000000 5.000000 2.000000 71.929393 13.636623 713.888667 1302.362805 21.090627 0.000000 0.107634
477.000000 47.820000 -8.000000 5.000000 2.000000 65.705934 14.436566 697.922312 1442.671987 20.939698 0.000000 0.080257
478.000000 46.990000 -7.000000 5.000000 2.000000 58.260268 15.321687 680.121277 1631.299383 21.311825 0.000000 0.067163
485.000000 50.544000 -14.000000 -3.000000 3.000000 121.262854 -37.963813 1814.799074 112.179250 19.789889 0.000000 0.102351
486.000000 53.822000 -13.000000 -3.000000 3.000000 119.858681 -40.072643 1880.445976 133.575835 18.584761 0.000000 0.124036
487.000000 61.557000 -11.000000 -3.000000 3.000000 116.070942 -44.965630 2050.003793 196.729313 16.250294 0.000000 0.188415
488.000000 66.087000 -10.000000 -3.000000 3.000000 113.486384 -47.803887 2162.149033 244.703114 15.136877 0.000000 0.237350
491.000000 47.590000 -15.000000 -2.000000 3.000000 120.237903 -28.888686 1568.869105 224.462224 21.018811 0.000000 0.011680
492.000000 50.604000 -14.000000 -2.000000 3.000000 119.099896 -30.408046 1606.661297 246.397086 19.767342 0.000000 0.007203
493.000000 53.984000 -13.000000 -2.000000 3.000000 117.750487 -32.090590 1649.911840 272.596615 18.530046 0.000000 0.010711
494.000000 57.787000 -12.000000 -2.000000 3.000000 116.132659 -33.960673 1699.895306 304.372822 17.310714 0.000000 0.021608
495.000000 62.078000 -11.000000 -2.000000 3.000000 114.169082 -36.046766 1758.316595 343.614937 16.114621 0.000000 0.037131
496.000000 66.920000 -10.000000 -2.000000 3.000000 111.753092 -38.381979 1827.509290 393.135041 14.949333 0.000000 0.058144
497.000000 72.360000 -9.000000 -2.000000 3.000000 108.734942 -41.004442 1910.754862 457.288286 13.826100 0.000000 0.086945
498.000000 78.395000 -8.000000 -2.000000 3.000000 104.900608 -43.957357 2012.818354 543.154095 12.762407 0.000000 0.127548
499.000000 84.889000 -7.000000 -2.000000 3.000000 99.939033 -47.288361 2140.893641 662.956978 11.786995 0.000000 0.187051
500.000000 91.381000 -6.000000 -2.000000 3.000000 93.392534 -51.047687 2306.376946 839.511824 10.950647 0.000000 0.278853
503.000000 47.168000 -15.000000 -1.000000 3.000000 117.269395 -22.154679 1413.234736 341.985208 21.207916 0.000000 0.068122
504.000000 50.165000 -14.000000 -1.000000 3.000000 116.060610 -23.274492 1437.957624 368.018202 19.941306 0.000000 0.067258
505.000000 53.535000 -13.000000 -1.000000 3.000000 114.645413 -24.517430 1465.891031 398.266195 18.686691 0.000000 0.066112
506.000000 57.339000 -12.000000 -1.000000 3.000000 112.969982 -25.903590 1497.703762 433.852622 17.447368 0.000000 0.064672
507.000000 61.649000 -11.000000 -1.000000 3.000000 110.961257 -27.457300 1534.264246 476.342687 16.227967 0.000000 0.063007
508.000000 66.543000 -10.000000 -1.000000 3.000000 108.518065 -29.208132 1576.721024 527.986038 15.035197 0.000000 0.061425
509.000000 72.089000 -9.000000 -1.000000 3.000000 105.497229 -31.192155 1626.625593 592.140422 13.879159 0.000000 0.060861
510.000000 78.320000 -8.000000 -1.000000 3.000000 101.691302 -33.453425 1686.126111 674.057285 12.775801 0.000000 0.063710
511.000000 85.150000 -7.000000 -1.000000 3.000000 96.792268 -36.045658 1758.284734 782.452887 11.751870 0.000000 0.075022
512.000000 92.188000 -6.000000 -1.000000 3.000000 90.331927 -39.033924 1847.621580 932.972839 10.855903 0.000000 0.103200
513.000000 98.263000 -5.000000 -1.000000 3.000000 81.586362 -42.495882 1961.099692 1156.908739 10.186104 0.000000 0.161750
514.000000 100.354000 -4.000000 -1.000000 3.000000 69.439613 -46.521575 2110.033210 1527.708785 9.975703 0.000000 0.279953
517.000000 47.787000 -14.000000 1.000000 3.000000 107.820196 -10.843719 1181.165387 588.731062 20.937434 0.000000 0.145426
518.000000 50.783000 -13.000000 1.000000 3.000000 105.964934 -11.324058 1190.534834 626.977017 19.702743 0.000000 0.148988
519.000000 54.122000 -12.000000 1.000000 3.000000 103.802616 -11.857370 1200.974551 670.819591 18.488123 0.000000 0.152396
520.000000 57.841000 -11.000000 1.000000 3.000000 101.252887 -12.452820 1212.679032 721.696017 17.300050 0.000000 0.155390
521.000000 61.971000 -10.000000 1.000000 3.000000 98.205870 -13.121784 1225.892934 781.629863 16.148123 0.000000 0.157515
522.000000 66.510000 -9.000000 1.000000 3.000000 94.507987 -13.878552 1240.928367 853.591048 15.047201 0.000000 0.157981
523.000000 71.381000 -8.000000 1.000000 3.000000 89.939385 -14.741299 1258.189860 942.177399 14.021585 0.000000 0.155384
524.000000 76.330000 -7.000000 1.000000 3.000000 84.177335 -15.733475 1278.211301 1055.028395 13.113920 0.000000 0.147208
525.000000 80.693000 -6.000000 1.000000 3.000000 76.736421 -16.885814 1301.712139 1206.134006 12.406553 0.000000 0.129251
526.000000 82.876000 -5.000000 1.000000 3.000000 66.873056 -18.239295 1329.685679 1424.993762 12.081720 0.000000 0.099613
527.000000 79.238000 -4.000000 1.000000 3.000000 53.449820 -19.849622 1363.543081 1789.274030 12.638977 0.000000 0.124409
529.000000 45.916000 -14.000000 2.000000 3.000000 102.923641 -5.634366 1081.183384 692.829284 21.792674 0.000000 0.163270
530.000000 48.573000 -13.000000 2.000000 3.000000 100.749242 -5.827274 1084.843641 735.612562 20.601273 0.000000 0.165976
531.000000 51.480000 -12.000000 2.000000 3.000000 98.226140 -6.040268 1088.887929 784.533680 19.439223 0.000000 0.167970
532.000000 54.639000 -11.000000 2.000000 3.000000 95.266436 -6.276650 1093.380033 841.192792 18.316317 0.000000 0.168726
533.000000 58.030000 -10.000000 2.000000 3.000000 91.751475 -6.540485 1098.398692 907.872908 17.247250 0.000000 0.167377
534.000000 61.577000 -9.000000 2.000000 3.000000 87.518059 -6.836840 1104.042252 987.986254 16.255125 0.000000 0.162454
535.000000 65.093000 -8.000000 2.000000 3.000000 82.337357 -7.172101 1110.435175 1086.948137 15.378468 0.000000 0.151392
536.000000 68.168000 -7.000000 2.000000 3.000000 75.882491 -7.554440 1117.737330 1214.066233 14.686680 0.000000 0.129576
537.000000 69.930000 -6.000000 2.000000 3.000000 67.679680 -7.994479 1126.157539 1387.202870 14.318715 0.000000 0.089114
538.000000 68.597000 -5.000000 2.000000 3.000000 57.040003 -8.506280 1135.973872 1646.648184 14.599334 0.000000 0.046788
539.000000 60.684000 -4.000000 2.000000 3.000000 42.987036 -9.108851 1147.564948 2110.455591 16.505652 0.000000 0.199755
540.000000 45.929000 -13.000000 3.000000 3.000000 95.201294 -1.029762 994.346035 843.009214 21.789954 0.000000 0.170945
541.000000 50.813000 -11.000000 3.000000 3.000000 88.898049 -0.957030 992.979359 961.705454 19.697844 0.000000 0.166381
542.000000 53.341000 -10.000000 3.000000 3.000000 84.894408 -0.914802 992.185899 1037.174843 18.765761 0.000000 0.159101
543.000000 57.772000 -8.000000 3.000000 3.000000 74.328705 -0.815093 990.312463 1242.981495 17.330005 0.000000 0.122276
544.000000 58.869000 -7.000000 3.000000 3.000000 67.226298 -0.755659 989.195791 1392.890574 17.009203 0.000000 0.081569
545.000000 53.733000 -5.000000 3.000000 3.000000 47.203500 -0.610594 986.470376 1937.593892 18.640404 0.000000 0.124333
546.000000 46.593000 -11.000000 4.000000 3.000000 82.392505 3.598371 907.316017 1085.035582 21.484638 0.000000 0.151511
547.000000 48.233000 -10.000000 4.000000 3.000000 77.933647 3.862328 902.336539 1171.600218 20.755816 0.000000 0.136605
548.000000 49.521000 -9.000000 4.000000 3.000000 72.663366 4.153632 896.837543 1277.868229 20.217985 0.000000 0.112822
549.000000 50.123000 -8.000000 4.000000 3.000000 66.368261 4.476749 890.733254 1413.372766 19.977655 0.000000 0.075048
550.000000 49.482000 -7.000000 4.000000 3.000000 58.769662 4.837167 883.917909 1595.938792 20.238621 0.000000 0.020153
551.000000 46.703000 -6.000000 4.000000 3.000000 49.509679 5.241705 876.259584 1863.786697 21.445894 0.000000 0.095476
554.000000 50.469000 -13.000000 -4.000000 4.000000 112.744836 -48.559090 2194.060424 259.251207 19.821458 0.000000 0.252181
556.000000 45.692000 -15.000000 -3.000000 4.000000 115.302366 -37.684809 1806.399007 298.056394 21.893479 0.000000 0.062746
557.000000 48.268000 -14.000000 -3.000000 4.000000 113.614747 -39.462808 1861.055777 331.507007 20.725552 0.000000 0.079930
558.000000 51.078000 -13.000000 -3.000000 4.000000 111.629214 -41.395870 1923.743177 372.093747 19.585845 0.000000 0.101577
559.000000 54.130000 -12.000000 -3.000000 4.000000 109.273246 -43.500177 1996.371435 422.164628 18.482015 0.000000 0.129183
560.000000 57.417000 -11.000000 -3.000000 4.000000 106.452234 -45.793041 2081.508788 485.157560 17.424767 0.000000 0.164984
561.000000 60.898000 -10.000000 -3.000000 4.000000 103.041778 -48.292585 2182.691519 566.283689 16.429533 0.000000 0.212413
562.000000 64.473000 -9.000000 -3.000000 4.000000 98.877317 -51.017172 2304.927511 673.776947 15.519408 0.000000 0.276933
566.000000 45.641000 -15.000000 -2.000000 4.000000 113.250956 -31.211847 1627.131180 400.304391 21.918748 0.000000 0.023376
567.000000 51.161000 -13.000000 -2.000000 4.000000 109.633930 -34.285990 1708.812612 476.278694 19.555041 0.000000 0.026053
568.000000 57.769000 -11.000000 -2.000000 4.000000 104.582524 -37.980726 1815.310350 585.764273 17.319485 0.000000 0.052304
569.000000 65.353000 -9.000000 -2.000000 4.000000 97.215510 -42.462869 1959.959604 756.289642 15.311299 0.000000 0.108964
570.000000 72.693000 -7.000000 -2.000000 4.000000 85.921642 -47.937688 2167.734721 1055.549497 13.767760 0.000000 0.224455
572.000000 47.805000 -14.000000 -1.000000 4.000000 108.789168 -26.180120 1504.138663 532.967107 20.928666 0.000000 0.080447
573.000000 50.671000 -13.000000 -1.000000 4.000000 106.782028 -27.439007 1533.827911 575.272257 19.745474 0.000000 0.080180
574.000000 53.817000 -12.000000 -1.000000 4.000000 104.425940 -28.824389 1567.294546 624.980854 18.591935 0.000000 0.080085
575.000000 57.251000 -11.000000 -1.000000 4.000000 101.630125 -30.354449 1605.308444 684.287447 17.477468 0.000000 0.080589
576.000000 60.957000 -10.000000 -1.000000 4.000000 98.272385 -32.050533 1648.863942 756.374917 16.415955 0.000000 0.082628
577.000000 64.861000 -9.000000 -1.000000 4.000000 94.185817 -33.937697 1699.268079 846.055493 15.428739 0.000000 0.088133
578.000000 68.783000 -8.000000 -1.000000 4.000000 89.139419 -36.045284 1758.273997 960.995151 14.550411 0.000000 0.100781
579.000000 72.316000 -7.000000 -1.000000 4.000000 82.810375 -38.407477 1828.289034 1114.261147 13.840980 0.000000 0.126946
580.000000 74.624000 -6.000000 -1.000000 4.000000 74.747128 -41.063702 1912.711251 1330.253787 13.414475 0.000000 0.177415
581.000000 74.067000 -5.000000 -1.000000 4.000000 64.329614 -44.058677 2016.497554 1660.844586 13.517379 0.000000 0.272956
584.000000 49.595000 -13.000000 0.000000 4.000000 103.157227 -21.020834 1388.599750 671.467636 20.175376 0.000000 0.124915
585.000000 55.827000 -11.000000 0.000000 4.000000 97.683617 -23.159804 1435.406812 783.064912 17.925161 0.000000 0.126848
586.000000 62.892000 -9.000000 0.000000 4.000000 89.863489 -25.801312 1495.331379 943.848291 15.913592 0.000000 0.125639
587.000000 69.424000 -7.000000 0.000000 4.000000 78.031420 -29.129601 1574.786228 1202.191939 14.419375 0.000000 0.123192
588.000000 69.384000 -5.000000 0.000000 4.000000 58.919836 -33.418274 1685.177947 1718.256105 14.431833 0.000000 0.187067
589.000000 47.960000 -13.000000 1.000000 4.000000 98.888988 -15.136029 1266.132676 766.619234 20.865038 0.000000 0.152117
590.000000 50.662000 -12.000000 1.000000 4.000000 96.140168 -15.814599 1279.856811 820.659017 19.753239 0.000000 0.152870
591.000000 53.540000 -11.000000 1.000000 4.000000 92.914095 -16.563981 1295.120662 883.839797 18.692670 0.000000 0.152261
592.000000 56.538000 -10.000000 1.000000 4.000000 89.083624 -17.395567 1312.198737 959.040601 17.702958 0.000000 0.149496
593.000000 59.528000 -9.000000 1.000000 4.000000 84.476201 -18.323252 1331.434925 1050.645841 16.815217 0.000000 0.143382
594.000000 62.248000 -8.000000 1.000000 4.000000 78.854413 -19.364132 1353.265891 1165.764848 16.081905 0.000000 0.132349
595.000000 64.184000 -7.000000 1.000000 4.000000 71.888266 -20.539441 1378.254619 1316.928630 15.598906 0.000000 0.115774
596.000000 64.344000 -6.000000 1.000000 4.000000 63.118343 -21.875805 1407.139661 1528.937271 15.562203 0.000000 0.104750
597.000000 60.900000 -5.000000 1.000000 4.000000 51.916273 -23.406960 1440.909356 1860.061951 16.444623 0.000000 0.158110
599.000000 45.830000 -13.000000 2.000000 4.000000 94.131897 -9.828755 1161.464636 862.089769 21.837111 0.000000 0.164842
600.000000 50.515000 -11.000000 2.000000 4.000000 87.540723 -10.646507 1177.327371 988.035292 19.814427 0.000000 0.159092
601.000000 55.029000 -9.000000 2.000000 4.000000 78.346399 -11.646441 1196.840792 1167.647235 18.192234 0.000000 0.137246
602.000000 57.215000 -7.000000 2.000000 4.000000 64.873524 -12.896194 1221.429044 1458.841731 17.501485 0.000000 0.081666
603.000000 50.194000 -5.000000 2.000000 4.000000 44.084045 -14.500954 1253.367740 2088.834585 19.954871 0.000000 0.199460
604.000000 46.931000 -11.000000 3.000000 4.000000 81.793614 -5.414724 1077.018821 1096.914566 21.329985 0.000000 0.150566
605.000000 48.549000 -10.000000 3.000000 4.000000 77.226439 -5.598001 1080.493668 1186.175107 20.621219 0.000000 0.135153
606.000000 49.776000 -9.000000 3.000000 4.000000 71.818056 -5.800504 1084.335559 1296.311005 20.114794 0.000000 0.110693
607.000000 50.251000 -8.000000 3.000000 4.000000 65.344987 -6.025420 1088.605891 1437.760957 19.927004 0.000000 0.072879
608.000000 49.372000 -7.000000 3.000000 4.000000 57.515278 -6.276678 1093.380566 1630.404281 20.284378 0.000000 0.035344
609.000000 46.167000 -6.000000 3.000000 4.000000 47.954702 -6.559182 1098.754538 1918.036902 21.694868 0.000000 0.122263
612.000000 47.427000 -13.000000 -4.000000 5.000000 104.710455 -48.863928 2207.212422 511.463429 21.095720 0.000000 0.229490
613.000000 49.649000 -12.000000 -4.000000 5.000000 101.673502 -51.000271 2304.125601 587.647279 20.152453 0.000000 0.279738
617.000000 45.622000 -14.000000 -3.000000 5.000000 106.056234 -40.666251 1899.656690 532.617037 21.930118 0.000000 0.078509
618.000000 47.909000 -13.000000 -3.000000 5.000000 103.537140 -42.446492 1959.394447 589.826945 20.884290 0.000000 0.102266
619.000000 50.296000 -12.000000 -3.000000 5.000000 100.590938 -44.365294 2027.708831 659.495127 19.893648 0.000000 0.132250
620.000000 52.733000 -11.000000 -3.000000 5.000000 97.119417 -46.434647 2106.589722 745.942600 18.975454 0.000000 0.170773
621.000000 55.120000 -10.000000 -3.000000 5.000000 92.997591 -48.666913 2198.694168 855.661135 18.155013 0.000000 0.221322
622.000000 57.282000 -9.000000 -3.000000 5.000000 88.066612 -51.074490 2307.651568 998.825415 17.470960 0.000000 0.289363
626.000000 45.564000 -14.000000 -2.000000 5.000000 104.119778 -34.523444 1715.365146 612.388161 21.959188 0.000000 0.049358
627.000000 47.904000 -13.000000 -2.000000 5.000000 101.616330 -36.045923 1758.292367 667.359056 20.887433 0.000000 0.056694
628.000000 50.366000 -12.000000 -2.000000 5.000000 98.693463 -37.696985 1806.764287 733.013506 19.867462 0.000000 0.069169
629.000000 52.902000 -11.000000 -2.000000 5.000000 95.251928 -39.490516 1861.929348 812.802198 18.916008 0.000000 0.088200
630.000000 55.419000 -10.000000 -2.000000 5.000000 91.163437 -41.441777 1925.276673 911.841522 18.057887 0.000000 0.115734
631.000000 57.746000 -9.000000 -2.000000 5.000000 86.261670 -43.567356 1998.772514 1038.056765 17.331537 0.000000 0.154906
632.000000 59.579000 -8.000000 -2.000000 5.000000 80.331541 -45.885003 2085.067984 1204.416753 16.799870 0.000000 0.211058
633.000000 60.400000 -7.000000 -2.000000 5.000000 73.098458 -48.413284 2187.825681 1433.705780 16.573417 0.000000 0.293727
637.000000 47.373000 -13.000000 -1.000000 5.000000 98.963072 -29.817431 1591.834453 745.340163 21.123088 0.000000 0.091900
638.000000 49.798000 -12.000000 -1.000000 5.000000 95.986322 -31.172308 1626.116208 809.090941 20.095291 0.000000 0.093464
639.000000 52.296000 -11.000000 -1.000000 5.000000 92.490138 -32.651134 1664.673094 885.408523 19.136605 0.000000 0.096850
640.000000 54.771000 -10.000000 -1.000000 5.000000 88.344066 -34.269466 1708.357993 978.651545 18.273016 0.000000 0.103866
641.000000 57.047000 -9.000000 -1.000000 5.000000 83.377053 -36.045034 1758.266807 1095.557672 17.545410 0.000000 0.117711
642.000000 58.807000 -8.000000 -1.000000 5.000000 77.364536 -37.997964 1815.831666 1247.180023 17.022028 0.000000 0.143737
643.000000 59.499000 -7.000000 -1.000000 5.000000 70.013944 -40.150939 1882.960579 1453.125683 16.825947 0.000000 0.190709
644.000000 58.199000 -6.000000 -1.000000 5.000000 60.953489 -42.529242 1962.253002 1752.122289 17.204006 0.000000 0.274143
646.000000 46.743000 -12.000000 1.000000 5.000000 88.448814 -19.133967 1348.415028 971.850289 21.412568 0.000000 0.145194
647.000000 48.730000 -11.000000 1.000000 5.000000 84.605431 -19.975070 1366.208817 1049.142535 20.540818 0.000000 0.140392
648.000000 50.569000 -10.000000 1.000000 5.000000 80.082765 -20.898470 1385.963878 1142.428220 19.795668 0.000000 0.132764
649.000000 52.043000 -9.000000 1.000000 5.000000 74.706612 -21.916307 1408.023389 1258.233759 19.236781 0.000000 0.122206
650.000000 52.785000 -8.000000 1.000000 5.000000 68.248991 -23.043096 1432.815549 1407.653832 18.968290 0.000000 0.112066
651.000000 52.182000 -7.000000 1.000000 5.000000 60.413693 -24.296292 1460.881651 1611.463041 19.189730 0.000000 0.119384
652.000000 49.243000 -6.000000 1.000000 5.000000 50.825169 -25.697000 1492.916055 1914.274286 20.337750 0.000000 0.183127
653.000000 45.926000 -11.000000 2.000000 5.000000 79.781462 -14.361850 1250.581653 1141.274309 21.797541 0.000000 0.139488
654.000000 47.229000 -10.000000 2.000000 5.000000 74.987731 -14.975991 1262.908840 1239.787774 21.197867 0.000000 0.124669
655.000000 48.041000 -9.000000 2.000000 5.000000 69.325174 -15.651730 1276.554524 1362.797915 20.841868 0.000000 0.104120
656.000000 47.972000 -8.000000 2.000000 5.000000 62.573961 -16.398607 1291.742195 1523.202166 20.874014 0.000000 0.084067
657.000000 46.406000 -7.000000 2.000000 5.000000 54.454729 -17.228179 1308.748874 1746.120545 21.581101 0.000000 0.102941
661.000000 47.748000 -11.000000 -3.000000 6.000000 88.180308 -46.946597 2127.029664 991.088181 20.959948 0.000000 0.198495
662.000000 49.091000 -10.000000 -3.000000 6.000000 83.476192 -48.962790 2211.512171 1128.467029 20.387730 0.000000 0.254336
665.000000 47.736000 -11.000000 -2.000000 6.000000 86.303559 -40.700335 1900.770090 1032.717313 20.966229 0.000000 0.127455
666.000000 50.059000 -9.000000 -2.000000 6.000000 76.027259 -44.432211 2030.171227 1316.037502 19.996424 0.000000 0.210255
669.000000 47.052000 -11.000000 -1.000000 6.000000 83.690902 -34.510954 1715.019582 1085.410687 21.272595 0.000000 0.115181
670.000000 48.369000 -10.000000 -1.000000 6.000000 78.902552 -36.044854 1758.261655 1202.095829 20.694939 0.000000 0.130261
671.000000 49.192000 -9.000000 -1.000000 6.000000 73.257013 -37.709360 1807.135657 1350.271250 20.350801 0.000000 0.156764
672.000000 49.157000 -8.000000 -1.000000 6.000000 66.557168 -39.518694 1862.818499 1546.003122 20.367267 0.000000 0.201876
673.000000 47.717000 -7.000000 -1.000000 6.000000 58.565761 -41.488496 1926.839566 1819.208320 20.984082 0.000000 0.277443
674.000000 45.682000 -11.000000 0.000000 6.000000 80.392471 -28.516973 1559.793005 1148.342746 21.912607 0.000000 0.122856
675.000000 46.782000 -10.000000 0.000000 6.000000 75.474737 -29.768605 1590.616605 1262.247574 21.399006 0.000000 0.124636
676.000000 46.960000 -8.000000 0.000000 6.000000 62.826465 -32.621505 1663.888233 1596.994951 21.321894 0.000000 0.161738
#UB matrix in q= (UB) B0 G* 
#[[ 0.911311015  0.285815661  0.295701352]
# [ 0.012521804  0.699915374 -0.715127578]
# [-0.411528174  0.655787835  0.634616536]]
#B0 matrix in q= UB (B0) G*
#[[ 0.19670273 -0.          0.03056101]
# [ 0.          0.19187965 -0.        ]
# [ 0.          0.          0.18806537]]
#UBB0 matrix in q= (UB B0) G* i.e. recip. basis vectors are columns in LT frame: astar = UBB0[:,0], bstar = UBB0[:,1], cstar = UBB0[:,2]. (abcstar as columns on xyzlab1, xlab1 = ui, ui = unit vector along incident beam)
#[[ 0.17925737  0.05484221  0.08346177]
# [ 0.00246307  0.13429952 -0.13410805]
# [-0.08094872  0.12583234  0.10677268]]
#Euler angles phi theta psi (deg)
#[212.141  50.673 157.501]
#deviatoric strain in direct crystal frame (10-3 unit)
#[[-4.3   0.33  0.81]
# [ 0.33 -4.99 -0.05]
# [ 0.81 -0.05  9.29]]
#deviatoric strain in sample2 frame (10-3 unit)
#[[ 1.47 -6.61  1.88]
# [-6.61  2.35 -2.7 ]
# [ 1.88 -2.71 -3.81]]
#new lattice parameters
#[ 5.1505     5.2079912  5.3137372 90.0091917 99.1870466 89.9621366]
#CCDLabel
#sCMOS
#DetectorParameters
#[79.0, 975.0, 941.0, 0.0, 0.0]
#pixelsize
#0.0734
#Frame dimensions
#[2018, 2016]
#
