#Strain and Orientation Refinement from experimental file: /home/micha/LaueProjects/DepthEffects/testZrO2_57.cor
#File created at Wed Jun 28 14:21:58 2023 with indexingSpotsSet.py
#Number of indexed spots: 539
#Element
#ZrO2
#grainIndex
#G_0
#Mean Deviation(pixel): 0.114
##spot_index intensity h k l 2theta Chi Xexp Yexp Energy GrainIndex PixDev
15.000000 131.069000 -3.000000 3.000000 1.000000 84.116113 47.094230 -182.996713 1103.924753 7.633850 0.000000 0.213731
16.000000 133.288000 -2.000000 3.000000 1.000000 71.360879 34.298681 240.838123 1380.446060 7.508891 0.000000 0.137690
17.000000 110.956000 -1.000000 3.000000 1.000000 51.174579 20.448906 573.683651 1865.401280 9.023542 0.000000 0.143814
19.000000 94.381000 -4.000000 4.000000 1.000000 79.570409 50.272514 -320.138059 1250.967425 10.601935 0.000000 0.296568
20.000000 96.251000 -3.000000 4.000000 1.000000 70.576760 41.255595 30.929292 1445.823392 10.398012 0.000000 0.194921
21.000000 89.358000 -2.000000 4.000000 1.000000 57.584307 31.301264 320.570310 1740.874543 11.202924 0.000000 0.171319
25.000000 74.654000 -4.000000 5.000000 1.000000 69.775242 45.183794 -108.221627 1503.581834 13.405990 0.000000 0.250644
26.000000 72.011000 -3.000000 5.000000 1.000000 60.372858 37.588716 146.479458 1713.447341 13.900524 0.000000 0.211486
27.000000 63.174000 -2.000000 5.000000 1.000000 48.203595 29.496137 366.157776 2046.479001 15.848100 0.000000 0.234004
31.000000 60.761000 -5.000000 6.000000 1.000000 69.127790 47.685525 -207.231825 1550.624450 16.471240 0.000000 0.297780
32.000000 59.598000 -4.000000 6.000000 1.000000 61.805831 41.600591 19.401376 1712.556133 16.794982 0.000000 0.248984
33.000000 55.267000 -3.000000 6.000000 1.000000 52.619548 35.090778 218.826496 1945.968146 18.114109 0.000000 0.242359
38.000000 50.590000 -5.000000 7.000000 1.000000 62.636734 44.358034 -77.442009 1720.069257 19.785135 0.000000 0.282884
39.000000 48.240000 -4.000000 7.000000 1.000000 55.333847 38.959873 104.681438 1898.219800 20.751727 0.000000 0.262909
40.000000 185.795000 -3.000000 2.000000 2.000000 120.555861 37.951215 135.581577 135.201532 5.382095 0.000000 0.102362
41.000000 196.295000 -1.000000 2.000000 2.000000 84.801488 -2.887637 1029.289884 1039.046758 5.097873 0.000000 0.154033
42.000000 128.598000 0.000000 2.000000 2.000000 51.073931 -17.393547 1312.157071 1851.921643 7.785718 0.000000 0.139480
43.000000 129.519000 -4.000000 3.000000 2.000000 106.767521 45.864089 -134.257530 475.313416 7.722224 0.000000 0.169987
44.000000 141.862000 -3.000000 3.000000 2.000000 99.441266 32.660595 285.076188 728.409816 7.051515 0.000000 0.070223
45.000000 144.191000 -2.000000 3.000000 2.000000 86.092121 18.535965 614.125584 1018.545824 6.939680 0.000000 0.137695
46.000000 125.044000 -1.000000 3.000000 2.000000 65.807827 5.085665 879.214712 1426.440168 8.005524 0.000000 0.065283
47.000000 81.307000 0.000000 3.000000 2.000000 40.720423 -6.484875 1097.340447 2199.457685 12.315810 0.000000 0.253863
48.000000 96.916000 -5.000000 4.000000 2.000000 98.133737 49.445431 -282.751041 704.407224 10.321399 0.000000 0.236088
49.000000 103.871000 -4.000000 4.000000 2.000000 92.428312 40.194666 65.632556 881.246748 9.631585 0.000000 0.100626
50.000000 106.801000 -3.000000 4.000000 2.000000 83.433159 30.027379 352.915260 1084.107265 9.369299 0.000000 0.111851
51.000000 101.353000 -2.000000 4.000000 2.000000 70.356583 19.499475 593.875311 1348.545350 9.875680 0.000000 0.101176
52.000000 83.531000 -1.000000 4.000000 2.000000 53.241260 9.293226 798.880705 1755.655323 11.986324 0.000000 0.073356
54.000000 76.512000 -6.000000 5.000000 2.000000 92.359204 51.471898 -376.725991 869.812761 13.075115 0.000000 0.290110
55.000000 80.721000 -5.000000 5.000000 2.000000 87.578637 44.418867 -79.679746 1004.720816 12.394782 0.000000 0.160097
56.000000 82.919000 -4.000000 5.000000 2.000000 80.754331 36.677304 173.417991 1159.453170 12.067958 0.000000 0.122162
57.000000 81.272000 -3.000000 5.000000 2.000000 71.398842 28.457681 391.648790 1353.022185 12.315126 0.000000 0.116331
58.000000 73.674000 -2.000000 5.000000 2.000000 59.267983 20.070837 581.753298 1622.243061 13.588256 0.000000 0.091550
59.000000 58.961000 -1.000000 5.000000 2.000000 44.650213 11.866834 748.839837 2054.310022 16.982700 0.000000 0.190586
61.000000 67.106000 -5.000000 6.000000 2.000000 78.583123 40.906312 42.477093 1228.581777 14.912091 0.000000 0.156178
62.000000 63.078000 -3.000000 6.000000 2.000000 62.229785 27.416892 416.699408 1579.463153 15.869515 0.000000 0.124067
65.000000 54.943000 -7.000000 7.000000 2.000000 81.545435 48.933233 -260.224860 1184.524937 18.211541 0.000000 0.258833
66.000000 56.081000 -6.000000 7.000000 2.000000 76.874154 43.803705 -57.262722 1288.745596 17.843757 0.000000 0.194807
67.000000 56.026000 -5.000000 7.000000 2.000000 71.004725 38.331059 124.046267 1413.309460 17.863641 0.000000 0.165347
68.000000 54.200000 -4.000000 7.000000 2.000000 63.773708 32.588261 286.991749 1570.289686 18.467964 0.000000 0.151312
69.000000 50.022000 -3.000000 7.000000 2.000000 55.102745 26.676681 434.229115 1781.191498 20.013783 0.000000 0.152153
71.000000 48.037000 -7.000000 8.000000 2.000000 75.519063 45.903010 -135.766290 1340.449008 20.832176 0.000000 0.231235
72.000000 47.125000 -5.000000 8.000000 2.000000 64.625102 36.369398 182.374397 1574.976185 21.240028 0.000000 0.176781
73.000000 148.943000 0.000000 1.000000 3.000000 67.651012 -46.672547 2116.039880 1585.880704 6.719560 0.000000 0.303172
76.000000 172.697000 -3.000000 2.000000 3.000000 129.536730 13.517085 716.265133 27.302872 5.789665 0.000000 0.040658
77.000000 180.792000 -2.000000 2.000000 3.000000 113.464389 -5.759956 1083.566059 471.438357 5.531931 0.000000 0.132618
78.000000 163.565000 -1.000000 2.000000 3.000000 88.846968 -19.715986 1360.707963 964.011506 6.117302 0.000000 0.137394
79.000000 116.632000 0.000000 2.000000 3.000000 59.699885 -29.229911 1577.258139 1661.708228 8.583004 0.000000 0.153397
82.000000 129.863000 -4.000000 3.000000 3.000000 117.922392 30.948897 329.603005 275.900142 7.700577 0.000000 0.007458
83.000000 138.563000 -3.000000 3.000000 3.000000 108.974180 16.567715 654.802990 554.915709 7.218379 0.000000 0.121253
84.000000 137.393000 -2.000000 3.000000 3.000000 94.272153 3.104518 916.624857 860.480906 7.282015 0.000000 0.166344
85.000000 119.711000 -1.000000 3.000000 3.000000 74.192021 -8.296703 1131.951105 1248.945397 8.360843 0.000000 0.115216
87.000000 92.532000 -6.000000 4.000000 3.000000 112.134170 48.584461 -245.148992 279.207757 10.807943 0.000000 0.251735
88.000000 100.384000 -5.000000 4.000000 3.000000 108.581548 39.093690 100.516181 474.797423 9.963343 0.000000 0.064088
89.000000 106.612000 -4.000000 4.000000 3.000000 102.395402 28.713619 385.413537 671.285678 9.382594 0.000000 0.081512
90.000000 108.649000 -3.000000 4.000000 3.000000 92.780462 18.049004 624.272780 886.023008 9.208600 0.000000 0.142251
91.000000 103.066000 -2.000000 4.000000 3.000000 79.339324 7.807683 827.418989 1145.498728 9.710196 0.000000 0.135682
92.000000 87.355000 -1.000000 4.000000 3.000000 62.519391 -1.453224 1002.304497 1501.000573 11.460071 0.000000 0.038525
93.000000 62.846000 0.000000 4.000000 3.000000 43.775935 -9.465463 1154.443019 2079.798176 15.933122 0.000000 0.207394
95.000000 75.215000 -7.000000 5.000000 3.000000 104.877121 50.833918 -346.263352 488.287854 13.297775 0.000000 0.282577
96.000000 80.350000 -6.000000 5.000000 3.000000 101.683532 43.629953 -51.014637 633.506539 12.448897 0.000000 0.122434
97.000000 84.590000 -5.000000 5.000000 3.000000 96.807556 35.739998 200.464209 782.704959 11.826227 0.000000 0.071238
98.000000 86.756000 -4.000000 5.000000 3.000000 89.769691 27.394434 417.234672 945.872787 11.532758 0.000000 0.113203
99.000000 85.205000 -3.000000 5.000000 3.000000 80.193598 18.923044 606.018425 1137.660683 11.745181 0.000000 0.127501
100.000000 78.238000 -2.000000 5.000000 3.000000 68.006583 10.685882 771.906750 1383.378775 12.794198 0.000000 0.083383
101.000000 65.103000 -1.000000 5.000000 3.000000 53.633446 2.987641 918.826609 1734.621903 15.379046 0.000000 0.053987
102.000000 47.059000 0.000000 5.000000 3.000000 38.023223 -3.978473 1049.855471 2320.768494 21.279161 0.000000 0.301182
104.000000 66.317000 -7.000000 6.000000 3.000000 96.536256 46.487249 -158.672113 761.892747 15.084417 0.000000 0.173406
105.000000 71.010000 -5.000000 6.000000 3.000000 86.855647 33.488713 262.921237 1011.894543 14.090519 0.000000 0.102426
106.000000 70.771000 -4.000000 6.000000 3.000000 79.550360 26.524806 437.797533 1162.853023 14.140437 0.000000 0.116847
107.000000 60.628000 -2.000000 6.000000 3.000000 59.336184 12.619702 734.031113 1594.935751 16.512712 0.000000 0.054598
108.000000 49.856000 -1.000000 6.000000 3.000000 46.848861 6.068116 860.583073 1955.667000 20.083814 0.000000 0.147152
111.000000 56.122000 -8.000000 7.000000 3.000000 92.596032 48.443175 -239.100896 867.436092 17.825703 0.000000 0.217033
112.000000 58.208000 -7.000000 7.000000 3.000000 89.008721 43.237160 -37.022020 966.562508 17.188324 0.000000 0.140457
113.000000 59.569000 -6.000000 7.000000 3.000000 84.368651 37.689280 143.466884 1075.109772 16.797185 0.000000 0.114866
114.000000 59.751000 -5.000000 7.000000 3.000000 78.491722 31.877567 305.650344 1199.057024 16.748350 0.000000 0.116507
115.000000 58.207000 -4.000000 7.000000 3.000000 71.238352 25.908648 452.178802 1347.448057 17.195323 0.000000 0.111050
116.000000 54.407000 -3.000000 7.000000 3.000000 62.565830 19.908111 585.214581 1535.223383 18.399524 0.000000 0.086996
117.000000 48.031000 -2.000000 7.000000 3.000000 52.582692 14.005532 706.539307 1789.632238 20.845340 0.000000 0.098421
119.000000 48.462000 -9.000000 8.000000 3.000000 89.501204 49.863104 -301.471314 955.535883 20.644369 0.000000 0.254328
120.000000 49.992000 -8.000000 8.000000 3.000000 86.300097 45.435723 -117.790033 1040.184999 20.013922 0.000000 0.178931
121.000000 51.040000 -7.000000 8.000000 3.000000 82.307077 40.730046 48.258467 1132.853792 19.604586 0.000000 0.140203
122.000000 51.340000 -6.000000 8.000000 3.000000 77.393775 35.787922 199.096928 1237.729385 19.492257 0.000000 0.128243
123.000000 50.569000 -5.000000 8.000000 3.000000 71.450883 30.669272 336.723687 1360.879524 19.792054 0.000000 0.122503
124.000000 48.387000 -4.000000 8.000000 3.000000 64.414575 25.449336 462.801703 1511.716329 20.687413 0.000000 0.109867
126.000000 173.262000 -2.000000 1.000000 4.000000 124.067068 -42.306490 1954.575329 -43.111141 5.771040 0.000000 0.198210
127.000000 155.349000 -1.000000 1.000000 4.000000 97.359635 -48.358871 2185.508112 731.785530 6.439203 0.000000 0.218431
130.000000 141.714000 -4.000000 2.000000 4.000000 141.480780 10.358498 778.268803 -433.558671 7.054346 0.000000 0.039921
131.000000 151.254000 -3.000000 2.000000 4.000000 129.700327 -8.624932 1138.253291 37.212156 6.610436 0.000000 0.049203
132.000000 150.380000 -2.000000 2.000000 4.000000 111.542796 -21.987650 1409.581274 482.778545 6.650765 0.000000 0.088726
133.000000 133.055000 -1.000000 2.000000 4.000000 88.726979 -30.988672 1621.413256 968.899614 7.519752 0.000000 0.103718
134.000000 100.195000 0.000000 2.000000 4.000000 64.004665 -37.180846 1791.384856 1599.735088 9.989941 0.000000 0.196282
137.000000 114.375000 -5.000000 3.000000 4.000000 130.377604 29.161776 374.421412 -107.125762 8.741742 0.000000 0.079553
138.000000 123.078000 -4.000000 3.000000 4.000000 123.966323 14.546566 695.717934 191.938367 8.124471 0.000000 0.064987
139.000000 127.325000 -3.000000 3.000000 4.000000 112.990510 1.105427 954.232117 484.265560 7.854988 0.000000 0.137540
140.000000 123.034000 -2.000000 3.000000 4.000000 97.427494 -10.100551 1166.727895 798.479719 8.131344 0.000000 0.159012
141.000000 107.182000 -1.000000 3.000000 4.000000 78.286592 -18.947196 1344.488666 1176.935948 9.337201 0.000000 0.123819
142.000000 81.220000 0.000000 3.000000 4.000000 57.480214 -25.803743 1495.387723 1703.196021 12.325794 0.000000 0.141480
145.000000 99.433000 -5.000000 4.000000 4.000000 116.180043 27.359527 418.066235 345.219234 10.057612 0.000000 0.033624
146.000000 104.267000 -3.000000 4.000000 4.000000 98.500221 6.305440 856.072561 779.163482 9.594716 0.000000 0.163279
147.000000 84.358000 -1.000000 4.000000 4.000000 68.569274 -10.780660 1179.937619 1371.051305 11.865827 0.000000 0.087896
149.000000 76.812000 -7.000000 5.000000 4.000000 112.814080 42.816219 -22.225498 323.794041 13.019878 0.000000 0.134400
150.000000 81.520000 -6.000000 5.000000 4.000000 109.312583 34.776203 227.618760 481.802745 12.268911 0.000000 0.025821
151.000000 85.155000 -5.000000 5.000000 4.000000 103.984123 26.306258 442.915952 642.001609 11.746488 0.000000 0.090493
152.000000 86.651000 -4.000000 5.000000 4.000000 96.455831 17.755182 630.368175 813.121056 11.545654 0.000000 0.141458
153.000000 84.672000 -3.000000 5.000000 4.000000 86.529841 9.491760 795.049222 1007.172286 11.817898 0.000000 0.152964
154.000000 78.027000 -2.000000 5.000000 4.000000 74.321353 1.816237 940.870774 1243.251769 12.827575 0.000000 0.116225
155.000000 66.383000 -1.000000 5.000000 4.000000 60.342671 -5.091570 1070.897091 1556.273298 15.081088 0.000000 0.030791
156.000000 50.864000 0.000000 5.000000 4.000000 45.449335 -11.171859 1187.562703 2021.009591 19.686153 0.000000 0.185851
158.000000 68.163000 -7.000000 6.000000 4.000000 103.733931 39.465221 88.868180 600.269395 14.674251 0.000000 0.067252
159.000000 72.489000 -5.000000 6.000000 4.000000 93.627539 25.615835 458.960386 865.328389 13.801690 0.000000 0.115854
160.000000 68.960000 -3.000000 6.000000 4.000000 76.770503 11.632097 753.440099 1199.332712 14.513181 0.000000 0.124238
161.000000 52.809000 -1.000000 6.000000 4.000000 53.593875 -0.975789 993.331849 1734.805301 18.959558 0.000000 0.054347
164.000000 55.584000 -9.000000 7.000000 4.000000 101.984029 47.941844 -217.908686 599.956362 17.995225 0.000000 0.204440
165.000000 58.089000 -8.000000 7.000000 4.000000 99.254596 42.658105 -16.719621 702.528653 17.220325 0.000000 0.109427
166.000000 60.180000 -7.000000 7.000000 4.000000 95.607505 37.034297 162.943530 808.622181 16.623541 0.000000 0.076102
167.000000 61.527000 -6.000000 7.000000 4.000000 90.862763 31.153744 324.360037 922.060468 16.261304 0.000000 0.099055
168.000000 61.704000 -5.000000 7.000000 4.000000 84.862232 25.128441 470.175270 1047.887951 16.216697 0.000000 0.121415
169.000000 60.226000 -4.000000 7.000000 4.000000 77.507256 19.088253 602.546808 1193.340386 16.617297 0.000000 0.121151
170.000000 56.650000 -3.000000 7.000000 4.000000 68.802978 13.164953 723.251920 1369.668785 17.669563 0.000000 0.089523
171.000000 50.740000 -2.000000 7.000000 4.000000 58.896217 7.475685 833.767823 1595.925902 19.730955 0.000000 0.030950
173.000000 50.341000 -9.000000 8.000000 4.000000 95.630320 44.959262 -99.764832 791.049137 19.871715 0.000000 0.147952
174.000000 53.041000 -7.000000 8.000000 4.000000 88.401927 35.196342 215.860815 977.745065 18.863521 0.000000 0.097930
175.000000 52.714000 -5.000000 8.000000 4.000000 77.431080 24.766048 478.455961 1205.273682 18.985143 0.000000 0.116527
176.000000 47.051000 -3.000000 8.000000 4.000000 62.248269 14.315302 700.349888 1525.454805 21.276381 0.000000 0.065035
177.000000 45.493000 -9.000000 9.000000 4.000000 89.788283 42.571788 -13.725695 946.400496 21.992062 0.000000 0.130431
178.000000 46.388000 -8.000000 9.000000 4.000000 86.276600 38.249224 126.541642 1030.188838 21.569507 0.000000 0.110878
179.000000 46.781000 -7.000000 9.000000 4.000000 82.037002 33.760705 255.552234 1122.093036 21.390046 0.000000 0.112426
180.000000 46.483000 -6.000000 9.000000 4.000000 76.994752 29.154166 374.608871 1225.647335 21.529888 0.000000 0.115729
187.000000 126.495000 -4.000000 2.000000 5.000000 139.708439 -11.468391 1193.356268 -354.364195 7.903230 0.000000 0.035181
188.000000 129.751000 -3.000000 2.000000 5.000000 125.590659 -24.203295 1458.780226 96.477930 7.706342 0.000000 0.022681
189.000000 124.818000 -2.000000 2.000000 5.000000 107.715768 -32.694782 1665.830225 532.454295 8.013144 0.000000 0.037236
190.000000 109.635000 -1.000000 2.000000 5.000000 87.395639 -38.523871 1831.855516 1003.576104 9.126019 0.000000 0.110853
191.000000 85.912000 0.000000 2.000000 5.000000 66.315392 -42.693506 1967.949936 1583.341258 11.649935 0.000000 0.246941
194.000000 107.646000 -5.000000 3.000000 5.000000 134.192118 12.475581 736.872501 -130.666414 9.287792 0.000000 0.028807
195.000000 112.801000 -4.000000 3.000000 5.000000 125.573206 -0.906933 992.038052 171.113592 8.864463 0.000000 0.080456
196.000000 113.580000 -3.000000 3.000000 5.000000 113.247066 -11.892927 1201.672016 468.510511 8.805501 0.000000 0.121769
197.000000 107.667000 -2.000000 3.000000 5.000000 97.725884 -20.479127 1376.963084 785.133345 9.291657 0.000000 0.131380
198.000000 93.991000 -1.000000 3.000000 5.000000 80.010669 -27.097636 1525.711562 1153.948041 10.646927 0.000000 0.117146
199.000000 74.064000 0.000000 3.000000 5.000000 61.460694 -32.228316 1653.521771 1632.944594 13.515496 0.000000 0.166829
202.000000 84.671000 -7.000000 4.000000 5.000000 129.595142 36.765813 170.830168 -170.280691 11.808494 0.000000 0.155109
203.000000 90.533000 -6.000000 4.000000 5.000000 126.365450 25.964801 450.874458 59.514417 11.044542 0.000000 0.031080
204.000000 95.347000 -5.000000 4.000000 5.000000 120.761023 15.056657 685.466815 277.617496 10.487963 0.000000 0.079234
205.000000 97.904000 -4.000000 4.000000 5.000000 112.417850 4.788313 884.842121 495.436131 10.215582 0.000000 0.137162
206.000000 96.676000 -3.000000 4.000000 5.000000 101.275948 -4.323815 1056.376880 725.792483 10.347523 0.000000 0.162789
207.000000 90.287000 -2.000000 4.000000 5.000000 87.659491 -12.089029 1205.521950 985.988332 11.082705 0.000000 0.151750
208.000000 78.341000 -1.000000 4.000000 5.000000 72.286027 -18.560750 1336.392414 1303.640693 12.776133 0.000000 0.107726
209.000000 62.069000 0.000000 4.000000 5.000000 56.156487 -23.909128 1452.153134 1730.443122 16.129348 0.000000 0.136826
211.000000 72.039000 -8.000000 5.000000 5.000000 121.661262 41.976819 6.688476 48.190982 13.880605 0.000000 0.172405
212.000000 76.521000 -7.000000 5.000000 5.000000 119.104591 33.785348 254.882296 220.086252 13.068288 0.000000 0.041965
213.000000 80.442000 -6.000000 5.000000 5.000000 114.984241 25.193078 468.693164 386.755522 12.432349 0.000000 0.054719
214.000000 83.717000 -4.000000 5.000000 5.000000 100.863130 8.285301 818.267624 732.278106 11.949373 0.000000 0.158705
215.000000 81.195000 -3.000000 5.000000 5.000000 90.638905 0.639684 962.983118 928.997005 12.323069 0.000000 0.164484
216.000000 74.834000 -2.000000 5.000000 5.000000 78.551699 -6.204066 1092.000258 1160.247431 13.373720 0.000000 0.133903
217.000000 64.601000 -1.000000 5.000000 5.000000 65.123828 -12.201980 1207.742000 1451.590170 15.495823 0.000000 0.072922
219.000000 62.006000 -9.000000 6.000000 5.000000 115.212830 45.224251 -109.752464 221.511559 16.128047 0.000000 0.192221
220.000000 65.408000 -8.000000 6.000000 5.000000 112.967781 38.717547 112.184380 356.376877 15.290066 0.000000 0.071258
221.000000 68.470000 -7.000000 6.000000 5.000000 109.631098 31.814069 307.303326 489.215921 14.607338 0.000000 0.032440
222.000000 70.812000 -6.000000 6.000000 5.000000 104.966441 24.689967 480.188266 624.334216 14.125535 0.000000 0.096497
223.000000 71.918000 -5.000000 6.000000 5.000000 98.775236 17.558618 634.434724 766.738070 13.910187 0.000000 0.139749
224.000000 71.170000 -4.000000 6.000000 5.000000 90.946995 10.634681 772.902622 922.898269 14.058799 0.000000 0.157085
225.000000 67.972000 -3.000000 6.000000 5.000000 81.511782 4.097618 897.895242 1102.038653 14.723059 0.000000 0.144541
226.000000 61.969000 -2.000000 6.000000 5.000000 70.678318 -1.931055 1011.288372 1318.584634 16.152542 0.000000 0.096608
227.000000 53.284000 -1.000000 6.000000 5.000000 58.835645 -7.391564 1114.625084 1597.366484 18.788873 0.000000 0.037300
229.000000 54.025000 -10.000000 7.000000 5.000000 109.955813 47.428927 -196.647899 363.325375 18.512048 0.000000 0.214384
230.000000 56.626000 -9.000000 7.000000 5.000000 107.888469 42.066242 3.644755 473.047288 17.662780 0.000000 0.104899
231.000000 58.998000 -8.000000 7.000000 5.000000 105.017108 36.365875 182.476449 582.430994 16.953610 0.000000 0.042841
232.000000 60.914000 -7.000000 7.000000 5.000000 101.175987 30.416664 343.121038 694.418883 16.421903 0.000000 0.075715
233.000000 62.063000 -6.000000 7.000000 5.000000 96.210397 24.336064 488.218701 812.457660 16.119606 0.000000 0.117764
234.000000 62.065000 -5.000000 7.000000 5.000000 90.003246 18.258123 619.922177 940.935793 16.121136 0.000000 0.141293
235.000000 60.514000 -4.000000 7.000000 5.000000 82.507394 12.316545 740.004298 1085.890321 16.536995 0.000000 0.141307
236.000000 57.068000 -3.000000 7.000000 5.000000 73.777406 6.627853 849.938249 1256.259645 17.538664 0.000000 0.112996
237.000000 51.582000 -2.000000 7.000000 5.000000 63.990015 1.279630 950.958311 1466.307010 19.407401 0.000000 0.049846
239.000000 47.618000 -11.000000 8.000000 5.000000 105.625236 49.019287 -263.977011 481.994870 21.004485 0.000000 0.237200
240.000000 49.632000 -10.000000 8.000000 5.000000 103.681463 44.473422 -81.690486 573.830186 20.153171 0.000000 0.137792
241.000000 51.480000 -9.000000 8.000000 5.000000 101.119830 39.649275 83.051736 666.250542 19.430584 0.000000 0.072776
242.000000 53.019000 -8.000000 8.000000 5.000000 97.822820 34.594521 232.666210 761.368816 18.868123 0.000000 0.069302
243.000000 54.055000 -7.000000 8.000000 5.000000 93.675067 29.375516 369.145165 861.669433 18.508305 0.000000 0.100197
244.000000 54.349000 -6.000000 8.000000 5.000000 88.577376 24.073583 494.145721 970.275636 18.410160 0.000000 0.124604
245.000000 53.634000 -5.000000 8.000000 5.000000 82.465181 18.778150 609.057507 1091.365964 18.658108 0.000000 0.132074
246.000000 51.651000 -4.000000 8.000000 5.000000 75.329352 13.577994 715.054540 1230.872869 19.377262 0.000000 0.117863
247.000000 48.215000 -3.000000 8.000000 5.000000 67.234924 8.552650 813.135480 1397.739803 20.761302 0.000000 0.077202
248.000000 46.685000 -9.000000 9.000000 5.000000 94.922820 37.746164 141.759171 823.763097 21.428827 0.000000 0.080060
249.000000 47.573000 -8.000000 9.000000 5.000000 91.349813 33.214703 270.298221 910.686781 21.030542 0.000000 0.092327
250.000000 47.960000 -7.000000 9.000000 5.000000 87.036239 28.570279 388.909372 1004.449803 20.862936 0.000000 0.111939
251.000000 47.669000 -6.000000 9.000000 5.000000 81.920795 23.871159 498.700049 1108.072600 20.992876 0.000000 0.122333
252.000000 46.516000 -5.000000 9.000000 5.000000 75.972447 19.179858 600.618877 1225.703462 21.515843 0.000000 0.117133
258.000000 111.501000 -4.000000 2.000000 6.000000 134.848215 -26.358598 1508.308085 -253.829880 8.966475 0.000000 0.088776
259.000000 111.174000 -3.000000 2.000000 6.000000 120.427970 -34.347681 1710.511384 175.323734 8.994663 0.000000 0.056984
260.000000 104.901000 -2.000000 2.000000 6.000000 103.805093 -39.825392 1872.542980 596.644862 9.535041 0.000000 0.074058
261.000000 92.185000 -1.000000 2.000000 6.000000 85.860259 -43.749025 2005.292513 1048.838807 10.853609 0.000000 0.163182
264.000000 99.251000 -5.000000 3.000000 6.000000 134.387594 -2.927691 1030.044243 -113.905653 10.073328 0.000000 0.028841
265.000000 101.652000 -4.000000 3.000000 6.000000 124.294755 -13.670471 1236.784679 185.544952 9.836826 0.000000 0.066031
266.000000 93.877000 -2.000000 3.000000 6.000000 96.697316 -28.367421 1556.159468 797.368120 10.656449 0.000000 0.098727
267.000000 82.318000 -1.000000 3.000000 6.000000 80.541729 -33.302695 1682.065655 1155.534721 12.156256 0.000000 0.116337
269.000000 81.928000 -7.000000 4.000000 6.000000 134.073809 24.529311 483.839317 -204.423751 12.203198 0.000000 0.071937
270.000000 89.484000 -5.000000 4.000000 6.000000 122.686265 3.258236 913.728375 249.277491 11.174839 0.000000 0.094719
271.000000 88.072000 -3.000000 4.000000 6.000000 102.047753 -13.389271 1231.196487 704.870690 11.358182 0.000000 0.147380
272.000000 71.537000 -1.000000 4.000000 6.000000 74.481981 -24.928204 1475.243285 1270.549291 13.990268 0.000000 0.114373
275.000000 71.029000 -8.000000 5.000000 6.000000 126.868468 32.766896 282.255475 -18.922076 14.077069 0.000000 0.086313
276.000000 74.739000 -7.000000 5.000000 6.000000 123.593581 24.054892 494.566847 158.094442 13.379041 0.000000 0.025997
277.000000 77.728000 -6.000000 5.000000 6.000000 118.681854 15.361193 679.323319 330.374497 12.865731 0.000000 0.088008
278.000000 79.422000 -5.000000 5.000000 6.000000 111.948186 7.067399 841.562330 503.960098 12.592960 0.000000 0.135864
279.000000 79.130000 -4.000000 5.000000 6.000000 103.343958 -0.541055 985.163958 685.691388 12.641559 0.000000 0.161598
280.000000 76.183000 -3.000000 5.000000 6.000000 92.991407 -7.315124 1113.165245 884.294131 13.133147 0.000000 0.162819
281.000000 70.180000 -2.000000 5.000000 6.000000 81.197831 -13.226983 1227.977363 1112.202675 14.259569 0.000000 0.137412
282.000000 61.250000 -1.000000 5.000000 6.000000 68.436614 -18.328242 1331.538942 1389.069958 16.342130 0.000000 0.096144
283.000000 50.150000 0.000000 5.000000 6.000000 55.282351 -22.709186 1425.426417 1749.424206 19.962974 0.000000 0.134832
285.000000 67.498000 -7.000000 6.000000 6.000000 114.121389 23.747222 501.481472 414.488865 14.816676 0.000000 0.067796
286.000000 69.842000 -5.000000 6.000000 6.000000 102.364392 9.627921 792.418904 701.691749 14.322906 0.000000 0.154560
287.000000 52.143000 -1.000000 6.000000 6.000000 62.804391 -13.121347 1225.884275 1508.861901 19.198782 0.000000 0.066826
289.000000 51.920000 -11.000000 7.000000 6.000000 116.745911 46.904102 -175.318202 147.113027 19.260503 0.000000 0.237588
290.000000 54.439000 -10.000000 7.000000 6.000000 115.182939 41.461273 24.071395 265.697195 18.369892 0.000000 0.122977
291.000000 56.838000 -9.000000 7.000000 6.000000 112.907485 35.683785 202.065884 381.060367 17.595713 0.000000 0.033285
292.000000 58.955000 -8.000000 7.000000 6.000000 109.770753 29.666210 361.933558 495.771797 16.964780 0.000000 0.046758
293.000000 60.574000 -7.000000 7.000000 6.000000 105.630620 23.531540 506.309279 612.560211 16.512820 0.000000 0.100651
294.000000 61.415000 -6.000000 7.000000 6.000000 100.370947 17.417884 637.340851 734.561286 16.288521 0.000000 0.138031
295.000000 61.155000 -5.000000 7.000000 6.000000 93.924444 11.460576 756.796583 865.662184 16.359992 0.000000 0.157093
296.000000 59.473000 -4.000000 7.000000 6.000000 86.295818 5.775153 866.145566 1011.035183 16.825517 0.000000 0.155771
297.000000 56.124000 -3.000000 7.000000 6.000000 77.580084 0.446180 966.618388 1178.038067 17.832357 0.000000 0.131059
298.000000 51.041000 -2.000000 7.000000 6.000000 67.969198 -4.476057 1059.253652 1377.856714 19.611581 0.000000 0.080396
299.000000 48.274000 -11.000000 8.000000 6.000000 110.633329 43.977996 -63.566794 377.821220 20.717631 0.000000 0.146183
300.000000 51.917000 -9.000000 8.000000 6.000000 105.871432 33.982327 249.513268 571.961555 19.265918 0.000000 0.039424
301.000000 54.180000 -7.000000 8.000000 6.000000 98.056187 23.371960 509.871102 775.043317 18.464247 0.000000 0.119039
302.000000 53.511000 -5.000000 8.000000 6.000000 86.534475 12.834517 729.789985 1007.849152 18.699621 0.000000 0.148653
303.000000 48.256000 -3.000000 8.000000 6.000000 71.282241 3.030861 918.012473 1306.188193 20.742302 0.000000 0.099943
304.000000 46.121000 -10.000000 9.000000 6.000000 102.456423 37.235012 157.011084 642.379211 21.688219 0.000000 0.053607
305.000000 48.098000 -8.000000 9.000000 6.000000 95.748870 27.978602 403.239687 818.303944 20.799659 0.000000 0.102330
306.000000 48.410000 -7.000000 9.000000 6.000000 91.313791 23.249115 512.607183 914.134733 20.667784 0.000000 0.126520
307.000000 46.902000 -5.000000 9.000000 6.000000 80.072179 13.901681 708.610591 1135.066309 21.337291 0.000000 0.133202
313.000000 98.104000 -4.000000 2.000000 7.000000 129.313096 -35.947197 1755.459095 -147.676981 10.191635 0.000000 0.142197
314.000000 95.947000 -3.000000 2.000000 7.000000 115.493728 -41.086021 1913.448996 260.085515 10.422818 0.000000 0.120910
315.000000 89.574000 -2.000000 2.000000 7.000000 100.328008 -44.773482 2042.817505 664.707194 11.167095 0.000000 0.146258
316.000000 79.037000 -1.000000 2.000000 7.000000 84.422652 -47.527371 2150.696206 1096.651787 12.659255 0.000000 0.229407
320.000000 87.772000 -6.000000 3.000000 7.000000 140.814738 -4.951854 1068.252283 -384.307043 11.389878 0.000000 0.014742
321.000000 90.517000 -5.000000 3.000000 7.000000 132.289395 -15.429994 1272.067106 -74.594147 11.045558 0.000000 0.028309
322.000000 91.030000 -4.000000 3.000000 7.000000 121.580496 -23.471257 1442.344192 219.682456 10.985002 0.000000 0.034942
323.000000 88.455000 -3.000000 3.000000 7.000000 109.051197 -29.612553 1586.732201 513.487209 11.307126 0.000000 0.050663
324.000000 82.251000 -2.000000 3.000000 7.000000 95.165243 -34.355188 1710.718294 823.149397 12.162865 0.000000 0.079483
325.000000 72.540000 -1.000000 3.000000 7.000000 80.497856 -38.080834 1818.341292 1169.867767 13.794544 0.000000 0.132553
326.000000 60.232000 0.000000 3.000000 7.000000 65.687596 -41.061544 1912.639960 1585.884859 16.617387 0.000000 0.229248
330.000000 78.091000 -7.000000 4.000000 7.000000 136.238839 11.950472 747.198831 -207.770668 12.802484 0.000000 0.029338
331.000000 81.173000 -6.000000 4.000000 7.000000 130.444474 1.717248 942.732035 23.148033 12.317521 0.000000 0.052353
332.000000 82.903000 -5.000000 4.000000 7.000000 122.639565 -7.194258 1110.858002 246.163148 12.061959 0.000000 0.090335
333.000000 82.607000 -4.000000 4.000000 7.000000 112.947279 -14.680135 1256.961706 469.930789 12.107068 0.000000 0.114657
334.000000 79.663000 -3.000000 4.000000 7.000000 101.624535 -20.858514 1385.104115 704.059704 12.557048 0.000000 0.123491
335.000000 73.730000 -2.000000 4.000000 7.000000 89.055483 -25.933811 1498.405546 960.731186 13.570540 0.000000 0.118817
336.000000 64.979000 -1.000000 4.000000 7.000000 75.732583 -30.115822 1599.303111 1257.402484 15.401512 0.000000 0.118910
337.000000 54.156000 0.000000 4.000000 7.000000 62.203283 -33.586695 1689.728000 1622.095934 18.483531 0.000000 0.173877
339.000000 65.693000 -9.000000 5.000000 7.000000 133.116441 31.720348 309.738958 -243.727102 15.219249 0.000000 0.124809
340.000000 69.026000 -8.000000 5.000000 7.000000 130.436088 22.891776 520.537544 -54.578289 14.484984 0.000000 0.040055
341.000000 71.916000 -7.000000 5.000000 7.000000 126.319027 14.136246 703.929610 125.126299 13.903867 0.000000 0.054344
342.000000 73.991000 -6.000000 5.000000 7.000000 120.615707 5.839004 864.933718 300.761268 13.515144 0.000000 0.102338
343.000000 74.789000 -5.000000 5.000000 7.000000 113.278280 -1.724995 1007.413612 477.748132 13.372723 0.000000 0.136404
344.000000 73.808000 -4.000000 5.000000 7.000000 104.373950 -8.423912 1134.392321 662.167895 13.552728 0.000000 0.153482
345.000000 70.625000 -3.000000 5.000000 7.000000 94.090228 -14.246254 1248.269028 861.592755 14.166255 0.000000 0.151950
346.000000 65.056000 -2.000000 5.000000 7.000000 82.731240 -19.255376 1350.972093 1086.414825 15.382062 0.000000 0.132138
347.000000 57.294000 -1.000000 5.000000 7.000000 70.695886 -23.548472 1444.069155 1352.247339 17.469556 0.000000 0.108781
348.000000 47.928000 0.000000 5.000000 7.000000 58.431208 -27.229789 1528.847702 1684.757005 20.886983 0.000000 0.145962
351.000000 58.263000 -10.000000 6.000000 7.000000 126.847421 37.165804 159.060194 -71.135371 17.161469 0.000000 0.138177
352.000000 61.046000 -9.000000 6.000000 7.000000 124.729668 30.064862 351.975582 78.929758 16.379752 0.000000 0.045645
353.000000 63.561000 -8.000000 6.000000 7.000000 121.573622 22.787659 522.840306 223.542170 15.732593 0.000000 0.039471
354.000000 65.570000 -7.000000 6.000000 7.000000 117.225020 15.563577 675.230640 366.189210 15.251634 0.000000 0.093858
355.000000 66.770000 -6.000000 6.000000 7.000000 111.578251 8.612315 811.989167 510.483058 14.979285 0.000000 0.134513
356.000000 66.803000 -5.000000 6.000000 7.000000 104.597750 2.106929 935.403751 660.501853 14.973724 0.000000 0.159104
357.000000 65.317000 -4.000000 6.000000 7.000000 96.334340 -3.845004 1047.336556 821.253499 15.316983 0.000000 0.166253
358.000000 62.041000 -3.000000 6.000000 7.000000 86.934537 -9.199846 1149.318659 999.390462 16.128562 0.000000 0.154270
359.000000 56.899000 -2.000000 6.000000 7.000000 76.638750 -13.963417 1242.620498 1204.424559 17.589582 0.000000 0.123027
360.000000 50.079000 -1.000000 6.000000 7.000000 65.763102 -18.172974 1328.305074 1450.977227 19.988389 0.000000 0.089071
363.000000 51.925000 -11.000000 7.000000 7.000000 121.378062 40.842897 44.560583 73.316692 19.257604 0.000000 0.151334
364.000000 54.216000 -10.000000 7.000000 7.000000 119.557203 34.987801 221.712082 196.002351 18.444478 0.000000 0.058293
365.000000 56.334000 -9.000000 7.000000 7.000000 116.964148 28.902278 380.797809 315.545431 17.752123 0.000000 0.017582
366.000000 58.123000 -8.000000 7.000000 7.000000 113.472048 22.714911 524.447191 434.340421 17.206780 0.000000 0.076650
367.000000 59.876000 -6.000000 7.000000 7.000000 103.400185 10.597330 773.628918 680.137573 16.706541 0.000000 0.151074
368.000000 59.335000 -5.000000 7.000000 7.000000 96.731950 4.917921 882.389901 813.486549 16.860914 0.000000 0.165305
369.000000 57.523000 -4.000000 7.000000 7.000000 89.016846 -0.389285 982.312780 959.470675 17.394935 0.000000 0.162458
370.000000 54.278000 -3.000000 7.000000 7.000000 80.375396 -5.278253 1074.432793 1124.294206 18.437923 0.000000 0.140654
371.000000 49.587000 -2.000000 7.000000 7.000000 70.999641 -9.733887 1159.629571 1317.018673 20.185454 0.000000 0.099840
372.000000 46.555000 -12.000000 8.000000 7.000000 116.653467 43.472774 -45.393554 196.582452 21.480499 0.000000 0.166354
373.000000 48.435000 -11.000000 8.000000 7.000000 115.004074 38.527730 118.026069 299.336845 20.647397 0.000000 0.077663
374.000000 50.195000 -10.000000 8.000000 7.000000 112.760880 33.359633 266.402145 400.352488 19.924547 0.000000 0.013290
375.000000 51.730000 -9.000000 8.000000 7.000000 109.825849 28.041637 401.720515 501.349357 19.334212 0.000000 0.058054
376.000000 52.909000 -8.000000 8.000000 7.000000 106.108374 22.661212 525.632228 604.169598 18.905081 0.000000 0.103658
377.000000 53.566000 -7.000000 8.000000 7.000000 101.535526 17.312151 639.521238 710.906636 18.674765 0.000000 0.136499
378.000000 53.519000 -6.000000 8.000000 7.000000 96.063529 12.085045 744.556319 824.078988 18.693566 0.000000 0.155708
379.000000 52.579000 -5.000000 8.000000 7.000000 89.689172 7.058539 841.731320 946.883509 19.030319 0.000000 0.160094
380.000000 50.589000 -4.000000 8.000000 7.000000 82.459289 2.293348 931.896707 1083.589115 19.781787 0.000000 0.147916
381.000000 47.461000 -3.000000 8.000000 7.000000 74.475862 -2.170098 1015.784525 1240.185742 21.088433 0.000000 0.117098
382.000000 46.307000 -10.000000 9.000000 7.000000 106.468562 32.098305 299.886237 565.416857 21.599808 0.000000 0.045481
383.000000 47.353000 -9.000000 9.000000 7.000000 103.295111 27.379105 417.599909 654.588917 21.123899 0.000000 0.086453
384.000000 48.037000 -8.000000 9.000000 7.000000 99.439150 22.619946 526.542259 747.153598 20.825065 0.000000 0.119893
385.000000 48.228000 -7.000000 9.000000 7.000000 94.852139 17.885921 627.658454 844.994698 20.744463 0.000000 0.142094
386.000000 47.790000 -6.000000 9.000000 7.000000 89.509581 13.240102 721.762571 950.464259 20.937073 0.000000 0.151666
387.000000 46.592000 -5.000000 9.000000 7.000000 83.419042 8.738710 809.559564 1066.627374 21.478038 0.000000 0.147113
392.000000 83.650000 -3.000000 2.000000 8.000000 111.141435 -45.767601 2080.526253 344.354967 11.955787 0.000000 0.187668
393.000000 68.918000 -1.000000 2.000000 8.000000 83.155014 -50.364041 2274.355078 1143.533256 14.518078 0.000000 0.296411
397.000000 80.916000 -6.000000 3.000000 8.000000 138.274097 -17.168505 1307.520531 -322.194176 12.355237 0.000000 0.053745
398.000000 82.183000 -5.000000 3.000000 8.000000 129.083361 -24.928621 1475.252805 -22.971546 12.166143 0.000000 0.039450
399.000000 81.504000 -4.000000 3.000000 8.000000 118.354334 -30.832604 1617.430533 264.554914 12.269412 0.000000 0.008407
400.000000 78.395000 -3.000000 3.000000 8.000000 106.380732 -35.385771 1739.480311 552.936253 12.758494 0.000000 0.037834
401.000000 72.645000 -2.000000 3.000000 8.000000 93.518513 -38.962296 1845.393829 855.890086 13.771418 0.000000 0.092059
402.000000 64.471000 -1.000000 3.000000 8.000000 80.188169 -41.825272 1938.172735 1190.787579 15.520968 0.000000 0.163813
403.000000 54.533000 0.000000 3.000000 8.000000 66.838987 -44.158032 2020.117662 1582.790005 18.353218 0.000000 0.265265
405.000000 73.670000 -7.000000 4.000000 8.000000 136.450012 0.167484 971.853818 -191.202402 13.570753 0.000000 0.018214
406.000000 76.286000 -5.000000 4.000000 8.000000 121.337756 -15.960427 1282.818090 259.354842 13.108384 0.000000 0.073076
407.000000 71.979000 -3.000000 4.000000 8.000000 100.565567 -26.925608 1521.640256 715.837728 13.897487 0.000000 0.096916
408.000000 59.049000 -1.000000 4.000000 8.000000 76.405994 -34.358725 1710.815793 1256.272464 16.947889 0.000000 0.128187
411.000000 63.698000 -9.000000 5.000000 8.000000 135.962124 21.703892 546.605801 -256.990487 15.695283 0.000000 0.066946
412.000000 66.344000 -8.000000 5.000000 8.000000 132.426234 12.893596 728.622317 -68.140106 15.070221 0.000000 0.031459
413.000000 68.459000 -7.000000 5.000000 8.000000 127.497062 4.601124 888.382165 112.548195 14.605651 0.000000 0.067474
414.000000 69.734000 -6.000000 5.000000 8.000000 121.140237 -2.911134 1029.732400 289.866162 14.340135 0.000000 0.102742
415.000000 69.814000 -5.000000 5.000000 8.000000 113.402381 -9.529611 1155.681763 468.674756 14.325663 0.000000 0.126706
416.000000 68.353000 -4.000000 5.000000 8.000000 104.408009 -15.259203 1268.617228 654.389808 14.634056 0.000000 0.137839
417.000000 65.103000 -3.000000 5.000000 8.000000 94.357430 -20.174561 1370.456729 853.627401 15.367423 0.000000 0.135602
418.000000 60.006000 -2.000000 5.000000 8.000000 83.520977 -24.379257 1462.758970 1075.194813 16.676000 0.000000 0.122936
419.000000 53.264000 -1.000000 5.000000 8.000000 72.221762 -27.980406 1546.803768 1331.789547 18.790302 0.000000 0.117313
421.000000 59.531000 -9.000000 6.000000 8.000000 127.704557 21.811377 544.265073 44.855366 16.796056 0.000000 0.028532
422.000000 63.001000 -7.000000 6.000000 8.000000 119.073455 7.588391 831.613636 337.308310 15.873242 0.000000 0.106912
423.000000 63.251000 -5.000000 6.000000 8.000000 105.744119 -4.802622 1065.428557 636.503802 15.814386 0.000000 0.155281
424.000000 58.300000 -3.000000 6.000000 8.000000 88.201088 -14.801292 1259.395178 975.963622 17.163068 0.000000 0.147899
425.000000 47.574000 -1.000000 6.000000 8.000000 67.950949 -22.594662 1422.900426 1413.163761 21.039897 0.000000 0.103784
427.000000 49.318000 -12.000000 7.000000 8.000000 126.674044 40.210812 65.112608 -108.514061 20.274050 0.000000 0.181501
428.000000 51.443000 -11.000000 7.000000 8.000000 125.199475 34.277707 241.415289 22.191756 19.437177 0.000000 0.089888
429.000000 53.458000 -10.000000 7.000000 8.000000 123.025203 28.124781 399.714006 147.702961 18.705256 0.000000 0.022140
430.000000 55.253000 -9.000000 7.000000 8.000000 120.039474 21.886243 542.632622 270.269775 18.098487 0.000000 0.051549
431.000000 56.685000 -8.000000 7.000000 8.000000 116.147837 15.707823 672.308759 392.115952 17.642610 0.000000 0.098006
432.000000 57.577000 -7.000000 7.000000 8.000000 111.284860 9.727111 790.501446 515.582023 17.370943 0.000000 0.133298
433.000000 57.728000 -6.000000 7.000000 8.000000 105.424665 4.056510 898.671380 643.294801 17.327392 0.000000 0.156406
434.000000 56.935000 -5.000000 7.000000 8.000000 98.589409 -1.226416 998.041599 778.392049 17.571022 0.000000 0.166484
435.000000 55.027000 -4.000000 7.000000 8.000000 90.854911 -6.080065 1089.643930 924.848546 18.183213 0.000000 0.162402
436.000000 51.907000 -3.000000 7.000000 8.000000 82.351963 -10.493597 1174.354949 1087.985148 19.279302 0.000000 0.143174
437.000000 47.597000 -2.000000 7.000000 8.000000 73.261208 -14.478816 1252.924123 1275.316047 21.028356 0.000000 0.110531
438.000000 48.158000 -11.000000 8.000000 8.000000 118.682372 32.726318 283.332996 241.071554 20.765064 0.000000 0.028296
439.000000 51.025000 -9.000000 8.000000 8.000000 112.966677 21.941383 541.429219 449.260385 19.600633 0.000000 0.083024
440.000000 52.382000 -7.000000 8.000000 8.000000 104.156987 11.329766 759.353641 664.119592 19.096210 0.000000 0.148176
441.000000 51.069000 -5.000000 8.000000 8.000000 92.026668 1.553636 945.807974 902.899394 19.592100 0.000000 0.165645
442.000000 46.098000 -3.000000 8.000000 8.000000 76.933170 -6.999877 1107.149973 1192.680703 21.711109 0.000000 0.127358
443.000000 46.066000 -10.000000 9.000000 8.000000 109.838715 26.771768 431.990132 506.067112 21.711691 0.000000 0.066623
444.000000 46.958000 -9.000000 9.000000 8.000000 106.467952 21.983684 540.505363 597.894834 21.300575 0.000000 0.105922
445.000000 47.485000 -8.000000 9.000000 8.000000 102.422728 17.229808 641.217564 692.774460 21.065962 0.000000 0.135175
446.000000 47.534000 -7.000000 9.000000 8.000000 97.673068 12.573661 734.939167 792.431309 21.046538 0.000000 0.153890
447.000000 46.989000 -6.000000 9.000000 8.000000 92.213548 8.071146 822.373602 898.981854 21.293187 0.000000 0.161324
448.000000 45.746000 -5.000000 9.000000 8.000000 86.068554 3.767119 904.132984 1015.128028 21.874208 0.000000 0.156402
453.000000 73.707000 -3.000000 2.000000 9.000000 107.399062 -49.167652 2220.476649 425.175394 13.569340 0.000000 0.252936
454.000000 68.290000 -2.000000 2.000000 9.000000 94.849564 -51.056909 2306.815326 795.718141 14.648647 0.000000 0.286847
459.000000 74.583000 -5.000000 3.000000 9.000000 125.516561 -32.027248 1648.255238 34.906152 13.406570 0.000000 0.068113
460.000000 73.202000 -4.000000 3.000000 9.000000 115.092955 -36.394473 1768.352334 314.860403 13.661526 0.000000 0.051589
461.000000 64.728000 -2.000000 3.000000 9.000000 91.925464 -42.573674 1963.791033 891.865247 15.456052 0.000000 0.128375
462.000000 57.806000 -1.000000 3.000000 9.000000 79.765880 -44.815023 2044.367066 1214.923771 17.310288 0.000000 0.203254
465.000000 67.113000 -8.000000 4.000000 9.000000 141.202782 -1.388848 1001.094446 -398.166623 14.895751 0.000000 0.004194
466.000000 69.044000 -7.000000 4.000000 9.000000 135.253553 -10.050217 1165.752516 -161.784650 14.480211 0.000000 0.023566
467.000000 70.117000 -6.000000 4.000000 9.000000 127.921785 -17.229016 1308.766122 63.076575 14.260164 0.000000 0.036269
468.000000 70.011000 -5.000000 4.000000 9.000000 119.348216 -23.102767 1434.139842 283.054775 14.283620 0.000000 0.047577
469.000000 68.431000 -4.000000 4.000000 9.000000 109.707248 -27.903296 1544.947753 504.759335 14.615717 0.000000 0.059749
470.000000 65.181000 -3.000000 4.000000 9.000000 99.213344 -31.848353 1643.588864 735.479533 15.347096 0.000000 0.075009
471.000000 60.245000 -2.000000 4.000000 9.000000 88.123770 -35.118899 1731.962772 984.104012 16.607744 0.000000 0.099822
472.000000 53.829000 -1.000000 4.000000 9.000000 76.728536 -37.857580 1811.593194 1262.528595 18.590939 0.000000 0.144745
473.000000 46.344000 0.000000 4.000000 9.000000 65.326591 -40.174443 1883.716552 1588.095198 21.597112 0.000000 0.220685
476.000000 61.249000 -9.000000 5.000000 9.000000 137.388668 11.634048 753.401895 -253.537814 16.322715 0.000000 0.031056
477.000000 63.257000 -8.000000 5.000000 9.000000 133.048431 3.354817 911.908054 -66.088755 15.805623 0.000000 0.036653
478.000000 64.695000 -7.000000 5.000000 9.000000 127.454352 -4.098459 1052.120646 114.377988 15.455392 0.000000 0.068107
479.000000 65.318000 -6.000000 5.000000 9.000000 120.647499 -10.631414 1177.033843 292.138284 15.309759 0.000000 0.093267
480.000000 64.864000 -5.000000 5.000000 9.000000 112.719691 -16.265260 1289.022201 471.552156 15.418767 0.000000 0.109956
481.000000 63.109000 -4.000000 5.000000 9.000000 103.810029 -21.085433 1389.993054 657.452050 15.850226 0.000000 0.117646
482.000000 59.914000 -3.000000 5.000000 9.000000 94.104059 -25.201325 1481.496041 855.649759 16.698372 0.000000 0.117174
483.000000 55.290000 -2.000000 5.000000 9.000000 83.829472 -28.722493 1564.803202 1073.689250 18.098122 0.000000 0.114174
484.000000 49.424000 -1.000000 5.000000 9.000000 73.243456 -31.747589 1640.968475 1322.081432 20.249684 0.000000 0.126108
486.000000 53.533000 -11.000000 6.000000 9.000000 135.114274 28.239480 396.940858 -285.587476 18.675882 0.000000 0.107731
487.000000 55.664000 -10.000000 6.000000 9.000000 132.805532 20.818517 565.756078 -125.482190 17.961579 0.000000 0.043870
488.000000 59.090000 -8.000000 6.000000 9.000000 125.235163 6.556709 851.292536 175.763097 16.921973 0.000000 0.077594
489.000000 60.057000 -7.000000 6.000000 9.000000 119.871935 0.100605 973.110152 322.803712 16.651016 0.000000 0.109733
490.000000 59.508000 -5.000000 6.000000 9.000000 106.076537 -10.998387 1184.178964 625.017235 16.808850 0.000000 0.145196
491.000000 57.623000 -4.000000 6.000000 9.000000 97.818939 -15.634646 1276.208445 787.524957 17.361320 0.000000 0.146752
492.000000 50.234000 -2.000000 6.000000 9.000000 79.354788 -23.301788 1438.565361 1161.268588 19.921704 0.000000 0.120907
494.000000 48.691000 -12.000000 7.000000 9.000000 130.023010 33.553294 261.175753 -143.575549 20.534135 0.000000 0.119449
495.000000 50.560000 -11.000000 7.000000 9.000000 128.172035 27.333650 418.682362 -11.453375 19.775991 0.000000 0.049768
496.000000 52.277000 -10.000000 7.000000 9.000000 125.582604 21.045622 560.865758 115.905005 19.127156 0.000000 0.032679
497.000000 53.740000 -9.000000 7.000000 9.000000 122.172801 14.838432 689.858320 240.576820 18.607667 0.000000 0.073041
498.000000 54.819000 -8.000000 7.000000 9.000000 117.885289 8.850242 807.414312 364.622840 18.242777 0.000000 0.109891
499.000000 55.364000 -7.000000 7.000000 9.000000 112.694070 3.191280 914.990131 490.208166 18.064771 0.000000 0.137585
500.000000 55.215000 -6.000000 7.000000 9.000000 106.609295 -2.064861 1013.804959 619.744003 18.115595 0.000000 0.155197
501.000000 54.219000 -5.000000 7.000000 9.000000 99.680416 -6.881177 1104.887164 756.072183 18.450764 0.000000 0.161970
502.000000 52.260000 -4.000000 7.000000 9.000000 91.997512 -11.251126 1189.110230 902.726201 19.145329 0.000000 0.157137
503.000000 49.287000 -3.000000 7.000000 9.000000 83.689820 -15.189994 1267.220853 1064.326292 20.303305 0.000000 0.140519
504.000000 46.000000 -12.000000 8.000000 9.000000 123.798922 32.082267 300.305978 90.653596 21.737464 0.000000 0.056742
505.000000 47.512000 -11.000000 8.000000 9.000000 121.642140 26.667256 434.450837 198.820567 21.046779 0.000000 0.018333
506.000000 48.846000 -10.000000 8.000000 9.000000 118.836035 21.212528 557.262198 305.351884 20.472834 0.000000 0.060925
507.000000 49.912000 -9.000000 8.000000 9.000000 115.319157 15.815834 670.118146 411.762167 20.036963 0.000000 0.101089
508.000000 50.600000 -8.000000 8.000000 9.000000 111.048384 10.568877 774.182047 519.658175 19.766035 0.000000 0.132245
509.000000 50.790000 -7.000000 8.000000 9.000000 106.004584 5.548619 870.442798 630.831087 19.694375 0.000000 0.153847
510.000000 50.355000 -6.000000 8.000000 9.000000 100.197352 0.811963 959.746352 747.376013 19.866542 0.000000 0.165348
511.000000 49.186000 -5.000000 8.000000 9.000000 93.668432 -3.605618 1042.820645 871.857767 20.341448 0.000000 0.165989
512.000000 47.203000 -4.000000 8.000000 9.000000 86.493264 -7.688226 1120.295483 1007.554270 21.198651 0.000000 0.154934
513.000000 45.466000 -10.000000 9.000000 9.000000 112.562601 21.340368 554.496579 460.887065 21.997058 0.000000 0.087823
514.000000 46.547000 -8.000000 9.000000 9.000000 104.733722 11.902486 748.140448 651.743303 21.489773 0.000000 0.145755
515.000000 46.448000 -7.000000 9.000000 9.000000 99.829309 7.400154 835.210839 752.958429 21.537579 0.000000 0.160985
521.000000 68.239000 -6.000000 3.000000 10.000000 131.153191 -33.196267 1679.207099 -183.130429 14.651657 0.000000 0.124067
522.000000 67.815000 -5.000000 3.000000 10.000000 121.976265 -37.381379 1797.334994 95.400449 14.745193 0.000000 0.105231
523.000000 66.055000 -4.000000 3.000000 10.000000 112.008920 -40.670312 1899.789265 367.417888 15.140263 0.000000 0.098544
524.000000 62.833000 -3.000000 3.000000 10.000000 101.429985 -43.306960 1989.495285 641.964168 15.919524 0.000000 0.121802
525.000000 58.170000 -2.000000 3.000000 10.000000 90.450778 -45.459383 2068.693066 928.927275 17.198879 0.000000 0.173061
526.000000 52.263000 -1.000000 3.000000 10.000000 79.306922 -47.245051 2139.126862 1240.372470 19.146065 0.000000 0.245966
529.000000 64.466000 -7.000000 4.000000 10.000000 133.186697 -18.484835 1334.806292 -124.193328 15.508843 0.000000 0.034466
530.000000 64.251000 -5.000000 4.000000 10.000000 117.050532 -28.866615 1568.328382 313.425840 15.564492 0.000000 0.017095
531.000000 59.253000 -3.000000 4.000000 10.000000 97.762741 -35.867224 1753.169187 759.947215 16.882658 0.000000 0.068957
532.000000 49.283000 -1.000000 4.000000 10.000000 76.837867 -40.771985 1903.114343 1273.348346 20.305534 0.000000 0.167807
535.000000 58.531000 -9.000000 5.000000 10.000000 137.595537 2.101186 935.511770 -238.301206 17.080776 0.000000 0.013520
536.000000 59.979000 -8.000000 5.000000 10.000000 132.601526 -5.285953 1074.578674 -52.983315 16.669306 0.000000 0.037364
537.000000 60.858000 -7.000000 5.000000 10.000000 126.540271 -11.728532 1198.448840 126.405484 16.430095 0.000000 0.059738
538.000000 60.977000 -6.000000 5.000000 10.000000 119.486374 -17.263882 1309.484185 303.687698 16.399938 0.000000 0.076866
539.000000 58.241000 -4.000000 5.000000 10.000000 102.841173 -26.014480 1500.280547 667.998870 17.175064 0.000000 0.095722
540.000000 55.177000 -3.000000 5.000000 10.000000 93.542518 -29.455951 1582.846161 864.477562 18.131630 0.000000 0.100303
541.000000 51.004000 -2.000000 5.000000 10.000000 83.833975 -32.410934 1658.325268 1078.732440 19.618589 0.000000 0.109832
542.000000 45.883000 -1.000000 5.000000 10.000000 73.919424 -34.962951 1727.592665 1319.587578 21.811864 0.000000 0.137646
544.000000 52.069000 -11.000000 6.000000 10.000000 137.096420 19.809264 587.313628 -289.924172 19.200632 0.000000 0.063278
545.000000 55.310000 -9.000000 6.000000 10.000000 130.357829 5.517857 871.026095 22.109009 18.077150 0.000000 0.050261
546.000000 56.946000 -7.000000 6.000000 10.000000 119.853482 -6.716472 1101.749234 318.996796 17.560768 0.000000 0.104821
547.000000 55.788000 -5.000000 6.000000 10.000000 105.834113 -16.463168 1293.060435 622.697459 17.929657 0.000000 0.130688
548.000000 50.887000 -3.000000 6.000000 10.000000 89.063034 -24.002952 1454.263533 960.268620 19.662556 0.000000 0.125015
550.000000 47.762000 -12.000000 7.000000 10.000000 132.577870 26.528830 437.703095 -164.315339 20.933167 0.000000 0.075239
551.000000 49.364000 -11.000000 7.000000 10.000000 130.300109 20.193155 579.146788 -31.545691 20.254600 0.000000 0.032011
552.000000 50.783000 -10.000000 7.000000 10.000000 127.274718 13.959791 707.451839 96.903609 19.689419 0.000000 0.050100
553.000000 51.926000 -9.000000 7.000000 10.000000 123.453256 7.967059 824.367659 222.947733 19.257462 0.000000 0.084746
554.000000 52.679000 -8.000000 7.000000 10.000000 118.813132 2.322602 931.346283 348.494187 18.983484 0.000000 0.113969
555.000000 52.920000 -7.000000 7.000000 10.000000 113.359767 -2.904261 1029.602973 475.545060 18.898779 0.000000 0.135562
556.000000 52.524000 -6.000000 7.000000 10.000000 107.127679 -7.681278 1120.162597 606.316270 19.043488 0.000000 0.148807
557.000000 51.380000 -5.000000 7.000000 10.000000 100.180972 -12.006218 1203.895504 743.390381 19.469968 0.000000 0.153120
558.000000 49.413000 -4.000000 7.000000 10.000000 92.612978 -15.897789 1281.545589 889.928055 20.247819 0.000000 0.148130
559.000000 46.604000 -3.000000 7.000000 10.000000 84.544063 -19.387184 1353.752456 1049.979496 21.471622 0.000000 0.134471
560.000000 46.568000 -11.000000 8.000000 10.000000 123.888631 20.474717 573.131289 169.320623 21.472559 0.000000 0.041316
561.000000 48.499000 -9.000000 8.000000 10.000000 116.943869 9.802588 789.041636 385.822698 20.620099 0.000000 0.111953
562.000000 48.931000 -7.000000 8.000000 10.000000 107.186026 0.068570 973.711920 608.118653 20.442069 0.000000 0.154281
563.000000 47.092000 -5.000000 8.000000 10.000000 94.740844 -8.375595 1133.464906 850.777759 21.245131 0.000000 0.162100
573.000000 62.711000 -6.000000 3.000000 11.000000 127.510252 -38.346622 1826.428929 -112.430266 15.944005 0.000000 0.160641
574.000000 61.860000 -5.000000 3.000000 11.000000 118.637211 -41.497267 1927.133206 156.311436 16.165282 0.000000 0.145875
575.000000 59.925000 -4.000000 3.000000 11.000000 109.180493 -44.025349 2015.285926 420.307878 16.689705 0.000000 0.145860
576.000000 56.852000 -3.000000 3.000000 11.000000 99.283394 -46.091316 2093.096026 687.320306 17.594845 0.000000 0.170616
577.000000 52.692000 -2.000000 3.000000 11.000000 89.112295 -47.807100 2162.282836 965.830321 18.987211 0.000000 0.219581
578.000000 47.611000 -1.000000 3.000000 11.000000 78.848624 -49.252350 2224.204603 1266.040037 21.017126 0.000000 0.289316
582.000000 59.425000 -8.000000 4.000000 11.000000 137.470281 -19.726889 1360.939091 -305.501013 16.823584 0.000000 0.062634
583.000000 60.090000 -7.000000 4.000000 11.000000 130.663666 -25.288723 1483.502836 -81.568449 16.638984 0.000000 0.051592
584.000000 60.018000 -6.000000 4.000000 11.000000 123.028180 -29.815348 1591.782486 134.544854 16.660514 0.000000 0.030800
585.000000 59.060000 -5.000000 4.000000 11.000000 114.672930 -33.527902 1688.137634 347.892917 16.933069 0.000000 0.017585
586.000000 57.104000 -4.000000 4.000000 11.000000 105.721846 -36.603726 1774.435289 563.591467 17.515605 0.000000 0.044073
587.000000 54.112000 -3.000000 4.000000 11.000000 96.318688 -39.179785 1852.172039 787.253425 18.487106 0.000000 0.084332
588.000000 50.137000 -2.000000 4.000000 11.000000 86.626026 -41.360453 1922.561570 1025.540127 19.955879 0.000000 0.133699
591.000000 54.303000 -10.000000 5.000000 11.000000 141.372098 0.841377 959.193699 -406.050015 18.409791 0.000000 0.005492
592.000000 55.689000 -9.000000 5.000000 11.000000 136.856754 -6.472596 1097.106812 -214.781557 17.952330 0.000000 0.017693
593.000000 56.669000 -8.000000 5.000000 11.000000 131.398071 -12.820195 1219.927032 -32.074214 17.643444 0.000000 0.033041
594.000000 57.101000 -7.000000 5.000000 11.000000 125.061202 -18.254551 1330.003418 145.628328 17.511297 0.000000 0.045115
595.000000 56.847000 -6.000000 5.000000 11.000000 117.927214 -22.880893 1429.221596 321.751309 17.591659 0.000000 0.055721
596.000000 55.779000 -5.000000 5.000000 11.000000 110.093525 -26.818544 1519.112670 499.816370 17.930646 0.000000 0.065491
597.000000 53.812000 -4.000000 5.000000 11.000000 101.676284 -30.180694 1600.932803 683.695663 18.588759 0.000000 0.075613
598.000000 50.922000 -3.000000 5.000000 11.000000 92.811259 -33.066173 1675.722277 877.934380 19.646967 0.000000 0.089381
599.000000 47.163000 -2.000000 5.000000 11.000000 83.651001 -35.557706 1744.349960 1088.205036 21.216160 0.000000 0.112751
602.000000 50.376000 -11.000000 6.000000 11.000000 138.124989 11.422542 757.540303 -283.863035 19.845467 0.000000 0.032504
603.000000 51.779000 -10.000000 6.000000 11.000000 134.663725 4.472449 890.814540 -125.983101 19.308666 0.000000 0.027621
604.000000 52.894000 -9.000000 6.000000 11.000000 130.347657 -1.916572 1011.016016 26.184145 18.902831 0.000000 0.052747
605.000000 53.612000 -8.000000 6.000000 11.000000 125.193108 -7.671640 1119.978253 175.096469 18.651245 0.000000 0.075992
606.000000 53.814000 -7.000000 6.000000 11.000000 119.240282 -12.783757 1219.207204 323.171355 18.583060 0.000000 0.094139
607.000000 53.382000 -6.000000 6.000000 11.000000 112.550807 -17.286554 1309.951280 472.922962 18.735266 0.000000 0.106665
608.000000 52.218000 -5.000000 6.000000 11.000000 105.207149 -21.236413 1393.254148 627.118617 19.155516 0.000000 0.113372
609.000000 50.256000 -4.000000 6.000000 11.000000 97.312549 -24.698022 1469.995050 788.977273 19.906270 0.000000 0.114707
610.000000 47.485000 -3.000000 6.000000 11.000000 88.989728 -27.735578 1540.919959 962.443576 21.071030 0.000000 0.113000
611.000000 46.598000 -12.000000 7.000000 11.000000 134.348198 19.328978 597.475901 -173.924865 21.455621 0.000000 0.045590
612.000000 47.938000 -11.000000 7.000000 11.000000 131.631463 13.072171 725.089479 -41.086048 20.856601 0.000000 0.033499
613.000000 49.075000 -10.000000 7.000000 11.000000 128.189236 7.077921 841.361635 87.865979 20.374702 0.000000 0.060491
614.000000 49.924000 -9.000000 7.000000 11.000000 124.003697 1.450859 947.739963 214.696450 20.029529 0.000000 0.088813
615.000000 50.391000 -8.000000 7.000000 11.000000 119.079339 -3.744259 1045.435756 341.170179 19.845315 0.000000 0.111868
616.000000 50.378000 -7.000000 7.000000 11.000000 113.442523 -8.480059 1135.470330 469.138462 19.852385 0.000000 0.128589
617.000000 49.790000 -6.000000 7.000000 11.000000 107.141083 -12.758626 1218.710862 600.639885 20.089187 0.000000 0.138468
618.000000 48.549000 -5.000000 7.000000 11.000000 100.244078 -16.602012 1295.898413 738.027779 20.605218 0.000000 0.141155
619.000000 46.610000 -4.000000 7.000000 11.000000 92.841076 -20.043750 1367.670050 884.143207 21.465290 0.000000 0.136724
620.000000 46.281000 -10.000000 8.000000 11.000000 122.016867 9.031116 803.932506 259.568497 21.606572 0.000000 0.090022
621.000000 46.883000 -9.000000 8.000000 11.000000 117.926546 4.024768 899.270617 369.082432 21.330947 0.000000 0.116678
622.000000 47.123000 -8.000000 8.000000 11.000000 113.186896 -0.676298 987.704759 479.958907 21.223999 0.000000 0.136969
623.000000 46.921000 -7.000000 8.000000 11.000000 107.817202 -5.042003 1069.958660 593.739512 21.317407 0.000000 0.150396
624.000000 46.202000 -6.000000 8.000000 11.000000 101.856211 -9.061790 1146.658309 712.192443 21.651307 0.000000 0.156518
629.000000 56.647000 -5.000000 3.000000 12.000000 115.564182 -44.729072 2041.163390 216.315353 17.653705 0.000000 0.187742
630.000000 54.661000 -4.000000 3.000000 12.000000 106.622795 -46.711029 2117.576311 472.378485 18.297608 0.000000 0.192465
631.000000 48.073000 -2.000000 3.000000 12.000000 87.907569 -49.748364 2246.296541 1001.858644 20.811799 0.000000 0.265561
634.000000 55.995000 -7.000000 4.000000 12.000000 127.959921 -30.749316 1615.310412 -36.041226 17.856297 0.000000 0.074128
635.000000 54.426000 -5.000000 4.000000 12.000000 112.342178 -37.328447 1795.761331 384.710257 18.375260 0.000000 0.052888
636.000000 49.653000 -3.000000 4.000000 12.000000 94.934280 -41.939930 1942.058423 816.082095 20.147609 0.000000 0.112806
640.000000 51.837000 -10.000000 5.000000 12.000000 140.419886 -7.657373 1119.705387 -372.650407 19.285647 0.000000 0.023206
641.000000 52.833000 -9.000000 5.000000 12.000000 135.453780 -13.905658 1241.468698 -185.493574 18.923116 0.000000 0.029248
642.000000 53.430000 -8.000000 5.000000 12.000000 129.709108 -19.236778 1350.580142 -5.704976 18.713366 0.000000 0.028174
643.000000 53.519000 -7.000000 5.000000 12.000000 123.253098 -23.764868 1448.914228 169.881874 18.684002 0.000000 0.026805
644.000000 52.998000 -6.000000 5.000000 12.000000 116.161053 -27.613358 1537.992590 344.344278 18.869706 0.000000 0.031679
645.000000 51.783000 -5.000000 5.000000 12.000000 108.519161 -30.896647 1619.063286 520.856163 19.314660 0.000000 0.044227
646.000000 49.826000 -4.000000 5.000000 12.000000 100.426987 -33.713284 1693.159642 702.895929 20.076037 0.000000 0.063054
647.000000 47.127000 -3.000000 5.000000 12.000000 91.997826 -36.145058 1761.144523 894.507223 21.229156 0.000000 0.088661
649.000000 48.539000 -11.000000 6.000000 12.000000 138.320623 3.421125 910.658100 -270.040200 20.596791 0.000000 0.012862
650.000000 50.758000 -7.000000 6.000000 12.000000 118.221036 -18.104517 1326.881115 333.300758 19.702092 0.000000 0.079208
651.000000 48.866000 -5.000000 6.000000 12.000000 104.337608 -25.386876 1485.760018 636.498956 20.469664 0.000000 0.094833
652.000000 46.357000 -11.000000 7.000000 12.000000 132.250897 6.183197 858.396384 -42.388415 21.568057 0.000000 0.039123
653.000000 47.234000 -10.000000 7.000000 12.000000 128.442139 0.576439 964.171302 86.606835 21.168409 0.000000 0.064274
654.000000 47.825000 -9.000000 7.000000 12.000000 123.961544 -4.584494 1061.303424 213.754124 20.908584 0.000000 0.086915
655.000000 48.050000 -8.000000 7.000000 12.000000 118.831212 -9.277214 1150.810467 340.686314 20.812275 0.000000 0.104941
656.000000 47.833000 -7.000000 7.000000 12.000000 113.088833 -13.508103 1233.556397 469.115724 20.908849 0.000000 0.117823
657.000000 47.103000 -6.000000 7.000000 12.000000 106.787242 -17.302478 1310.279407 600.919745 21.235154 0.000000 0.125260
658.000000 45.808000 -5.000000 7.000000 12.000000 99.994242 -20.696100 1381.614001 738.247822 21.838061 0.000000 0.127184
666.000000 52.087000 -5.000000 3.000000 13.000000 112.768849 -47.318731 2142.134290 274.631615 19.200006 0.000000 0.229579
667.000000 50.124000 -4.000000 3.000000 13.000000 104.323329 -48.900545 2208.803001 522.953050 19.954404 0.000000 0.237749
668.000000 47.456000 -3.000000 3.000000 13.000000 95.639926 -50.235804 2268.451208 774.827482 21.079470 0.000000 0.264535
672.000000 52.283000 -8.000000 4.000000 13.000000 132.080822 -31.668376 1638.912511 -200.876601 19.122794 0.000000 0.115130
673.000000 52.217000 -7.000000 4.000000 13.000000 125.242185 -35.154108 1732.951771 10.932001 19.149023 0.000000 0.100381
674.000000 51.580000 -6.000000 4.000000 13.000000 117.898058 -38.041440 1817.147565 217.476758 19.387527 0.000000 0.088088
675.000000 50.309000 -5.000000 4.000000 13.000000 110.123046 -40.460775 1892.968559 422.686901 19.879840 0.000000 0.089148
676.000000 48.371000 -4.000000 4.000000 13.000000 102.002628 -42.510505 1961.605092 630.582950 20.679088 0.000000 0.109620
677.000000 45.776000 -3.000000 4.000000 13.000000 93.633664 -44.265091 2024.032123 845.555410 21.854336 0.000000 0.146428
681.000000 49.365000 -10.000000 5.000000 13.000000 138.879374 -14.984201 1263.074122 -335.280244 20.251743 0.000000 0.046478
682.000000 50.037000 -9.000000 5.000000 13.000000 133.628188 -20.210099 1371.214598 -152.261101 19.981162 0.000000 0.042953
683.000000 50.329000 -8.000000 5.000000 13.000000 127.742356 -24.639305 1468.659380 24.419210 19.866890 0.000000 0.030704
684.000000 50.159000 -7.000000 5.000000 13.000000 121.282456 -28.398778 1556.920489 197.591390 19.935901 0.000000 0.012849
685.000000 49.455000 -6.000000 5.000000 13.000000 114.314475 -31.603750 1637.237771 370.027731 20.221760 0.000000 0.010276
686.000000 48.163000 -5.000000 5.000000 13.000000 106.912787 -34.352257 1710.637504 544.595031 20.766755 0.000000 0.035490
687.000000 46.258000 -4.000000 5.000000 13.000000 99.161909 -36.725023 1777.976480 724.425764 21.624938 0.000000 0.064777
688.000000 45.590000 -12.000000 6.000000 13.000000 141.455947 2.364549 930.557006 -411.105227 21.928056 0.000000 0.010260
689.000000 46.623000 -11.000000 6.000000 13.000000 137.839282 -3.939662 1049.122931 -250.439281 21.442990 0.000000 0.012473
690.000000 47.434000 -10.000000 6.000000 13.000000 133.541525 -9.575828 1156.574523 -96.302086 21.077553 0.000000 0.028591
691.000000 47.955000 -9.000000 6.000000 13.000000 128.596375 -14.552677 1254.404595 53.441552 20.850215 0.000000 0.041274
692.000000 48.113000 -8.000000 6.000000 13.000000 123.046684 -18.916779 1343.850076 200.822207 20.783449 0.000000 0.051976
693.000000 47.838000 -7.000000 6.000000 13.000000 116.943555 -22.732655 1425.944582 347.859220 20.904889 0.000000 0.061249
694.000000 47.069000 -6.000000 6.000000 13.000000 110.346958 -26.069400 1501.558543 496.657189 21.248894 0.000000 0.069376
695.000000 45.761000 -5.000000 6.000000 13.000000 103.326704 -28.993098 1571.430183 649.515733 21.858727 0.000000 0.077029
696.000000 45.698000 -9.000000 7.000000 13.000000 123.461723 -10.072440 1166.183109 218.514568 21.881788 0.000000 0.080358
697.000000 45.724000 -8.000000 7.000000 13.000000 118.201656 -14.254414 1248.432201 345.522431 21.871064 0.000000 0.094285
703.000000 48.092000 -5.000000 3.000000 14.000000 110.238838 -49.432302 2232.167818 330.820649 20.795761 0.000000 0.270666
704.000000 46.195000 -4.000000 3.000000 14.000000 102.259005 -50.714821 2290.668874 571.652750 21.652501 0.000000 0.281374
707.000000 48.759000 -7.000000 4.000000 14.000000 122.604275 -38.742771 1838.594247 58.353427 20.507427 0.000000 0.128946
708.000000 46.654000 -5.000000 4.000000 14.000000 108.044340 -43.072270 1981.201767 461.008614 21.437756 0.000000 0.125519
710.000000 46.941000 -10.000000 5.000000 14.000000 136.967330 -21.174082 1391.907030 -295.333935 21.298108 0.000000 0.067899
711.000000 47.348000 -9.000000 5.000000 14.000000 131.564222 -25.503956 1488.457262 -116.416978 21.116351 0.000000 0.059087
712.000000 47.402000 -8.000000 5.000000 14.000000 125.644326 -29.174682 1575.896550 57.048627 21.093815 0.000000 0.043834
713.000000 47.043000 -7.000000 5.000000 14.000000 119.259739 -32.301956 1655.456418 227.603171 21.256801 0.000000 0.027682
714.000000 46.220000 -6.000000 5.000000 14.000000 112.467264 -34.983088 1728.156004 397.751102 21.637738 0.000000 0.026979
715.000000 45.555000 -9.000000 6.000000 14.000000 127.187176 -19.723077 1360.858298 73.537872 21.949089 0.000000 0.031029
720.000000 46.064000 -8.000000 4.000000 15.000000 126.627418 -39.432520 1860.101635 -94.931974 21.706075 0.000000 0.169962
721.000000 45.612000 -7.000000 4.000000 15.000000 120.094734 -41.701225 1933.984512 105.540844 21.923380 0.000000 0.158821
#UB matrix in q= (UB) B0 G* 
#[[ 0.714218281 -0.036792666 -0.69825106 ]
# [-0.637045712  0.379440478 -0.671595515]
# [ 0.289939664  0.925260386  0.247721981]]
#B0 matrix in q= UB (B0) G*
#[[ 0.19670273 -0.          0.03056101]
# [ 0.          0.19187965 -0.        ]
# [ 0.          0.          0.18806537]]
#UBB0 matrix in q= (UB B0) G* i.e. recip. basis vectors are columns in LT frame: astar = UBB0[:,0], bstar = UBB0[:,1], cstar = UBB0[:,2]. (abcstar as columns on xyzlab1, xlab1 = ui, ui = unit vector along incident beam)
#[[ 0.14048869 -0.00705976 -0.10948962]
# [-0.12530863  0.07280691 -0.14577262]
# [ 0.05703192  0.17753864  0.05544877]]
#Euler angles phi theta psi (deg)
#[162.588  75.677 133.832]
#deviatoric strain in direct crystal frame (10-3 unit)
#[[  5.53  -0.13  -0.86]
# [ -0.13   4.66  -0.1 ]
# [ -0.86  -0.1  -10.19]]
#deviatoric strain in sample2 frame (10-3 unit)
#[[ 3.44 -3.87  2.87]
# [-3.88 -2.3   6.82]
# [ 2.88  6.81 -1.14]]
#new lattice parameters
#[ 5.1505     5.2070687  5.316594  90.0038402 99.2836374 90.0146798]
#CCDLabel
#sCMOS
#DetectorParameters
#[79.0, 975.0, 941.0, 0.0, 0.0]
#pixelsize
#0.0734
#Frame dimensions
#[2018, 2016]
#
