#Strain and Orientation Refinement from experimental file: /home/micha/LaueProjects/DepthEffects/testZrO2_8.cor
#File created at Wed Jun 28 14:18:09 2023 with indexingSpotsSet.py
#Number of indexed spots: 544
#Element
#ZrO2
#grainIndex
#G_0
#Mean Deviation(pixel): 0.116
##spot_index intensity h k l 2theta Chi Xexp Yexp Energy GrainIndex PixDev
5.000000 45.560000 4.000000 -9.000000 -12.000000 108.442148 -48.682658 2199.372482 397.378003 21.938336 0.000000 0.236874
12.000000 46.184000 3.000000 -12.000000 -11.000000 125.531243 -34.676615 1719.611771 6.392471 21.637058 0.000000 0.095698
14.000000 47.794000 3.000000 -11.000000 -11.000000 123.000812 -39.262150 1854.749977 38.232510 20.908826 0.000000 0.137174
15.000000 45.824000 4.000000 -11.000000 -11.000000 116.249657 -35.967451 1756.039767 285.213172 21.810102 0.000000 0.047885
17.000000 49.290000 3.000000 -10.000000 -11.000000 119.902864 -43.856475 2009.167494 82.606676 20.274817 0.000000 0.193371
18.000000 47.108000 4.000000 -10.000000 -11.000000 113.104623 -40.095212 1881.170232 340.743870 21.216303 0.000000 0.089192
20.000000 48.181000 4.000000 -9.000000 -11.000000 109.376568 -44.221452 2022.434800 412.808262 20.744782 0.000000 0.144136
22.000000 48.944000 4.000000 -8.000000 -11.000000 105.012583 -48.303834 2183.168962 507.064272 20.422874 0.000000 0.217042
23.000000 45.889000 5.000000 -8.000000 -11.000000 98.145593 -44.519002 2033.373307 724.941959 21.785323 0.000000 0.136695
26.000000 45.950000 5.000000 -7.000000 -11.000000 93.161032 -48.224421 2179.802731 851.779619 21.757711 0.000000 0.210983
28.000000 45.461000 5.000000 -6.000000 -11.000000 87.521877 -51.861506 2345.751371 1016.425796 21.993818 0.000000 0.310075
31.000000 45.541000 1.000000 -7.000000 -5.000000 135.661032 -20.969032 1387.483347 -238.536054 10.969712 0.000000 0.062165
33.000000 47.623000 2.000000 -13.000000 -10.000000 134.613833 -26.082472 1501.862896 -241.284318 20.980709 0.000000 0.087611
34.000000 46.152000 3.000000 -13.000000 -10.000000 127.646015 -23.941456 1452.879949 32.606294 21.651360 0.000000 0.030210
36.000000 49.758000 1.000000 -6.000000 -5.000000 133.100575 -31.430909 1632.770051 -239.399057 10.040277 0.000000 0.122467
37.000000 48.118000 3.000000 -12.000000 -10.000000 125.956374 -28.558877 1560.812947 52.125182 20.767027 0.000000 0.041522
38.000000 46.108000 2.000000 -6.000000 -5.000000 118.811581 -26.341519 1507.908538 280.428545 10.837387 0.000000 0.031845
41.000000 50.076000 3.000000 -11.000000 -10.000000 123.762755 -33.330891 1682.824151 79.846451 19.955636 0.000000 0.067216
42.000000 47.823000 4.000000 -11.000000 -10.000000 116.447495 -30.535831 1609.892726 319.401949 20.898167 0.000000 0.009010
44.000000 51.963000 3.000000 -10.000000 -10.000000 120.982463 -38.196715 1821.860158 118.680565 19.231576 0.000000 0.106887
45.000000 49.439000 2.000000 -5.000000 -5.000000 113.542255 -34.834279 1723.999373 369.696575 10.108102 0.000000 0.023620
46.000000 46.540000 2.000000 -4.000000 -4.000000 106.145323 -32.147023 1651.389672 573.001602 8.591245 0.000000 0.050540
48.000000 53.692000 3.000000 -9.000000 -10.000000 117.531758 -43.087884 1981.751546 172.772401 18.613287 0.000000 0.163010
49.000000 50.867000 4.000000 -9.000000 -10.000000 110.020027 -39.191120 1852.526477 435.008129 19.649509 0.000000 0.065906
50.000000 47.631000 5.000000 -9.000000 -10.000000 102.517327 -36.051956 1758.465730 645.446455 20.987226 0.000000 0.052439
52.000000 55.142000 3.000000 -8.000000 -10.000000 113.330379 -47.933782 2167.571241 248.149542 18.124795 0.000000 0.240921
53.000000 51.993000 2.000000 -4.000000 -5.000000 105.806807 -43.556721 1998.392047 520.547662 9.612584 0.000000 0.123065
54.000000 48.398000 5.000000 -8.000000 -10.000000 98.253129 -39.993425 1877.907674 737.225627 20.656077 0.000000 0.082066
56.000000 52.670000 4.000000 -7.000000 -10.000000 100.835945 -47.880847 2165.358316 633.825717 18.979474 0.000000 0.200495
57.000000 48.706000 5.000000 -7.000000 -10.000000 93.294145 -43.934468 2011.988925 854.976574 20.526970 0.000000 0.136742
59.000000 52.722000 2.000000 -3.000000 -5.000000 95.055469 -52.116064 2358.360868 785.945145 9.481099 0.000000 0.306268
60.000000 48.400000 5.000000 -6.000000 -10.000000 87.595125 -47.838148 2163.576569 1008.342073 20.658597 0.000000 0.216175
62.000000 47.314000 2.000000 -2.000000 -4.000000 81.132514 -51.669587 2336.338663 1211.749281 8.453929 0.000000 0.326610
68.000000 46.931000 2.000000 -14.000000 -9.000000 135.140212 -13.500133 1233.398045 -171.308733 21.289816 0.000000 0.032242
69.000000 45.459000 3.000000 -14.000000 -9.000000 128.086502 -13.013470 1223.748637 75.251993 21.981329 0.000000 0.050823
72.000000 49.317000 2.000000 -13.000000 -9.000000 134.520359 -18.505507 1335.238052 -175.135299 20.260090 0.000000 0.044075
73.000000 47.664000 3.000000 -13.000000 -9.000000 127.148304 -17.320916 1310.659406 86.843586 20.965051 0.000000 0.042067
74.000000 45.660000 4.000000 -13.000000 -9.000000 119.860073 -16.419267 1292.163944 296.831091 21.887749 0.000000 0.081682
76.000000 51.817000 2.000000 -12.000000 -9.000000 133.477568 -23.878592 1451.466925 -175.096566 19.282815 0.000000 0.064236
77.000000 49.954000 1.000000 -4.000000 -3.000000 125.816110 -21.915755 1408.011345 103.789836 6.668082 0.000000 0.030494
78.000000 47.687000 4.000000 -12.000000 -9.000000 118.227365 -20.428178 1375.872890 324.460161 20.957822 0.000000 0.071264
80.000000 54.399000 2.000000 -11.000000 -9.000000 131.906154 -29.557551 1585.365949 -169.421896 18.367831 0.000000 0.094778
81.000000 52.293000 3.000000 -11.000000 -9.000000 124.000021 -26.763127 1517.806251 127.930334 19.109609 0.000000 0.021770
82.000000 49.723000 4.000000 -11.000000 -9.000000 116.139554 -24.645975 1468.811036 359.867060 20.100079 0.000000 0.056520
83.000000 46.793000 5.000000 -11.000000 -9.000000 108.430334 -22.990658 1431.652728 551.383782 21.361621 0.000000 0.098881
85.000000 57.008000 2.000000 -10.000000 -9.000000 129.689839 -35.449971 1741.296190 -155.501278 17.527599 0.000000 0.138992
86.000000 54.624000 3.000000 -10.000000 -9.000000 121.599410 -31.810067 1642.592569 161.845706 18.294783 0.000000 0.036426
87.000000 51.706000 4.000000 -10.000000 -9.000000 113.509355 -29.040466 1572.593760 405.477509 19.329863 0.000000 0.037336
88.000000 48.387000 5.000000 -10.000000 -9.000000 105.559537 -26.871725 1520.367578 605.035164 20.658710 0.000000 0.086654
90.000000 56.856000 1.000000 -3.000000 -3.000000 118.505827 -36.987087 1785.665670 209.223600 5.859143 0.000000 0.073938
91.000000 53.544000 4.000000 -9.000000 -9.000000 110.242025 -33.568544 1689.236779 464.663152 18.667193 0.000000 0.023850
92.000000 49.790000 5.000000 -9.000000 -9.000000 102.096950 -30.878684 1618.605103 672.225186 20.077701 0.000000 0.074449
93.000000 45.772000 2.000000 -3.000000 -3.000000 94.203429 -28.715806 1564.639870 850.804276 7.281192 0.000000 0.107042
95.000000 58.856000 3.000000 -8.000000 -9.000000 114.607861 -42.212825 1951.363127 275.447015 16.980840 0.000000 0.130561
96.000000 55.107000 4.000000 -8.000000 -9.000000 106.239165 -38.177910 1821.288366 542.205639 18.138705 0.000000 0.051618
97.000000 50.877000 5.000000 -8.000000 -9.000000 97.958229 -34.976995 1727.985511 757.369937 19.649923 0.000000 0.071359
98.000000 46.386000 6.000000 -8.000000 -9.000000 89.929747 -32.390721 1657.792633 942.562858 21.556031 0.000000 0.102085
100.000000 60.442000 3.000000 -7.000000 -9.000000 109.798339 -47.401241 2145.512101 368.570664 16.536370 0.000000 0.211664
101.000000 56.221000 4.000000 -7.000000 -9.000000 101.404899 -42.810265 1972.017659 645.045313 17.780614 0.000000 0.108523
102.000000 51.488000 5.000000 -7.000000 -9.000000 93.061830 -39.126857 1850.518659 866.786831 19.418438 0.000000 0.093315
103.000000 46.509000 6.000000 -7.000000 -9.000000 84.967263 -36.129174 1760.687039 1058.351049 21.500630 0.000000 0.111823
104.000000 56.663000 4.000000 -6.000000 -9.000000 95.655037 -47.405554 2145.688969 783.531400 17.643461 0.000000 0.190978
105.000000 51.424000 5.000000 -6.000000 -9.000000 87.337179 -43.285342 1988.728689 1009.764257 19.444118 0.000000 0.147098
106.000000 45.973000 2.000000 -2.000000 -3.000000 79.260470 -39.900433 1874.935529 1207.094432 7.250930 0.000000 0.147561
108.000000 56.171000 4.000000 -5.000000 -9.000000 88.929597 -51.906539 2347.971647 973.595618 17.799966 0.000000 0.307988
109.000000 50.464000 5.000000 -5.000000 -9.000000 80.735822 -47.408987 2145.829760 1200.410920 19.815902 0.000000 0.233871
114.000000 46.770000 1.000000 -15.000000 -8.000000 140.676616 -0.233816 979.392224 -372.891194 21.361715 0.000000 0.007339
115.000000 45.643000 2.000000 -15.000000 -8.000000 133.812039 -1.614160 1005.329816 -91.973216 21.891157 0.000000 0.034564
117.000000 49.406000 1.000000 -14.000000 -8.000000 141.154268 -5.130925 1071.642285 -400.831114 20.221862 0.000000 0.023535
118.000000 48.147000 1.000000 -7.000000 -4.000000 133.855201 -5.845776 1085.194830 -98.527399 10.376348 0.000000 0.032899
119.000000 46.515000 3.000000 -14.000000 -8.000000 126.596172 -6.371557 1095.184765 136.817572 21.483127 0.000000 0.073082
121.000000 52.254000 1.000000 -13.000000 -8.000000 141.370891 -10.686709 1178.109341 -429.618808 19.119753 0.000000 0.045046
122.000000 50.841000 2.000000 -13.000000 -8.000000 133.638073 -10.546611 1175.385158 -102.941854 19.653098 0.000000 0.031172
123.000000 48.990000 3.000000 -13.000000 -8.000000 125.957995 -10.445313 1173.416959 147.074769 20.397979 0.000000 0.068890
124.000000 46.764000 4.000000 -13.000000 -8.000000 118.397931 -10.368656 1171.928400 349.439955 21.371366 0.000000 0.107831
127.000000 53.721000 1.000000 -6.000000 -4.000000 133.068488 -15.725102 1278.041537 -104.186711 9.299748 0.000000 0.032432
128.000000 51.612000 3.000000 -12.000000 -8.000000 124.974360 -14.874829 1260.873523 161.982497 19.361919 0.000000 0.061289
129.000000 49.067000 1.000000 -3.000000 -2.000000 117.014138 -14.238017 1248.104324 374.876123 5.092156 0.000000 0.103056
130.000000 46.189000 5.000000 -12.000000 -8.000000 109.261764 -13.743359 1238.235321 553.807789 21.641090 0.000000 0.133843
132.000000 56.770000 2.000000 -11.000000 -8.000000 132.032335 -21.360548 1395.940422 -100.762076 17.600885 0.000000 0.042341
133.000000 54.356000 3.000000 -11.000000 -8.000000 123.549432 -19.648976 1359.288139 183.150953 18.384829 0.000000 0.049055
134.000000 51.436000 4.000000 -11.000000 -8.000000 115.201648 -18.376050 1332.535840 407.281076 19.431257 0.000000 0.094997
135.000000 48.139000 5.000000 -11.000000 -8.000000 107.083870 -17.393191 1312.149715 594.370987 20.764892 0.000000 0.128230
137.000000 59.945000 1.000000 -5.000000 -4.000000 130.393478 -27.393744 1532.748889 -90.447733 8.334384 0.000000 0.065398
138.000000 57.173000 3.000000 -10.000000 -8.000000 121.569156 -24.735928 1470.857971 212.846776 17.479433 0.000000 0.030561
139.000000 53.812000 2.000000 -5.000000 -4.000000 112.862676 -22.764225 1426.641891 448.845065 9.286915 0.000000 0.082893
140.000000 50.031000 5.000000 -10.000000 -8.000000 104.400623 -21.246640 1393.475301 644.487937 19.980731 0.000000 0.119822
141.000000 46.004000 3.000000 -5.000000 -4.000000 96.277983 -20.044047 1367.676379 814.960316 10.866470 0.000000 0.139346
143.000000 63.171000 2.000000 -9.000000 -8.000000 127.996722 -33.722611 1693.412882 -69.891692 15.818094 0.000000 0.104548
144.000000 59.978000 3.000000 -9.000000 -8.000000 118.902161 -30.080220 1598.409655 254.321974 16.662402 0.000000 0.007188
145.000000 56.105000 4.000000 -9.000000 -8.000000 109.885163 -27.370133 1532.186361 502.628721 17.815587 0.000000 0.066619
146.000000 51.767000 5.000000 -9.000000 -8.000000 101.116469 -25.283619 1483.385558 707.112867 19.311577 0.000000 0.108767
147.000000 47.187000 6.000000 -9.000000 -8.000000 92.718087 -23.631716 1445.931079 885.225530 21.189463 0.000000 0.129678
149.000000 66.315000 1.000000 -4.000000 -4.000000 124.674576 -40.207104 1884.767957 -33.911024 7.534330 0.000000 0.164885
150.000000 62.637000 3.000000 -8.000000 -8.000000 115.403320 -35.603205 1745.642103 312.346064 15.956010 0.000000 0.039233
151.000000 53.211000 5.000000 -8.000000 -8.000000 97.127332 -29.474891 1583.315515 786.410767 18.788734 0.000000 0.097100
152.000000 48.023000 3.000000 -4.000000 -4.000000 88.505582 -27.355723 1531.843165 972.614223 10.411069 0.000000 0.119714
154.000000 64.941000 3.000000 -7.000000 -8.000000 110.920975 -41.208037 1917.491109 394.095792 15.390702 0.000000 0.097831
155.000000 59.823000 4.000000 -7.000000 -8.000000 101.513369 -37.035323 1787.086710 666.359047 16.710426 0.000000 0.057200
156.000000 54.174000 5.000000 -7.000000 -8.000000 92.325773 -33.782451 1695.038916 888.406456 18.455999 0.000000 0.092574
157.000000 48.342000 6.000000 -7.000000 -8.000000 83.554270 -31.190940 1626.594392 1083.142969 20.686117 0.000000 0.115168
158.000000 66.597000 3.000000 -6.000000 -8.000000 105.308909 -46.788935 2120.693513 510.700742 15.009223 0.000000 0.183798
159.000000 60.773000 2.000000 -3.000000 -4.000000 95.863717 -41.966333 1942.955175 792.338603 8.225226 0.000000 0.106474
160.000000 54.413000 5.000000 -6.000000 -8.000000 86.610027 -38.160999 1820.774422 1022.084137 18.376592 0.000000 0.111803
161.000000 47.938000 3.000000 -3.000000 -4.000000 77.785777 -35.106791 1731.622875 1225.791585 10.431133 0.000000 0.128496
163.000000 60.679000 4.000000 -5.000000 -8.000000 89.091004 -46.867691 2123.853943 965.977600 16.477762 0.000000 0.193746
164.000000 53.634000 5.000000 -5.000000 -8.000000 79.897931 -42.560491 1963.334450 1201.340452 18.645253 0.000000 0.168627
165.000000 46.576000 6.000000 -5.000000 -8.000000 71.141392 -39.068437 1848.696592 1414.509028 21.474109 0.000000 0.174265
167.000000 51.525000 5.000000 -4.000000 -8.000000 72.145971 -46.929432 2126.338033 1448.659798 19.410699 0.000000 0.269246
174.000000 47.631000 1.000000 -15.000000 -7.000000 138.297190 7.934336 824.994346 -278.561895 20.976295 0.000000 0.014533
175.000000 46.387000 2.000000 -15.000000 -7.000000 131.437897 5.460620 872.111206 -13.478568 21.540926 0.000000 0.045815
177.000000 50.526000 1.000000 -14.000000 -7.000000 139.106918 3.752327 904.412038 -304.481263 19.774007 0.000000 0.005431
178.000000 49.124000 2.000000 -14.000000 -7.000000 131.736841 1.727292 942.543193 -19.621858 20.340518 0.000000 0.046707
179.000000 47.325000 3.000000 -14.000000 -7.000000 124.384802 0.222831 970.814133 204.459626 21.116000 0.000000 0.090169
181.000000 53.705000 1.000000 -13.000000 -7.000000 139.768672 -1.106051 995.779612 -331.447727 18.603612 0.000000 0.009135
182.000000 52.115000 2.000000 -13.000000 -7.000000 131.854023 -2.495089 1021.899597 -24.060681 19.173068 0.000000 0.045888
183.000000 50.055000 3.000000 -13.000000 -7.000000 123.990704 -3.503540 1040.895734 213.925510 19.964516 0.000000 0.090829
184.000000 47.601000 4.000000 -13.000000 -7.000000 116.258401 -4.268540 1055.332677 408.557284 20.996499 0.000000 0.127209
186.000000 57.186000 1.000000 -12.000000 -7.000000 140.186360 -6.730354 1102.013619 -359.143051 17.471040 0.000000 0.026228
187.000000 55.373000 2.000000 -12.000000 -7.000000 131.707732 -7.253638 1111.991364 -25.942296 18.044880 0.000000 0.042837
188.000000 53.000000 3.000000 -12.000000 -7.000000 123.310605 -7.625208 1119.090309 227.411521 18.855521 0.000000 0.089159
189.000000 50.164000 4.000000 -12.000000 -7.000000 115.082912 -7.902669 1124.399276 432.388050 19.924080 0.000000 0.127091
190.000000 46.987000 5.000000 -12.000000 -7.000000 107.101700 -8.117746 1128.519475 606.502004 21.274262 0.000000 0.152221
192.000000 60.981000 1.000000 -11.000000 -7.000000 140.225665 -13.180886 1227.063766 -386.971132 16.383793 0.000000 0.050605
193.000000 58.902000 2.000000 -11.000000 -7.000000 131.188921 -12.578434 1215.154960 -24.018469 16.963970 0.000000 0.037388
194.000000 56.150000 3.000000 -11.000000 -7.000000 122.250503 -12.158807 1206.893207 246.312141 17.797960 0.000000 0.084233
195.000000 52.856000 4.000000 -11.000000 -7.000000 113.516099 -11.849777 1200.825623 462.456214 18.910033 0.000000 0.124570
196.000000 49.177000 5.000000 -11.000000 -7.000000 105.076621 -11.612723 1196.180578 645.005769 20.327661 0.000000 0.150161
198.000000 62.684000 2.000000 -10.000000 -7.000000 130.156041 -18.468151 1334.457902 -16.432497 15.940701 0.000000 0.031781
199.000000 59.474000 3.000000 -10.000000 -7.000000 120.691522 -17.103889 1306.191320 272.597205 16.803478 0.000000 0.074755
200.000000 55.628000 4.000000 -10.000000 -7.000000 111.454739 -16.109726 1285.854307 500.729746 17.968028 0.000000 0.118907
201.000000 51.355000 5.000000 -10.000000 -7.000000 102.560253 -15.353467 1270.520612 692.328651 19.466571 0.000000 0.145520
202.000000 46.863000 6.000000 -10.000000 -7.000000 94.094193 -14.759034 1258.546103 861.331306 21.336082 0.000000 0.155459
204.000000 66.666000 2.000000 -9.000000 -7.000000 128.432045 -24.874144 1474.008946 -0.367872 14.988700 0.000000 0.037035
205.000000 62.905000 3.000000 -9.000000 -7.000000 118.487078 -22.435653 1419.400213 309.105219 15.887526 0.000000 0.058944
206.000000 58.399000 4.000000 -9.000000 -7.000000 108.774126 -20.668625 1381.024323 549.974429 17.116367 0.000000 0.109321
207.000000 53.424000 5.000000 -9.000000 -7.000000 99.445808 -19.331620 1352.579853 751.237320 18.713558 0.000000 0.137826
208.000000 48.250000 6.000000 -9.000000 -7.000000 90.609565 -18.285744 1330.653231 928.939982 20.723609 0.000000 0.146736
210.000000 70.739000 2.000000 -8.000000 -7.000000 125.805890 -31.688745 1639.440854 28.550749 14.126257 0.000000 0.066244
211.000000 66.315000 3.000000 -8.000000 -7.000000 115.462483 -28.098989 1549.663227 360.021909 15.071045 0.000000 0.034869
212.000000 61.027000 4.000000 -8.000000 -7.000000 105.327899 -25.495621 1488.265057 614.168371 16.380125 0.000000 0.095529
213.000000 55.239000 5.000000 -8.000000 -7.000000 95.611005 -23.528663 1443.626442 825.671326 18.099891 0.000000 0.127105
214.000000 49.297000 6.000000 -8.000000 -7.000000 86.449439 -21.993510 1409.709314 1013.023796 20.284970 0.000000 0.135484
216.000000 74.696000 2.000000 -7.000000 -7.000000 122.040836 -38.745846 1838.689203 77.319253 13.378507 0.000000 0.122365
217.000000 69.491000 3.000000 -7.000000 -7.000000 111.418956 -34.006521 1701.147893 431.688510 14.383153 0.000000 0.018812
218.000000 63.293000 4.000000 -7.000000 -7.000000 100.951337 -30.541190 1610.028454 699.190426 15.794601 0.000000 0.080331
219.000000 56.586000 5.000000 -7.000000 -7.000000 90.921773 -27.914713 1545.222396 921.402907 17.670192 0.000000 0.115384
220.000000 49.808000 6.000000 -7.000000 -7.000000 81.507368 -25.863342 1496.769710 1119.600967 20.078575 0.000000 0.124280
221.000000 78.194000 2.000000 -6.000000 -7.000000 116.891118 -45.839442 2083.303180 157.523783 12.780960 0.000000 0.213869
222.000000 72.091000 3.000000 -6.000000 -7.000000 106.144643 -40.043143 1879.500054 534.023448 13.865556 0.000000 0.071632
223.000000 64.874000 4.000000 -6.000000 -7.000000 95.470493 -35.737999 1749.478784 814.011689 15.411125 0.000000 0.078962
224.000000 57.173000 5.000000 -6.000000 -7.000000 85.240869 -32.448431 1659.313965 1047.183857 17.490408 0.000000 0.111091
225.000000 49.532000 6.000000 -6.000000 -7.000000 75.679432 -29.868714 1593.114879 1257.841976 20.192300 0.000000 0.122037
227.000000 73.613000 3.000000 -5.000000 -7.000000 99.435721 -46.077669 2092.563147 683.145984 13.580188 0.000000 0.163115
228.000000 65.320000 4.000000 -5.000000 -7.000000 88.720199 -41.004949 1910.771569 972.862208 15.307320 0.000000 0.120185
229.000000 56.622000 5.000000 -5.000000 -7.000000 78.443719 -37.078407 1788.357522 1216.849413 17.662286 0.000000 0.134006
230.000000 48.171000 6.000000 -5.000000 -7.000000 68.878018 -33.975996 1700.313779 1442.381916 20.764754 0.000000 0.147390
231.000000 73.389000 3.000000 -4.000000 -7.000000 91.130877 -51.979184 2351.562702 906.506588 13.623155 0.000000 0.305952
232.000000 64.076000 4.000000 -4.000000 -7.000000 80.573820 -46.254150 2099.474726 1199.416215 15.606405 0.000000 0.214801
233.000000 54.502000 5.000000 -4.000000 -7.000000 70.443249 -41.746119 1935.498414 1453.444290 18.351476 0.000000 0.204230
242.000000 48.219000 1.000000 -15.000000 -6.000000 135.058091 15.485196 676.816645 -178.102984 20.721212 0.000000 0.026891
243.000000 46.855000 2.000000 -15.000000 -6.000000 128.310562 12.137761 743.520458 71.227926 21.326761 0.000000 0.051866
245.000000 51.346000 1.000000 -14.000000 -6.000000 136.065430 12.094010 744.380194 -201.441771 19.459282 0.000000 0.021711
246.000000 49.794000 1.000000 -7.000000 -3.000000 128.763490 8.968568 805.136934 66.068904 10.033822 0.000000 0.056444
247.000000 47.827000 3.000000 -14.000000 -6.000000 121.431482 6.601766 850.434881 278.824430 20.895416 0.000000 0.100983
248.000000 45.513000 2.000000 -7.000000 -3.000000 114.168901 4.753105 885.508108 456.329412 10.980267 0.000000 0.135086
250.000000 54.827000 1.000000 -13.000000 -6.000000 137.027923 8.097160 821.875065 -225.946341 18.223269 0.000000 0.015897
251.000000 53.051000 2.000000 -13.000000 -6.000000 129.107847 5.339416 874.408359 62.261650 18.835505 0.000000 0.059950
252.000000 50.777000 3.000000 -13.000000 -6.000000 121.198225 3.304512 912.856231 288.133064 19.681439 0.000000 0.105718
253.000000 48.096000 4.000000 -13.000000 -6.000000 113.404777 1.744803 942.213958 474.923250 20.781433 0.000000 0.139853
254.000000 58.709000 1.000000 -12.000000 -6.000000 137.880913 3.367727 911.664703 -251.420290 17.018196 0.000000 0.010340
255.000000 56.660000 1.000000 -6.000000 -3.000000 129.280178 1.178668 952.855736 60.498656 8.817864 0.000000 0.061785
256.000000 54.011000 1.000000 -4.000000 -2.000000 120.739597 -0.392577 982.374631 300.921715 6.167763 0.000000 0.109073
257.000000 50.882000 2.000000 -6.000000 -3.000000 112.371274 -1.573579 1004.566929 497.847537 9.822100 0.000000 0.143426
258.000000 47.412000 5.000000 -12.000000 -6.000000 104.266425 -2.492942 1021.859188 667.068366 21.084781 0.000000 0.163680
260.000000 63.034000 1.000000 -11.000000 -6.000000 138.523467 -2.230832 1016.927102 -277.457322 15.850475 0.000000 0.013080
261.000000 60.651000 2.000000 -11.000000 -6.000000 129.189675 -3.584989 1042.431607 61.798260 16.475229 0.000000 0.061096
262.000000 57.539000 3.000000 -11.000000 -6.000000 119.970847 -4.530007 1060.273393 318.386197 17.368867 0.000000 0.110407
263.000000 53.860000 4.000000 -11.000000 -6.000000 110.988283 -5.226626 1073.454788 526.377918 18.558379 0.000000 0.145320
264.000000 49.800000 5.000000 -11.000000 -6.000000 102.342005 -5.761262 1083.590847 704.307622 20.074494 0.000000 0.164334
265.000000 45.548000 6.000000 -11.000000 -6.000000 94.107819 -6.184461 1091.627643 863.250137 21.952346 0.000000 0.168612
266.000000 67.836000 1.000000 -10.000000 -6.000000 138.802857 -8.821816 1142.038805 -303.284570 14.728421 0.000000 0.029024
267.000000 65.043000 1.000000 -5.000000 -3.000000 128.708573 -9.011244 1145.684781 67.682425 7.681523 0.000000 0.056663
268.000000 61.356000 3.000000 -10.000000 -6.000000 118.778699 -9.139995 1148.165078 342.220578 16.288591 0.000000 0.108822
269.000000 57.000000 2.000000 -5.000000 -3.000000 109.152936 -9.233198 1149.961679 562.278780 8.768331 0.000000 0.144890
270.000000 52.224000 5.000000 -10.000000 -6.000000 99.945738 -9.303789 1151.323032 749.755273 19.143612 0.000000 0.162666
271.000000 47.275000 3.000000 -5.000000 -3.000000 91.240611 -9.359106 1152.390215 917.377167 10.575736 0.000000 0.163809
272.000000 73.126000 1.000000 -9.000000 -6.000000 138.497677 -16.469939 1293.198744 -327.477395 13.663013 0.000000 0.056574
273.000000 69.824000 2.000000 -9.000000 -6.000000 127.661498 -15.129782 1266.006752 80.471527 14.311221 0.000000 0.046835
274.000000 60.232000 4.000000 -9.000000 -6.000000 106.734828 -13.602143 1235.425595 608.044312 16.596285 0.000000 0.141320
275.000000 54.592000 5.000000 -9.000000 -6.000000 96.963365 -13.125945 1225.975343 806.019578 18.314365 0.000000 0.157979
276.000000 48.823000 2.000000 -3.000000 -2.000000 87.795321 -12.756035 1218.659702 983.483623 6.827297 0.000000 0.155638
277.000000 78.863000 1.000000 -8.000000 -6.000000 137.306206 -25.113703 1479.487014 -347.420284 12.669060 0.000000 0.100728
278.000000 69.641000 3.000000 -8.000000 -6.000000 114.485742 -19.812285 1362.750481 419.988184 14.351796 0.000000 0.091444
279.000000 63.426000 2.000000 -4.000000 -3.000000 103.571959 -18.327204 1331.517302 667.290981 7.880638 0.000000 0.133695
280.000000 56.753000 5.000000 -8.000000 -6.000000 93.257995 -17.224125 1308.665409 876.856318 17.618135 0.000000 0.149591
281.000000 50.038000 3.000000 -4.000000 -3.000000 83.658343 -16.373034 1291.220279 1065.671970 9.993033 0.000000 0.143640
283.000000 80.197000 2.000000 -7.000000 -6.000000 122.879422 -29.265647 1578.139918 143.467140 12.460817 0.000000 0.025436
284.000000 73.810000 3.000000 -7.000000 -6.000000 110.956062 -25.813236 1495.607758 483.106620 13.541909 0.000000 0.072427
285.000000 66.357000 4.000000 -7.000000 -6.000000 99.469308 -23.381906 1440.350648 745.421859 15.066157 0.000000 0.121509
286.000000 58.474000 5.000000 -7.000000 -6.000000 88.671090 -21.582978 1400.765216 967.850481 17.100706 0.000000 0.137414
287.000000 50.699000 6.000000 -7.000000 -6.000000 78.703942 -20.200620 1371.012422 1170.078593 19.726985 0.000000 0.128614
288.000000 59.414000 5.000000 -6.000000 -6.000000 83.028859 -26.173225 1503.977842 1087.637620 16.831596 0.000000 0.124234
289.000000 50.511000 2.000000 -2.000000 -2.000000 72.801820 -24.220727 1459.173904 1306.286834 6.600754 0.000000 0.116466
290.000000 89.572000 2.000000 -5.000000 -6.000000 112.323326 -44.817031 2044.442025 317.999506 11.158150 0.000000 0.167520
291.000000 80.310000 3.000000 -5.000000 -6.000000 99.749036 -38.677804 1836.589971 704.124070 12.447825 0.000000 0.069163
292.000000 69.778000 4.000000 -5.000000 -6.000000 87.538435 -34.253869 1707.929056 996.977957 14.330172 0.000000 0.104327
293.000000 59.104000 5.000000 -5.000000 -6.000000 76.157961 -30.950727 1620.443742 1250.232336 16.921730 0.000000 0.122888
294.000000 49.104000 6.000000 -5.000000 -6.000000 65.831921 -28.405941 1557.094383 1490.096947 20.371736 0.000000 0.126917
295.000000 81.134000 3.000000 -4.000000 -6.000000 91.478395 -45.241629 2060.410733 901.549774 12.323017 0.000000 0.160273
296.000000 56.963000 5.000000 -4.000000 -6.000000 67.915068 -35.857490 1752.890784 1479.828849 17.559656 0.000000 0.162817
297.000000 46.068000 3.000000 -2.000000 -3.000000 57.708740 -32.719619 1666.489203 1749.456452 10.858210 0.000000 0.188582
298.000000 65.318000 4.000000 -3.000000 -6.000000 69.236767 -45.547926 2072.079138 1523.676686 15.312447 0.000000 0.263226
299.000000 52.392000 5.000000 -3.000000 -6.000000 58.232695 -40.824953 1904.850603 1821.760632 19.093848 0.000000 0.270922
305.000000 45.533000 1.000000 -16.000000 -5.000000 130.013029 24.496679 484.579781 -51.911933 21.945157 0.000000 0.035986
308.000000 48.480000 1.000000 -15.000000 -5.000000 131.024377 22.258469 534.490655 -70.807955 20.610786 0.000000 0.031846
309.000000 46.995000 2.000000 -15.000000 -5.000000 124.469786 18.287003 619.320537 162.818025 21.263990 0.000000 0.051400
312.000000 51.790000 1.000000 -14.000000 -5.000000 132.082860 19.631037 591.091764 -90.900430 19.293185 0.000000 0.028386
313.000000 50.089000 2.000000 -14.000000 -5.000000 124.961894 15.688917 672.691962 159.314500 19.950726 0.000000 0.059155
314.000000 47.959000 3.000000 -14.000000 -5.000000 117.751090 12.628482 733.857905 360.668777 20.839377 0.000000 0.105501
315.000000 45.478000 4.000000 -14.000000 -5.000000 110.574158 10.196542 781.411161 530.518482 21.978824 0.000000 0.138867
317.000000 55.524000 1.000000 -13.000000 -5.000000 133.171851 16.517724 655.824916 -112.175637 17.995533 0.000000 0.025685
318.000000 53.557000 2.000000 -13.000000 -5.000000 125.401457 12.693900 732.567011 156.911530 18.658546 0.000000 0.066564
319.000000 51.074000 3.000000 -13.000000 -5.000000 117.576233 9.800869 789.074880 370.570056 19.568457 0.000000 0.113374
320.000000 48.177000 4.000000 -13.000000 -5.000000 109.833042 7.546261 832.418998 549.417501 20.747747 0.000000 0.145873
322.000000 59.752000 1.000000 -12.000000 -5.000000 134.259607 12.794617 730.578279 -134.536652 16.721868 0.000000 0.023587
323.000000 57.458000 2.000000 -12.000000 -5.000000 125.745349 9.224213 800.211566 156.162588 17.391847 0.000000 0.073260
324.000000 54.534000 3.000000 -12.000000 -5.000000 117.226921 6.600469 850.459576 383.525394 18.326872 0.000000 0.120626
325.000000 51.122000 4.000000 -12.000000 -5.000000 108.854044 4.598688 888.428226 572.279297 19.552863 0.000000 0.152144
326.000000 47.383000 5.000000 -12.000000 -5.000000 100.740270 3.024698 918.128570 736.563698 21.099235 0.000000 0.168142
328.000000 64.556000 1.000000 -11.000000 -5.000000 135.289154 8.305840 817.873610 -157.737509 15.477394 0.000000 0.021674
329.000000 61.852000 2.000000 -11.000000 -5.000000 125.927911 5.189795 877.242834 157.883182 16.156342 0.000000 0.078685
330.000000 58.374000 3.000000 -11.000000 -5.000000 116.631899 2.972780 919.106522 400.555005 17.121423 0.000000 0.126836
331.000000 54.319000 4.000000 -11.000000 -5.000000 107.563231 1.319320 950.212358 600.249053 18.402856 0.000000 0.157280
332.000000 49.901000 5.000000 -11.000000 -5.000000 98.844416 0.040728 974.234928 773.526354 20.035275 0.000000 0.170519
333.000000 70.023000 1.000000 -10.000000 -5.000000 136.162086 2.863942 921.156343 -181.265358 14.268942 0.000000 0.019761
334.000000 66.800000 2.000000 -10.000000 -5.000000 125.849970 0.491856 965.760309 163.295576 14.959587 0.000000 0.081988
335.000000 62.619000 3.000000 -10.000000 -5.000000 115.691633 -1.138293 996.385510 423.105914 15.961184 0.000000 0.131386
336.000000 57.752000 4.000000 -10.000000 -5.000000 105.862634 -2.325757 1018.713082 634.916107 17.309429 0.000000 0.160727
337.000000 52.496000 2.000000 -4.000000 -2.000000 96.495551 -3.228590 1035.712943 818.261597 7.618281 0.000000 0.170715
338.000000 47.129000 6.000000 -10.000000 -5.000000 87.680552 -3.937851 1049.088747 984.697530 21.218242 0.000000 0.163631
340.000000 76.237000 1.000000 -9.000000 -5.000000 136.713910 -3.735003 1045.261126 -204.123671 13.105650 0.000000 0.020218
341.000000 72.351000 2.000000 -9.000000 -5.000000 125.363476 -4.967058 1068.540038 174.270267 13.811793 0.000000 0.081843
342.000000 67.267000 3.000000 -9.000000 -5.000000 114.267835 -5.784611 1084.033936 453.278142 14.858550 0.000000 0.133388
343.000000 61.373000 4.000000 -9.000000 -5.000000 103.623059 -6.366501 1095.088602 678.539841 16.288744 0.000000 0.161716
344.000000 55.082000 5.000000 -9.000000 -5.000000 93.575669 -6.801706 1103.372829 873.267460 18.152695 0.000000 0.167888
345.000000 48.760000 6.000000 -9.000000 -5.000000 84.218656 -7.139447 1109.812107 1050.823436 20.509928 0.000000 0.154911
347.000000 83.261000 1.000000 -8.000000 -5.000000 136.680364 -11.664297 1197.190485 -224.418881 12.000036 0.000000 0.031465
348.000000 78.519000 2.000000 -8.000000 -5.000000 124.251606 -11.262432 1189.331027 193.743187 12.727107 0.000000 0.076137
349.000000 72.268000 3.000000 -8.000000 -5.000000 112.170576 -11.004030 1184.288978 494.202154 13.830900 0.000000 0.131563
350.000000 65.071000 4.000000 -8.000000 -5.000000 100.675986 -10.823911 1180.779652 734.424058 15.363762 0.000000 0.159215
351.000000 57.507000 5.000000 -8.000000 -5.000000 89.937905 -10.691182 1178.196366 942.187048 17.388214 0.000000 0.160980
352.000000 50.058000 6.000000 -8.000000 -5.000000 80.052771 -10.589317 1176.215300 1133.028080 19.979541 0.000000 0.141193
353.000000 85.227000 2.000000 -7.000000 -5.000000 122.206507 -18.413754 1333.322429 226.466658 11.725705 0.000000 0.061408
354.000000 77.466000 3.000000 -7.000000 -5.000000 109.144383 -16.806285 1300.081240 550.694943 12.903388 0.000000 0.124183
355.000000 68.629000 4.000000 -7.000000 -5.000000 96.805999 -15.703383 1277.601244 807.565024 14.568250 0.000000 0.151976
356.000000 59.525000 5.000000 -7.000000 -5.000000 85.403972 -14.900253 1261.384852 1030.531997 16.800082 0.000000 0.148899
357.000000 50.780000 6.000000 -7.000000 -5.000000 75.040274 -14.289520 1249.134330 1237.763058 19.697104 0.000000 0.122119
358.000000 82.521000 3.000000 -6.000000 -5.000000 104.857473 -23.156167 1435.325974 630.457041 12.113831 0.000000 0.109506
359.000000 71.656000 4.000000 -6.000000 -5.000000 91.747319 -20.987100 1387.872651 905.833754 13.953971 0.000000 0.139108
360.000000 60.749000 5.000000 -6.000000 -5.000000 79.766499 -19.418991 1354.424089 1147.025966 16.463200 0.000000 0.131711
361.000000 50.585000 6.000000 -6.000000 -5.000000 69.025885 -18.234111 1329.577731 1375.406160 19.774931 0.000000 0.102078
362.000000 86.768000 3.000000 -5.000000 -5.000000 98.903334 -29.959089 1595.374546 746.389179 11.521836 0.000000 0.089854
363.000000 73.505000 4.000000 -5.000000 -5.000000 85.191698 -26.627129 1514.605596 1042.277256 13.604529 0.000000 0.123291
364.000000 49.028000 6.000000 -5.000000 -5.000000 61.856303 -22.407144 1418.773499 1563.762399 20.405235 0.000000 0.105188
365.000000 89.057000 3.000000 -4.000000 -5.000000 90.831853 -37.057456 1787.739365 921.417634 11.227120 0.000000 0.094943
366.000000 73.193000 4.000000 -4.000000 -5.000000 76.820302 -32.541953 1661.783524 1239.980873 13.664295 0.000000 0.124422
367.000000 58.368000 5.000000 -4.000000 -5.000000 64.301322 -29.259725 1577.993751 1534.703717 17.138672 0.000000 0.134437
368.000000 45.589000 6.000000 -4.000000 -5.000000 53.407846 -26.781202 1518.232217 1836.113548 21.946539 0.000000 0.172617
369.000000 87.643000 3.000000 -3.000000 -5.000000 80.236178 -44.245296 2023.307253 1199.541378 11.410092 0.000000 0.187035
370.000000 69.435000 4.000000 -3.000000 -5.000000 66.376424 -38.619291 1834.787892 1543.512042 14.405872 0.000000 0.192838
371.000000 53.173000 5.000000 -3.000000 -5.000000 54.129514 -34.471282 1713.922562 1885.023641 18.815165 0.000000 0.231446
377.000000 46.392000 0.000000 -4.000000 -1.000000 130.926006 35.027726 220.594192 -198.577427 5.384524 0.000000 0.132975
379.000000 49.552000 0.000000 -15.000000 -4.000000 132.284859 33.626069 259.205721 -234.535793 20.164489 0.000000 0.127597
380.000000 48.364000 1.000000 -15.000000 -4.000000 126.290550 28.209080 397.676453 44.134504 20.661518 0.000000 0.033861
381.000000 46.765000 2.000000 -15.000000 -4.000000 119.983217 23.844877 499.290326 262.070309 21.370334 0.000000 0.044813
383.000000 53.138000 0.000000 -7.000000 -2.000000 133.791788 31.945572 303.877496 -274.993969 9.401571 0.000000 0.121489
384.000000 51.792000 1.000000 -14.000000 -4.000000 127.260335 26.254328 444.129313 28.083263 19.293716 0.000000 0.028823
385.000000 49.946000 1.000000 -7.000000 -2.000000 120.399414 21.780202 544.944339 261.015374 10.004590 0.000000 0.054886
386.000000 47.665000 3.000000 -14.000000 -4.000000 113.391662 18.210885 620.905857 450.883195 20.968957 0.000000 0.104138
388.000000 57.237000 0.000000 -13.000000 -4.000000 135.465558 29.897821 356.157796 -320.863008 17.456410 0.000000 0.114353
389.000000 55.699000 1.000000 -13.000000 -4.000000 128.300284 23.941957 497.108798 10.962117 17.940103 0.000000 0.025602
390.000000 53.547000 2.000000 -13.000000 -4.000000 120.794711 19.396208 596.057011 260.937281 18.663542 0.000000 0.065197
391.000000 50.868000 3.000000 -13.000000 -4.000000 113.164664 15.854038 669.342738 462.274848 19.648881 0.000000 0.114122
392.000000 47.782000 4.000000 -13.000000 -4.000000 105.573640 13.036104 725.803425 633.091569 20.921090 0.000000 0.145506
393.000000 60.181000 1.000000 -12.000000 -4.000000 129.403439 21.174020 558.094326 -7.201573 16.603685 0.000000 0.025055
394.000000 57.644000 1.000000 -6.000000 -2.000000 121.142658 16.623129 653.669594 262.278674 8.668405 0.000000 0.075583
395.000000 54.463000 3.000000 -12.000000 -4.000000 112.795525 13.172790 723.096655 476.442682 18.352183 0.000000 0.124055
396.000000 50.799000 2.000000 -6.000000 -2.000000 104.549074 10.484851 775.814985 656.924459 9.839404 0.000000 0.153407
397.000000 46.831000 5.000000 -12.000000 -4.000000 96.540900 8.340502 817.208550 816.274265 21.349805 0.000000 0.165616
399.000000 65.358000 1.000000 -11.000000 -4.000000 130.550409 17.818854 629.048984 -26.282834 15.288376 0.000000 0.027162
400.000000 62.330000 2.000000 -11.000000 -4.000000 121.400964 13.374023 719.106152 265.688425 16.033441 0.000000 0.085775
401.000000 58.505000 3.000000 -11.000000 -4.000000 112.226086 10.109743 783.093947 494.264402 17.084572 0.000000 0.133668
402.000000 54.108000 4.000000 -11.000000 -4.000000 103.237811 7.625672 830.900816 685.548832 18.475876 0.000000 0.160522
403.000000 49.384000 5.000000 -11.000000 -4.000000 94.587846 5.678709 867.975470 854.207257 20.246725 0.000000 0.168579
404.000000 71.375000 1.000000 -10.000000 -4.000000 131.698631 13.699646 712.634784 -45.975984 13.999381 0.000000 0.030743
405.000000 67.710000 1.000000 -5.000000 -2.000000 121.502150 9.542123 794.076569 272.136067 7.379704 0.000000 0.095321
406.000000 63.048000 3.000000 -10.000000 -4.000000 111.372924 6.598902 850.489404 516.982379 15.853775 0.000000 0.142552
407.000000 57.711000 2.000000 -5.000000 -2.000000 101.548367 4.416363 891.874458 720.424178 8.661587 0.000000 0.166337
408.000000 52.038000 5.000000 -10.000000 -4.000000 92.193454 2.737842 923.530787 899.728979 19.215181 0.000000 0.169288
409.000000 46.331000 3.000000 -5.000000 -2.000000 83.413008 1.408929 948.528098 1065.321470 10.792885 0.000000 0.154369
411.000000 78.406000 1.000000 -9.000000 -4.000000 132.762909 8.582912 812.554110 -65.639422 12.743765 0.000000 0.034086
412.000000 73.902000 2.000000 -9.000000 -4.000000 121.338655 5.000440 880.828128 283.103916 13.522911 0.000000 0.103490
413.000000 68.134000 3.000000 -9.000000 -4.000000 110.115772 2.567298 926.741318 546.400190 14.670523 0.000000 0.150078
414.000000 61.578000 4.000000 -9.000000 -4.000000 99.356814 0.812664 959.733178 763.636171 16.235999 0.000000 0.170101
415.000000 54.709000 5.000000 -9.000000 -4.000000 89.238385 -0.510264 984.585505 955.308259 18.277979 0.000000 0.166725
416.000000 47.931000 6.000000 -9.000000 -4.000000 79.862532 -1.542343 1003.979725 1133.513208 20.866614 0.000000 0.143489
417.000000 86.649000 1.000000 -8.000000 -4.000000 133.580894 2.175545 934.112997 -83.995828 11.531374 0.000000 0.035305
418.000000 73.770000 3.000000 -8.000000 -4.000000 108.281023 -2.060248 1013.718207 585.215149 13.550171 0.000000 0.155282
419.000000 57.248000 5.000000 -8.000000 -4.000000 85.569822 -4.092002 1051.998719 1024.599713 17.468772 0.000000 0.159471
420.000000 49.183000 3.000000 -4.000000 -2.000000 75.595520 -4.755804 1064.542936 1218.390126 10.168619 0.000000 0.126092
421.000000 89.120000 2.000000 -7.000000 -4.000000 119.436088 -6.774456 1102.853677 329.375639 11.214124 0.000000 0.110050
422.000000 79.873000 3.000000 -7.000000 -4.000000 105.619382 -7.351190 1113.853967 637.606998 12.515478 0.000000 0.156704
423.000000 69.639000 4.000000 -7.000000 -4.000000 92.739950 -7.744102 1121.364376 889.017000 14.358392 0.000000 0.166589
424.000000 59.392000 5.000000 -7.000000 -4.000000 80.995286 -8.028971 1126.818296 1113.247485 16.839378 0.000000 0.145649
425.000000 49.819000 6.000000 -7.000000 -4.000000 70.455676 -8.244965 1130.958668 1327.063441 20.079326 0.000000 0.100760
426.000000 86.170000 3.000000 -6.000000 -4.000000 101.778594 -13.348090 1230.379221 710.338831 11.601691 0.000000 0.152217
427.000000 60.716000 5.000000 -6.000000 -4.000000 75.279988 -12.333822 1210.335732 1230.442797 16.473947 0.000000 0.123578
428.000000 49.454000 3.000000 -3.000000 -2.000000 64.266165 -12.017567 1204.118329 1471.392662 10.114644 0.000000 0.072464
429.000000 75.682000 4.000000 -5.000000 -4.000000 81.291489 -18.261419 1330.146480 1114.603015 13.214583 0.000000 0.136336
430.000000 60.558000 5.000000 -5.000000 -4.000000 68.154265 -17.005119 1304.161329 1392.211456 16.518848 0.000000 0.097520
431.000000 47.569000 6.000000 -5.000000 -4.000000 56.843020 -16.072854 1285.104038 1672.757726 21.033320 0.000000 0.085768
432.000000 57.987000 5.000000 -4.000000 -4.000000 59.342799 -22.021868 1410.329042 1629.178823 17.253199 0.000000 0.108596
433.000000 71.722000 4.000000 -3.000000 -4.000000 61.917614 -30.549347 1610.235035 1607.823050 13.948007 0.000000 0.150059
434.000000 51.888000 5.000000 -3.000000 -4.000000 48.631579 -27.339025 1531.445599 2008.007001 19.283499 0.000000 0.222879
435.000000 88.052000 3.000000 -2.000000 -4.000000 63.597511 -43.038503 1980.013709 1672.069760 11.360127 0.000000 0.261860
439.000000 45.931000 0.000000 -16.000000 -3.000000 125.531371 39.757092 79.630102 -58.791919 21.755743 0.000000 0.154687
441.000000 49.123000 0.000000 -5.000000 -1.000000 126.645044 38.873873 107.350055 -87.400813 6.780650 0.000000 0.150042
442.000000 47.833000 1.000000 -15.000000 -3.000000 120.965670 33.372340 266.059943 167.661475 20.892513 0.000000 0.041589
443.000000 46.129000 2.000000 -15.000000 -3.000000 114.937276 28.803225 383.223311 369.891690 21.666395 0.000000 0.034664
445.000000 52.770000 0.000000 -14.000000 -3.000000 127.897515 37.827395 139.316026 -119.688337 18.935885 0.000000 0.144953
446.000000 51.296000 1.000000 -14.000000 -3.000000 121.725144 31.975013 303.109161 156.605398 19.481903 0.000000 0.032756
447.000000 49.317000 2.000000 -14.000000 -3.000000 115.172386 27.208900 421.648522 372.230849 20.265785 0.000000 0.045523
448.000000 46.909000 3.000000 -14.000000 -3.000000 108.428306 23.302793 511.412253 550.521411 21.308991 0.000000 0.097941
450.000000 56.971000 0.000000 -13.000000 -3.000000 129.314212 36.568724 176.584506 -156.417002 17.539095 0.000000 0.139317
451.000000 55.272000 1.000000 -13.000000 -3.000000 122.559383 30.332255 345.251323 144.759381 18.080224 0.000000 0.024237
452.000000 52.949000 2.000000 -13.000000 -3.000000 115.391952 25.371956 464.583323 375.586237 18.875807 0.000000 0.057234
453.000000 50.103000 3.000000 -13.000000 -3.000000 108.041914 21.388027 553.464314 564.490679 19.950484 0.000000 0.108841
454.000000 46.865000 4.000000 -13.000000 -3.000000 100.689060 18.147203 622.231110 727.210929 21.332181 0.000000 0.139308
455.000000 59.877000 1.000000 -12.000000 -3.000000 123.474094 28.376753 393.614081 132.122450 16.689457 0.000000 0.017855
456.000000 57.115000 2.000000 -12.000000 -3.000000 115.579011 23.237255 512.871073 380.328653 17.498898 0.000000 0.069694
457.000000 53.712000 1.000000 -4.000000 -1.000000 107.522350 19.206667 600.054236 581.154393 6.203494 0.000000 0.120087
458.000000 49.846000 4.000000 -12.000000 -3.000000 99.517062 15.990580 666.569079 753.297855 20.056920 0.000000 0.147660
459.000000 45.709000 5.000000 -12.000000 -3.000000 91.719978 13.380055 718.986425 907.778986 21.875823 0.000000 0.156388
460.000000 67.594000 0.000000 -11.000000 -3.000000 132.769799 33.100620 273.355997 -247.481479 14.781929 0.000000 0.125654
461.000000 65.262000 1.000000 -11.000000 -3.000000 124.471546 26.015982 449.684520 118.753324 15.312217 0.000000 0.017771
462.000000 61.930000 2.000000 -11.000000 -3.000000 115.706201 20.733666 567.579405 386.991343 16.138304 0.000000 0.082795
463.000000 57.802000 3.000000 -11.000000 -3.000000 106.820064 16.706730 651.958437 601.297014 17.293755 0.000000 0.131493
464.000000 53.131000 4.000000 -11.000000 -3.000000 98.065166 13.563884 715.335048 784.112438 18.817413 0.000000 0.155347
465.000000 48.180000 5.000000 -11.000000 -3.000000 89.619649 11.056763 764.682792 948.280084 20.754479 0.000000 0.158648
466.000000 74.410000 0.000000 -10.000000 -3.000000 134.887942 30.628088 337.768960 -304.905860 13.427645 0.000000 0.116871
467.000000 71.623000 1.000000 -10.000000 -3.000000 125.545879 23.120572 515.464770 104.824565 13.952029 0.000000 0.024942
468.000000 67.538000 2.000000 -10.000000 -3.000000 115.729094 17.769090 630.080085 396.358712 14.798444 0.000000 0.096359
469.000000 62.451000 3.000000 -10.000000 -3.000000 105.863705 13.824879 710.141170 626.021765 16.006867 0.000000 0.142761
470.000000 56.730000 4.000000 -10.000000 -3.000000 96.246607 10.823558 769.227214 821.057342 17.624177 0.000000 0.161831
471.000000 50.747000 5.000000 -10.000000 -3.000000 87.077400 8.475026 814.626331 996.555008 19.705714 0.000000 0.158286
472.000000 79.221000 1.000000 -9.000000 -3.000000 126.673455 19.507005 593.716113 90.725194 12.613755 0.000000 0.035456
473.000000 74.114000 2.000000 -9.000000 -3.000000 115.574817 14.224515 702.165620 409.615635 13.485490 0.000000 0.110064
474.000000 60.627000 4.000000 -9.000000 -3.000000 93.942337 7.719896 829.098702 866.148166 16.492306 0.000000 0.166284
475.000000 53.325000 5.000000 -9.000000 -3.000000 83.973012 5.601603 869.438018 1055.180923 18.754390 0.000000 0.154010
476.000000 46.245000 2.000000 -3.000000 -1.000000 74.759921 3.931084 901.038981 1234.922817 7.209778 0.000000 0.120830
477.000000 88.397000 1.000000 -8.000000 -3.000000 127.792880 14.913111 688.356485 77.261674 11.304303 0.000000 0.046640
478.000000 81.868000 2.000000 -8.000000 -3.000000 115.122422 9.948173 786.223954 428.609120 12.208333 0.000000 0.123326
479.000000 73.703000 3.000000 -8.000000 -3.000000 102.722039 6.596972 850.526150 696.391964 13.564061 0.000000 0.162636
480.000000 64.745000 4.000000 -8.000000 -3.000000 90.988026 4.197820 896.003062 922.388278 15.444254 0.000000 0.167427
481.000000 55.755000 5.000000 -8.000000 -3.000000 80.149788 2.401266 929.866088 1128.044060 17.938193 0.000000 0.143882
482.000000 47.282000 6.000000 -8.000000 -3.000000 70.308296 1.008133 956.060397 1326.252970 21.156641 0.000000 0.096943
483.000000 80.351000 3.000000 -7.000000 -3.000000 100.152429 2.060453 936.277939 748.141816 12.442439 0.000000 0.169134
484.000000 68.895000 4.000000 -7.000000 -3.000000 87.156633 0.199266 971.256806 994.456518 14.514961 0.000000 0.163241
485.000000 57.760000 5.000000 -7.000000 -3.000000 75.405435 -1.161435 996.820398 1221.302235 17.317109 0.000000 0.125024
486.000000 47.636000 6.000000 -7.000000 -3.000000 64.956937 -2.198522 1016.319253 1444.239867 21.001408 0.000000 0.061152
487.000000 72.672000 4.000000 -6.000000 -3.000000 82.137219 -4.331756 1056.526899 1090.061435 13.761908 0.000000 0.150590
488.000000 58.869000 5.000000 -6.000000 -3.000000 69.484807 -5.119110 1071.418550 1345.348056 16.992807 0.000000 0.093801
489.000000 46.879000 2.000000 -2.000000 -1.000000 58.512294 -5.709081 1082.600738 1603.522603 7.114249 0.000000 0.031022
490.000000 75.280000 4.000000 -5.000000 -3.000000 75.515251 -9.440220 1153.955696 1222.860156 13.286822 0.000000 0.125219
491.000000 58.328000 5.000000 -5.000000 -3.000000 62.081266 -9.496835 1155.048777 1519.244128 17.152431 0.000000 0.055868
492.000000 75.282000 4.000000 -4.000000 -3.000000 66.771787 -15.146482 1266.343413 1419.552222 13.288356 0.000000 0.089440
493.000000 55.031000 5.000000 -4.000000 -3.000000 52.860966 -14.305657 1249.457140 1782.233749 18.182351 0.000000 0.103929
494.000000 70.392000 4.000000 -3.000000 -3.000000 55.344078 -21.428906 1397.421637 1740.290825 14.213670 0.000000 0.123696
495.000000 47.585000 5.000000 -3.000000 -3.000000 41.534028 -19.534758 1356.870756 2230.287419 21.029408 0.000000 0.276103
500.000000 48.249000 0.000000 -15.000000 -2.000000 120.534031 43.260889 -37.862174 69.245493 20.712175 0.000000 0.177548
501.000000 46.864000 1.000000 -15.000000 -2.000000 115.163503 37.826252 139.350448 300.861934 21.326025 0.000000 0.062248
503.000000 51.859000 0.000000 -7.000000 -1.000000 121.431227 42.680787 -17.507736 46.236434 9.635085 0.000000 0.173157
504.000000 50.267000 1.000000 -14.000000 -2.000000 115.614771 36.873347 167.678044 295.952091 19.882470 0.000000 0.052089
505.000000 48.177000 1.000000 -7.000000 -1.000000 109.394843 31.995440 302.575788 494.214823 10.373722 0.000000 0.038538
506.000000 45.670000 3.000000 -14.000000 -2.000000 102.955709 27.896294 405.220647 660.838109 21.888951 0.000000 0.089397
508.000000 56.038000 0.000000 -13.000000 -2.000000 122.457127 41.993031 6.137298 19.956877 17.832841 0.000000 0.168301
509.000000 54.188000 1.000000 -13.000000 -2.000000 116.115933 35.762679 199.817314 290.749501 18.443514 0.000000 0.040915
510.000000 51.721000 2.000000 -13.000000 -2.000000 109.326344 30.624015 337.872285 502.352709 19.325576 0.000000 0.048099
511.000000 48.749000 3.000000 -13.000000 -2.000000 102.315577 26.377205 441.256498 678.716672 20.506626 0.000000 0.099699
513.000000 60.928000 0.000000 -6.000000 -1.000000 123.640709 41.164857 33.941060 -10.345812 8.200620 0.000000 0.162904
514.000000 58.754000 1.000000 -12.000000 -2.000000 116.673696 34.452622 236.593084 285.282795 17.010230 0.000000 0.028592
515.000000 55.802000 1.000000 -6.000000 -1.000000 109.208206 29.037268 377.484836 512.112460 8.956165 0.000000 0.059672
516.000000 52.231000 3.000000 -12.000000 -2.000000 101.527846 24.649177 481.116141 699.472291 19.139839 0.000000 0.110598
517.000000 48.232000 2.000000 -6.000000 -1.000000 93.855920 21.060647 560.541698 863.264783 10.364988 0.000000 0.136131
518.000000 66.722000 0.000000 -11.000000 -2.000000 125.019909 40.148853 67.106506 -45.675265 14.976762 0.000000 0.156866
519.000000 64.130000 1.000000 -11.000000 -2.000000 117.294792 32.886013 279.086658 279.622923 15.584051 0.000000 0.014975
520.000000 60.543000 2.000000 -11.000000 -2.000000 109.016971 27.183289 422.256646 523.986221 16.509973 0.000000 0.072880
521.000000 56.187000 3.000000 -11.000000 -2.000000 100.544994 22.669822 525.442295 723.871180 17.792834 0.000000 0.121907
522.000000 51.336000 4.000000 -11.000000 -2.000000 92.150602 19.050469 603.341384 898.240332 19.477335 0.000000 0.142821
523.000000 46.265000 5.000000 -11.000000 -2.000000 84.028411 16.105369 664.234357 1058.182575 21.615966 0.000000 0.141694
524.000000 70.544000 1.000000 -10.000000 -2.000000 117.984647 30.982522 328.743926 273.917666 14.166939 0.000000 0.000621
525.000000 66.102000 1.000000 -5.000000 -1.000000 108.716431 24.993435 473.265859 538.675214 7.560818 0.000000 0.087504
526.000000 60.696000 3.000000 -10.000000 -2.000000 99.299615 20.385944 575.030268 752.981402 16.471555 0.000000 0.133324
527.000000 54.727000 2.000000 -5.000000 -1.000000 90.066163 16.774658 650.566973 939.701900 9.135689 0.000000 0.148059
528.000000 48.581000 5.000000 -10.000000 -2.000000 81.240377 13.889270 708.857992 1111.837631 20.586362 0.000000 0.138555
529.000000 82.190000 0.000000 -9.000000 -2.000000 128.583543 37.228357 157.208275 -137.441864 12.157478 0.000000 0.142211
530.000000 78.312000 1.000000 -9.000000 -2.000000 118.744213 28.626345 387.543151 268.456279 12.761651 0.000000 0.016779
531.000000 72.687000 2.000000 -9.000000 -2.000000 108.249296 22.375878 531.913521 557.209021 13.751780 0.000000 0.103339
532.000000 65.842000 3.000000 -9.000000 -2.000000 97.694178 17.730654 630.876098 788.339072 15.184590 0.000000 0.144358
533.000000 58.382000 4.000000 -9.000000 -2.000000 87.484406 14.185653 702.942419 989.772752 17.128496 0.000000 0.150805
534.000000 50.857000 5.000000 -9.000000 -2.000000 77.873519 11.411019 757.765595 1176.921286 19.666777 0.000000 0.130378
535.000000 87.879000 1.000000 -8.000000 -2.000000 119.562565 25.645933 458.264850 263.795294 11.372190 0.000000 0.035075
536.000000 71.699000 3.000000 -8.000000 -2.000000 95.584615 14.620048 694.244151 832.238611 13.944831 0.000000 0.154165
537.000000 62.217000 2.000000 -4.000000 -1.000000 84.241209 11.227112 761.358675 1051.661661 8.036884 0.000000 0.149379
538.000000 52.914000 5.000000 -8.000000 -2.000000 73.767401 8.632297 811.605175 1257.946957 18.903668 0.000000 0.114459
539.000000 90.078000 2.000000 -7.000000 -2.000000 106.379222 15.317993 680.195877 613.001125 11.097386 0.000000 0.137169
540.000000 78.285000 3.000000 -7.000000 -2.000000 92.753766 10.950008 766.763998 888.270958 12.772554 0.000000 0.161268
541.000000 66.027000 4.000000 -7.000000 -2.000000 80.106897 7.833504 826.924786 1130.478067 15.147603 0.000000 0.140990
542.000000 54.445000 5.000000 -7.000000 -2.000000 68.712401 5.510669 871.162377 1362.308409 18.373932 0.000000 0.086374
543.000000 85.457000 3.000000 -6.000000 -2.000000 88.868532 6.594535 850.572538 962.398834 11.701583 0.000000 0.162998
544.000000 54.926000 5.000000 -6.000000 -2.000000 62.439324 2.000846 937.399070 1503.075480 18.214720 0.000000 0.038662
545.000000 71.352000 4.000000 -5.000000 -2.000000 67.756620 -0.558383 985.489493 1381.199350 14.020407 0.000000 0.080662
546.000000 53.516000 5.000000 -5.000000 -2.000000 54.616149 -1.942610 1011.505692 1705.865640 18.696840 0.000000 0.043457
547.000000 48.958000 5.000000 -4.000000 -2.000000 44.867617 -6.360446 1094.973433 2028.976293 20.440004 0.000000 0.183688
548.000000 63.496000 4.000000 -3.000000 -2.000000 46.341554 -11.575431 1195.450554 1989.358938 15.759669 0.000000 0.172199
549.000000 87.064000 3.000000 -2.000000 -2.000000 48.024696 -20.398702 1375.242508 1974.042229 11.492835 0.000000 0.185944
553.000000 46.923000 0.000000 -15.000000 -1.000000 114.072010 46.942327 -176.857593 236.745186 21.299279 0.000000 0.213778
554.000000 45.457000 1.000000 -15.000000 -1.000000 108.996973 41.663721 17.278571 445.009571 21.988125 0.000000 0.095882
556.000000 50.392000 0.000000 -14.000000 -1.000000 114.542802 46.699781 -167.126995 224.389095 19.832936 0.000000 0.210843
557.000000 48.699000 1.000000 -14.000000 -1.000000 109.067597 41.057001 37.510154 447.643388 20.524683 0.000000 0.087032
558.000000 46.525000 2.000000 -14.000000 -1.000000 103.189426 36.191640 187.512819 628.461634 21.486158 0.000000 0.050533
560.000000 54.411000 0.000000 -13.000000 -1.000000 115.084457 46.416247 -155.862283 210.209842 18.367925 0.000000 0.207528
561.000000 52.433000 1.000000 -13.000000 -1.000000 109.141441 40.356569 60.407653 450.766488 19.063056 0.000000 0.077291
562.000000 49.860000 2.000000 -13.000000 -1.000000 102.746252 35.203135 215.669710 643.040699 20.049267 0.000000 0.052955
563.000000 46.811000 3.000000 -13.000000 -1.000000 96.112157 30.833462 332.547603 806.775087 21.357729 0.000000 0.091954
564.000000 59.120000 0.000000 -12.000000 -1.000000 115.714190 46.080397 -142.669614 193.771519 16.904562 0.000000 0.203753
565.000000 56.779000 1.000000 -12.000000 -1.000000 109.217240 39.539164 86.535166 454.519805 17.603691 0.000000 0.066596
566.000000 53.691000 2.000000 -12.000000 -1.000000 102.210645 34.066744 247.204697 659.835790 18.618924 0.000000 0.058327
567.000000 50.023000 3.000000 -12.000000 -1.000000 94.962172 29.499259 366.080377 833.633705 19.987100 0.000000 0.100461
568.000000 45.973000 4.000000 -12.000000 -1.000000 87.691314 25.675006 457.592675 989.145459 21.751009 0.000000 0.122137
569.000000 64.714000 0.000000 -11.000000 -1.000000 116.455240 45.676308 -127.007711 174.487108 15.443271 0.000000 0.199419
570.000000 61.901000 1.000000 -11.000000 -1.000000 109.292463 38.573249 116.628016 459.101404 16.147193 0.000000 0.054984
571.000000 58.131000 2.000000 -11.000000 -1.000000 101.553096 32.747731 282.764502 679.409486 17.196955 0.000000 0.066570
572.000000 53.649000 3.000000 -11.000000 -1.000000 93.578833 27.975862 403.305663 864.777525 18.636760 0.000000 0.109414
573.000000 48.736000 4.000000 -11.000000 -1.000000 85.640386 24.046463 494.756723 1030.850925 20.518678 0.000000 0.126272
574.000000 71.463000 0.000000 -10.000000 -1.000000 117.339739 45.180889 -108.111763 151.546723 13.984637 0.000000 0.194396
575.000000 68.021000 1.000000 -10.000000 -1.000000 109.362254 37.415042 151.663051 464.797547 14.694404 0.000000 0.042854
576.000000 63.328000 2.000000 -10.000000 -1.000000 100.731025 31.200033 323.172180 702.538244 15.785927 0.000000 0.077384
577.000000 57.752000 3.000000 -10.000000 -1.000000 91.890090 26.222652 444.868906 901.407268 17.313229 0.000000 0.118392
578.000000 51.706000 4.000000 -10.000000 -1.000000 83.176294 22.203195 535.702428 1080.106821 19.341027 0.000000 0.128397
579.000000 45.573000 5.000000 -10.000000 -1.000000 74.822437 18.919528 606.092228 1249.644711 21.947523 0.000000 0.114348
580.000000 79.761000 0.000000 -9.000000 -1.000000 118.413352 44.559338 -84.864736 123.800612 12.529485 0.000000 0.188513
581.000000 75.456000 1.000000 -9.000000 -1.000000 109.417376 36.002082 192.966680 472.035829 13.246533 0.000000 0.031953
582.000000 69.475000 2.000000 -9.000000 -1.000000 99.681160 29.361508 369.491618 730.327619 14.389585 0.000000 0.090385
583.000000 62.393000 3.000000 -9.000000 -1.000000 89.793565 24.187548 491.575292 945.251078 16.026161 0.000000 0.126710
584.000000 54.834000 4.000000 -9.000000 -1.000000 80.176669 20.104426 581.037940 1139.451809 18.238841 0.000000 0.127142
585.000000 47.341000 5.000000 -9.000000 -1.000000 71.099645 16.830942 649.413262 1325.997381 21.129720 0.000000 0.101416
586.000000 90.202000 0.000000 -8.000000 -1.000000 119.743109 43.756683 -55.568239 89.559673 11.079021 0.000000 0.181540
587.000000 84.668000 1.000000 -8.000000 -1.000000 109.440026 34.242387 242.386601 481.480608 11.805374 0.000000 0.028207
588.000000 76.824000 2.000000 -8.000000 -1.000000 98.306256 27.146801 423.122571 764.412862 13.013596 0.000000 0.105100
589.000000 67.610000 3.000000 -8.000000 -1.000000 87.140313 21.803239 544.442419 998.905822 14.790474 0.000000 0.133203
590.000000 57.999000 4.000000 -8.000000 -1.000000 76.472354 17.700072 631.509195 1212.812006 17.244969 0.000000 0.120283
591.000000 48.761000 5.000000 -8.000000 -1.000000 66.603403 14.480869 697.034746 1421.957676 20.515776 0.000000 0.080052
592.000000 85.694000 2.000000 -7.000000 -1.000000 96.450965 24.436488 485.944562 807.330696 11.666976 0.000000 0.120808
593.000000 73.369000 3.000000 -7.000000 -1.000000 83.708181 18.982240 604.775292 1066.492804 13.630512 0.000000 0.135792
594.000000 60.939000 4.000000 -7.000000 -1.000000 71.826959 14.928779 688.041278 1306.648273 16.414560 0.000000 0.104117
595.000000 49.485000 5.000000 -7.000000 -1.000000 61.118731 11.826518 749.630475 1547.563089 20.217871 0.000000 0.051133
596.000000 79.447000 3.000000 -6.000000 -1.000000 79.157602 15.610753 674.275492 1155.034959 12.588878 0.000000 0.130568
597.000000 63.125000 4.000000 -6.000000 -1.000000 65.908549 11.716054 751.795647 1432.496854 15.847858 0.000000 0.072698
598.000000 48.931000 5.000000 -6.000000 -1.000000 54.368748 8.818615 808.022766 1721.667911 20.448974 0.000000 0.061226
599.000000 85.148000 3.000000 -5.000000 -1.000000 72.958880 11.541974 755.204217 1277.709812 11.747512 0.000000 0.109703
600.000000 63.533000 4.000000 -5.000000 -1.000000 58.254996 7.973162 824.250773 1613.401336 15.748127 0.000000 0.032010
601.000000 46.181000 5.000000 -5.000000 -1.000000 46.009907 5.401819 873.225759 1984.640545 21.668848 0.000000 0.163444
602.000000 88.638000 3.000000 -4.000000 -1.000000 64.280207 6.591362 850.632937 1462.893133 11.286715 0.000000 0.056302
603.000000 60.282000 4.000000 -4.000000 -1.000000 48.246695 3.598254 907.318225 1903.638612 16.599771 0.000000 0.127204
604.000000 85.553000 3.000000 -3.000000 -1.000000 51.855512 0.540735 964.842058 1786.310488 11.696020 0.000000 0.075428
609.000000 48.389000 0.000000 -4.000000 0.000000 107.370261 50.051622 -310.027067 416.660689 5.901755 0.000000 0.261022
610.000000 46.617000 1.000000 -14.000000 0.000000 102.217759 44.635742 -87.695477 613.489824 21.443441 0.000000 0.134793
611.000000 50.035000 1.000000 -13.000000 0.000000 101.803394 44.246310 -73.344389 627.023431 19.978804 0.000000 0.128232
612.000000 47.402000 2.000000 -13.000000 0.000000 95.804576 39.182624 97.739182 799.846931 21.091144 0.000000 0.083219
613.000000 53.988000 1.000000 -12.000000 0.000000 101.317196 43.796774 -57.012790 642.577995 18.516037 0.000000 0.121140
614.000000 50.827000 1.000000 -6.000000 0.000000 94.776678 38.406294 121.747137 826.228584 9.835156 0.000000 0.083206
615.000000 47.143000 1.000000 -4.000000 0.000000 87.990865 33.789919 254.757992 986.430929 7.070188 0.000000 0.100619
616.000000 58.612000 1.000000 -11.000000 0.000000 100.738902 43.272127 -38.260317 660.649643 17.055670 0.000000 0.113545
617.000000 54.753000 2.000000 -11.000000 0.000000 93.554562 37.512441 148.758972 856.713527 18.260271 0.000000 0.084859
618.000000 50.261000 3.000000 -11.000000 0.000000 86.125658 32.651206 285.325006 1027.570921 19.895304 0.000000 0.105580
619.000000 64.088000 1.000000 -10.000000 0.000000 100.039920 42.651942 -16.505603 681.914495 15.598455 0.000000 0.105569
620.000000 59.286000 1.000000 -5.000000 0.000000 92.079339 36.472748 179.376079 892.404846 8.432286 0.000000 0.088383
621.000000 53.715000 3.000000 -10.000000 0.000000 83.888900 31.347114 319.390001 1075.928972 18.616954 0.000000 0.110280
622.000000 47.778000 2.000000 -5.000000 0.000000 75.785830 27.090637 424.454324 1247.224283 10.466769 0.000000 0.114065
623.000000 70.672000 1.000000 -9.000000 0.000000 99.178617 41.907705 9.035070 707.320397 14.145499 0.000000 0.097524
624.000000 64.556000 2.000000 -9.000000 0.000000 90.266501 35.249238 214.371866 934.869788 15.488515 0.000000 0.093759
625.000000 57.508000 1.000000 -3.000000 0.000000 81.165179 29.840494 357.589864 1133.859466 5.796644 0.000000 0.113882
626.000000 50.133000 4.000000 -9.000000 0.000000 72.274638 25.433180 463.173881 1321.931661 19.951615 0.000000 0.109763
627.000000 78.727000 1.000000 -8.000000 0.000000 98.092025 40.998407 39.444196 738.242776 12.698491 0.000000 0.090087
628.000000 61.595000 3.000000 -8.000000 0.000000 77.789551 28.082860 400.726083 1204.988486 16.237294 0.000000 0.115034
629.000000 52.297000 2.000000 -4.000000 0.000000 67.995435 23.536297 506.202971 1415.419074 9.563944 0.000000 0.101267
630.000000 88.786000 1.000000 -7.000000 0.000000 96.680437 39.862943 76.260426 776.765663 11.260150 0.000000 0.084588
631.000000 77.918000 2.000000 -7.000000 0.000000 85.060010 32.021929 301.883772 1050.722556 12.833841 0.000000 0.108005
632.000000 65.811000 3.000000 -7.000000 0.000000 73.520456 26.010088 449.821601 1295.277277 15.198330 0.000000 0.111634
633.000000 53.922000 4.000000 -7.000000 0.000000 62.703646 21.349286 554.303476 1537.352840 18.552944 0.000000 0.090787
634.000000 54.368000 2.000000 -3.000000 0.000000 56.060176 18.808177 608.428118 1706.184481 9.201420 0.000000 0.097161
635.000000 72.328000 3.000000 -5.000000 0.000000 60.659424 20.545199 571.622028 1587.084628 13.832157 0.000000 0.089123
636.000000 52.469000 4.000000 -5.000000 0.000000 47.599384 15.832289 669.784198 1962.566695 19.071039 0.000000 0.167415
637.000000 71.287000 3.000000 -4.000000 0.000000 50.656411 16.878341 648.441167 1863.022463 14.036225 0.000000 0.134073
641.000000 47.071000 1.000000 -13.000000 1.000000 94.259766 47.553576 -201.776363 822.216653 21.239480 0.000000 0.192587
643.000000 50.482000 1.000000 -12.000000 1.000000 93.174266 47.375701 -194.465424 852.857168 19.804528 0.000000 0.190913
644.000000 47.319000 2.000000 -12.000000 1.000000 87.093350 42.148151 0.849246 1014.707938 21.131006 0.000000 0.133697
646.000000 54.403000 1.000000 -11.000000 1.000000 91.894202 47.170576 -186.095440 888.639924 18.377749 0.000000 0.189581
647.000000 50.559000 2.000000 -11.000000 1.000000 85.260088 41.585071 19.922594 1060.312577 19.777776 0.000000 0.135098
648.000000 46.175000 3.000000 -11.000000 1.000000 78.395354 36.750041 171.291749 1216.845867 21.658425 0.000000 0.128172
650.000000 58.945000 1.000000 -10.000000 1.000000 90.362607 46.931425 -176.418329 931.025046 16.961896 0.000000 0.188838
651.000000 54.189000 2.000000 -10.000000 1.000000 83.071827 40.936333 41.489354 1114.121952 18.453414 0.000000 0.137688
652.000000 48.798000 3.000000 -10.000000 1.000000 75.562823 35.814241 198.345346 1282.698894 20.495468 0.000000 0.131914
654.000000 64.254000 1.000000 -9.000000 1.000000 88.498129 46.649029 -165.101956 982.107565 15.561114 0.000000 0.189068
655.000000 58.244000 2.000000 -9.000000 1.000000 80.417772 40.180993 66.072657 1178.821699 17.169518 0.000000 0.141676
656.000000 51.500000 3.000000 -9.000000 1.000000 72.153538 34.740181 228.621277 1362.692210 19.421453 0.000000 0.135980
658.000000 70.505000 1.000000 -8.000000 1.000000 86.180611 46.310508 -151.691253 1045.022079 14.181951 0.000000 0.190884
659.000000 62.722000 2.000000 -8.000000 1.000000 77.137517 39.290766 94.352978 1258.546536 15.944861 0.000000 0.147313
660.000000 54.125000 3.000000 -8.000000 1.000000 67.984910 33.495730 262.731714 1462.845332 18.480656 0.000000 0.141032
661.000000 45.532000 4.000000 -8.000000 1.000000 59.167071 28.722130 385.205659 1673.574317 21.972038 0.000000 0.143129
663.000000 77.906000 1.000000 -7.000000 1.000000 83.225282 45.897319 -135.545535 1124.719147 12.835385 0.000000 0.195279
664.000000 67.524000 2.000000 -7.000000 1.000000 72.991277 38.226548 127.232103 1360.103648 14.811952 0.000000 0.155119
665.000000 56.350000 3.000000 -7.000000 1.000000 62.795943 32.038358 301.454379 1593.637670 17.752583 0.000000 0.150049
666.000000 45.614000 4.000000 -7.000000 1.000000 53.195150 27.049428 425.430605 1845.221814 21.934866 0.000000 0.171387
668.000000 86.647000 1.000000 -6.000000 1.000000 79.333764 45.381754 -115.733117 1229.606101 11.541344 0.000000 0.203946
669.000000 72.313000 2.000000 -6.000000 1.000000 67.607450 36.932815 165.931062 1495.773209 13.832409 0.000000 0.166865
670.000000 57.512000 3.000000 -6.000000 1.000000 56.206629 30.310787 345.792562 1775.397607 17.395725 0.000000 0.173224
672.000000 96.721000 1.000000 -5.000000 1.000000 73.994375 44.720514 -90.844935 1375.505413 10.340163 0.000000 0.220144
673.000000 76.139000 2.000000 -5.000000 1.000000 60.387258 35.328217 212.145118 1690.812723 13.138950 0.000000 0.189719
674.000000 56.282000 3.000000 -5.000000 1.000000 47.657166 28.234422 397.063295 2054.283400 17.778033 0.000000 0.238228
676.000000 107.234000 1.000000 -4.000000 1.000000 66.262113 43.841978 -58.643879 1597.231997 9.327669 0.000000 0.251919
677.000000 76.496000 2.000000 -4.000000 1.000000 50.328927 33.289141 268.298760 2008.863381 13.079496 0.000000 0.252028
684.000000 46.419000 1.000000 -12.000000 2.000000 84.970251 50.404036 -326.202892 1089.621235 21.541004 0.000000 0.276498
686.000000 49.500000 1.000000 -11.000000 2.000000 82.992349 50.428796 -327.348405 1148.677549 20.200961 0.000000 0.284230
687.000000 45.769000 2.000000 -11.000000 2.000000 76.890010 45.072939 -104.038068 1295.938006 21.850391 0.000000 0.210787
688.000000 52.926000 1.000000 -10.000000 2.000000 80.638283 50.457297 -328.668525 1219.708421 18.893724 0.000000 0.294533
690.000000 56.714000 1.000000 -9.000000 2.000000 77.792169 50.490459 -330.206468 1307.008481 17.632862 0.000000 0.308549
691.000000 51.030000 2.000000 -9.000000 2.000000 70.514171 44.314573 -75.846176 1473.254675 19.599891 0.000000 0.233160
692.000000 60.830000 1.000000 -8.000000 2.000000 74.286658 50.529524 -332.020993 1417.344824 16.440617 0.000000 0.328135
693.000000 45.867000 3.000000 -8.000000 2.000000 58.154533 38.131411 130.124257 1790.881278 21.810854 0.000000 0.234064
696.000000 55.786000 2.000000 -7.000000 2.000000 60.967393 43.284927 -38.713950 1761.658071 17.931345 0.000000 0.280661
697.000000 46.031000 3.000000 -7.000000 2.000000 52.108575 37.158967 159.262418 1992.007238 21.734968 0.000000 0.275380
#UB matrix in q= (UB) B0 G* 
#[[ 0.345644918  0.804947199  0.479973491]
# [-0.159890625 -0.453894404  0.876358772]
# [ 0.924642946 -0.380153609 -0.028184824]]
#B0 matrix in q= UB (B0) G*
#[[ 0.19670273 -0.          0.03056101]
# [ 0.          0.19187965 -0.        ]
# [ 0.          0.          0.18806537]]
#UBB0 matrix in q= (UB B0) G* i.e. recip. basis vectors are columns in LT frame: astar = UBB0[:,0], bstar = UBB0[:,1], cstar = UBB0[:,2]. (abcstar as columns on xyzlab1, xlab1 = ui, ui = unit vector along incident beam)
#[[ 0.0679893   0.15445299  0.10082965]
# [-0.03145092 -0.0870931   0.15992632]
# [ 0.18187979 -0.07294374  0.02295743]]
#Euler angles phi theta psi (deg)
#[67.67  91.616 28.753]
#deviatoric strain in direct crystal frame (10-3 unit)
#[[-1.18  0.29  0.13]
# [ 0.29 -0.39  0.77]
# [ 0.13  0.77  1.57]]
#deviatoric strain in sample2 frame (10-3 unit)
#[[-0.27  0.8  -1.04]
# [ 0.8   0.49 -0.9 ]
# [-1.04 -0.9  -0.22]]
#new lattice parameters
#[ 5.1505     5.2157526  5.31968   89.9594636 99.2179712 89.966479 ]
#CCDLabel
#sCMOS
#DetectorParameters
#[79.0, 975.0, 941.0, 0.0, 0.0]
#pixelsize
#0.0734
#Frame dimensions
#[2018, 2016]
#
