#Strain and Orientation Refinement from experimental file: /home/micha/LaueProjects/DepthEffects/testZrO2_80.cor
#File created at Wed Jun 28 14:23:19 2023 with indexingSpotsSet.py
#Number of indexed spots: 509
#Element
#ZrO2
#grainIndex
#G_0
#Mean Deviation(pixel): 0.117
##spot_index intensity h k l 2theta Chi Xexp Yexp Energy GrainIndex PixDev
0.000000 46.049000 -7.000000 4.000000 -6.000000 72.553813 -38.566361 1833.160326 1373.598839 21.734275 0.000000 0.149159
1.000000 46.434000 -3.000000 2.000000 -3.000000 67.458117 -42.089086 1947.134175 1542.988404 10.777822 0.000000 0.206240
2.000000 45.832000 -5.000000 4.000000 -6.000000 61.341416 -45.901228 2085.697184 1786.301490 21.840303 0.000000 0.302602
3.000000 46.131000 -7.000000 5.000000 -6.000000 75.929418 -44.139719 2019.449469 1316.895480 21.693876 0.000000 0.189938
4.000000 46.496000 -6.000000 5.000000 -6.000000 70.934485 -47.807255 2162.289295 1494.841796 21.525056 0.000000 0.274995
6.000000 45.526000 -7.000000 6.000000 -6.000000 78.561190 -49.502273 2235.279931 1276.343054 21.980662 0.000000 0.270943
8.000000 46.823000 -8.000000 1.000000 -5.000000 69.958198 -16.883653 1301.667805 1351.314585 21.378276 0.000000 0.107578
9.000000 48.336000 -7.000000 1.000000 -5.000000 65.511258 -19.369448 1353.378080 1460.652704 20.710168 0.000000 0.092984
10.000000 49.139000 -6.000000 1.000000 -5.000000 60.040038 -22.198455 1414.193694 1611.060781 20.373409 0.000000 0.094448
11.000000 48.603000 -5.000000 1.000000 -5.000000 53.243053 -25.429952 1486.751778 1831.156816 20.599590 0.000000 0.140332
12.000000 45.717000 -4.000000 1.000000 -5.000000 44.742255 -29.130837 1574.816653 2184.284095 21.901672 0.000000 0.249037
13.000000 47.226000 -9.000000 2.000000 -5.000000 79.084268 -20.078624 1368.412520 1161.999953 21.192105 0.000000 0.133230
14.000000 49.431000 -8.000000 2.000000 -5.000000 75.719209 -22.666568 1424.485917 1237.890621 20.247580 0.000000 0.122058
15.000000 51.391000 -7.000000 2.000000 -5.000000 71.593943 -25.581130 1490.238040 1338.086302 19.476668 0.000000 0.113023
16.000000 52.775000 -6.000000 2.000000 -5.000000 66.488616 -28.870010 1568.411533 1475.693491 18.967402 0.000000 0.116842
17.000000 53.024000 -5.000000 2.000000 -5.000000 60.121228 -32.583919 1662.893360 1674.875529 18.879439 0.000000 0.154159
18.000000 51.248000 -4.000000 2.000000 -5.000000 52.146712 -36.773031 1779.381132 1985.257238 19.535507 0.000000 0.246662
20.000000 46.252000 -10.000000 3.000000 -5.000000 86.477706 -23.049042 1432.947446 1012.996851 21.635053 0.000000 0.135565
21.000000 48.639000 -9.000000 3.000000 -5.000000 83.877991 -25.703041 1493.055810 1069.117564 20.574164 0.000000 0.126282
22.000000 50.990000 -8.000000 3.000000 -5.000000 80.697800 -28.662496 1563.338545 1141.912078 19.626622 0.000000 0.117867
23.000000 53.128000 -7.000000 3.000000 -5.000000 76.775862 -31.964552 1646.617778 1239.123736 18.837523 0.000000 0.116132
24.000000 54.754000 -6.000000 3.000000 -5.000000 71.905717 -35.646243 1746.865690 1373.752976 18.279543 0.000000 0.133944
25.000000 55.369000 -5.000000 3.000000 -5.000000 65.830730 -39.740945 1869.856794 1569.150872 18.077827 0.000000 0.188543
26.000000 54.204000 -4.000000 3.000000 -5.000000 58.250314 -44.272976 2024.320964 1871.170996 18.467769 0.000000 0.298327
28.000000 46.875000 -10.000000 4.000000 -5.000000 90.432624 -28.493468 1559.221251 931.752969 21.345522 0.000000 0.113961
29.000000 49.239000 -9.000000 4.000000 -5.000000 87.911538 -31.465502 1633.662905 987.015209 20.321552 0.000000 0.105427
30.000000 51.550000 -8.000000 4.000000 -5.000000 84.809791 -34.747597 1721.585058 1059.983190 19.411267 0.000000 0.103635
31.000000 53.639000 -7.000000 4.000000 -5.000000 80.973964 -38.365774 1827.014007 1159.055627 18.656441 0.000000 0.119905
32.000000 55.224000 -6.000000 4.000000 -5.000000 76.214239 -42.340869 1955.756735 1298.274356 18.122169 0.000000 0.167331
33.000000 55.864000 -5.000000 4.000000 -5.000000 70.305085 -46.684270 2116.507716 1502.590683 17.915786 0.000000 0.257846
36.000000 46.892000 -4.000000 2.000000 -2.000000 93.685286 -34.014511 1701.366318 857.366735 8.534488 0.000000 0.083890
37.000000 49.116000 -9.000000 5.000000 -5.000000 91.156614 -37.252608 1793.510507 913.700372 20.370870 0.000000 0.085858
38.000000 51.249000 -8.000000 5.000000 -5.000000 88.041000 -40.786618 1903.593707 989.621854 19.523937 0.000000 0.109505
39.000000 53.123000 -7.000000 5.000000 -5.000000 84.195828 -44.628303 2037.419515 1094.728233 18.835840 0.000000 0.162488
40.000000 54.481000 -6.000000 5.000000 -5.000000 79.452250 -48.780510 2203.597549 1245.133377 18.367760 0.000000 0.251667
42.000000 46.392000 -10.000000 6.000000 -5.000000 96.239682 -39.510998 1862.575578 788.470023 21.564876 0.000000 0.075554
43.000000 48.396000 -9.000000 6.000000 -5.000000 93.635212 -42.948057 1976.837941 847.582722 20.672589 0.000000 0.112981
44.000000 50.263000 -8.000000 6.000000 -5.000000 90.438361 -46.650261 2115.151093 929.003897 19.905653 0.000000 0.175369
45.000000 51.832000 -7.000000 6.000000 -5.000000 86.521031 -50.615002 2286.001798 1044.119853 19.304020 0.000000 0.268682
48.000000 45.477000 -10.000000 7.000000 -5.000000 98.134823 -44.884401 2046.959979 723.865404 21.997320 0.000000 0.134206
49.000000 47.218000 -9.000000 7.000000 -5.000000 95.409240 -48.446168 2189.228668 787.357170 21.187448 0.000000 0.204272
50.000000 48.777000 -8.000000 7.000000 -5.000000 92.092213 -52.230745 2364.088696 876.803194 20.510775 0.000000 0.302401
55.000000 46.674000 -7.000000 -1.000000 -4.000000 58.473899 -4.085649 1051.878769 1602.910744 21.451082 0.000000 0.024845
56.000000 46.964000 -6.000000 -1.000000 -4.000000 52.386584 -5.847113 1085.220209 1774.596696 21.320126 0.000000 0.050785
57.000000 47.924000 -9.000000 0.000000 -4.000000 74.455511 -6.267977 1093.215160 1242.183443 20.885861 0.000000 0.130990
58.000000 50.473000 -4.000000 0.000000 -2.000000 70.960368 -8.016806 1126.585244 1316.096540 9.916105 0.000000 0.113447
59.000000 52.843000 -7.000000 0.000000 -4.000000 66.651667 -10.040385 1165.562039 1412.828261 18.944118 0.000000 0.089384
60.000000 54.641000 -3.000000 0.000000 -2.000000 61.250969 -12.402515 1211.688163 1545.560295 9.161117 0.000000 0.062092
61.000000 55.105000 -5.000000 0.000000 -4.000000 54.362773 -15.185454 1267.129288 1740.526289 18.169537 0.000000 0.074253
62.000000 52.796000 -2.000000 0.000000 -2.000000 45.430363 -18.495260 1335.024024 2058.990197 9.482837 0.000000 0.175891
63.000000 48.204000 -10.000000 1.000000 -4.000000 83.513641 -9.792204 1160.757492 1065.177823 20.760880 0.000000 0.158854
64.000000 51.239000 -9.000000 1.000000 -4.000000 81.039100 -11.740820 1198.689634 1114.342074 19.531867 0.000000 0.150581
65.000000 54.434000 -8.000000 1.000000 -4.000000 77.999491 -13.976168 1242.874846 1176.762866 18.386438 0.000000 0.139171
66.000000 57.647000 -7.000000 1.000000 -4.000000 74.207348 -16.557994 1294.998239 1258.581023 17.362827 0.000000 0.123897
67.000000 60.568000 -6.000000 1.000000 -4.000000 69.397215 -19.560259 1357.410165 1370.392400 16.526777 0.000000 0.105921
68.000000 62.560000 -5.000000 1.000000 -4.000000 63.191851 -23.073513 1433.490442 1532.158563 16.001723 0.000000 0.097683
69.000000 62.379000 -4.000000 1.000000 -4.000000 55.062148 -27.205945 1528.281300 1786.420645 16.049838 0.000000 0.140980
71.000000 47.174000 -11.000000 2.000000 -4.000000 90.893975 -13.134690 1226.148552 923.754255 21.211112 0.000000 0.163858
72.000000 50.235000 -5.000000 1.000000 -2.000000 89.128408 -15.244751 1268.325562 957.971200 9.959581 0.000000 0.158368
73.000000 53.563000 -9.000000 2.000000 -4.000000 86.956137 -17.643815 1317.326761 1001.057611 18.682308 0.000000 0.150964
74.000000 57.116000 -4.000000 1.000000 -2.000000 84.246683 -20.385215 1374.954148 1056.685221 8.760373 0.000000 0.141226
75.000000 60.778000 -7.000000 2.000000 -4.000000 80.818012 -23.532197 1443.705406 1130.755263 16.465926 0.000000 0.129296
76.000000 64.281000 -3.000000 1.000000 -2.000000 76.414815 -27.158098 1527.145484 1233.316144 7.784820 0.000000 0.118082
77.000000 67.069000 -5.000000 2.000000 -4.000000 70.680664 -31.344584 1630.544842 1382.799439 14.923656 0.000000 0.120658
78.000000 68.061000 -2.000000 1.000000 -2.000000 63.130088 -36.176059 1762.037915 1616.569894 7.353749 0.000000 0.168712
81.000000 48.309000 -11.000000 3.000000 -4.000000 95.631086 -18.523677 1335.617653 829.080561 20.710336 0.000000 0.149254
82.000000 51.449000 -10.000000 3.000000 -4.000000 94.039142 -21.042814 1389.073695 859.568806 19.446907 0.000000 0.141649
83.000000 54.853000 -9.000000 3.000000 -4.000000 92.042299 -23.891389 1451.754457 899.022554 18.240882 0.000000 0.131999
84.000000 58.474000 -8.000000 3.000000 -4.000000 89.509019 -27.121327 1526.273241 951.362701 17.111818 0.000000 0.120532
85.000000 62.193000 -7.000000 3.000000 -4.000000 86.258713 -30.789521 1616.333388 1022.927008 16.089286 0.000000 0.109703
86.000000 65.748000 -6.000000 3.000000 -4.000000 82.044441 -34.954732 1727.362782 1124.517782 15.220242 0.000000 0.109371
87.000000 68.622000 -5.000000 3.000000 -4.000000 76.534236 -39.671413 1867.649951 1275.817739 14.583981 0.000000 0.142434
88.000000 69.865000 -4.000000 3.000000 -4.000000 69.300078 -44.979240 2050.514598 1515.946782 14.325788 0.000000 0.235530
91.000000 45.977000 -3.000000 1.000000 -1.000000 100.887475 -21.579161 1400.682285 718.378953 5.439718 0.000000 0.130124
92.000000 48.809000 -11.000000 4.000000 -4.000000 99.680258 -24.180271 1458.260434 739.749866 20.496518 0.000000 0.120375
93.000000 51.880000 -5.000000 2.000000 -2.000000 98.149970 -27.092185 1525.582364 767.865646 9.641800 0.000000 0.108414
94.000000 55.170000 -9.000000 4.000000 -4.000000 96.196394 -30.356099 1605.350067 805.579581 18.134335 0.000000 0.094880
95.000000 62.078000 -7.000000 4.000000 -4.000000 90.437850 -38.107789 1819.158813 930.546803 16.117375 0.000000 0.089336
96.000000 65.290000 -3.000000 2.000000 -2.000000 86.219572 -42.668573 1967.083273 1037.721645 7.662731 0.000000 0.132007
97.000000 67.761000 -5.000000 4.000000 -4.000000 80.732488 -47.713627 2158.397262 1202.019334 14.767731 0.000000 0.225349
99.000000 46.029000 -12.000000 5.000000 -4.000000 104.215778 -27.068520 1525.021612 634.800065 21.732341 0.000000 0.092271
100.000000 48.729000 -11.000000 5.000000 -4.000000 102.992096 -30.008318 1596.607153 654.234108 20.528507 0.000000 0.077271
101.000000 51.615000 -10.000000 5.000000 -4.000000 101.418128 -33.268732 1681.152701 681.017208 19.381259 0.000000 0.062223
102.000000 54.648000 -9.000000 5.000000 -4.000000 99.389992 -36.880366 1782.528015 718.486737 18.305953 0.000000 0.057858
103.000000 57.747000 -8.000000 5.000000 -4.000000 96.773102 -40.869525 1906.313783 771.960575 17.324054 0.000000 0.083905
104.000000 60.757000 -7.000000 5.000000 -4.000000 93.395739 -45.253608 2060.864688 850.281155 16.466509 0.000000 0.145818
105.000000 63.406000 -6.000000 5.000000 -4.000000 89.044701 -50.035167 2259.277584 968.940764 15.779633 0.000000 0.248747
108.000000 45.656000 -6.000000 3.000000 -2.000000 106.879853 -32.662922 1664.985495 553.061654 10.954247 0.000000 0.043344
109.000000 48.154000 -11.000000 6.000000 -4.000000 105.558982 -35.892079 1753.880373 571.085237 20.772658 0.000000 0.035566
110.000000 50.773000 -5.000000 3.000000 -2.000000 103.854941 -39.431737 1860.076959 597.312728 9.850675 0.000000 0.058359
111.000000 53.462000 -9.000000 6.000000 -4.000000 101.663377 -43.297816 1989.170981 635.733717 18.711144 0.000000 0.108227
112.000000 56.122000 -4.000000 3.000000 -2.000000 98.854698 -47.497416 2149.462771 692.827106 8.912412 0.000000 0.183682
113.000000 58.591000 -7.000000 6.000000 -4.000000 95.271888 -52.024644 2353.815887 779.601389 17.074589 0.000000 0.295184
115.000000 47.178000 -11.000000 7.000000 -4.000000 107.412416 -41.709077 1934.249120 488.847930 21.201202 0.000000 0.090695
116.000000 49.487000 -10.000000 7.000000 -4.000000 105.518376 -45.442291 2068.040655 515.055072 20.212569 0.000000 0.151197
117.000000 51.790000 -9.000000 7.000000 -4.000000 103.109968 -49.457684 2233.295693 555.376515 19.314364 0.000000 0.234845
120.000000 45.900000 -11.000000 8.000000 -4.000000 108.615288 -47.344886 2143.203892 405.962379 21.791010 0.000000 0.201112
124.000000 46.042000 -8.000000 -2.000000 -3.000000 61.808996 6.994284 842.956668 1522.211568 21.744295 0.000000 0.057091
125.000000 47.311000 -7.000000 -2.000000 -3.000000 56.705090 6.219111 857.713781 1652.040881 21.162493 0.000000 0.031618
126.000000 47.527000 -6.000000 -2.000000 -3.000000 50.328507 5.302843 875.101324 1837.489382 21.067995 0.000000 0.078100
127.000000 45.609000 -5.000000 -2.000000 -3.000000 42.201743 4.203732 895.891415 2131.116410 21.955899 0.000000 0.192121
128.000000 46.777000 -10.000000 -1.000000 -3.000000 76.840670 3.959696 900.498949 1193.238795 21.397044 0.000000 0.141701
129.000000 49.661000 -9.000000 -1.000000 -3.000000 73.998780 3.021628 918.186400 1250.076931 20.155672 0.000000 0.129565
130.000000 52.666000 -8.000000 -1.000000 -3.000000 70.536046 1.930852 938.715434 1321.590034 19.006603 0.000000 0.111696
131.000000 55.617000 -7.000000 -1.000000 -3.000000 66.238619 0.647800 962.830635 1414.866311 17.999493 0.000000 0.084608
132.000000 58.115000 -6.000000 -1.000000 -3.000000 60.791019 -0.881577 991.561622 1542.813190 17.227389 0.000000 0.041967
133.000000 59.291000 -5.000000 -1.000000 -3.000000 53.716533 -2.732779 1026.373877 1732.038284 16.887398 0.000000 0.030093
134.000000 57.278000 -4.000000 -1.000000 -3.000000 44.282495 -5.013901 1069.426682 2048.833160 17.482590 0.000000 0.156160
136.000000 46.522000 -12.000000 1.000000 -3.000000 93.387747 -3.163276 1034.482200 877.190093 21.507658 0.000000 0.176931
137.000000 49.834000 -11.000000 1.000000 -3.000000 92.209322 -4.580214 1061.222509 899.344549 20.078626 0.000000 0.175661
138.000000 53.586000 -10.000000 1.000000 -3.000000 90.777973 -6.209658 1092.106539 926.298724 18.673181 0.000000 0.173473
139.000000 57.843000 -9.000000 1.000000 -3.000000 89.011091 -8.099948 1128.178363 959.765593 17.299343 0.000000 0.169924
140.000000 62.664000 -8.000000 1.000000 -3.000000 86.789299 -10.313869 1170.864973 1002.367426 15.969228 0.000000 0.164334
141.000000 68.068000 -7.000000 1.000000 -3.000000 83.935672 -12.933645 1222.169552 1058.321427 14.702057 0.000000 0.155665
142.000000 73.968000 -6.000000 1.000000 -3.000000 80.181065 -16.067491 1284.994937 1134.847002 13.530245 0.000000 0.142463
143.000000 79.987000 -5.000000 1.000000 -3.000000 75.105912 -19.857604 1363.712565 1245.358059 12.513083 0.000000 0.123676
144.000000 85.032000 -4.000000 1.000000 -3.000000 68.045055 -24.488103 1465.225684 1417.752018 11.771867 0.000000 0.106760
145.000000 86.306000 -3.000000 1.000000 -3.000000 57.950211 -30.187846 1601.112618 1720.568389 11.599635 0.000000 0.146771
147.000000 48.142000 -12.000000 2.000000 -3.000000 98.850647 -8.156852 1129.269103 771.693691 20.781315 0.000000 0.170800
148.000000 51.659000 -11.000000 2.000000 -3.000000 97.971632 -10.000835 1164.795896 787.954590 19.366974 0.000000 0.168684
149.000000 55.652000 -10.000000 2.000000 -3.000000 96.866550 -12.122412 1206.177889 808.435568 17.977623 0.000000 0.165471
150.000000 60.195000 -9.000000 2.000000 -3.000000 95.454504 -14.581998 1254.992576 834.806481 16.621198 0.000000 0.160688
151.000000 65.355000 -8.000000 2.000000 -3.000000 93.617351 -17.455721 1313.440037 869.673406 15.309389 0.000000 0.153668
152.000000 71.165000 -7.000000 2.000000 -3.000000 91.179079 -20.838968 1384.683700 917.297495 14.060164 0.000000 0.143563
153.000000 77.553000 -6.000000 2.000000 -3.000000 87.872646 -24.849317 1473.442437 985.059672 12.902636 0.000000 0.129811
154.000000 84.183000 -5.000000 2.000000 -3.000000 83.287774 -29.626568 1587.080549 1086.718792 11.887290 0.000000 0.115233
155.000000 90.080000 -4.000000 2.000000 -3.000000 76.794721 -35.324987 1737.763740 1250.537514 11.109999 0.000000 0.120933
158.000000 45.993000 -13.000000 3.000000 -3.000000 104.252090 -11.560012 1195.148787 661.953924 21.750047 0.000000 0.156514
159.000000 49.159000 -4.000000 1.000000 -1.000000 103.728875 -13.580601 1234.997286 670.489702 6.783123 0.000000 0.152644
160.000000 52.727000 -11.000000 3.000000 -3.000000 103.038908 -15.885290 1281.291764 681.851458 18.972584 0.000000 0.147346
161.000000 56.756000 -10.000000 3.000000 -3.000000 102.121050 -18.529242 1335.733931 697.211243 17.626165 0.000000 0.140083
162.000000 66.409000 -8.000000 3.000000 -3.000000 99.210412 -25.114393 1479.502815 748.256064 15.064585 0.000000 0.116632
163.000000 72.069000 -7.000000 3.000000 -3.000000 96.902096 -29.226391 1577.171296 791.708980 13.881941 0.000000 0.099437
164.000000 84.261000 -5.000000 3.000000 -3.000000 89.153005 -39.574859 1864.592872 961.643504 11.874555 0.000000 0.098626
165.000000 89.416000 -4.000000 3.000000 -3.000000 82.723492 -45.978054 2088.681363 1138.756890 11.190907 0.000000 0.187678
167.000000 46.471000 -13.000000 4.000000 -3.000000 108.360365 -16.940592 1302.836293 567.587955 21.524694 0.000000 0.129900
168.000000 49.588000 -12.000000 4.000000 -3.000000 107.922750 -19.383619 1353.677215 571.977328 20.171580 0.000000 0.121448
169.000000 53.069000 -11.000000 4.000000 -3.000000 107.298615 -22.157177 1413.289457 579.072863 18.848676 0.000000 0.110349
170.000000 56.952000 -10.000000 4.000000 -3.000000 106.417016 -25.317195 1484.157220 590.188012 17.563731 0.000000 0.095728
171.000000 61.265000 -9.000000 4.000000 -3.000000 105.177619 -28.926686 1569.800588 607.409795 16.327389 0.000000 0.076821
172.000000 66.008000 -8.000000 4.000000 -3.000000 103.438114 -33.053311 1675.378323 634.178948 15.154687 0.000000 0.055612
173.000000 71.111000 -7.000000 4.000000 -3.000000 100.997108 -37.763673 1808.766988 676.430050 14.067577 0.000000 0.053649
174.000000 76.370000 -6.000000 4.000000 -3.000000 97.572775 -43.112595 1982.622232 744.992504 13.099419 0.000000 0.107775
175.000000 81.315000 -5.000000 4.000000 -3.000000 92.781043 -49.126080 2218.651514 861.105604 12.303495 0.000000 0.221634
177.000000 46.500000 -13.000000 5.000000 -3.000000 111.821159 -22.620967 1423.480250 474.135794 21.509726 0.000000 0.091168
178.000000 49.479000 -12.000000 5.000000 -3.000000 111.366141 -25.477359 1487.844062 474.581749 20.214721 0.000000 0.075733
179.000000 52.761000 -11.000000 5.000000 -3.000000 110.686276 -28.693848 1564.103704 477.702927 18.957235 0.000000 0.055932
180.000000 56.362000 -10.000000 5.000000 -3.000000 109.699110 -32.318552 1655.892881 485.012071 17.746403 0.000000 0.032334
181.000000 60.275000 -9.000000 5.000000 -3.000000 108.291878 -36.399325 1768.493005 498.981489 16.594589 0.000000 0.029569
182.000000 64.454000 -8.000000 5.000000 -3.000000 106.311495 -40.978107 1909.886550 523.805981 15.518946 0.000000 0.077878
183.000000 68.777000 -7.000000 5.000000 -3.000000 103.553221 -46.082121 2092.736943 566.947170 14.543989 0.000000 0.159732
184.000000 72.985000 -6.000000 5.000000 -3.000000 99.750481 -51.711943 2338.409142 642.507631 13.706019 0.000000 0.289571
186.000000 46.131000 -13.000000 6.000000 -3.000000 114.600142 -28.507750 1559.568616 380.240077 21.680442 0.000000 0.038678
187.000000 48.904000 -4.000000 2.000000 -1.000000 114.033097 -31.738825 1640.740828 376.664053 6.817039 0.000000 0.013861
188.000000 51.910000 -11.000000 6.000000 -3.000000 113.192021 -35.335725 1738.066803 375.744004 19.267052 0.000000 0.023561
189.000000 55.140000 -10.000000 6.000000 -3.000000 111.985374 -39.330741 1856.901414 379.227009 18.138735 0.000000 0.069486
190.000000 58.558000 -3.000000 2.000000 -1.000000 110.293549 -43.748131 2005.260356 390.054512 5.693389 0.000000 0.134296
191.000000 62.084000 -8.000000 6.000000 -3.000000 107.962915 -48.597463 2195.707275 413.379560 16.110466 0.000000 0.228132
193.000000 47.949000 -12.000000 7.000000 -3.000000 115.939432 -38.022824 1816.583911 276.416254 20.857529 0.000000 0.069950
194.000000 50.633000 -11.000000 7.000000 -3.000000 114.858745 -41.907311 1940.951557 270.965203 19.752263 0.000000 0.123323
195.000000 53.449000 -10.000000 7.000000 -3.000000 113.358167 -46.149339 2095.364600 270.050060 18.711797 0.000000 0.196450
198.000000 46.701000 -12.000000 8.000000 -3.000000 117.138413 -44.181047 2020.957956 171.725438 21.414299 0.000000 0.178101
202.000000 46.774000 -5.000000 -1.000000 -1.000000 74.934691 13.024605 726.030996 1238.357502 10.699448 0.000000 0.129118
203.000000 49.644000 -9.000000 -2.000000 -2.000000 71.935958 12.777780 730.910850 1300.953898 20.162697 0.000000 0.117044
204.000000 52.614000 -4.000000 -1.000000 -1.000000 68.278199 12.489187 736.604394 1380.176276 9.512887 0.000000 0.099934
205.000000 55.478000 -7.000000 -2.000000 -2.000000 63.728377 12.147265 743.333654 1484.442354 18.045191 0.000000 0.076550
206.000000 57.765000 -3.000000 -1.000000 -1.000000 57.936894 11.735760 751.409519 1629.586941 8.666058 0.000000 0.056076
207.000000 58.433000 -5.000000 -2.000000 -2.000000 50.362801 11.231083 761.281139 1849.972854 17.135844 0.000000 0.097731
208.000000 55.158000 -2.000000 -1.000000 -1.000000 40.146027 10.597665 773.622391 2239.202232 9.077514 0.000000 0.239300
209.000000 48.086000 -11.000000 -1.000000 -2.000000 84.906045 9.284631 799.046480 1038.215866 20.811311 0.000000 0.161726
210.000000 51.622000 -10.000000 -1.000000 -2.000000 83.040042 8.748894 809.363744 1073.935647 19.386605 0.000000 0.158304
211.000000 55.624000 -9.000000 -1.000000 -2.000000 80.785305 8.123555 821.369165 1117.374744 17.992549 0.000000 0.152959
212.000000 60.139000 -8.000000 -1.000000 -2.000000 78.009846 7.384283 835.513997 1171.491699 16.642582 0.000000 0.144546
213.000000 65.167000 -7.000000 -1.000000 -2.000000 74.516545 6.497146 852.426057 1241.075387 15.359338 0.000000 0.131023
214.000000 70.573000 -6.000000 -1.000000 -2.000000 69.999389 5.413443 873.005441 1334.507168 14.184147 0.000000 0.108534
215.000000 75.834000 -5.000000 -1.000000 -2.000000 63.961748 4.060816 898.590083 1468.157035 13.201356 0.000000 0.069263
216.000000 79.376000 -4.000000 -1.000000 -2.000000 55.557164 2.327250 931.258836 1679.745916 12.613974 0.000000 0.017138
217.000000 76.643000 -3.000000 -1.000000 -2.000000 43.273609 0.030516 974.426766 2084.190439 13.065565 0.000000 0.170985
218.000000 47.838000 -12.000000 0.000000 -2.000000 93.217424 5.585101 869.750977 880.208876 20.915697 0.000000 0.174888
219.000000 51.505000 -11.000000 0.000000 -2.000000 92.172713 4.772092 885.148961 900.024226 19.427089 0.000000 0.175133
220.000000 55.744000 -10.000000 0.000000 -2.000000 90.916889 3.826100 903.020157 923.736406 17.950374 0.000000 0.174930
221.000000 60.683000 -9.000000 0.000000 -2.000000 89.380998 2.712258 924.012466 952.641373 16.489766 0.000000 0.173982
222.000000 66.483000 -8.000000 0.000000 -2.000000 87.463519 1.382666 949.021745 988.692531 15.051736 0.000000 0.171780
223.000000 73.331000 -7.000000 0.000000 -2.000000 85.009389 -0.230130 979.322979 1034.986580 13.646758 0.000000 0.167409
224.000000 81.412000 -6.000000 0.000000 -2.000000 81.771318 -2.223787 1016.794566 1096.763704 12.292967 0.000000 0.159149
225.000000 90.785000 -5.000000 0.000000 -2.000000 77.334379 -4.744186 1064.323194 1183.706423 11.024739 0.000000 0.143555
226.000000 46.631000 -13.000000 1.000000 -2.000000 100.095928 1.955468 938.252494 749.250047 21.454525 0.000000 0.174639
227.000000 50.135000 -12.000000 1.000000 -2.000000 99.618902 0.883604 958.400294 758.571512 19.955110 0.000000 0.175442
228.000000 54.185000 -11.000000 1.000000 -2.000000 99.035385 -0.358041 981.725851 769.846944 18.463899 0.000000 0.176085
229.000000 58.909000 -10.000000 1.000000 -2.000000 98.309002 -1.811776 1009.045333 783.734326 16.983329 0.000000 0.176442
230.000000 64.477000 -9.000000 1.000000 -2.000000 97.386110 -3.534557 1041.480577 801.213190 15.516914 0.000000 0.176303
231.000000 71.110000 -8.000000 1.000000 -2.000000 96.184998 -5.604502 1080.616960 823.801924 14.069899 0.000000 0.175318
232.000000 79.091000 -7.000000 1.000000 -2.000000 94.576462 -8.130837 1128.770407 853.973599 12.650493 0.000000 0.172873
233.000000 88.765000 -6.000000 1.000000 -2.000000 92.347310 -11.269188 1189.462972 896.014056 11.272294 0.000000 0.167879
234.000000 48.099000 -13.000000 2.000000 -2.000000 105.671267 -2.885133 1029.242733 638.666405 20.797477 0.000000 0.165333
235.000000 51.777000 -6.000000 1.000000 -1.000000 105.518611 -4.390816 1057.642785 641.260922 9.660097 0.000000 0.164680
236.000000 56.027000 -11.000000 2.000000 -2.000000 105.292290 -6.141555 1090.812259 645.016107 17.854456 0.000000 0.163465
237.000000 60.983000 -5.000000 1.000000 -1.000000 104.958573 -8.198245 1130.062732 650.472712 8.201747 0.000000 0.161402
238.000000 66.815000 -9.000000 2.000000 -2.000000 104.465181 -10.641769 1177.235215 658.490201 14.971872 0.000000 0.158039
239.000000 82.020000 -7.000000 2.000000 -2.000000 102.613201 -17.160977 1307.365618 688.937399 12.196725 0.000000 0.144002
240.000000 45.768000 -14.000000 3.000000 -2.000000 110.592590 -6.508668 1097.793182 533.983088 21.854346 0.000000 0.148691
241.000000 49.024000 -13.000000 3.000000 -2.000000 110.701289 -8.242771 1130.916600 530.029066 20.402796 0.000000 0.145728
242.000000 52.740000 -12.000000 3.000000 -2.000000 110.765482 -10.243409 1169.497856 526.285904 18.965242 0.000000 0.141669
243.000000 57.009000 -11.000000 3.000000 -2.000000 110.757915 -12.570932 1215.007020 523.038881 17.545089 0.000000 0.136052
244.000000 61.945000 -10.000000 3.000000 -2.000000 110.636103 -15.302644 1269.494188 520.774383 16.146939 0.000000 0.128171
245.000000 67.688000 -9.000000 3.000000 -2.000000 110.332932 -18.537517 1335.906857 520.337451 14.777176 0.000000 0.116918
246.000000 74.395000 -8.000000 3.000000 -2.000000 109.740866 -22.401129 1418.641297 523.239744 13.444920 0.000000 0.100521
247.000000 82.232000 -7.000000 3.000000 -2.000000 108.685281 -27.048921 1524.557386 532.298256 12.163661 0.000000 0.076281
248.000000 46.212000 -7.000000 2.000000 -1.000000 114.858973 -11.893485 1201.682968 431.397328 10.821316 0.000000 0.122299
249.000000 49.420000 -13.000000 4.000000 -2.000000 115.076982 -14.096327 1245.273079 421.717260 20.237653 0.000000 0.114910
250.000000 53.050000 -6.000000 2.000000 -1.000000 115.231928 -16.633032 1296.533031 411.652478 9.426358 0.000000 0.105183
251.000000 57.176000 -11.000000 4.000000 -2.000000 115.284002 -19.573125 1357.682397 401.426211 17.492459 0.000000 0.092147
252.000000 61.878000 -5.000000 2.000000 -1.000000 115.172299 -23.001299 1431.888620 391.480817 8.081535 0.000000 0.074297
253.000000 67.245000 -9.000000 4.000000 -2.000000 114.803289 -27.018345 1523.833461 382.671941 14.872998 0.000000 0.049231
254.000000 80.247000 -7.000000 4.000000 -2.000000 112.641140 -37.281695 1794.373237 376.787804 12.463431 0.000000 0.044533
255.000000 46.249000 -14.000000 5.000000 -2.000000 118.495785 -17.690682 1318.296467 327.720987 21.624216 0.000000 0.085595
256.000000 49.327000 -13.000000 5.000000 -2.000000 118.714578 -20.380018 1374.843028 312.018055 20.274480 0.000000 0.071789
257.000000 52.770000 -12.000000 5.000000 -2.000000 118.828156 -23.458681 1442.063450 295.239466 18.951503 0.000000 0.053804
258.000000 56.625000 -11.000000 5.000000 -2.000000 118.779554 -26.995588 1523.294936 277.509308 17.661192 0.000000 0.030065
259.000000 60.938000 -10.000000 5.000000 -2.000000 118.485457 -31.067418 1623.427720 259.172735 16.411333 0.000000 0.008818
260.000000 65.741000 -9.000000 5.000000 -2.000000 117.824668 -35.753731 1749.927425 241.021237 15.212399 0.000000 0.051613
261.000000 71.035000 -8.000000 5.000000 -2.000000 116.622782 -41.126475 1914.787492 224.774896 14.078818 0.000000 0.120395
262.000000 76.748000 -7.000000 5.000000 -2.000000 114.633736 -47.231515 2138.575254 214.187904 13.031041 0.000000 0.227746
264.000000 45.919000 -7.000000 3.000000 -1.000000 121.451435 -23.818772 1450.123628 221.410988 10.889036 0.000000 0.038776
265.000000 48.806000 -13.000000 6.000000 -2.000000 121.565018 -26.977992 1522.878674 199.023601 20.489952 0.000000 0.020081
266.000000 51.988000 -6.000000 3.000000 -1.000000 121.514138 -30.557650 1610.445356 174.648231 9.617797 0.000000 0.023978
267.000000 55.489000 -11.000000 6.000000 -2.000000 121.224882 -34.613475 1717.859340 148.212903 18.022126 0.000000 0.060770
268.000000 59.318000 -5.000000 3.000000 -1.000000 120.595084 -39.197652 1852.730751 119.815045 8.429415 0.000000 0.116161
269.000000 63.462000 -9.000000 6.000000 -2.000000 119.485619 -44.349555 2027.130489 89.942404 15.758034 0.000000 0.197023
271.000000 47.928000 -13.000000 7.000000 -2.000000 123.620488 -33.730619 1693.630350 80.497804 20.864203 0.000000 0.068352
272.000000 50.804000 -12.000000 7.000000 -2.000000 123.305509 -37.722151 1807.519601 47.001358 19.683083 0.000000 0.114799
273.000000 53.905000 -11.000000 7.000000 -2.000000 122.673824 -42.164064 1949.694679 9.739201 18.551006 0.000000 0.179368
276.000000 46.770000 -13.000000 8.000000 -2.000000 124.915512 -40.454384 1892.761217 -46.309865 21.380207 0.000000 0.167954
280.000000 47.616000 -9.000000 -3.000000 -1.000000 68.219348 22.460356 530.056548 1406.366247 21.022238 0.000000 0.106954
281.000000 49.942000 -8.000000 -3.000000 -1.000000 64.120558 22.980654 518.569022 1508.154498 20.044387 0.000000 0.103012
282.000000 51.873000 -7.000000 -3.000000 -1.000000 59.031877 23.594499 504.901657 1645.809371 19.299824 0.000000 0.111306
283.000000 52.780000 -6.000000 -3.000000 -1.000000 52.577724 24.329423 488.368954 1844.818871 18.969794 0.000000 0.150602
284.000000 51.378000 -5.000000 -3.000000 -1.000000 44.191581 25.224839 467.964329 2164.801954 19.488904 0.000000 0.246929
285.000000 47.550000 -11.000000 -2.000000 -1.000000 82.433208 18.332793 618.366186 1091.617980 21.046266 0.000000 0.142301
286.000000 50.942000 -10.000000 -2.000000 -1.000000 80.338861 18.498883 614.900310 1134.206091 19.645702 0.000000 0.138034
287.000000 54.740000 -9.000000 -2.000000 -1.000000 77.808651 18.692790 610.845426 1186.481985 18.283705 0.000000 0.131991
288.000000 58.952000 -8.000000 -2.000000 -1.000000 74.694287 18.922138 606.037440 1252.383264 16.978113 0.000000 0.123394
289.000000 63.514000 -7.000000 -2.000000 -1.000000 70.773993 19.197608 600.245068 1338.455672 15.759775 0.000000 0.111386
290.000000 68.159000 -6.000000 -2.000000 -1.000000 65.702892 19.534651 593.131518 1456.576999 14.687047 0.000000 0.096704
291.000000 72.102000 -5.000000 -2.000000 -1.000000 58.920245 19.956475 584.186584 1631.187940 13.885259 0.000000 0.092803
292.000000 73.185000 -4.000000 -2.000000 -1.000000 49.469130 20.499604 572.598542 1923.460192 13.681435 0.000000 0.153656
294.000000 48.078000 -12.000000 -1.000000 -1.000000 91.622428 14.616304 694.319260 909.495159 20.811690 0.000000 0.159878
295.000000 51.825000 -11.000000 -1.000000 -1.000000 90.496648 14.494671 696.758174 931.363566 19.307556 0.000000 0.159753
296.000000 56.177000 -10.000000 -1.000000 -1.000000 89.152445 14.352592 699.603669 957.435347 17.812373 0.000000 0.159238
297.000000 61.280000 -9.000000 -1.000000 -1.000000 87.519961 14.184440 702.966658 989.082282 16.329453 0.000000 0.158074
298.000000 67.324000 -8.000000 -1.000000 -1.000000 85.496319 13.982320 707.002433 1028.364348 14.863972 0.000000 0.155810
299.000000 74.547000 -7.000000 -1.000000 -1.000000 82.923778 13.734787 711.935325 1078.538866 13.424490 0.000000 0.151612
300.000000 83.220000 -6.000000 -1.000000 -1.000000 79.548262 13.424614 718.101873 1145.119059 12.026274 0.000000 0.143855
301.000000 45.969000 -14.000000 1.000000 -1.000000 105.707496 7.200917 839.014914 635.909044 21.760956 0.000000 0.160445
302.000000 49.444000 -13.000000 1.000000 -1.000000 105.759442 6.512953 852.125269 635.289152 20.231423 0.000000 0.161295
303.000000 53.481000 -12.000000 1.000000 -1.000000 105.809830 5.712156 867.340925 634.719115 18.704377 0.000000 0.162188
304.000000 58.225000 -11.000000 1.000000 -1.000000 105.855320 4.768693 885.213268 634.254894 17.180477 0.000000 0.163106
305.000000 63.875000 -10.000000 1.000000 -1.000000 105.890037 3.641392 906.504646 633.992022 15.660632 0.000000 0.164018
306.000000 70.714000 -9.000000 1.000000 -1.000000 105.903497 2.271917 932.299939 634.097245 14.146145 0.000000 0.164852
307.000000 79.147000 -8.000000 1.000000 -1.000000 105.876502 0.575055 964.197298 634.871255 12.638936 0.000000 0.165473
308.000000 89.780000 -7.000000 1.000000 -1.000000 105.772549 -1.578126 1004.652411 636.880954 11.141975 0.000000 0.165608
309.000000 47.300000 -14.000000 2.000000 -1.000000 111.369168 2.611272 925.913579 519.435121 21.146512 0.000000 0.149343
310.000000 50.924000 -13.000000 2.000000 -1.000000 111.768983 1.507641 946.672614 511.039879 19.641497 0.000000 0.148531
311.000000 55.130000 -12.000000 2.000000 -1.000000 112.207689 0.213720 970.985270 501.600878 18.142627 0.000000 0.147323
312.000000 60.067000 -11.000000 2.000000 -1.000000 112.687481 -1.322608 999.849445 490.932728 16.651443 0.000000 0.145527
313.000000 65.932000 -10.000000 2.000000 -1.000000 113.207832 -3.173521 1034.675251 478.816742 15.170042 0.000000 0.142842
314.000000 72.999000 -9.000000 2.000000 -1.000000 113.761967 -5.441290 1077.522372 465.005945 13.701365 0.000000 0.138771
315.000000 81.649000 -8.000000 2.000000 -1.000000 114.329324 -8.274375 1131.522785 449.252234 12.249664 0.000000 0.132451
316.000000 48.153000 -14.000000 3.000000 -1.000000 116.544016 -2.563860 1023.193973 402.807951 20.769736 0.000000 0.129698
317.000000 51.811000 -13.000000 3.000000 -1.000000 117.195153 -4.169585 1053.463716 386.507338 19.303416 0.000000 0.125711
318.000000 56.033000 -12.000000 3.000000 -1.000000 117.896584 -6.060983 1089.281423 368.010692 17.848648 0.000000 0.120447
319.000000 60.951000 -11.000000 3.000000 -1.000000 118.644179 -8.316257 1132.326256 346.860751 16.408182 0.000000 0.113362
320.000000 66.735000 -10.000000 3.000000 -1.000000 119.424799 -11.042089 1185.031040 322.474515 14.985713 0.000000 0.103595
321.000000 73.608000 -9.000000 3.000000 -1.000000 120.207659 -14.385673 1251.058537 294.106004 13.586334 0.000000 0.089739
322.000000 81.855000 -8.000000 3.000000 -1.000000 120.927491 -18.551121 1336.191160 260.806865 12.217254 0.000000 0.069411
323.000000 48.539000 -14.000000 4.000000 -1.000000 121.118687 -8.342758 1132.834737 284.309683 20.603212 0.000000 0.100884
324.000000 52.123000 -13.000000 4.000000 -1.000000 121.901438 -10.528932 1175.041557 259.554681 19.186221 0.000000 0.092054
325.000000 56.221000 -12.000000 4.000000 -1.000000 122.711377 -13.105609 1225.572600 231.243019 17.787210 0.000000 0.080615
326.000000 60.938000 -11.000000 4.000000 -1.000000 123.525520 -16.173855 1287.159887 198.540873 16.410254 0.000000 0.065577
327.000000 66.397000 -10.000000 4.000000 -1.000000 124.300712 -19.865387 1363.877841 160.327176 15.060763 0.000000 0.045839
328.000000 72.746000 -9.000000 4.000000 -1.000000 124.958778 -24.349406 1462.083240 115.054649 13.746075 0.000000 0.024834
329.000000 80.149000 -8.000000 4.000000 -1.000000 125.361151 -29.835025 1592.273596 60.517439 12.476396 0.000000 0.044791
330.000000 88.756000 -7.000000 4.000000 -1.000000 125.267072 -36.558389 1773.114545 -6.563398 11.266355 0.000000 0.114349
331.000000 48.487000 -14.000000 5.000000 -1.000000 124.994681 -14.699547 1257.351432 162.023434 20.623584 0.000000 0.062798
332.000000 51.909000 -13.000000 5.000000 -1.000000 125.774756 -17.517015 1314.705724 127.760881 19.263828 0.000000 0.048286
333.000000 55.773000 -12.000000 5.000000 -1.000000 126.524599 -20.821259 1384.302873 88.174032 17.929002 0.000000 0.032377
334.000000 60.149000 -11.000000 5.000000 -1.000000 127.193374 -24.721581 1470.531302 41.836657 16.624504 0.000000 0.028501
335.000000 65.111000 -10.000000 5.000000 -1.000000 127.698577 -29.347475 1580.161390 -13.281185 15.357411 0.000000 0.057863
336.000000 70.730000 -9.000000 5.000000 -1.000000 127.908645 -34.842023 1724.215317 -80.203881 14.137192 0.000000 0.114127
339.000000 48.049000 -14.000000 6.000000 -1.000000 128.098718 -21.547374 1399.991915 33.709695 20.810833 0.000000 0.027998
340.000000 51.241000 -13.000000 6.000000 -1.000000 128.740352 -24.997033 1476.816408 -11.765396 19.514103 0.000000 0.036963
341.000000 54.791000 -12.000000 6.000000 -1.000000 129.267712 -28.996387 1571.510941 -65.029832 18.249442 0.000000 0.066713
342.000000 58.736000 -11.000000 6.000000 -1.000000 129.600875 -33.638503 1691.131212 -128.505275 17.023495 0.000000 0.114025
345.000000 47.281000 -14.000000 7.000000 -1.000000 130.393381 -28.731520 1565.023720 -103.364044 21.147699 0.000000 0.073059
346.000000 50.200000 -13.000000 7.000000 -1.000000 130.775504 -32.748571 1667.257788 -162.652359 19.918144 0.000000 0.113887
354.000000 45.615000 -11.000000 -3.000000 0.000000 78.555009 27.052957 425.347030 1185.668698 21.939929 0.000000 0.120419
355.000000 48.475000 -10.000000 -3.000000 0.000000 76.024328 27.860621 406.078282 1243.984809 20.646677 0.000000 0.118620
356.000000 51.528000 -3.000000 -1.000000 0.000000 72.966377 28.795867 383.403322 1317.276805 6.474679 0.000000 0.118543
357.000000 54.677000 -8.000000 -3.000000 0.000000 69.206838 29.890876 356.331384 1412.407297 18.306580 0.000000 0.123065
358.000000 57.676000 -7.000000 -3.000000 0.000000 64.490852 31.189358 323.446205 1541.351533 17.355842 0.000000 0.138387
359.000000 59.971000 -2.000000 -1.000000 0.000000 58.435613 32.752038 282.650121 1727.210815 5.564330 0.000000 0.176428
360.000000 60.334000 -5.000000 -3.000000 0.000000 50.451711 34.665452 230.698248 2021.567777 16.594153 0.000000 0.259038
362.000000 47.101000 -6.000000 -1.000000 0.000000 88.565769 23.495724 507.109437 970.383696 10.622169 0.000000 0.133209
363.000000 50.593000 -11.000000 -2.000000 0.000000 87.125118 24.048501 494.710821 1000.187066 19.778570 0.000000 0.131315
364.000000 54.590000 -5.000000 -1.000000 0.000000 85.399250 24.691039 480.163880 1036.326080 9.165443 0.000000 0.128963
365.000000 59.185000 -9.000000 -2.000000 0.000000 83.296192 25.446924 462.857287 1081.100036 16.908288 0.000000 0.126079
366.000000 64.474000 -4.000000 -1.000000 0.000000 80.680792 26.348701 441.923463 1138.096964 7.760959 0.000000 0.122711
367.000000 70.526000 -7.000000 -2.000000 0.000000 77.346958 27.442508 416.088591 1213.263461 14.190674 0.000000 0.119406
368.000000 84.329000 -5.000000 -2.000000 0.000000 66.988596 30.511369 340.726515 1471.583379 11.869878 0.000000 0.128797
371.000000 47.152000 -13.000000 -1.000000 0.000000 97.092981 19.863787 586.156131 798.602111 21.218260 0.000000 0.141384
372.000000 50.817000 -12.000000 -1.000000 0.000000 96.486698 20.145210 580.168949 810.650445 19.688088 0.000000 0.141034
373.000000 55.091000 -11.000000 -1.000000 0.000000 95.769232 20.473165 573.164515 824.926256 18.160756 0.000000 0.140568
374.000000 60.137000 -10.000000 -1.000000 0.000000 94.907090 20.860205 564.859508 842.113018 16.637173 0.000000 0.139932
375.000000 66.178000 -9.000000 -1.000000 0.000000 93.851922 21.323830 554.854622 863.207209 15.118681 0.000000 0.139052
376.000000 73.530000 -8.000000 -1.000000 0.000000 92.531314 21.889185 542.568457 889.721804 13.607352 0.000000 0.137800
377.000000 82.648000 -7.000000 -1.000000 0.000000 90.831855 22.593719 527.120357 924.073539 12.106555 0.000000 0.135968
378.000000 46.251000 -4.000000 0.000000 0.000000 104.280234 16.184653 662.620205 655.746353 6.179627 0.000000 0.141945
379.000000 48.079000 -14.000000 1.000000 0.000000 110.717140 12.203885 742.220543 524.522554 20.803695 0.000000 0.135703
380.000000 51.908000 -13.000000 1.000000 0.000000 111.199048 11.872441 748.729845 514.428342 19.269200 0.000000 0.134930
381.000000 56.393000 -12.000000 1.000000 0.000000 111.758499 11.480927 756.398552 502.646034 17.736354 0.000000 0.133973
382.000000 61.720000 -11.000000 1.000000 0.000000 112.415689 11.011432 765.566707 488.711642 16.205584 0.000000 0.132766
383.000000 68.144000 -10.000000 1.000000 0.000000 113.198412 10.438172 776.721739 471.973058 14.677475 0.000000 0.131209
384.000000 76.042000 -9.000000 1.000000 0.000000 114.145938 9.722634 790.588021 451.483307 13.152856 0.000000 0.129138
385.000000 85.976000 -8.000000 1.000000 0.000000 115.315478 8.804684 808.290752 425.811206 11.632943 0.000000 0.126293
386.000000 98.831000 -7.000000 1.000000 0.000000 116.793381 7.585039 831.677725 392.682954 10.119586 0.000000 0.122208
387.000000 116.077000 -6.000000 1.000000 0.000000 118.715322 5.887648 864.010308 348.245128 8.615756 0.000000 0.115999
388.000000 140.328000 -5.000000 1.000000 0.000000 121.303764 3.369311 911.634846 285.372683 7.126532 0.000000 0.105812
389.000000 176.633000 -4.000000 1.000000 0.000000 124.934863 -0.732469 988.760093 189.131247 5.661392 0.000000 0.087184
390.000000 45.982000 -15.000000 2.000000 0.000000 116.008887 8.241107 819.115313 410.370056 21.750588 0.000000 0.124447
391.000000 53.389000 -13.000000 2.000000 0.000000 117.687587 6.811896 846.433026 372.215179 18.732459 0.000000 0.119452
392.000000 63.546000 -11.000000 2.000000 0.000000 119.907352 4.763857 885.304734 319.773483 15.737741 0.000000 0.111587
393.000000 78.248000 -9.000000 2.000000 0.000000 122.956972 1.595210 945.026421 242.924365 12.780141 0.000000 0.098032
394.000000 101.142000 -7.000000 2.000000 0.000000 127.321508 -3.907770 1048.521030 118.532616 9.886658 0.000000 0.071439
395.000000 117.906000 -6.000000 2.000000 0.000000 130.204983 -8.460573 1135.096171 21.291483 8.480547 0.000000 0.047983
396.000000 140.452000 -5.000000 2.000000 0.000000 133.610981 -15.414418 1271.752245 -122.593590 7.118864 0.000000 0.028422
398.000000 50.242000 -14.000000 3.000000 0.000000 122.373527 2.237713 932.943438 258.139521 19.904405 0.000000 0.100902
399.000000 54.235000 -13.000000 3.000000 0.000000 123.576350 0.892128 958.240121 226.465368 18.438590 0.000000 0.094827
400.000000 64.332000 -11.000000 3.000000 0.000000 126.474863 -2.729246 1026.307366 144.411059 15.543825 0.000000 0.077390
401.000000 70.812000 -10.000000 3.000000 0.000000 128.223695 -5.235601 1073.624798 89.767504 14.121086 0.000000 0.064623
402.000000 88.096000 -8.000000 3.000000 0.000000 132.424064 -12.732203 1218.189121 -67.417126 11.349858 0.000000 0.029799
403.000000 99.803000 -7.000000 3.000000 0.000000 134.829707 -18.577642 1336.745550 -187.730321 10.018107 0.000000 0.041780
405.000000 47.161000 -15.000000 4.000000 0.000000 126.071350 -2.188607 1016.132721 156.404447 21.203225 0.000000 0.080081
406.000000 54.468000 -13.000000 4.000000 0.000000 128.696528 -5.964171 1087.442654 74.140500 18.358248 0.000000 0.060852
407.000000 64.153000 -11.000000 4.000000 0.000000 131.848231 -11.541744 1194.791282 -42.843793 15.585836 0.000000 0.033743
408.000000 77.363000 -9.000000 4.000000 0.000000 135.442039 -20.375025 1374.736310 -224.982074 12.923859 0.000000 0.053711
410.000000 50.439000 -14.000000 5.000000 0.000000 131.509177 -10.869899 1181.675251 -28.934767 19.823632 0.000000 0.036496
411.000000 54.145000 -13.000000 5.000000 0.000000 132.893685 -13.753778 1238.442762 -88.451391 18.466637 0.000000 0.027820
412.000000 58.353000 -12.000000 5.000000 0.000000 134.339991 -17.247756 1309.152032 -160.303113 17.134497 0.000000 0.034625
413.000000 63.150000 -11.000000 5.000000 0.000000 135.807369 -21.531996 1399.658051 -249.117554 15.832493 0.000000 0.062383
416.000000 53.345000 -13.000000 6.000000 0.000000 136.049152 -22.338465 1417.264784 -266.032513 18.742652 0.000000 0.068804
418.000000 46.173000 -15.000000 7.000000 0.000000 136.220658 -22.932539 1430.364980 -278.547452 21.653717 0.000000 0.073715
422.000000 46.452000 -9.000000 -4.000000 1.000000 66.760286 37.906951 136.918053 1526.776979 21.548154 0.000000 0.178491
423.000000 48.096000 -8.000000 -4.000000 1.000000 62.241711 39.632046 83.597490 1676.518763 20.812655 0.000000 0.222035
424.000000 49.032000 -7.000000 -4.000000 1.000000 56.650945 41.635153 18.239699 1888.714684 20.416526 0.000000 0.291111
426.000000 47.863000 -11.000000 -3.000000 1.000000 82.278572 32.946807 277.466094 1114.897509 20.907593 0.000000 0.111929
427.000000 51.085000 -10.000000 -3.000000 1.000000 79.953505 34.229896 242.729912 1171.628155 19.589847 0.000000 0.116713
428.000000 54.588000 -9.000000 -3.000000 1.000000 77.118522 35.717445 201.107083 1244.160947 18.333544 0.000000 0.127018
429.000000 58.298000 -8.000000 -3.000000 1.000000 73.599308 37.459975 150.324281 1340.084610 17.167514 0.000000 0.146803
430.000000 62.006000 -7.000000 -3.000000 1.000000 69.139858 39.524954 86.983882 1472.717734 16.141960 0.000000 0.182490
431.000000 65.198000 -6.000000 -3.000000 1.000000 63.355070 42.003805 5.770861 1667.717547 15.352790 0.000000 0.245284
435.000000 45.855000 -13.000000 -2.000000 1.000000 93.498025 28.440019 392.077947 866.178506 21.819029 0.000000 0.108602
436.000000 49.197000 -12.000000 -2.000000 1.000000 92.499997 29.336398 370.112438 887.095173 20.337227 0.000000 0.106171
437.000000 53.029000 -11.000000 -2.000000 1.000000 91.306862 30.371356 344.264961 912.540961 18.868022 0.000000 0.103790
438.000000 57.453000 -10.000000 -2.000000 1.000000 89.857747 31.578858 313.406673 944.136689 17.415606 0.000000 0.101868
439.000000 62.591000 -9.000000 -2.000000 1.000000 88.064677 33.004577 275.924079 984.366875 15.986261 0.000000 0.101335
440.000000 68.584000 -8.000000 -2.000000 1.000000 85.796372 34.711184 229.427654 1037.232929 14.589847 0.000000 0.104218
441.000000 75.564000 -7.000000 -2.000000 1.000000 82.849555 36.786600 170.221534 1109.593778 13.242781 0.000000 0.114660
442.000000 83.572000 -6.000000 -2.000000 1.000000 78.895864 39.357139 92.269467 1214.200975 11.974564 0.000000 0.140449
443.000000 92.292000 -5.000000 -2.000000 1.000000 73.379140 42.608734 -15.006159 1377.530770 10.844064 0.000000 0.195816
444.000000 100.211000 -4.000000 -2.000000 1.000000 65.310162 46.821135 -171.984563 1664.110623 9.988170 0.000000 0.311508
447.000000 45.642000 -14.000000 -1.000000 1.000000 101.468126 24.944467 474.385184 700.184960 21.917907 0.000000 0.110014
448.000000 49.062000 -13.000000 -1.000000 1.000000 101.197620 25.597633 459.380865 704.746245 20.390096 0.000000 0.107145
449.000000 53.028000 -12.000000 -1.000000 1.000000 100.872819 26.354946 441.777359 710.287902 18.865220 0.000000 0.103767
450.000000 57.679000 -11.000000 -1.000000 1.000000 100.476406 27.243132 420.835237 717.147540 17.344110 0.000000 0.099759
451.000000 63.205000 -10.000000 -1.000000 1.000000 99.983157 28.298763 395.505211 725.831149 15.827935 0.000000 0.094985
452.000000 69.868000 -9.000000 -1.000000 1.000000 99.355051 29.573145 364.246837 737.129009 14.318409 0.000000 0.089333
453.000000 78.047000 -8.000000 -1.000000 1.000000 98.532388 31.140370 324.703040 752.339228 12.818143 0.000000 0.082885
454.000000 88.289000 -7.000000 -1.000000 1.000000 97.416699 33.111068 273.076296 773.732805 11.331318 0.000000 0.076560
455.000000 101.413000 -6.000000 -1.000000 1.000000 95.835527 35.656944 202.829853 805.618672 9.865082 0.000000 0.074355
456.000000 118.643000 -5.000000 -1.000000 1.000000 93.463565 39.056526 101.674536 857.110829 8.432738 0.000000 0.088744
457.000000 141.674000 -4.000000 -1.000000 1.000000 89.627670 43.783764 -56.543796 950.687937 7.062203 0.000000 0.145098
458.000000 171.821000 -3.000000 -1.000000 1.000000 82.767226 50.680879 -339.079691 1156.569256 5.823653 0.000000 0.299699
459.000000 46.301000 -15.000000 1.000000 1.000000 114.619754 17.845486 628.496933 422.855271 21.601169 0.000000 0.100476
460.000000 49.819000 -14.000000 1.000000 1.000000 115.360046 17.982510 625.653990 404.657446 20.075616 0.000000 0.096577
461.000000 53.907000 -13.000000 1.000000 1.000000 116.214031 18.144166 622.294280 383.341072 18.552849 0.000000 0.091932
462.000000 58.714000 -12.000000 1.000000 1.000000 117.209932 18.337751 618.262816 358.019305 17.033517 0.000000 0.086320
463.000000 64.445000 -11.000000 1.000000 1.000000 118.386087 18.573754 613.335750 327.429385 15.518487 0.000000 0.079436
464.000000 71.388000 -10.000000 1.000000 1.000000 119.795891 18.867819 607.177348 289.707124 14.008943 0.000000 0.070853
465.000000 79.961000 -9.000000 1.000000 1.000000 121.515898 19.244359 599.260105 241.974661 12.506551 0.000000 0.059997
466.000000 90.796000 -8.000000 1.000000 1.000000 123.659706 19.743674 588.705013 179.529688 11.013723 0.000000 0.046288
467.000000 104.882000 -7.000000 1.000000 1.000000 126.402946 20.437381 573.930245 94.092914 9.534095 0.000000 0.030913
468.000000 123.851000 -6.000000 1.000000 1.000000 130.030855 21.466035 551.773259 -30.494301 8.073416 0.000000 0.030971
469.000000 150.547000 -5.000000 1.000000 1.000000 135.034597 23.147855 514.858719 -230.943977 6.641334 0.000000 0.070331
471.000000 47.509000 -15.000000 2.000000 1.000000 120.709216 13.709678 712.435120 282.960932 21.049645 0.000000 0.087343
472.000000 51.152000 -14.000000 2.000000 1.000000 121.873137 13.486621 716.870404 252.787880 19.550083 0.000000 0.081903
473.000000 55.382000 -13.000000 2.000000 1.000000 123.212640 13.219414 722.172675 217.173253 18.056769 0.000000 0.075449
474.000000 60.345000 -12.000000 2.000000 1.000000 124.770117 12.893527 728.623679 174.460989 16.571091 0.000000 0.067728
475.000000 66.245000 -11.000000 2.000000 1.000000 126.602540 12.487275 736.642077 122.230535 15.094879 0.000000 0.058438
476.000000 73.359000 -10.000000 2.000000 1.000000 128.788138 11.966812 746.878105 56.788172 13.630598 0.000000 0.047318
477.000000 82.082000 -9.000000 2.000000 1.000000 131.436972 11.276235 760.399384 -27.818289 12.181653 0.000000 0.034575
478.000000 92.984000 -8.000000 2.000000 1.000000 134.708072 10.316198 779.089838 -141.887580 10.752880 0.000000 0.023403
479.000000 106.914000 -7.000000 2.000000 1.000000 138.837765 8.891820 806.614246 -305.052474 9.351387 0.000000 0.025918
482.000000 48.284000 -15.000000 3.000000 1.000000 126.396556 8.836862 807.671729 138.056138 20.709951 0.000000 0.068872
483.000000 51.952000 -14.000000 3.000000 1.000000 127.906443 8.114710 821.538711 94.457321 19.247497 0.000000 0.061231
484.000000 56.188000 -13.000000 3.000000 1.000000 129.630116 7.236418 838.337338 42.501944 17.795936 0.000000 0.052205
485.000000 61.127000 -12.000000 3.000000 1.000000 131.613804 6.145795 859.107173 -20.569020 16.357579 0.000000 0.041499
486.000000 66.945000 -11.000000 3.000000 1.000000 133.916607 4.756432 885.445174 -98.923422 14.935441 0.000000 0.028814
487.000000 73.877000 -10.000000 3.000000 1.000000 136.613977 2.928682 919.937091 -199.194792 13.533532 0.000000 0.014054
488.000000 82.237000 -9.000000 3.000000 1.000000 139.800493 0.422517 967.062929 -332.679141 12.157299 0.000000 0.005192
491.000000 45.471000 -16.000000 4.000000 1.000000 129.995947 4.255172 894.919826 35.515612 21.990222 0.000000 0.053749
492.000000 48.633000 -15.000000 4.000000 1.000000 131.556091 3.103046 916.652590 -14.505748 20.559762 0.000000 0.044742
493.000000 52.232000 -14.000000 4.000000 1.000000 133.302786 1.709833 942.871464 -73.799053 19.142958 0.000000 0.034203
494.000000 56.353000 -13.000000 4.000000 1.000000 135.266198 -0.006673 975.125357 -145.342024 17.742407 0.000000 0.021920
495.000000 61.108000 -12.000000 4.000000 1.000000 137.480121 -2.169270 1015.768964 -233.593023 16.361413 0.000000 0.009008
496.000000 66.633000 -11.000000 4.000000 1.000000 139.979262 -4.968383 1068.565101 -345.569255 15.004239 0.000000 0.015085
500.000000 45.524000 -16.000000 5.000000 1.000000 134.378212 -1.744563 1007.781538 -112.672135 21.963020 0.000000 0.027530
501.000000 48.583000 -15.000000 5.000000 1.000000 136.057256 -3.593090 1042.584386 -177.966084 20.579781 0.000000 0.017200
502.000000 52.032000 -14.000000 5.000000 1.000000 137.899045 -5.845661 1085.192648 -256.344933 19.215138 0.000000 0.013531
503.000000 55.940000 -13.000000 5.000000 1.000000 139.913746 -8.641090 1138.563811 -352.445147 17.872497 0.000000 0.026711
507.000000 48.175000 -15.000000 6.000000 1.000000 139.772234 -11.284163 1189.755455 -356.452406 20.753245 0.000000 0.035908
515.000000 48.271000 -9.000000 -4.000000 2.000000 69.751581 44.572388 -85.347724 1498.344264 20.734314 0.000000 0.242864
518.000000 46.371000 -12.000000 -3.000000 2.000000 87.233432 37.672996 143.955234 1006.709793 21.578164 0.000000 0.103851
519.000000 49.456000 -11.000000 -3.000000 2.000000 85.401920 39.231656 96.205152 1052.749062 20.232651 0.000000 0.116649
520.000000 52.852000 -10.000000 -3.000000 2.000000 83.179579 41.018799 38.771494 1111.616799 18.933185 0.000000 0.137402
521.000000 56.543000 -9.000000 -3.000000 2.000000 80.440637 43.084258 -31.623837 1189.177505 17.697799 0.000000 0.169584
522.000000 60.448000 -8.000000 -3.000000 2.000000 77.005385 45.491675 -119.926739 1295.309551 16.555355 0.000000 0.218664
523.000000 64.339000 -7.000000 -3.000000 2.000000 72.612244 48.322604 -233.966141 1447.872443 15.555111 0.000000 0.294329
527.000000 47.213000 -13.000000 -2.000000 2.000000 96.699621 34.297958 240.858034 787.961034 21.189996 0.000000 0.074442
528.000000 54.709000 -11.000000 -2.000000 2.000000 94.778624 37.226461 157.264459 828.002168 18.286874 0.000000 0.078201
529.000000 64.658000 -9.000000 -2.000000 2.000000 91.794650 41.213033 32.343064 896.170966 15.473892 0.000000 0.109494
530.000000 77.944000 -7.000000 -2.000000 2.000000 86.738469 46.886697 -174.618006 1030.742228 12.837108 0.000000 0.203281
533.000000 46.906000 -14.000000 -1.000000 2.000000 104.838653 30.770019 334.162938 609.136713 21.325769 0.000000 0.063040
534.000000 50.467000 -13.000000 -1.000000 2.000000 104.731766 31.896925 305.145956 607.668571 19.820970 0.000000 0.056155
535.000000 54.593000 -12.000000 -1.000000 2.000000 104.580157 33.206989 270.505247 606.403975 18.322908 0.000000 0.049247
536.000000 59.423000 -11.000000 -1.000000 2.000000 104.364043 34.747038 228.430499 605.557078 16.833433 0.000000 0.044276
537.000000 65.144000 -10.000000 -1.000000 2.000000 104.052771 36.580518 176.241001 605.512207 15.355148 0.000000 0.046039
538.000000 72.007000 -9.000000 -1.000000 2.000000 103.597351 38.795024 109.791073 606.982990 13.891819 0.000000 0.060804
539.000000 80.352000 -8.000000 -1.000000 2.000000 102.916612 41.513861 22.310971 611.360227 12.449120 0.000000 0.092517
540.000000 90.641000 -7.000000 -1.000000 2.000000 101.870416 44.913772 -98.059577 621.542254 11.036010 0.000000 0.146725
541.000000 103.474000 -6.000000 -1.000000 2.000000 100.205309 49.251426 -274.163882 644.161136 9.667511 0.000000 0.238550
543.000000 45.836000 -15.000000 0.000000 2.000000 111.764561 27.106991 424.066672 458.259466 21.821136 0.000000 0.059310
544.000000 49.255000 -14.000000 0.000000 2.000000 112.223333 27.971553 403.409447 443.096226 20.306165 0.000000 0.050720
545.000000 53.213000 -13.000000 0.000000 2.000000 112.737708 28.982277 378.835488 425.371488 18.795619 0.000000 0.040309
546.000000 57.844000 -12.000000 0.000000 2.000000 113.316870 30.178825 349.114174 404.363353 17.290556 0.000000 0.027559
547.000000 63.331000 -11.000000 0.000000 2.000000 113.971220 31.616229 312.439034 379.044239 15.792402 0.000000 0.012603
548.000000 69.924000 -10.000000 0.000000 2.000000 114.711709 33.372847 266.046293 347.895667 14.303127 0.000000 0.014810
549.000000 77.978000 -9.000000 0.000000 2.000000 115.547716 35.563559 205.483911 308.565852 12.825523 0.000000 0.042903
550.000000 88.007000 -8.000000 0.000000 2.000000 116.481260 38.362366 123.090124 257.183928 11.363694 0.000000 0.084978
551.000000 100.773000 -7.000000 0.000000 2.000000 117.491643 42.042172 4.464865 186.832838 9.923924 0.000000 0.149573
554.000000 47.472000 -15.000000 1.000000 2.000000 118.476079 23.908703 497.856428 302.405300 21.066817 0.000000 0.048883
555.000000 51.116000 -14.000000 1.000000 2.000000 119.454950 24.585308 482.567813 272.581743 19.564636 0.000000 0.039406
556.000000 55.347000 -13.000000 1.000000 2.000000 120.575185 25.390712 464.151699 237.118818 18.068491 0.000000 0.028530
557.000000 60.316000 -12.000000 1.000000 2.000000 121.868520 26.365130 441.539084 194.206154 16.579759 0.000000 0.018043
558.000000 66.224000 -11.000000 1.000000 2.000000 123.376261 27.567205 413.111137 141.145754 15.100268 0.000000 0.019782
559.000000 73.352000 -10.000000 1.000000 2.000000 125.152647 29.085723 376.293520 73.719477 13.632504 0.000000 0.040433
560.000000 82.097000 -9.000000 1.000000 2.000000 127.269032 31.061281 326.729392 -15.084905 12.179931 0.000000 0.073575
561.000000 93.035000 -8.000000 1.000000 2.000000 129.817901 33.728999 256.413649 -137.914686 10.747524 0.000000 0.122300
564.000000 48.675000 -15.000000 2.000000 2.000000 124.941934 20.059773 581.988867 140.428622 20.543928 0.000000 0.038474
565.000000 56.808000 -13.000000 2.000000 2.000000 128.082100 20.896341 564.081931 38.243573 17.601813 0.000000 0.026531
566.000000 67.991000 -11.000000 2.000000 2.000000 132.317575 22.191868 535.950635 -117.354554 14.705922 0.000000 0.046168
568.000000 46.126000 -16.000000 3.000000 2.000000 129.393669 15.458232 677.361953 23.946672 21.677832 0.000000 0.034912
569.000000 49.432000 -15.000000 3.000000 2.000000 131.043312 15.386975 678.802378 -30.873810 20.227576 0.000000 0.029338
570.000000 53.216000 -14.000000 3.000000 2.000000 132.920038 15.300219 680.554776 -96.633483 18.788860 0.000000 0.027477
571.000000 57.581000 -13.000000 3.000000 2.000000 135.072930 15.192291 682.732808 -177.113841 17.363931 0.000000 0.032235
572.000000 62.662000 -12.000000 3.000000 2.000000 137.565840 15.054365 685.512980 -278.122777 15.955659 0.000000 0.043375
573.000000 68.629000 -11.000000 3.000000 2.000000 140.483132 14.871917 689.185046 -409.091884 14.567773 0.000000 0.058457
576.000000 49.751000 -15.000000 4.000000 2.000000 136.646695 9.680754 791.397726 -215.477149 20.096312 0.000000 0.022194
577.000000 57.696000 -13.000000 4.000000 2.000000 141.330456 7.886588 825.908619 -416.741344 17.328121 0.000000 0.032418
579.000000 46.514000 -16.000000 5.000000 2.000000 139.483034 4.144535 897.009342 -321.725500 21.494320 0.000000 0.013249
580.000000 49.661000 -15.000000 5.000000 2.000000 141.601028 2.714179 923.976312 -418.520584 20.131559 0.000000 0.017132
588.000000 47.016000 -10.000000 -4.000000 3.000000 75.614495 48.983312 -262.406849 1361.637050 21.285445 0.000000 0.291879
593.000000 50.314000 -11.000000 -3.000000 3.000000 87.800355 45.784415 -131.175525 1000.281249 19.886336 0.000000 0.180660
594.000000 53.677000 -10.000000 -3.000000 3.000000 85.558215 48.065341 -223.090781 1066.105664 18.640872 0.000000 0.230003
597.000000 48.051000 -13.000000 -2.000000 3.000000 99.274300 40.507529 55.513228 709.841907 20.818933 0.000000 0.083909
598.000000 51.560000 -12.000000 -2.000000 3.000000 98.434475 42.348789 -6.029065 725.055977 19.402390 0.000000 0.106795
599.000000 55.546000 -11.000000 -2.000000 3.000000 97.376494 44.467062 -81.455886 745.754982 18.010179 0.000000 0.139410
600.000000 60.085000 -10.000000 -2.000000 3.000000 96.022005 46.922613 -176.063387 774.757770 16.649944 0.000000 0.185355
601.000000 65.247000 -9.000000 -2.000000 3.000000 94.256530 49.791380 -298.233667 816.915091 15.332902 0.000000 0.251119
604.000000 47.720000 -14.000000 -1.000000 3.000000 107.601517 37.034080 162.949929 513.263946 20.960658 0.000000 0.041696
605.000000 51.307000 -13.000000 -1.000000 3.000000 107.548423 38.676632 113.446151 505.031002 19.495173 0.000000 0.058432
606.000000 55.437000 -12.000000 -1.000000 3.000000 107.430308 40.583101 53.054740 496.060033 18.042736 0.000000 0.083304
607.000000 60.230000 -11.000000 -1.000000 3.000000 107.214152 42.817206 -22.259961 486.401020 16.606848 0.000000 0.117942
608.000000 65.838000 -10.000000 -1.000000 3.000000 106.848452 45.462427 -118.809276 476.277247 15.192389 0.000000 0.166207
609.000000 72.447000 -9.000000 -1.000000 3.000000 106.251107 48.628648 -247.047462 466.319557 13.806365 0.000000 0.235558
612.000000 48.248000 -15.000000 1.000000 3.000000 121.716388 30.663981 336.858023 167.715771 20.726540 0.000000 0.028950
613.000000 51.922000 -14.000000 1.000000 3.000000 122.815330 31.988757 302.750328 122.712809 19.259508 0.000000 0.049048
614.000000 56.168000 -13.000000 1.000000 3.000000 124.047486 33.572168 260.665147 68.127940 17.803274 0.000000 0.074770
615.000000 61.121000 -12.000000 1.000000 3.000000 125.432856 35.494839 207.433031 0.393161 16.360253 0.000000 0.108078
616.000000 66.958000 -11.000000 1.000000 3.000000 126.991894 37.872759 137.949286 -86.149479 14.933634 0.000000 0.152512
619.000000 46.129000 -16.000000 2.000000 3.000000 127.083856 26.368765 441.454018 33.008813 21.676900 0.000000 0.035465
620.000000 49.442000 -15.000000 2.000000 3.000000 128.527389 27.327061 418.839177 -23.613894 20.224288 0.000000 0.051681
621.000000 53.234000 -14.000000 2.000000 3.000000 130.155750 28.481379 391.072712 -92.155928 18.783180 0.000000 0.072970
622.000000 57.610000 -13.000000 2.000000 3.000000 132.003240 29.897411 356.168055 -176.993295 17.355867 0.000000 0.100202
623.000000 62.704000 -12.000000 2.000000 3.000000 134.111139 31.673038 310.966573 -285.011843 15.945298 0.000000 0.135368
626.000000 46.845000 -16.000000 3.000000 3.000000 133.170009 22.480088 529.622470 -151.677841 21.343998 0.000000 0.053274
627.000000 53.988000 -14.000000 3.000000 3.000000 137.145734 23.973116 496.407900 -328.607340 18.518991 0.000000 0.091366
630.000000 47.193000 -16.000000 4.000000 3.000000 138.886515 17.651464 632.515006 -353.122259 21.185108 0.000000 0.063579
640.000000 47.477000 -12.000000 -3.000000 4.000000 91.328179 50.035267 -309.282141 902.149729 21.073012 0.000000 0.260604
641.000000 50.421000 -11.000000 -3.000000 4.000000 89.401801 52.444486 -424.843596 959.436335 19.842884 0.000000 0.329958
644.000000 48.349000 -13.000000 -2.000000 4.000000 101.137985 46.945283 -176.976711 630.610745 20.689758 0.000000 0.186326
645.000000 55.527000 -11.000000 -2.000000 4.000000 99.004356 51.882708 -396.796156 664.700782 18.015447 0.000000 0.309257
647.000000 48.063000 -14.000000 -1.000000 4.000000 109.659649 43.624084 -50.804209 409.816424 20.810012 0.000000 0.139581
648.000000 51.561000 -13.000000 -1.000000 4.000000 109.537296 45.786511 -131.256476 393.307633 19.398240 0.000000 0.181851
649.000000 55.541000 -12.000000 -1.000000 4.000000 109.299851 48.280059 -232.160093 374.635887 18.007869 0.000000 0.237839
652.000000 46.994000 -15.000000 0.000000 4.000000 116.979843 40.069584 69.652139 225.007844 21.281074 0.000000 0.113545
653.000000 54.261000 -13.000000 0.000000 4.000000 118.003942 44.341244 -76.825232 140.693819 18.430502 0.000000 0.196203
655.000000 48.611000 -15.000000 1.000000 4.000000 124.203178 38.019098 133.528873 12.425491 20.571047 0.000000 0.132417
656.000000 52.217000 -14.000000 1.000000 4.000000 125.275189 40.059517 69.974987 -53.751613 19.149747 0.000000 0.171979
660.000000 49.789000 -15.000000 2.000000 4.000000 131.289216 35.442151 208.925143 -219.165854 20.082136 0.000000 0.155568
#UB matrix in q= (UB) B0 G* 
#[[ 0.7892775   -0.504946881 -0.348144243]
# [-0.171136456 -0.72670524   0.666011758]
# [-0.589706148 -0.46646923  -0.660514855]]
#B0 matrix in q= UB (B0) G*
#[[ 0.19670273 -0.          0.03056101]
# [ 0.          0.19187965 -0.        ]
# [ 0.          0.          0.18806537]]
#UBB0 matrix in q= (UB B0) G* i.e. recip. basis vectors are columns in LT frame: astar = UBB0[:,0], bstar = UBB0[:,1], cstar = UBB0[:,2]. (abcstar as columns on xyzlab1, xlab1 = ui, ui = unit vector along incident beam)
#[[ 0.15525304 -0.09688903 -0.04135276]
# [-0.03366301 -0.13943995  0.12002365]
# [-0.11599681 -0.08950595 -0.14224198]]
#Euler angles phi theta psi (deg)
#[308.304 131.282  27.638]
#deviatoric strain in direct crystal frame (10-3 unit)
#[[ 3.44 -0.45 -0.51]
# [-0.45  3.   -0.05]
# [-0.51 -0.05 -6.43]]
#deviatoric strain in sample2 frame (10-3 unit)
#[[-1.23  4.2  -2.54]
# [ 4.2  -1.11  1.81]
# [-2.55  1.82  2.35]]
#new lattice parameters
#[ 5.1505     5.2093197  5.3139359 89.9948075 99.2669668 90.0518436]
#CCDLabel
#sCMOS
#DetectorParameters
#[79.0, 975.0, 941.0, 0.0, 0.0]
#pixelsize
#0.0734
#Frame dimensions
#[2018, 2016]
#
