#Strain and Orientation Refinement from experimental file: /home/micha/LaueProjects/DepthEffects/testZrO2_179.cor
#File created at Wed Jun 28 14:28:55 2023 with indexingSpotsSet.py
#Number of indexed spots: 523
#Element
#ZrO2
#grainIndex
#G_0
#Mean Deviation(pixel): 0.116
##spot_index intensity h k l 2theta Chi Xexp Yexp Energy GrainIndex PixDev
2.000000 46.043000 -7.000000 2.000000 -12.000000 110.430840 -47.568717 2152.400985 346.770592 21.710137 0.000000 0.229865
6.000000 46.158000 -2.000000 1.000000 -3.000000 123.151643 -40.293320 1887.548231 19.313519 5.412973 0.000000 0.164030
12.000000 46.861000 -7.000000 1.000000 -11.000000 102.926629 -44.951548 2049.475490 591.940737 21.333667 0.000000 0.153644
13.000000 49.375000 -6.000000 1.000000 -11.000000 103.858282 -50.358528 2274.100602 524.805536 20.246805 0.000000 0.278527
15.000000 46.291000 -8.000000 2.000000 -11.000000 109.247558 -38.963448 1845.429630 457.675934 21.594504 0.000000 0.069565
16.000000 48.988000 -7.000000 2.000000 -11.000000 110.957252 -44.125756 2018.940305 366.714819 20.404893 0.000000 0.158554
18.000000 47.781000 -8.000000 3.000000 -11.000000 116.677641 -37.570591 1802.978432 258.699189 20.918386 0.000000 0.079359
19.000000 50.553000 -7.000000 3.000000 -11.000000 118.816268 -43.134732 1983.402845 129.629713 19.770599 0.000000 0.182643
21.000000 46.052000 -9.000000 4.000000 -11.000000 121.113479 -30.848149 1617.826650 184.348358 21.702780 0.000000 0.030497
22.000000 48.781000 -8.000000 4.000000 -11.000000 123.876486 -35.901400 1754.147194 48.932855 20.487336 0.000000 0.105899
25.000000 46.630000 -9.000000 5.000000 -11.000000 127.621069 -28.520074 1559.868457 -3.049355 21.431695 0.000000 0.058919
26.000000 49.309000 -8.000000 5.000000 -11.000000 130.782963 -33.868486 1697.380756 -177.213653 20.266254 0.000000 0.137496
28.000000 46.824000 -9.000000 6.000000 -11.000000 133.796603 -25.712037 1493.263966 -204.419273 21.341240 0.000000 0.084866
35.000000 45.727000 -6.000000 -1.000000 -10.000000 85.926769 -48.100403 2174.566541 1055.766662 21.869254 0.000000 0.236091
38.000000 46.850000 -7.000000 0.000000 -10.000000 94.248241 -42.449279 1959.490604 832.649347 21.342348 0.000000 0.123058
39.000000 49.646000 -6.000000 0.000000 -10.000000 95.052881 -47.589687 2153.266628 799.897378 20.139706 0.000000 0.205551
41.000000 46.768000 -8.000000 1.000000 -10.000000 101.202747 -36.571166 1773.486603 675.577246 21.377504 0.000000 0.060118
42.000000 49.833000 -7.000000 1.000000 -10.000000 102.841638 -41.423216 1924.656400 613.797223 20.061795 0.000000 0.097122
43.000000 52.933000 -6.000000 1.000000 -10.000000 104.173828 -46.981445 2128.435172 542.572480 18.886222 0.000000 0.196459
45.000000 45.819000 -9.000000 2.000000 -10.000000 106.837526 -30.580849 1611.033197 562.655082 21.818351 0.000000 0.054018
46.000000 48.939000 -4.000000 1.000000 -5.000000 109.152230 -35.012254 1728.972456 484.606780 10.213210 0.000000 0.031096
47.000000 52.185000 -7.000000 2.000000 -10.000000 111.316142 -40.199681 1884.528905 391.145113 19.154735 0.000000 0.092822
48.000000 55.476000 -3.000000 1.000000 -5.000000 113.172503 -46.244980 2099.114479 274.856581 9.008898 0.000000 0.212654
50.000000 47.335000 -9.000000 3.000000 -10.000000 114.086545 -28.508184 1559.579191 393.464311 21.117090 0.000000 0.033098
51.000000 50.536000 -8.000000 3.000000 -10.000000 116.894665 -33.159283 1678.215362 288.898044 19.778207 0.000000 0.026563
52.000000 53.861000 -7.000000 3.000000 -10.000000 119.572924 -38.717118 1837.802383 158.234606 18.556491 0.000000 0.113649
54.000000 48.358000 -9.000000 4.000000 -10.000000 121.063377 -26.063675 1501.425270 219.281504 20.667969 0.000000 0.019125
55.000000 51.556000 -4.000000 2.000000 -5.000000 124.346727 -30.925631 1619.802955 83.626461 9.692464 0.000000 0.054660
56.000000 54.859000 -7.000000 4.000000 -10.000000 127.522361 -36.886331 1782.703166 -92.393874 18.216504 0.000000 0.148228
58.000000 45.924000 -4.000000 2.000000 -4.000000 124.025253 -19.125867 1348.244574 171.885652 8.705047 0.000000 0.044483
59.000000 48.906000 -9.000000 5.000000 -10.000000 127.696793 -23.149223 1435.171690 36.407387 20.434244 0.000000 0.030066
60.000000 52.025000 -8.000000 5.000000 -10.000000 131.432047 -28.190000 1551.862091 -136.792882 19.208256 0.000000 0.085906
63.000000 46.146000 -5.000000 3.000000 -5.000000 129.866822 -15.663450 1276.791977 7.469298 10.827899 0.000000 0.033674
64.000000 49.018000 -9.000000 6.000000 -10.000000 133.919469 -19.635352 1358.999614 -159.435763 20.385978 0.000000 0.049337
67.000000 46.027000 -10.000000 7.000000 -10.000000 135.271388 -11.575689 1195.455615 -168.097377 21.710480 0.000000 0.030378
68.000000 48.745000 -9.000000 7.000000 -10.000000 139.665136 -15.352524 1270.501559 -373.464760 20.498537 0.000000 0.062579
70.000000 45.612000 -5.000000 4.000000 -5.000000 140.179797 -6.731337 1102.032335 -358.842882 10.953327 0.000000 0.029730
74.000000 45.638000 -5.000000 -2.000000 -9.000000 74.672245 -50.713919 2290.626604 1406.894812 21.915491 0.000000 0.343801
76.000000 45.618000 -7.000000 -1.000000 -9.000000 84.286568 -40.063420 1880.150177 1081.701315 21.922695 0.000000 0.134636
77.000000 48.556000 -6.000000 -1.000000 -9.000000 84.803563 -44.935317 2048.866895 1079.271420 20.595694 0.000000 0.185161
78.000000 51.406000 -5.000000 -1.000000 -9.000000 84.889711 -50.421652 2277.017796 1092.069814 19.453383 0.000000 0.291424
80.000000 45.841000 -9.000000 1.000000 -9.000000 98.288798 -28.498829 1559.351627 762.580941 21.811522 0.000000 0.096848
81.000000 49.318000 -8.000000 1.000000 -9.000000 100.439174 -32.613162 1663.667326 705.583889 20.272403 0.000000 0.069514
82.000000 53.017000 -7.000000 1.000000 -9.000000 102.489533 -37.437578 1799.008191 640.751143 18.857274 0.000000 0.059230
83.000000 56.855000 -6.000000 1.000000 -9.000000 104.296706 -43.084521 1981.633126 565.455049 17.583262 0.000000 0.122530
84.000000 60.693000 -5.000000 1.000000 -9.000000 105.655702 -49.643006 2241.566393 475.189075 16.470796 0.000000 0.264163
86.000000 48.032000 -9.000000 2.000000 -9.000000 106.007376 -26.334533 1507.745151 596.472277 20.813649 0.000000 0.084539
87.000000 51.711000 -8.000000 2.000000 -9.000000 108.741017 -30.611000 1611.797588 516.707992 19.331692 0.000000 0.044915
88.000000 55.625000 -7.000000 2.000000 -9.000000 111.417700 -35.726697 1749.156589 420.954776 17.970343 0.000000 0.035733
89.000000 59.692000 -6.000000 2.000000 -9.000000 113.874113 -41.845615 1938.861137 301.535020 16.745126 0.000000 0.130330
91.000000 46.161000 -10.000000 3.000000 -9.000000 110.277743 -20.173622 1370.436700 517.351878 21.655773 0.000000 0.102584
92.000000 49.656000 -3.000000 1.000000 -3.000000 113.479362 -23.804866 1449.811528 430.001877 6.710054 0.000000 0.069341
93.000000 53.421000 -8.000000 3.000000 -9.000000 116.777582 -28.221719 1552.629315 324.575140 18.710318 0.000000 0.021096
94.000000 57.412000 -7.000000 3.000000 -9.000000 120.063507 -33.636432 1691.075095 192.725318 17.408496 0.000000 0.051364
96.000000 47.214000 -10.000000 4.000000 -9.000000 116.929930 -17.205099 1308.273701 368.645946 21.170221 0.000000 0.088220
97.000000 50.708000 -9.000000 4.000000 -9.000000 120.612766 -20.821645 1384.311175 259.660312 19.710338 0.000000 0.052501
98.000000 54.449000 -8.000000 4.000000 -9.000000 124.445372 -25.332343 1484.505476 124.256228 18.354952 0.000000 0.021892
99.000000 58.388000 -7.000000 4.000000 -9.000000 128.313523 -31.032825 1622.542366 -51.468475 17.115469 0.000000 0.086532
101.000000 47.803000 -10.000000 5.000000 -9.000000 123.199168 -13.758424 1238.535253 215.910154 20.907500 0.000000 0.070347
102.000000 51.213000 -9.000000 5.000000 -9.000000 127.321038 -17.272323 1309.658074 81.708444 19.513811 0.000000 0.037671
103.000000 54.836000 -8.000000 5.000000 -9.000000 131.648121 -21.788038 1405.226359 -89.835950 18.223512 0.000000 0.045635
104.000000 58.616000 -7.000000 5.000000 -9.000000 136.065541 -27.716335 1540.458607 -320.876095 17.047273 0.000000 0.119180
106.000000 47.962000 -10.000000 6.000000 -9.000000 129.014212 -9.739946 1159.746738 56.238790 20.836117 0.000000 0.050159
107.000000 51.224000 -3.000000 2.000000 -3.000000 133.522043 -13.015543 1223.789670 -108.104919 6.502685 0.000000 0.030708
108.000000 54.655000 -8.000000 6.000000 -9.000000 138.293881 -17.376605 1311.807605 -324.500998 18.282349 0.000000 0.064787
110.000000 47.743000 -10.000000 7.000000 -9.000000 134.307465 -5.045468 1070.024258 -113.672033 20.930244 0.000000 0.028936
111.000000 50.808000 -9.000000 7.000000 -9.000000 139.135020 -7.880422 1123.973348 -314.904046 19.666564 0.000000 0.030220
114.000000 47.203000 -10.000000 8.000000 -9.000000 139.013686 0.430016 966.922043 -297.767288 21.168503 0.000000 0.007382
119.000000 45.546000 -3.000000 -1.000000 -4.000000 73.016934 -42.399141 1957.762131 1386.123567 10.980531 0.000000 0.204345
120.000000 48.259000 -5.000000 -2.000000 -8.000000 72.624334 -47.611266 2154.158200 1440.569317 20.726250 0.000000 0.286801
123.000000 47.921000 -7.000000 -1.000000 -8.000000 82.524926 -36.439042 1769.645203 1116.540576 20.869942 0.000000 0.122713
124.000000 51.519000 -6.000000 -1.000000 -8.000000 83.293263 -41.353315 1922.323563 1109.605700 19.411945 0.000000 0.148859
125.000000 55.128000 -5.000000 -1.000000 -8.000000 83.653154 -46.995403 2128.998656 1116.520223 18.140398 0.000000 0.223048
128.000000 48.515000 -2.000000 0.000000 -2.000000 90.419904 -30.366552 1605.613805 931.857778 5.152979 0.000000 0.106920
129.000000 52.539000 -7.000000 0.000000 -8.000000 92.169430 -34.845300 1724.306724 891.320353 19.032292 0.000000 0.091978
130.000000 56.812000 -3.000000 0.000000 -4.000000 93.722301 -40.102987 1881.419835 849.455181 8.800027 0.000000 0.101865
131.000000 61.189000 -5.000000 0.000000 -8.000000 94.888195 -46.247409 2099.209911 807.895863 16.340371 0.000000 0.179435
132.000000 47.824000 -9.000000 1.000000 -8.000000 96.765543 -24.315699 1461.320564 800.886725 20.907887 0.000000 0.120117
133.000000 51.913000 -8.000000 1.000000 -8.000000 99.263843 -28.245761 1553.211162 741.718050 19.260040 0.000000 0.095464
134.000000 56.373000 -7.000000 1.000000 -8.000000 101.761462 -32.946382 1672.522574 673.960516 17.735111 0.000000 0.062934
135.000000 61.140000 -6.000000 1.000000 -8.000000 104.118589 -38.583306 1833.681108 594.681827 16.351399 0.000000 0.064012
136.000000 66.067000 -5.000000 1.000000 -8.000000 106.111539 -45.320017 2063.384900 498.857031 15.131027 0.000000 0.166166
138.000000 46.307000 -5.000000 1.000000 -4.000000 101.726407 -18.417710 1333.404980 705.531723 10.795454 0.000000 0.134790
139.000000 50.227000 -9.000000 2.000000 -8.000000 104.737670 -21.726958 1403.896222 636.231838 19.904744 0.000000 0.113544
140.000000 54.553000 -4.000000 1.000000 -4.000000 107.902173 -25.739446 1493.898370 555.024142 9.162441 0.000000 0.080995
141.000000 59.270000 -7.000000 2.000000 -8.000000 111.138336 -30.651023 1612.813017 457.284336 16.865346 0.000000 0.032514
142.000000 64.310000 -3.000000 1.000000 -4.000000 114.292826 -36.699760 1777.238007 335.092651 7.771374 0.000000 0.055809
143.000000 69.521000 -5.000000 2.000000 -8.000000 117.103461 -44.140611 2019.482030 173.407427 14.376895 0.000000 0.191012
144.000000 47.951000 -10.000000 3.000000 -8.000000 108.828228 -15.449019 1272.451747 560.250434 20.848043 0.000000 0.126909
145.000000 51.968000 -9.000000 3.000000 -8.000000 112.400677 -18.705045 1339.411152 472.630296 19.235382 0.000000 0.101202
146.000000 56.382000 -8.000000 3.000000 -8.000000 116.198833 -22.744770 1426.212123 366.770570 17.728173 0.000000 0.063086
147.000000 61.169000 -7.000000 3.000000 -8.000000 120.142778 -27.830910 1543.207847 234.272225 16.339423 0.000000 0.011599
148.000000 66.254000 -6.000000 3.000000 -8.000000 124.066687 -34.309913 1709.471074 59.894610 15.084372 0.000000 0.087918
150.000000 49.045000 -5.000000 2.000000 -4.000000 115.559312 -12.035892 1204.478202 414.695989 10.190280 0.000000 0.112744
151.000000 53.044000 -9.000000 4.000000 -8.000000 119.644038 -15.153147 1266.477800 306.421124 18.842919 0.000000 0.083526
152.000000 62.093000 -7.000000 4.000000 -8.000000 128.628966 -24.302623 1461.024812 -2.713354 16.094222 0.000000 0.039081
153.000000 67.023000 -3.000000 2.000000 -4.000000 133.281630 -31.190871 1626.592613 -243.874501 7.454696 0.000000 0.129236
155.000000 46.056000 -11.000000 5.000000 -8.000000 117.673132 -5.867535 1085.607865 373.603891 21.702619 0.000000 0.116762
156.000000 49.612000 -10.000000 5.000000 -8.000000 121.832317 -8.100940 1128.197379 266.093886 20.145508 0.000000 0.092808
157.000000 53.493000 -9.000000 5.000000 -8.000000 126.364555 -10.954295 1183.319555 133.806910 18.682704 0.000000 0.061734
158.000000 57.683000 -8.000000 5.000000 -8.000000 131.261222 -14.704987 1257.460647 -35.233617 17.324137 0.000000 0.032135
159.000000 62.137000 -7.000000 5.000000 -8.000000 136.461796 -19.801235 1362.515996 -262.843067 16.081182 0.000000 0.066112
161.000000 46.288000 -11.000000 6.000000 -8.000000 123.087516 -1.720050 1007.320645 239.390580 21.591895 0.000000 0.094295
162.000000 49.699000 -5.000000 3.000000 -4.000000 127.567201 -3.561427 1041.987274 111.521015 10.054214 0.000000 0.067810
163.000000 53.384000 -9.000000 6.000000 -8.000000 132.465876 -5.973726 1087.624110 -49.441780 18.719196 0.000000 0.037405
164.000000 57.316000 -4.000000 3.000000 -4.000000 137.791385 -9.256822 1150.417198 -261.285703 8.716800 0.000000 0.030410
167.000000 46.154000 -11.000000 7.000000 -8.000000 127.976401 2.950658 919.523198 99.705058 21.653006 0.000000 0.066672
168.000000 49.369000 -10.000000 7.000000 -8.000000 132.691288 1.661817 943.774219 -52.290577 20.241350 0.000000 0.038651
169.000000 52.803000 -9.000000 7.000000 -8.000000 137.856662 -0.070541 976.325098 -248.349660 18.923753 0.000000 0.011455
172.000000 45.707000 -11.000000 8.000000 -8.000000 132.289030 8.175649 820.370528 -48.027538 21.863405 0.000000 0.035670
173.000000 48.693000 -5.000000 4.000000 -4.000000 137.139717 7.627602 830.863913 -229.196090 10.260668 0.000000 0.013277
175.000000 47.741000 -10.000000 9.000000 -8.000000 140.857818 14.348255 699.690453 -423.966361 20.929400 0.000000 0.044681
179.000000 47.495000 -6.000000 -2.000000 -7.000000 70.297320 -38.756406 1839.015339 1435.253371 21.061595 0.000000 0.179927
180.000000 50.837000 -5.000000 -2.000000 -7.000000 70.013007 -44.064022 2016.691980 1485.784971 19.676581 0.000000 0.242175
183.000000 46.064000 -8.000000 -1.000000 -7.000000 79.025518 -28.264613 1553.667577 1177.966521 21.713350 0.000000 0.122680
184.000000 50.128000 -7.000000 -1.000000 -7.000000 80.238646 -32.417318 1658.493530 1160.341686 19.952394 0.000000 0.121353
185.000000 54.517000 -6.000000 -1.000000 -7.000000 81.265122 -37.300387 1794.928021 1148.885742 18.345472 0.000000 0.129805
186.000000 59.091000 -5.000000 -1.000000 -7.000000 81.932748 -43.032587 1979.805707 1149.698958 16.924652 0.000000 0.171633
187.000000 63.571000 -4.000000 -1.000000 -7.000000 81.991174 -49.708325 2244.496553 1175.169331 15.731568 0.000000 0.284968
189.000000 49.677000 -9.000000 1.000000 -7.000000 94.722938 -19.813912 1362.785014 846.483148 20.128770 0.000000 0.140007
190.000000 54.455000 -8.000000 1.000000 -7.000000 97.554396 -23.460881 1442.112555 785.400424 18.361649 0.000000 0.122421
191.000000 59.815000 -7.000000 1.000000 -7.000000 100.513711 -27.913414 1545.191151 714.955300 16.715123 0.000000 0.093625
192.000000 65.735000 -6.000000 1.000000 -7.000000 103.483461 -33.395556 1684.565553 631.897418 15.208665 0.000000 0.054017
193.000000 72.095000 -5.000000 1.000000 -7.000000 106.242590 -40.167796 1883.502715 530.666170 13.866175 0.000000 0.081329
194.000000 78.603000 -4.000000 1.000000 -7.000000 108.415166 -48.477340 2190.560322 400.431091 12.717323 0.000000 0.243665
195.000000 47.836000 -10.000000 2.000000 -7.000000 99.618364 -13.840226 1240.164606 753.149661 20.901954 0.000000 0.152380
196.000000 52.315000 -9.000000 2.000000 -7.000000 102.918394 -16.777039 1299.481830 683.156991 19.111121 0.000000 0.138068
197.000000 57.374000 -8.000000 2.000000 -7.000000 106.498068 -20.399898 1375.268066 600.896152 17.424678 0.000000 0.114446
198.000000 63.039000 -7.000000 2.000000 -7.000000 110.313299 -24.938903 1475.487699 501.613306 15.857421 0.000000 0.076174
199.000000 69.284000 -6.000000 2.000000 -7.000000 114.247069 -30.706717 1614.227452 377.179026 14.427083 0.000000 0.014882
200.000000 75.977000 -5.000000 2.000000 -7.000000 118.052138 -38.101856 1818.978816 212.163097 13.155094 0.000000 0.094917
202.000000 45.538000 -11.000000 3.000000 -7.000000 103.290859 -8.233810 1130.744743 684.108052 21.955270 0.000000 0.158325
203.000000 49.599000 -10.000000 3.000000 -7.000000 106.828647 -10.473540 1173.965270 609.944610 20.156364 0.000000 0.146460
204.000000 54.181000 -9.000000 3.000000 -7.000000 110.729906 -13.246919 1228.372576 522.525213 18.450293 0.000000 0.127700
205.000000 59.326000 -8.000000 3.000000 -7.000000 115.003113 -16.751352 1298.955507 416.799878 16.848782 0.000000 0.098778
206.000000 65.047000 -7.000000 3.000000 -7.000000 119.617776 -21.279558 1394.187304 284.369434 15.365619 0.000000 0.054901
207.000000 71.299000 -6.000000 3.000000 -7.000000 124.462246 -27.266120 1529.711177 109.992498 14.017127 0.000000 0.028045
208.000000 77.934000 -5.000000 3.000000 -7.000000 129.265899 -35.331909 1737.959069 -137.512595 12.822776 0.000000 0.142441
210.000000 46.678000 -11.000000 4.000000 -7.000000 109.598802 -4.656080 1062.656940 556.505325 21.416425 0.000000 0.148241
211.000000 50.736000 -10.000000 4.000000 -7.000000 113.597311 -6.630953 1100.120760 467.672429 19.702296 0.000000 0.132370
212.000000 55.278000 -9.000000 4.000000 -7.000000 118.027101 -9.127199 1147.918499 360.723898 18.081852 0.000000 0.109227
213.000000 60.330000 -8.000000 4.000000 -7.000000 122.912028 -12.368070 1211.009922 227.842336 16.566184 0.000000 0.076357
214.000000 65.885000 -7.000000 4.000000 -7.000000 128.239833 -16.711205 1298.133192 55.426577 15.168211 0.000000 0.036070
215.000000 71.874000 -6.000000 4.000000 -7.000000 133.914697 -22.746456 1426.249368 -182.666292 13.903062 0.000000 0.065728
217.000000 47.324000 -11.000000 5.000000 -7.000000 115.447133 -0.648105 987.175088 428.819704 21.122007 0.000000 0.130598
218.000000 51.278000 -10.000000 5.000000 -7.000000 119.826873 -2.246695 1017.225536 323.455193 19.491813 0.000000 0.110536
219.000000 55.659000 -9.000000 5.000000 -7.000000 124.691124 -4.311698 1056.147974 193.870625 17.955996 0.000000 0.083426
220.000000 60.474000 -8.000000 5.000000 -7.000000 130.079675 -7.073385 1108.551844 28.382707 16.525074 0.000000 0.049022
221.000000 65.692000 -7.000000 5.000000 -7.000000 136.004368 -10.933203 1182.908524 -194.312499 15.211186 0.000000 0.030370
223.000000 47.515000 -11.000000 6.000000 -7.000000 120.765845 3.825812 903.025590 298.838066 21.035120 0.000000 0.105721
224.000000 51.286000 -10.000000 6.000000 -7.000000 125.431919 2.739104 923.507026 174.338776 19.486940 0.000000 0.081536
225.000000 55.415000 -9.000000 6.000000 -7.000000 130.615841 1.304400 950.492769 17.748693 18.033626 0.000000 0.051354
226.000000 59.888000 -8.000000 6.000000 -7.000000 136.371488 -0.674236 987.666027 -188.172911 16.685162 0.000000 0.018424
229.000000 47.307000 -11.000000 7.000000 -7.000000 125.496977 8.787330 808.624534 164.255128 21.125940 0.000000 0.074117
230.000000 50.838000 -10.000000 7.000000 -7.000000 130.340667 8.367135 816.697456 17.087776 19.657208 0.000000 0.046728
231.000000 54.653000 -9.000000 7.000000 -7.000000 135.708720 7.801155 827.543917 -172.561502 18.283617 0.000000 0.018214
232.000000 58.725000 -8.000000 7.000000 -7.000000 141.661421 6.997797 842.889693 -430.153865 17.014651 0.000000 0.017610
233.000000 46.763000 -11.000000 8.000000 -7.000000 129.596213 14.233947 701.977056 22.534722 21.370094 0.000000 0.038424
234.000000 50.019000 -10.000000 8.000000 -7.000000 134.497263 14.639795 693.847933 -152.057757 19.977885 0.000000 0.023816
235.000000 53.488000 -9.000000 8.000000 -7.000000 139.894254 15.195057 682.677022 -383.174734 18.680885 0.000000 0.044440
237.000000 45.949000 -11.000000 9.000000 -7.000000 133.035020 20.128042 580.534811 -129.256128 21.747473 0.000000 0.033476
238.000000 48.913000 -10.000000 9.000000 -7.000000 137.865905 21.499283 551.051973 -337.703937 20.428685 0.000000 0.067184
244.000000 49.081000 -3.000000 -1.000000 -3.000000 66.868346 -34.673314 1719.520085 1500.066511 10.191243 0.000000 0.162382
245.000000 53.140000 -5.000000 -2.000000 -6.000000 66.655325 -40.003087 1878.216961 1547.416195 18.824922 0.000000 0.209879
246.000000 57.037000 -2.000000 -1.000000 -3.000000 65.822817 -46.249927 2099.308788 1639.743273 8.769258 0.000000 0.303918
249.000000 47.323000 -8.000000 -1.000000 -6.000000 75.917708 -24.016847 1454.576337 1236.582669 21.137628 0.000000 0.123156
250.000000 52.061000 -7.000000 -1.000000 -6.000000 77.285394 -27.975660 1546.689466 1215.973170 19.212986 0.000000 0.123072
251.000000 57.364000 -6.000000 -1.000000 -6.000000 78.547492 -32.726493 1666.671632 1200.189083 17.436205 0.000000 0.124599
252.000000 63.134000 -5.000000 -1.000000 -6.000000 79.533835 -38.444588 1829.424929 1194.855356 15.841833 0.000000 0.141553
253.000000 69.088000 -4.000000 -1.000000 -6.000000 79.967185 -45.304104 2062.780481 1211.728752 14.476094 0.000000 0.210317
255.000000 47.552000 -3.000000 0.000000 -2.000000 83.365979 -18.050650 1325.761410 1072.659036 7.011066 0.000000 0.141252
256.000000 52.499000 -8.000000 0.000000 -6.000000 85.613184 -21.368318 1396.108716 1029.662075 19.050036 0.000000 0.136667
257.000000 58.196000 -7.000000 0.000000 -6.000000 87.993097 -25.405022 1486.177708 982.752412 17.184333 0.000000 0.125786
258.000000 71.922000 -5.000000 0.000000 -6.000000 92.716837 -36.505554 1771.577354 877.459570 13.903026 0.000000 0.090301
259.000000 79.643000 -4.000000 0.000000 -6.000000 94.557378 -44.095362 2017.832789 821.544604 12.554481 0.000000 0.144269
260.000000 46.512000 -10.000000 1.000000 -6.000000 89.228465 -12.363181 1210.913670 955.838171 21.501436 0.000000 0.157991
261.000000 51.273000 -9.000000 1.000000 -6.000000 92.050548 -15.017327 1263.741073 901.101616 19.503493 0.000000 0.154204
262.000000 56.797000 -8.000000 1.000000 -6.000000 95.166259 -18.271952 1330.365883 838.521530 17.605481 0.000000 0.144546
263.000000 63.187000 -7.000000 1.000000 -6.000000 98.563147 -22.326651 1417.005407 765.799601 15.824047 0.000000 0.125431
264.000000 70.508000 -6.000000 1.000000 -6.000000 102.172967 -27.457653 1534.272682 679.354570 14.179750 0.000000 0.091060
265.000000 78.727000 -5.000000 1.000000 -6.000000 105.816840 -34.033857 1701.895372 573.074689 12.698290 0.000000 0.042034
266.000000 87.593000 -4.000000 1.000000 -6.000000 109.114608 -42.498081 1961.175683 435.089694 11.412214 0.000000 0.122473
267.000000 49.108000 -5.000000 1.000000 -3.000000 96.905131 -9.052045 1146.470596 809.012480 10.180887 0.000000 0.164446
268.000000 54.169000 -9.000000 2.000000 -6.000000 100.428759 -11.526722 1194.497344 738.827055 18.457935 0.000000 0.156671
269.000000 60.027000 -4.000000 1.000000 -3.000000 104.367315 -14.627225 1255.899853 656.074319 8.327737 0.000000 0.141691
270.000000 66.780000 -7.000000 2.000000 -6.000000 108.732866 -18.597941 1337.169991 555.896059 14.969912 0.000000 0.115176
271.000000 83.089000 -5.000000 2.000000 -6.000000 118.431527 -30.789528 1616.333571 262.676980 12.029211 0.000000 0.011849
272.000000 46.505000 -11.000000 3.000000 -6.000000 100.499980 -3.554348 1041.853777 741.136577 21.500187 0.000000 0.167547
273.000000 51.001000 -10.000000 3.000000 -6.000000 104.185636 -5.306788 1074.973408 667.771646 19.603353 0.000000 0.160565
274.000000 56.172000 -3.000000 1.000000 -2.000000 108.337926 -7.499656 1116.690250 581.181154 5.932398 0.000000 0.148074
275.000000 62.111000 -8.000000 3.000000 -6.000000 113.012706 -10.313154 1170.851078 476.351605 16.093975 0.000000 0.127386
276.000000 68.893000 -7.000000 3.000000 -6.000000 118.247698 -14.032553 1243.999920 344.954845 14.508277 0.000000 0.094356
277.000000 84.955000 -5.000000 3.000000 -6.000000 130.187172 -26.378149 1508.765610 -73.784258 11.762970 0.000000 0.062275
278.000000 47.705000 -11.000000 4.000000 -6.000000 106.805458 0.318759 969.012094 615.930691 20.956843 0.000000 0.158156
279.000000 52.186000 -5.000000 2.000000 -3.000000 110.949899 -1.075036 995.196801 528.856239 9.577902 0.000000 0.146578
280.000000 57.291000 -9.000000 4.000000 -6.000000 115.628678 -2.852413 1028.626543 424.023127 17.447373 0.000000 0.128761
281.000000 63.086000 -4.000000 2.000000 -3.000000 120.915319 -5.191584 1072.791045 293.805276 7.921620 0.000000 0.102311
282.000000 69.609000 -7.000000 4.000000 -6.000000 126.873221 -8.395654 1133.849895 124.936321 14.357148 0.000000 0.064771
284.000000 48.357000 -11.000000 5.000000 -6.000000 112.592436 4.608647 888.239924 491.695925 20.671970 0.000000 0.139684
285.000000 52.705000 -10.000000 5.000000 -6.000000 117.093370 3.688598 905.614243 389.246548 18.965073 0.000000 0.122862
286.000000 57.598000 -9.000000 5.000000 -6.000000 122.170778 2.493247 928.135064 263.346188 17.352357 0.000000 0.099353
287.000000 63.072000 -8.000000 5.000000 -6.000000 127.910201 0.879009 958.486633 102.721322 15.844968 0.000000 0.067671
288.000000 69.126000 -7.000000 5.000000 -6.000000 134.397107 -1.416421 1001.612716 -113.200883 14.455882 0.000000 0.028954
289.000000 75.694000 -6.000000 5.000000 -6.000000 141.695116 -4.924139 1067.727761 -426.633772 13.200299 0.000000 0.028114
291.000000 48.510000 -11.000000 6.000000 -6.000000 117.790964 9.330195 798.167583 366.146234 20.604507 0.000000 0.112369
292.000000 52.633000 -5.000000 3.000000 -3.000000 122.530564 9.012067 804.299356 245.937195 9.494475 0.000000 0.089853
293.000000 57.209000 -3.000000 2.000000 -2.000000 127.856968 8.591697 812.385333 94.930683 5.822922 0.000000 0.060933
294.000000 62.243000 -4.000000 3.000000 -3.000000 133.857409 8.010435 823.536808 -103.391672 8.027293 0.000000 0.027144
295.000000 67.702000 -7.000000 6.000000 -6.000000 140.626146 7.154286 839.904771 -380.812975 14.758663 0.000000 0.015192
296.000000 48.232000 -11.000000 7.000000 -6.000000 122.348516 14.478076 697.090707 236.960828 20.721652 0.000000 0.076547
297.000000 52.067000 -10.000000 7.000000 -6.000000 127.197952 14.891768 688.785822 95.718339 19.193994 0.000000 0.049100
298.000000 56.258000 -9.000000 7.000000 -6.000000 132.606891 15.445633 677.616716 -86.035071 17.762546 0.000000 0.025149
299.000000 60.789000 -8.000000 7.000000 -6.000000 138.647433 16.225264 661.792894 -332.581542 16.437427 0.000000 0.043440
301.000000 47.597000 -11.000000 8.000000 -6.000000 126.231831 20.018779 582.861377 101.639269 20.996885 0.000000 0.035220
302.000000 51.107000 -5.000000 4.000000 -3.000000 131.057087 21.277189 555.863955 -65.070726 9.776685 0.000000 0.029362
303.000000 54.883000 -9.000000 8.000000 -6.000000 136.373239 22.973745 518.722138 -285.440379 18.206573 0.000000 0.067090
305.000000 46.679000 -11.000000 9.000000 -6.000000 129.428584 25.884740 452.733785 -42.664746 21.408535 0.000000 0.040549
306.000000 49.850000 -10.000000 9.000000 -6.000000 134.098197 28.059993 401.277807 -240.856742 20.045295 0.000000 0.088203
308.000000 45.549000 -11.000000 10.000000 -6.000000 131.948577 31.973807 303.140644 -199.354965 21.938718 0.000000 0.107749
312.000000 45.522000 -7.000000 -2.000000 -5.000000 62.411003 -25.761145 1494.400821 1565.474054 21.978708 0.000000 0.123767
313.000000 49.972000 -6.000000 -2.000000 -5.000000 62.543221 -30.114474 1599.269270 1587.515424 20.020932 0.000000 0.147855
314.000000 54.767000 -5.000000 -2.000000 -5.000000 62.312629 -35.358930 1738.721997 1633.501389 18.267634 0.000000 0.187625
315.000000 59.587000 -4.000000 -2.000000 -5.000000 61.466718 -41.679279 1933.245233 1724.513934 16.789461 0.000000 0.262029
318.000000 48.043000 -8.000000 -1.000000 -5.000000 72.061712 -19.444822 1354.969703 1310.503561 20.822431 0.000000 0.115666
319.000000 53.451000 -7.000000 -1.000000 -5.000000 73.498107 -23.106703 1434.227250 1287.662361 18.714983 0.000000 0.119889
320.000000 59.738000 -6.000000 -1.000000 -5.000000 74.922488 -27.594673 1537.545642 1268.170025 16.744526 0.000000 0.123020
321.000000 66.917000 -5.000000 -1.000000 -5.000000 76.186829 -33.145355 1677.842081 1257.051543 14.947529 0.000000 0.129848
322.000000 74.783000 -4.000000 -1.000000 -5.000000 77.011664 -40.036753 1879.295269 1265.243692 13.374671 0.000000 0.162546
323.000000 82.668000 -3.000000 -1.000000 -5.000000 76.912063 -48.535244 2193.038280 1318.888966 12.098503 0.000000 0.282293
325.000000 47.163000 -10.000000 1.000000 -5.000000 85.730236 -7.754716 1121.567448 1022.097464 21.206031 0.000000 0.158900
326.000000 52.439000 -9.000000 1.000000 -5.000000 88.633725 -9.969282 1164.184796 967.063728 19.071373 0.000000 0.160850
327.000000 58.721000 -8.000000 1.000000 -5.000000 91.938584 -12.720874 1217.965460 903.653327 17.029968 0.000000 0.158864
328.000000 66.226000 -7.000000 1.000000 -5.000000 95.688628 -16.212975 1287.956718 829.346901 15.098832 0.000000 0.150103
329.000000 75.180000 -6.000000 1.000000 -5.000000 99.895284 -20.750795 1382.788495 740.223558 13.299395 0.000000 0.129433
330.000000 85.749000 -5.000000 1.000000 -5.000000 104.480354 -26.794171 1518.537934 629.611843 11.659018 0.000000 0.087239
331.000000 49.991000 -10.000000 2.000000 -5.000000 93.501073 -4.108998 1052.319631 874.981086 20.003713 0.000000 0.169966
332.000000 55.618000 -9.000000 2.000000 -5.000000 97.145570 -6.042908 1088.938082 805.317124 17.978236 0.000000 0.168101
333.000000 62.296000 -8.000000 2.000000 -5.000000 101.333475 -8.496541 1135.786826 722.887336 16.049718 0.000000 0.161017
334.000000 70.235000 -7.000000 2.000000 -5.000000 106.147421 -11.697921 1197.849098 622.768771 14.234298 0.000000 0.145361
335.000000 79.640000 -6.000000 2.000000 -5.000000 111.647276 -16.017194 1283.971985 496.584657 12.551907 0.000000 0.115168
336.000000 90.639000 -5.000000 2.000000 -5.000000 117.805694 -22.075958 1411.511785 328.492595 11.027450 0.000000 0.059266
337.000000 47.125000 -11.000000 3.000000 -5.000000 97.080159 1.194792 952.552725 807.289868 21.218604 0.000000 0.171197
338.000000 52.027000 -10.000000 3.000000 -5.000000 100.812599 -0.025141 975.472262 735.440563 19.217909 0.000000 0.168479
339.000000 57.774000 -9.000000 3.000000 -5.000000 105.097920 -1.562495 1004.358559 650.527428 17.304867 0.000000 0.161469
340.000000 64.527000 -8.000000 3.000000 -5.000000 110.041073 -3.556287 1041.890336 547.629441 15.492239 0.000000 0.147951
341.000000 72.457000 -7.000000 3.000000 -5.000000 115.757640 -6.237298 1092.631936 418.587912 13.795385 0.000000 0.124463
342.000000 81.702000 -6.000000 3.000000 -5.000000 122.354139 -10.013791 1165.046843 248.623004 12.232971 0.000000 0.085806
343.000000 48.395000 -11.000000 4.000000 -5.000000 103.356652 5.312790 874.912872 684.348324 20.659282 0.000000 0.162778
344.000000 53.271000 -10.000000 4.000000 -5.000000 107.534768 4.531325 889.701697 599.861228 18.766746 0.000000 0.154798
345.000000 58.923000 -9.000000 4.000000 -5.000000 112.326039 3.530543 908.595118 498.167577 16.965200 0.000000 0.141395
346.000000 65.470000 -8.000000 4.000000 -5.000000 117.849305 2.204020 933.577316 371.929226 15.266941 0.000000 0.120317
347.000000 73.022000 -7.000000 4.000000 -5.000000 124.241720 0.364277 968.157010 208.390130 13.686590 0.000000 0.088666
348.000000 81.632000 -6.000000 4.000000 -5.000000 131.647952 -2.350562 1019.179803 -16.996846 12.241664 0.000000 0.044558
349.000000 49.063000 -11.000000 5.000000 -5.000000 109.061127 9.815154 788.798515 563.593112 20.375484 0.000000 0.143644
350.000000 53.776000 -4.000000 2.000000 -2.000000 113.560463 9.579323 793.357957 465.025884 7.435397 0.000000 0.129266
351.000000 59.160000 -9.000000 5.000000 -5.000000 118.695814 9.272915 799.272448 344.047319 16.895189 0.000000 0.108350
352.000000 65.290000 -8.000000 5.000000 -5.000000 124.586024 8.858704 807.251492 189.942448 15.307391 0.000000 0.079063
353.000000 72.210000 -7.000000 5.000000 -5.000000 131.370421 8.267732 818.604653 -16.848979 13.838995 0.000000 0.040848
354.000000 79.896000 -6.000000 5.000000 -5.000000 139.206315 7.356427 836.046017 -316.527713 12.506446 0.000000 0.012344
355.000000 49.190000 -11.000000 6.000000 -5.000000 114.127232 14.694891 692.742052 442.634936 20.321014 0.000000 0.113936
356.000000 53.634000 -10.000000 6.000000 -5.000000 118.810280 15.111709 684.357546 327.847515 18.635720 0.000000 0.092088
357.000000 58.630000 -9.000000 6.000000 -5.000000 124.110076 15.659338 673.291344 183.917704 17.046195 0.000000 0.063146
358.000000 64.209000 -8.000000 6.000000 -5.000000 130.127399 16.410650 658.011965 -4.731641 15.563764 0.000000 0.030682
359.000000 70.361000 -7.000000 6.000000 -5.000000 136.973637 17.504751 635.547595 -268.111643 14.201616 0.000000 0.041163
361.000000 48.853000 -11.000000 7.000000 -5.000000 118.511652 19.922150 584.916243 319.121004 20.459458 0.000000 0.073649
362.000000 52.960000 -10.000000 7.000000 -5.000000 123.235753 21.084316 560.031064 185.129159 18.871388 0.000000 0.044369
363.000000 57.498000 -9.000000 7.000000 -5.000000 128.513727 22.620493 526.530201 13.072843 17.380611 0.000000 0.024955
364.000000 62.462000 -8.000000 7.000000 -5.000000 134.407752 24.742050 479.002604 -219.833620 15.997958 0.000000 0.065760
366.000000 48.139000 -11.000000 8.000000 -5.000000 122.195310 25.439997 463.016861 190.580388 20.761724 0.000000 0.025120
367.000000 51.872000 -10.000000 8.000000 -5.000000 126.821439 27.408406 416.901683 33.310630 19.266147 0.000000 0.033278
368.000000 55.924000 -9.000000 8.000000 -5.000000 131.898379 30.008611 353.385516 -174.131812 17.868904 0.000000 0.088686
370.000000 47.131000 -11.000000 9.000000 -5.000000 125.183484 31.164030 324.096184 54.255761 21.204288 0.000000 0.049914
371.000000 50.480000 -10.000000 9.000000 -5.000000 129.585618 33.951510 250.354888 -131.841244 19.796442 0.000000 0.110439
373.000000 45.909000 -11.000000 10.000000 -5.000000 127.504603 36.987523 164.321496 -93.103198 21.767925 0.000000 0.131009
377.000000 49.679000 -3.000000 -1.000000 -2.000000 57.110008 -25.059939 1478.255704 1709.347617 10.070573 0.000000 0.136757
378.000000 55.050000 -5.000000 -2.000000 -4.000000 56.688727 -30.071694 1598.195777 1758.306580 18.175704 0.000000 0.174450
379.000000 60.689000 -2.000000 -1.000000 -2.000000 55.648879 -36.303242 1765.710527 1853.781934 8.243247 0.000000 0.238802
381.000000 47.951000 -8.000000 -1.000000 -4.000000 67.333429 -14.574572 1254.843643 1405.430928 20.864438 0.000000 0.095691
382.000000 53.916000 -7.000000 -1.000000 -4.000000 68.694904 -17.826093 1321.101053 1381.907836 18.555630 0.000000 0.104753
383.000000 61.126000 -6.000000 -1.000000 -4.000000 70.129761 -21.894209 1407.541174 1360.217393 16.366278 0.000000 0.113296
384.000000 69.792000 -5.000000 -1.000000 -4.000000 71.533885 -27.069410 1525.042690 1344.630745 14.333339 0.000000 0.122199
385.000000 79.955000 -4.000000 -1.000000 -4.000000 72.665697 -33.744778 1694.014953 1345.001412 12.510761 0.000000 0.139621
386.000000 48.406000 -9.000000 0.000000 -4.000000 75.333174 -8.554548 1136.900976 1225.863754 20.665903 0.000000 0.127925
387.000000 54.516000 -4.000000 0.000000 -2.000000 77.646138 -11.004077 1184.289896 1181.145627 9.174324 0.000000 0.135525
388.000000 62.025000 -7.000000 0.000000 -4.000000 80.312183 -14.085049 1245.047885 1130.434050 16.126329 0.000000 0.140807
389.000000 82.875000 -5.000000 0.000000 -4.000000 86.790342 -23.285093 1438.193614 1006.708155 12.067467 0.000000 0.132163
390.000000 47.252000 -10.000000 1.000000 -4.000000 81.509103 -3.021228 1031.806060 1101.902078 21.167946 0.000000 0.151181
391.000000 52.958000 -9.000000 1.000000 -4.000000 84.365140 -4.733031 1064.112199 1047.556102 18.886367 0.000000 0.158035
392.000000 59.927000 -8.000000 1.000000 -4.000000 87.708213 -6.882141 1104.905531 984.386520 16.688754 0.000000 0.162852
393.000000 68.532000 -7.000000 1.000000 -4.000000 91.644451 -9.651476 1158.036338 909.657069 14.592047 0.000000 0.163679
394.000000 79.246000 -6.000000 1.000000 -4.000000 96.288341 -13.333955 1230.098772 819.111870 12.618076 0.000000 0.156821
395.000000 50.326000 -5.000000 1.000000 -2.000000 89.333749 0.920429 957.708360 953.517615 9.935943 0.000000 0.167833
396.000000 56.446000 -9.000000 2.000000 -4.000000 92.956639 -0.415184 982.799310 885.409085 17.716322 0.000000 0.171011
397.000000 63.887000 -4.000000 1.000000 -2.000000 97.222846 -2.124246 1014.921991 804.502586 7.825769 0.000000 0.170772
398.000000 73.011000 -7.000000 2.000000 -4.000000 102.288162 -4.384003 1057.514066 705.874898 13.694083 0.000000 0.164619
399.000000 47.287000 -11.000000 3.000000 -4.000000 92.987211 5.949352 862.838742 884.530555 21.147617 0.000000 0.168601
400.000000 52.524000 -10.000000 3.000000 -4.000000 96.640068 5.284024 875.457890 815.170965 19.037563 0.000000 0.169396
401.000000 58.776000 -9.000000 3.000000 -4.000000 100.900774 4.442961 891.371824 733.098552 17.011118 0.000000 0.166929
402.000000 66.290000 -8.000000 3.000000 -4.000000 105.915780 3.346508 912.064666 633.564757 15.081457 0.000000 0.159341
403.000000 75.361000 -7.000000 3.000000 -4.000000 111.871796 1.858855 940.069376 508.720290 13.264677 0.000000 0.143674
404.000000 86.309000 -6.000000 3.000000 -4.000000 119.000592 -0.271125 980.093094 344.379134 11.580652 0.000000 0.115273
405.000000 48.641000 -11.000000 4.000000 -4.000000 99.214614 10.250945 780.355960 763.564364 20.556062 0.000000 0.161639
406.000000 53.845000 -5.000000 2.000000 -2.000000 103.291799 10.082044 783.630774 682.749595 9.283957 0.000000 0.156461
407.000000 59.976000 -9.000000 4.000000 -4.000000 108.023622 9.865862 787.817329 585.543509 16.668522 0.000000 0.146420
408.000000 75.775000 -7.000000 4.000000 -4.000000 120.092505 9.181431 801.036318 309.187357 13.190276 0.000000 0.101879
409.000000 49.344000 -11.000000 5.000000 -4.000000 104.826004 14.888728 688.846967 646.211084 20.261251 0.000000 0.142211
410.000000 54.356000 -10.000000 5.000000 -4.000000 109.184285 15.305355 680.451072 552.755699 18.391302 0.000000 0.129387
411.000000 60.165000 -9.000000 5.000000 -4.000000 114.196307 15.843747 669.551639 438.279102 16.614232 0.000000 0.109794
412.000000 66.889000 -8.000000 5.000000 -4.000000 119.995110 16.566263 654.832686 292.818058 14.942586 0.000000 0.081017
413.000000 74.629000 -7.000000 5.000000 -4.000000 126.740107 17.586426 633.859963 98.191410 13.391276 0.000000 0.042244
414.000000 83.424000 -6.000000 5.000000 -4.000000 134.614450 19.134548 601.572731 -183.005566 11.978168 0.000000 0.036784
415.000000 49.463000 -11.000000 6.000000 -4.000000 109.761670 19.836083 586.744377 529.933691 20.210515 0.000000 0.110397
416.000000 54.167000 -5.000000 3.000000 -2.000000 114.249631 20.915255 563.674791 421.974233 9.226850 0.000000 0.088097
417.000000 59.519000 -9.000000 6.000000 -4.000000 119.342069 22.317285 533.200193 286.983263 16.792949 0.000000 0.057067
418.000000 65.576000 -4.000000 3.000000 -2.000000 125.133212 24.209767 491.073621 110.601974 7.620188 0.000000 0.022694
419.000000 72.359000 -7.000000 6.000000 -4.000000 131.715627 26.897117 429.032833 -134.855676 13.810220 0.000000 0.062304
420.000000 49.088000 -11.000000 7.000000 -4.000000 113.989943 25.044590 472.095606 412.322258 20.362953 0.000000 0.065835
421.000000 53.410000 -10.000000 7.000000 -4.000000 118.458736 26.838151 430.424816 287.199257 18.713590 0.000000 0.032288
422.000000 58.232000 -9.000000 7.000000 -4.000000 123.439178 29.167887 374.270874 127.045012 17.162666 0.000000 0.023030
423.000000 63.563000 -8.000000 7.000000 -4.000000 128.969353 32.303805 294.494959 -89.035466 15.721818 0.000000 0.088347
425.000000 48.317000 -11.000000 8.000000 -4.000000 117.506902 30.443745 342.436800 290.923986 20.686319 0.000000 0.007857
426.000000 52.221000 -5.000000 4.000000 -2.000000 121.820545 32.966125 276.950677 144.967612 9.569274 0.000000 0.043510
427.000000 56.490000 -9.000000 8.000000 -4.000000 126.519808 36.221558 186.649615 -46.919015 17.690902 0.000000 0.113670
428.000000 47.245000 -11.000000 9.000000 -4.000000 120.334288 35.944655 194.613767 163.070059 21.154848 0.000000 0.066607
429.000000 50.723000 -10.000000 9.000000 -4.000000 124.378521 39.165644 98.269949 -8.747729 19.702878 0.000000 0.137559
431.000000 45.955000 -11.000000 10.000000 -4.000000 122.515771 41.447799 24.521996 25.673062 21.747705 0.000000 0.159730
433.000000 47.552000 -6.000000 -2.000000 -3.000000 50.357120 -19.515907 1356.472109 1887.100275 21.044140 0.000000 0.148263
434.000000 52.990000 -5.000000 -2.000000 -3.000000 49.451649 -24.107857 1456.626825 1949.803794 18.884343 0.000000 0.185527
435.000000 58.832000 -4.000000 -2.000000 -3.000000 47.863719 -30.011427 1596.685033 2065.513574 17.008926 0.000000 0.247039
439.000000 46.723000 -8.000000 -1.000000 -3.000000 61.627385 -9.452569 1154.194083 1530.286902 21.414925 0.000000 0.059950
440.000000 52.960000 -7.000000 -1.000000 -3.000000 62.702798 -12.179753 1207.304978 1509.241152 18.892502 0.000000 0.072201
441.000000 60.773000 -6.000000 -1.000000 -3.000000 63.890909 -15.656405 1276.649235 1488.808014 16.463285 0.000000 0.085802
442.000000 70.648000 -5.000000 -1.000000 -3.000000 65.139280 -20.200603 1371.012054 1472.388630 14.161679 0.000000 0.101234
443.000000 83.084000 -4.000000 -1.000000 -3.000000 66.281119 -26.298943 1506.913061 1468.480295 12.041403 0.000000 0.121344
444.000000 46.610000 -10.000000 1.000000 -3.000000 76.516907 1.776041 941.626604 1199.183553 21.461582 0.000000 0.133197
445.000000 52.578000 -9.000000 1.000000 -3.000000 79.161548 0.611146 963.519253 1147.074536 19.024596 0.000000 0.143648
446.000000 60.040000 -8.000000 1.000000 -3.000000 82.333817 -0.861281 991.180276 1085.890248 16.659060 0.000000 0.153790
447.000000 69.546000 -7.000000 1.000000 -3.000000 86.192724 -2.778535 1027.235406 1012.708971 14.381094 0.000000 0.162542
448.000000 81.890000 -6.000000 1.000000 -3.000000 90.954867 -5.370942 1076.189065 922.982175 12.212060 0.000000 0.167683
449.000000 49.944000 -10.000000 2.000000 -3.000000 84.355723 5.960166 862.633399 1047.949509 20.025907 0.000000 0.156914
450.000000 56.398000 -9.000000 2.000000 -3.000000 87.778874 5.251383 876.076243 982.920456 17.732982 0.000000 0.163950
451.000000 64.424000 -8.000000 2.000000 -3.000000 91.892153 4.341010 893.298268 905.340910 15.522517 0.000000 0.169132
452.000000 74.560000 -7.000000 2.000000 -3.000000 96.908527 3.129522 916.153782 810.396787 13.411133 0.000000 0.170666
453.000000 87.547000 -6.000000 2.000000 -3.000000 103.124622 1.439822 947.947430 689.971594 11.420241 0.000000 0.165254
454.000000 46.874000 -11.000000 3.000000 -3.000000 88.199595 10.644640 772.708957 975.423910 21.335711 0.000000 0.159191
455.000000 52.325000 -10.000000 3.000000 -3.000000 91.627315 10.530585 774.926311 909.899035 19.111959 0.000000 0.162566
456.000000 58.936000 -3.000000 1.000000 -1.000000 95.673570 10.386545 777.724297 832.291649 5.655538 0.000000 0.163494
457.000000 67.045000 -8.000000 3.000000 -3.000000 100.508827 10.198905 781.365337 738.143806 14.913143 0.000000 0.160346
458.000000 77.091000 -7.000000 3.000000 -3.000000 106.365068 9.944346 786.298045 620.121381 12.968282 0.000000 0.150429
459.000000 48.334000 -11.000000 4.000000 -3.000000 94.366127 15.063051 685.338009 855.899698 20.688707 0.000000 0.154455
460.000000 53.752000 -10.000000 4.000000 -3.000000 98.193391 15.477154 676.979303 780.199214 18.601884 0.000000 0.151179
461.000000 60.226000 -9.000000 4.000000 -3.000000 102.669851 16.004495 666.286191 689.285195 16.600926 0.000000 0.143322
462.000000 68.010000 -8.000000 4.000000 -3.000000 107.956595 16.698740 652.122031 576.834715 14.699355 0.000000 0.128428
463.000000 77.405000 -7.000000 4.000000 -3.000000 114.262338 17.653675 632.469283 431.911445 12.913684 0.000000 0.102709
464.000000 88.728000 -6.000000 4.000000 -3.000000 121.853837 19.049056 603.371083 233.526741 11.264304 0.000000 0.061145
465.000000 49.095000 -11.000000 5.000000 -3.000000 99.885581 19.758937 588.381345 741.701643 20.365602 0.000000 0.135458
466.000000 54.303000 -10.000000 5.000000 -3.000000 103.956048 20.765857 566.887914 654.943422 18.410839 0.000000 0.123310
467.000000 60.411000 -9.000000 5.000000 -3.000000 108.652049 22.054203 538.964034 549.016339 16.547856 0.000000 0.103760
468.000000 67.585000 -8.000000 5.000000 -3.000000 114.100132 23.759050 501.216263 414.964697 14.789997 0.000000 0.073244
469.000000 75.986000 -7.000000 5.000000 -3.000000 120.445105 26.116100 447.353809 236.472997 13.153318 0.000000 0.028092
470.000000 85.727000 -6.000000 5.000000 -3.000000 127.832254 29.572730 364.257144 -20.022780 11.657326 0.000000 0.055278
471.000000 49.236000 -11.000000 6.000000 -3.000000 104.706747 24.690774 480.169889 630.078118 20.305328 0.000000 0.102465
472.000000 54.106000 -10.000000 6.000000 -3.000000 108.862109 26.334988 442.244205 530.716123 18.476190 0.000000 0.078934
473.000000 59.700000 -3.000000 2.000000 -1.000000 113.569739 28.439066 392.101119 407.016437 5.581129 0.000000 0.044127
474.000000 66.104000 -8.000000 6.000000 -3.000000 118.902046 31.218280 322.703593 246.194981 15.119922 0.000000 0.008756
475.000000 73.370000 -7.000000 6.000000 -3.000000 124.911111 35.037293 220.326133 23.604646 13.621253 0.000000 0.087491
476.000000 48.856000 -11.000000 7.000000 -3.000000 108.810190 29.799088 358.623198 518.523255 20.461259 0.000000 0.055756
477.000000 53.309000 -10.000000 7.000000 -3.000000 112.902589 32.095540 299.958604 404.265445 18.750691 0.000000 0.019156
478.000000 58.315000 -9.000000 7.000000 -3.000000 117.435285 35.019485 220.825027 258.742944 17.139861 0.000000 0.038293
479.000000 63.896000 -8.000000 7.000000 -3.000000 122.416743 38.844964 108.245640 63.447320 15.641336 0.000000 0.118803
481.000000 48.064000 -11.000000 8.000000 -3.000000 112.205959 35.009152 221.114399 404.582736 20.797184 0.000000 0.020371
482.000000 52.064000 -10.000000 8.000000 -3.000000 116.108147 37.937351 136.000345 272.213437 19.198033 0.000000 0.067372
483.000000 56.462000 -9.000000 8.000000 -3.000000 120.315057 41.627513 18.496595 99.083469 17.701073 0.000000 0.147568
485.000000 46.960000 -11.000000 9.000000 -3.000000 114.929222 40.236708 64.278184 285.671052 21.284549 0.000000 0.094105
486.000000 50.504000 -10.000000 9.000000 -3.000000 118.541437 43.740633 -54.990481 130.748103 19.789852 0.000000 0.173510
488.000000 45.638000 -11.000000 10.000000 -3.000000 117.034463 45.395806 -116.268279 158.870988 21.900537 0.000000 0.196766
490.000000 47.314000 -5.000000 -2.000000 -2.000000 40.305434 -17.483013 1314.003490 2271.331947 21.152437 0.000000 0.268008
494.000000 50.037000 -7.000000 -1.000000 -2.000000 55.399736 -6.247878 1092.833056 1687.929496 19.998885 0.000000 0.043474
495.000000 57.735000 -6.000000 -1.000000 -2.000000 55.969609 -8.968446 1144.860706 1676.796158 17.331919 0.000000 0.053371
496.000000 67.838000 -5.000000 -1.000000 -2.000000 56.560790 -12.607856 1215.735230 1669.304317 14.750611 0.000000 0.069236
497.000000 81.343000 -4.000000 -1.000000 -2.000000 57.058939 -17.674549 1317.962597 1672.930366 12.301210 0.000000 0.093920
498.000000 45.627000 -9.000000 0.000000 -2.000000 63.845649 1.534106 946.175109 1469.727244 21.929025 0.000000 0.058128
499.000000 52.014000 -8.000000 0.000000 -2.000000 65.480171 0.259845 970.118802 1431.950519 19.235618 0.000000 0.070788
500.000000 60.298000 -7.000000 0.000000 -2.000000 67.498813 -1.376384 1000.860173 1386.970477 16.592373 0.000000 0.085351
501.000000 71.380000 -6.000000 0.000000 -2.000000 70.043804 -3.550061 1041.772945 1332.558854 14.015751 0.000000 0.101755
502.000000 86.761000 -5.000000 0.000000 -2.000000 73.325385 -6.567136 1098.905918 1265.513331 11.530301 0.000000 0.119341
503.000000 51.048000 -9.000000 1.000000 -2.000000 72.984449 5.972357 862.401891 1272.173167 19.597019 0.000000 0.115798
504.000000 58.650000 -8.000000 1.000000 -2.000000 75.729752 5.214030 876.783803 1215.886276 17.056228 0.000000 0.128863
505.000000 68.583000 -7.000000 1.000000 -2.000000 79.158358 4.222076 895.544940 1147.685848 14.584847 0.000000 0.142718
506.000000 81.968000 -6.000000 1.000000 -2.000000 83.547520 2.869871 921.044694 1062.876948 12.202287 0.000000 0.156474
507.000000 48.679000 -5.000000 1.000000 -1.000000 78.557051 10.933210 767.091331 1162.886189 10.274174 0.000000 0.136523
508.000000 55.218000 -9.000000 2.000000 -2.000000 81.578978 10.847343 768.764044 1103.235645 18.113942 0.000000 0.145763
509.000000 63.496000 -4.000000 1.000000 -1.000000 85.263626 10.737188 770.908487 1031.764527 7.875638 0.000000 0.154375
510.000000 74.208000 -7.000000 2.000000 -2.000000 89.844918 10.590743 773.756969 943.963693 13.476513 0.000000 0.161110
511.000000 45.781000 -11.000000 3.000000 -2.000000 82.725291 15.220663 682.160472 1083.388334 21.847487 0.000000 0.142948
512.000000 51.267000 -10.000000 3.000000 -2.000000 85.773549 15.630601 673.873504 1023.592030 19.508166 0.000000 0.147744
513.000000 58.005000 -9.000000 3.000000 -2.000000 89.398300 16.145860 663.410166 952.767427 17.240862 0.000000 0.150667
514.000000 66.403000 -8.000000 3.000000 -2.000000 93.769125 16.812884 649.783500 866.928933 15.059165 0.000000 0.150186
515.000000 77.029000 -7.000000 3.000000 -2.000000 99.122543 17.710008 631.303517 759.573114 12.980315 0.000000 0.143600
516.000000 90.667000 -6.000000 3.000000 -2.000000 105.792396 18.980323 604.815572 619.091632 11.026514 0.000000 0.125980
517.000000 47.370000 -11.000000 4.000000 -2.000000 88.827946 19.689393 589.855640 964.387354 21.111479 0.000000 0.141608
518.000000 52.840000 -5.000000 2.000000 -1.000000 92.253088 20.632880 569.742506 895.751850 9.462481 0.000000 0.139308
519.000000 59.445000 -9.000000 4.000000 -2.000000 96.271184 21.823785 543.994635 813.592810 16.820819 0.000000 0.132480
520.000000 67.495000 -4.000000 2.000000 -1.000000 101.030533 23.372528 509.858443 712.439774 7.406593 0.000000 0.118297
521.000000 77.379000 -7.000000 4.000000 -2.000000 106.720068 25.465162 462.437048 582.894190 12.919632 0.000000 0.091849
522.000000 48.224000 -11.000000 5.000000 -2.000000 94.267501 24.372338 487.397671 852.829453 20.735211 0.000000 0.124471
523.000000 53.482000 -10.000000 5.000000 -2.000000 97.906982 25.887801 452.662746 774.844571 18.695577 0.000000 0.112501
524.000000 59.701000 -9.000000 5.000000 -2.000000 102.099420 27.801395 407.500917 680.165682 16.746450 0.000000 0.092532
525.000000 67.084000 -8.000000 5.000000 -2.000000 106.947009 30.287155 346.388052 561.191385 14.902069 0.000000 0.060113
526.000000 75.842000 -7.000000 5.000000 -2.000000 112.554011 33.631414 259.060878 404.133190 13.179827 0.000000 0.014314
527.000000 86.153000 -6.000000 5.000000 -2.000000 118.992486 38.331026 124.047261 180.693720 11.601191 0.000000 0.089041
528.000000 48.427000 -11.000000 6.000000 -2.000000 99.001568 29.218883 373.013866 745.644787 20.646354 0.000000 0.092883
529.000000 53.333000 -5.000000 3.000000 -1.000000 102.697006 31.321139 320.058816 657.137615 9.372867 0.000000 0.069516
530.000000 59.007000 -9.000000 6.000000 -2.000000 106.858743 33.965122 249.983205 547.745170 16.941833 0.000000 0.037747
531.000000 65.553000 -4.000000 3.000000 -1.000000 111.528532 37.374038 152.883384 406.725031 7.624351 0.000000 0.042469
532.000000 73.046000 -7.000000 6.000000 -2.000000 116.711038 41.897168 9.392410 213.407580 13.683252 0.000000 0.129903
533.000000 48.086000 -11.000000 7.000000 -2.000000 103.021698 34.165676 244.493355 640.170518 20.790748 0.000000 0.052889
534.000000 52.558000 -10.000000 7.000000 -2.000000 106.631639 36.841113 168.623842 539.270669 19.020580 0.000000 0.038135
535.000000 57.608000 -9.000000 7.000000 -2.000000 110.589713 40.177697 66.178734 411.802490 17.351762 0.000000 0.076093
536.000000 63.269000 -8.000000 7.000000 -2.000000 114.875345 44.421322 -79.770129 242.277259 15.797967 0.000000 0.165204
538.000000 47.318000 -11.000000 8.000000 -2.000000 106.349077 39.140904 99.042784 533.917613 21.127039 0.000000 0.056697
539.000000 51.318000 -5.000000 4.000000 -1.000000 109.757833 42.346782 -5.960053 417.924615 9.739370 0.000000 0.106598
540.000000 55.731000 -9.000000 8.000000 -2.000000 113.382092 46.295275 -151.091686 267.492285 17.935135 0.000000 0.195583
542.000000 46.229000 -11.000000 9.000000 -2.000000 109.028258 44.070262 -66.919025 424.370628 21.623103 0.000000 0.133888
543.000000 49.758000 -10.000000 9.000000 -2.000000 112.150308 47.738747 -209.440085 289.503958 20.088402 0.000000 0.221830
546.000000 51.114000 -6.000000 -1.000000 -1.000000 46.275218 -1.977739 1012.166343 1971.033741 19.579652 0.000000 0.137447
547.000000 59.504000 -5.000000 -1.000000 -1.000000 45.527360 -4.473061 1059.197033 2000.889957 16.819020 0.000000 0.151454
548.000000 70.716000 -4.000000 -1.000000 -1.000000 44.313827 -8.045554 1127.136030 2054.345926 14.152293 0.000000 0.176240
549.000000 85.730000 -3.000000 -1.000000 -1.000000 42.126960 -13.525955 1233.911110 2164.980568 11.673834 0.000000 0.224752
550.000000 48.166000 -9.000000 1.000000 -1.000000 65.860897 11.257976 760.755999 1432.794543 20.771948 0.000000 0.076958
551.000000 55.395000 -8.000000 1.000000 -1.000000 67.904053 11.209110 761.710154 1386.446322 18.060560 0.000000 0.088438
552.000000 64.981000 -7.000000 1.000000 -1.000000 70.500391 11.145289 762.955835 1329.453691 15.395720 0.000000 0.102238
553.000000 78.198000 -6.000000 1.000000 -1.000000 73.905557 11.058407 764.650741 1257.418508 12.792681 0.000000 0.118415
554.000000 46.407000 -10.000000 2.000000 -1.000000 71.976003 15.768486 671.078705 1304.902167 21.556978 0.000000 0.108685
555.000000 52.694000 -9.000000 2.000000 -1.000000 74.392590 16.271145 660.857820 1254.201623 18.984130 0.000000 0.117717
556.000000 60.733000 -8.000000 2.000000 -1.000000 77.360302 16.912252 647.745387 1193.273868 16.470132 0.000000 0.126922
557.000000 71.291000 -7.000000 2.000000 -1.000000 81.084495 17.757885 630.312185 1118.288720 14.030021 0.000000 0.135386
558.000000 85.594000 -6.000000 2.000000 -1.000000 85.880863 18.923860 606.001288 1022.939900 11.684434 0.000000 0.141080
559.000000 49.227000 -10.000000 3.000000 -1.000000 79.126443 20.513761 572.295404 1161.744331 20.319067 0.000000 0.126860
560.000000 55.777000 -9.000000 3.000000 -1.000000 82.126844 21.620311 548.423547 1101.097756 17.931863 0.000000 0.130249
561.000000 64.016000 -8.000000 3.000000 -1.000000 85.749574 23.037428 517.310187 1027.922669 15.622914 0.000000 0.130646
562.000000 74.574000 -7.000000 3.000000 -1.000000 90.190410 24.914438 475.071141 937.056125 13.409836 0.000000 0.125257
563.000000 88.362000 -6.000000 3.000000 -1.000000 95.719646 27.511604 414.439575 819.454072 11.315963 0.000000 0.108596
564.000000 45.677000 -11.000000 4.000000 -1.000000 82.650055 24.084245 493.905440 1093.068279 21.896667 0.000000 0.125590
565.000000 50.991000 -10.000000 4.000000 -1.000000 85.530895 25.487787 461.915550 1034.191988 19.613205 0.000000 0.123720
566.000000 57.446000 -9.000000 4.000000 -1.000000 88.900757 27.238913 420.935501 964.227479 17.408303 0.000000 0.117556
567.000000 65.370000 -8.000000 4.000000 -1.000000 92.873869 29.480078 366.555935 878.933442 15.296773 0.000000 0.104338
568.000000 75.192000 -7.000000 4.000000 -1.000000 97.586881 32.439544 290.920424 771.136664 13.297401 0.000000 0.079910
569.000000 87.433000 -6.000000 4.000000 -1.000000 103.184264 36.501562 178.538728 627.342432 11.434374 0.000000 0.047502
570.000000 46.663000 -11.000000 5.000000 -1.000000 88.029845 28.694027 385.891928 983.206890 21.431060 0.000000 0.113136
571.000000 51.787000 -10.000000 5.000000 -1.000000 91.110051 30.628057 337.769761 916.764130 19.309614 0.000000 0.102522
572.000000 57.873000 -9.000000 5.000000 -1.000000 94.633031 33.033419 275.153453 836.961331 17.277514 0.000000 0.085604
573.000000 65.135000 -8.000000 5.000000 -1.000000 98.664141 36.093711 190.333660 738.034924 15.350079 0.000000 0.063877
574.000000 73.801000 -7.000000 5.000000 -1.000000 103.252851 40.091299 68.955371 609.648594 13.546343 0.000000 0.068266
575.000000 84.071000 -6.000000 5.000000 -1.000000 108.389190 45.470306 -119.110193 430.775086 11.890252 0.000000 0.158289
576.000000 46.976000 -11.000000 6.000000 -1.000000 92.711425 33.401601 265.271536 879.943630 21.286132 0.000000 0.089260
577.000000 51.760000 -10.000000 6.000000 -1.000000 95.838104 35.857408 197.111563 805.216800 19.317549 0.000000 0.073913
578.000000 57.307000 -9.000000 6.000000 -1.000000 99.319951 38.890475 106.835376 714.064361 17.446482 0.000000 0.066930
579.000000 63.724000 -8.000000 6.000000 -1.000000 103.164889 42.706614 -18.405824 598.411050 15.688263 0.000000 0.101177
580.000000 71.090000 -7.000000 6.000000 -1.000000 107.332696 47.602700 -203.804170 442.826527 14.061615 0.000000 0.199846
582.000000 46.728000 -11.000000 7.000000 -1.000000 96.694693 38.145371 129.700345 780.360325 21.397448 0.000000 0.072192
583.000000 51.084000 -10.000000 7.000000 -1.000000 99.735980 41.090229 36.411826 695.974043 19.571651 0.000000 0.083309
584.000000 56.009000 -9.000000 7.000000 -1.000000 103.020450 44.689245 -89.682146 590.914550 17.849415 0.000000 0.132909
585.000000 61.533000 -8.000000 7.000000 -1.000000 106.502267 49.147183 -269.577600 453.535742 16.245774 0.000000 0.233744
587.000000 46.037000 -11.000000 8.000000 -1.000000 100.008220 42.860857 -23.785007 681.877330 21.716750 0.000000 0.104284
588.000000 49.927000 -10.000000 8.000000 -1.000000 102.860356 46.240573 -148.941414 585.723377 20.023648 0.000000 0.161468
589.000000 54.216000 -9.000000 8.000000 -1.000000 105.836021 50.315872 -322.133684 462.902259 18.438461 0.000000 0.261829
595.000000 48.499000 -2.000000 0.000000 0.000000 48.904228 11.626176 753.556033 1899.435420 5.895519 0.000000 0.116221
596.000000 50.104000 -8.000000 1.000000 0.000000 58.988529 16.999539 645.953296 1617.556891 19.970535 0.000000 0.070938
597.000000 58.353000 -7.000000 1.000000 0.000000 60.376892 17.799076 629.458860 1583.760720 17.146939 0.000000 0.074148
598.000000 69.695000 -6.000000 1.000000 0.000000 62.202429 18.876651 606.992050 1540.658546 14.356080 0.000000 0.079916
599.000000 86.154000 -5.000000 1.000000 0.000000 64.704866 20.406440 574.592036 1483.709036 11.612873 0.000000 0.088951
600.000000 111.868000 -4.000000 1.000000 0.000000 68.330035 22.744148 523.801617 1404.714311 8.942914 0.000000 0.101268
601.000000 156.442000 -3.000000 1.000000 0.000000 73.987702 26.739155 432.758489 1286.856966 6.394126 0.000000 0.113395
602.000000 48.725000 -9.000000 2.000000 0.000000 66.335943 21.439319 552.352626 1447.717286 20.532961 0.000000 0.094769
603.000000 65.393000 -7.000000 2.000000 0.000000 70.816454 24.442521 485.807817 1352.322856 15.297811 0.000000 0.107914
604.000000 96.305000 -5.000000 2.000000 0.000000 78.133802 30.004298 353.493551 1202.144175 10.385957 0.000000 0.114761
605.000000 122.926000 -4.000000 2.000000 0.000000 83.677945 34.970253 222.203086 1086.516381 8.135803 0.000000 0.107561
606.000000 163.608000 -3.000000 2.000000 0.000000 91.103792 43.246527 -37.353606 912.531008 6.111759 0.000000 0.126920
607.000000 46.148000 -10.000000 3.000000 0.000000 71.785521 25.127890 470.187905 1332.190363 21.677089 0.000000 0.109971
608.000000 59.686000 -8.000000 3.000000 0.000000 76.620284 28.774072 383.936308 1233.070352 16.758701 0.000000 0.115045
609.000000 69.341000 -7.000000 3.000000 0.000000 79.801632 31.417106 317.586028 1167.886978 14.424187 0.000000 0.113451
610.000000 98.694000 -5.000000 3.000000 0.000000 88.400199 39.952689 73.395299 980.213222 10.132318 0.000000 0.107134
611.000000 121.033000 -4.000000 3.000000 0.000000 94.011695 47.295452 -191.183173 829.704536 8.261116 0.000000 0.183308
613.000000 54.132000 -9.000000 4.000000 0.000000 80.699372 32.204566 297.101540 1149.310491 18.476286 0.000000 0.112359
614.000000 70.532000 -7.000000 4.000000 0.000000 87.133979 38.531840 117.899890 1009.880750 14.178323 0.000000 0.104675
615.000000 95.735000 -5.000000 4.000000 0.000000 95.521145 49.673978 -292.954792 780.235909 10.443823 0.000000 0.233100
616.000000 54.846000 -9.000000 5.000000 0.000000 86.402039 37.741054 141.912689 1026.581065 18.233604 0.000000 0.104455
617.000000 61.600000 -8.000000 5.000000 0.000000 89.454731 41.192077 33.038460 954.612007 16.233420 0.000000 0.112021
618.000000 69.630000 -7.000000 5.000000 0.000000 92.827377 45.571671 -122.989014 865.065943 14.360205 0.000000 0.154902
619.000000 79.091000 -6.000000 5.000000 0.000000 96.435751 51.234038 -365.269807 747.104570 12.641309 0.000000 0.272583
621.000000 48.855000 -10.000000 7.000000 0.000000 92.327936 44.877085 -96.686263 879.254712 20.466705 0.000000 0.145292
622.000000 53.468000 -9.000000 7.000000 0.000000 94.871143 48.622241 -246.771978 802.237421 18.699819 0.000000 0.209561
626.000000 48.885000 -7.000000 1.000000 1.000000 49.166432 24.033679 495.044659 1959.424300 20.470191 0.000000 0.173441
627.000000 56.680000 -6.000000 1.000000 1.000000 49.013454 26.086074 448.053216 1982.230179 17.654786 0.000000 0.188766
628.000000 67.194000 -5.000000 1.000000 1.000000 48.709659 28.927377 380.182457 2020.970309 14.892170 0.000000 0.213040
629.000000 81.874000 -4.000000 1.000000 1.000000 48.070957 33.093664 273.542183 2094.870822 12.221790 0.000000 0.256199
632.000000 49.190000 -8.000000 2.000000 1.000000 58.445276 28.151451 399.069729 1690.649736 20.340409 0.000000 0.135138
633.000000 56.619000 -7.000000 2.000000 1.000000 59.437633 30.530901 340.232083 1678.866061 17.671263 0.000000 0.147194
634.000000 66.366000 -6.000000 2.000000 1.000000 60.603666 33.671446 257.975637 1669.608123 15.075439 0.000000 0.165574
635.000000 79.487000 -5.000000 2.000000 1.000000 61.938983 37.975601 134.844610 1668.853164 12.586265 0.000000 0.197439
636.000000 97.495000 -4.000000 2.000000 1.000000 63.330958 44.146591 -69.700169 1694.374023 10.260879 0.000000 0.266042
638.000000 47.171000 -9.000000 3.000000 1.000000 65.180484 31.462718 316.408971 1524.557346 21.208778 0.000000 0.132805
639.000000 53.476000 -8.000000 3.000000 1.000000 66.660316 33.977225 249.652647 1501.029010 18.707520 0.000000 0.143382
640.000000 61.394000 -7.000000 3.000000 1.000000 68.362178 37.173482 158.833049 1476.833273 16.293940 0.000000 0.159442
641.000000 71.467000 -6.000000 3.000000 1.000000 70.287352 41.341246 28.078699 1454.642737 13.996676 0.000000 0.189030
642.000000 84.349000 -5.000000 3.000000 1.000000 72.362811 46.930308 -176.373306 1442.092379 11.858359 0.000000 0.256271
644.000000 49.546000 -9.000000 4.000000 1.000000 71.866972 36.709224 172.485410 1380.669549 20.189193 0.000000 0.143568
645.000000 55.821000 -8.000000 4.000000 1.000000 73.719631 39.846383 76.788305 1350.409351 17.918949 0.000000 0.159369
646.000000 63.449000 -7.000000 4.000000 1.000000 75.757009 43.786556 -56.644422 1319.439131 15.763828 0.000000 0.191500
647.000000 72.706000 -6.000000 4.000000 1.000000 77.912009 48.827082 -255.614221 1291.128727 13.755897 0.000000 0.263845
649.000000 45.662000 -10.000000 5.000000 1.000000 75.756822 38.918799 105.956778 1292.149728 21.905068 0.000000 0.144480
650.000000 50.654000 -9.000000 5.000000 1.000000 77.600507 41.944997 7.769549 1259.140416 19.745148 0.000000 0.162529
651.000000 56.520000 -8.000000 5.000000 1.000000 79.581606 45.637420 -125.512404 1224.030775 17.694989 0.000000 0.199815
652.000000 63.379000 -7.000000 5.000000 1.000000 81.639621 50.199794 -316.799085 1188.101725 15.779246 0.000000 0.277650
654.000000 46.119000 -10.000000 6.000000 1.000000 80.523092 43.632256 -51.097215 1189.228901 21.685562 0.000000 0.168803
655.000000 50.726000 -9.000000 6.000000 1.000000 82.391742 47.084320 -182.595139 1152.134829 19.715072 0.000000 0.211632
656.000000 55.970000 -8.000000 6.000000 1.000000 84.306541 51.238177 -365.468142 1112.389620 17.867194 0.000000 0.293292
658.000000 45.896000 -10.000000 7.000000 1.000000 84.537203 48.245125 -230.679362 1095.562387 21.788757 0.000000 0.225177
659.000000 50.017000 -9.000000 7.000000 1.000000 86.305203 52.050619 -405.105356 1054.018920 19.992697 0.000000 0.308842
666.000000 45.753000 -8.000000 3.000000 2.000000 56.224618 38.644052 114.449864 1862.650891 21.867848 0.000000 0.242890
667.000000 51.342000 -7.000000 3.000000 2.000000 56.391217 42.208153 -1.203168 1906.731553 19.487009 0.000000 0.288775
677.000000 46.015000 -9.000000 6.000000 2.000000 73.384034 50.462309 -328.900791 1445.541439 21.736392 0.000000 0.323382
#UB matrix in q= (UB) B0 G* 
#[[ 0.413656629 -0.672229377  0.612352575]
# [-0.183435984  0.597842834  0.780217338]
# [-0.891761982 -0.435694811  0.124201497]]
#B0 matrix in q= UB (B0) G*
#[[ 0.19670273 -0.          0.03056101]
# [ 0.          0.19187965 -0.        ]
# [ 0.          0.          0.18806537]]
#UBB0 matrix in q= (UB B0) G* i.e. recip. basis vectors are columns in LT frame: astar = UBB0[:,0], bstar = UBB0[:,1], cstar = UBB0[:,2]. (abcstar as columns on xyzlab1, xlab1 = ui, ui = unit vector along incident beam)
#[[ 0.08136739 -0.12898714  0.12780408]
# [-0.03608236  0.11471388  0.14112588]
# [-0.17541202 -0.08360097 -0.00389514]]
#Euler angles phi theta psi (deg)
#[296.012  82.874  38.177]
#deviatoric strain in direct crystal frame (10-3 unit)
#[[-2.63 -0.34  0.39]
# [-0.34 -2.12 -0.77]
# [ 0.39 -0.77  4.75]]
#deviatoric strain in sample2 frame (10-3 unit)
#[[ 0.34  3.03 -1.9 ]
# [ 3.04  1.29 -1.68]
# [-1.9  -1.68 -1.64]]
#new lattice parameters
#[ 5.1505     5.2142645  5.3200113 90.0397095 99.2017891 90.0388054]
#CCDLabel
#sCMOS
#DetectorParameters
#[79.0, 975.0, 941.0, 0.0, 0.0]
#pixelsize
#0.0734
#Frame dimensions
#[2018, 2016]
#
