#Strain and Orientation Refinement from experimental file: /home/micha/LaueProjects/DepthEffects/testZrO2_147.cor
#File created at Wed Jun 28 14:27:10 2023 with indexingSpotsSet.py
#Number of indexed spots: 509
#Element
#ZrO2
#grainIndex
#G_0
#Mean Deviation(pixel): 0.117
##spot_index intensity h k l 2theta Chi Xexp Yexp Energy GrainIndex PixDev
14.000000 45.651000 11.000000 -6.000000 -5.000000 90.086489 50.183919 -316.071524 938.462707 21.921180 0.000000 0.264076
18.000000 50.385000 11.000000 -5.000000 -5.000000 98.106986 50.890698 -348.940611 697.954961 19.858545 0.000000 0.275553
19.000000 48.383000 12.000000 -5.000000 -5.000000 101.618875 48.295614 -232.820055 608.360339 20.679454 0.000000 0.213811
20.000000 46.345000 13.000000 -5.000000 -5.000000 104.600717 45.853689 -133.854714 538.457487 21.587721 0.000000 0.166115
24.000000 52.358000 12.000000 -4.000000 -5.000000 109.704290 48.830399 -255.757981 355.452647 19.106598 0.000000 0.247868
25.000000 49.730000 13.000000 -4.000000 -5.000000 112.254989 46.072767 -142.371801 306.136290 20.115543 0.000000 0.195142
26.000000 47.239000 14.000000 -4.000000 -5.000000 114.386142 43.501125 -46.405293 268.348747 21.175921 0.000000 0.154348
30.000000 49.917000 14.000000 -3.000000 -5.000000 121.891399 43.426700 -43.751399 18.857538 20.037354 0.000000 0.199501
31.000000 47.200000 15.000000 -3.000000 -5.000000 123.247461 40.728373 48.313164 9.922268 21.190660 0.000000 0.161933
43.000000 48.405000 9.000000 -6.000000 -4.000000 80.189718 48.853278 -256.750214 1223.842224 20.677506 0.000000 0.266524
44.000000 47.494000 5.000000 -3.000000 -2.000000 85.284510 46.407184 -155.504144 1069.755265 10.536181 0.000000 0.200314
45.000000 46.195000 11.000000 -6.000000 -4.000000 89.635407 44.106896 -68.252931 950.538331 21.663504 0.000000 0.151019
49.000000 55.259000 9.000000 -5.000000 -4.000000 89.207972 49.454466 -283.152617 963.889089 18.109856 0.000000 0.248817
50.000000 53.310000 10.000000 -5.000000 -4.000000 93.892678 46.692168 -166.822987 834.228898 18.770681 0.000000 0.182510
51.000000 51.132000 11.000000 -5.000000 -4.000000 97.815734 44.112576 -68.459912 735.233221 19.569224 0.000000 0.133239
52.000000 48.883000 12.000000 -5.000000 -4.000000 101.119036 41.707604 15.800501 657.654011 20.468488 0.000000 0.095926
53.000000 46.658000 13.000000 -5.000000 -4.000000 103.917033 39.467756 88.788298 595.531647 21.443639 0.000000 0.067377
55.000000 62.366000 9.000000 -4.000000 -4.000000 99.040352 50.227356 -318.063401 673.321523 16.043386 0.000000 0.258522
56.000000 59.204000 5.000000 -2.000000 -2.000000 103.169921 47.055786 -181.439699 571.336581 8.449619 0.000000 0.188486
57.000000 56.043000 11.000000 -4.000000 -4.000000 106.544838 44.119765 -68.721923 495.623992 17.851382 0.000000 0.137175
58.000000 53.003000 6.000000 -2.000000 -2.000000 109.322906 41.407767 25.859608 437.819673 9.437338 0.000000 0.098583
59.000000 50.139000 13.000000 -4.000000 -4.000000 111.626625 38.905927 106.356144 392.650378 19.952030 0.000000 0.068927
60.000000 47.474000 7.000000 -2.000000 -2.000000 113.551033 36.599224 175.695935 356.655868 10.535712 0.000000 0.045741
63.000000 64.892000 10.000000 -3.000000 -4.000000 113.060855 47.535748 -201.041361 262.301824 15.415494 0.000000 0.231739
64.000000 60.712000 11.000000 -3.000000 -4.000000 115.768866 44.129156 -69.064276 217.121684 16.476197 0.000000 0.173557
65.000000 56.873000 12.000000 -3.000000 -4.000000 117.925105 41.020345 38.720464 184.883186 17.587723 0.000000 0.130891
66.000000 53.380000 13.000000 -3.000000 -4.000000 119.656003 38.187952 128.406316 161.327298 18.738175 0.000000 0.098899
67.000000 50.215000 14.000000 -3.000000 -4.000000 121.056478 35.608802 204.198852 143.781488 19.919098 0.000000 0.074583
68.000000 47.349000 15.000000 -3.000000 -4.000000 122.198184 33.259538 269.094336 130.505850 21.124323 0.000000 0.056074
71.000000 60.311000 6.000000 -1.000000 -2.000000 126.850824 40.500457 55.743011 -119.836621 8.291548 0.000000 0.186023
72.000000 56.245000 13.000000 -2.000000 -4.000000 127.938204 37.238587 156.905115 -112.889747 17.781555 0.000000 0.146101
73.000000 52.630000 7.000000 -1.000000 -2.000000 128.756966 34.318018 240.305747 -105.144378 9.501498 0.000000 0.116054
74.000000 49.406000 15.000000 -2.000000 -4.000000 129.374345 31.700848 310.245093 -97.161525 20.242867 0.000000 0.093053
75.000000 46.522000 8.000000 -1.000000 -2.000000 129.839613 29.351510 369.738859 -89.250290 10.748870 0.000000 0.075284
81.000000 47.992000 16.000000 -1.000000 -4.000000 136.589214 27.043468 425.571737 -336.387364 20.837299 0.000000 0.105808
89.000000 48.725000 7.000000 -6.000000 -3.000000 66.499799 47.304592 -191.556534 1631.148990 20.546547 0.000000 0.311858
90.000000 49.223000 8.000000 -6.000000 -3.000000 73.438682 44.717947 -90.749444 1391.430082 20.336529 0.000000 0.226558
91.000000 48.737000 3.000000 -2.000000 -1.000000 79.304290 42.303332 -4.466851 1215.860268 6.845783 0.000000 0.168209
92.000000 47.645000 10.000000 -6.000000 -3.000000 84.276599 40.051895 70.219380 1081.924613 21.006481 0.000000 0.128395
93.000000 46.204000 11.000000 -6.000000 -3.000000 88.510114 37.953920 135.499861 976.502149 21.660488 0.000000 0.102168
97.000000 58.734000 7.000000 -5.000000 -3.000000 76.485325 47.749747 -209.897070 1325.738977 17.042110 0.000000 0.261871
98.000000 57.705000 8.000000 -5.000000 -3.000000 83.049003 44.805027 -93.993991 1125.942035 17.344303 0.000000 0.183847
99.000000 55.871000 9.000000 -5.000000 -3.000000 88.460669 42.080553 3.156838 979.969239 17.912142 0.000000 0.130788
100.000000 53.638000 10.000000 -5.000000 -3.000000 92.948772 39.563514 85.765775 869.084163 18.656793 0.000000 0.095011
101.000000 51.249000 11.000000 -5.000000 -3.000000 96.697152 37.239755 156.870500 782.251533 19.525057 0.000000 0.072339
102.000000 48.850000 12.000000 -5.000000 -3.000000 99.851252 35.094655 218.717707 712.572753 20.483132 0.000000 0.060204
103.000000 46.519000 13.000000 -5.000000 -3.000000 102.525394 33.113737 273.004830 655.526384 21.508512 0.000000 0.056035
107.000000 69.935000 7.000000 -4.000000 -3.000000 87.816443 48.336132 -234.541074 1002.733190 14.310000 0.000000 0.228226
108.000000 66.831000 8.000000 -4.000000 -3.000000 93.741919 44.918598 -98.240356 841.592362 14.973094 0.000000 0.152308
109.000000 63.311000 9.000000 -4.000000 -3.000000 98.482476 41.793031 12.917378 725.702289 15.804453 0.000000 0.100418
110.000000 59.735000 10.000000 -4.000000 -3.000000 102.311102 38.939902 105.301714 639.011214 16.749765 0.000000 0.064613
111.000000 56.284000 11.000000 -4.000000 -3.000000 105.434342 36.337497 183.298261 572.111116 17.775821 0.000000 0.041178
112.000000 53.043000 12.000000 -4.000000 -3.000000 108.007688 33.963581 250.025298 519.162655 18.861174 0.000000 0.029722
113.000000 50.043000 13.000000 -4.000000 -3.000000 110.148455 31.796484 307.760713 476.370549 19.991356 0.000000 0.029644
114.000000 47.286000 14.000000 -4.000000 -3.000000 111.945676 29.815760 358.207246 441.172713 21.156249 0.000000 0.035357
116.000000 81.764000 7.000000 -3.000000 -3.000000 100.512184 49.143422 -269.412525 635.702020 12.236963 0.000000 0.232591
117.000000 76.117000 8.000000 -3.000000 -3.000000 105.493166 45.072917 -104.037248 518.539074 13.143793 0.000000 0.152626
118.000000 65.638000 10.000000 -3.000000 -3.000000 112.306208 38.116101 130.588956 379.766843 15.240732 0.000000 0.060574
119.000000 61.080000 11.000000 -3.000000 -3.000000 114.660464 35.162261 216.819108 336.564781 16.377482 0.000000 0.033045
120.000000 56.989000 4.000000 -1.000000 -1.000000 116.541508 32.510265 289.053794 303.507401 5.850941 0.000000 0.012988
121.000000 53.327000 13.000000 -3.000000 -3.000000 118.062086 30.125872 350.444534 277.621358 18.757579 0.000000 0.006354
122.000000 50.051000 14.000000 -3.000000 -3.000000 119.304682 27.977646 403.262696 256.951941 19.985270 0.000000 0.016902
123.000000 47.113000 5.000000 -1.000000 -1.000000 120.330358 26.037381 449.186699 240.170486 7.077063 0.000000 0.026323
124.000000 84.839000 8.000000 -2.000000 -3.000000 118.185784 45.294704 -112.423590 121.109977 11.790178 0.000000 0.211427
125.000000 77.435000 9.000000 -2.000000 -3.000000 120.868759 40.864776 43.842193 90.293136 12.916960 0.000000 0.147278
126.000000 70.982000 10.000000 -2.000000 -3.000000 122.827355 36.977872 164.605613 71.830199 14.090845 0.000000 0.103996
127.000000 65.376000 11.000000 -2.000000 -3.000000 124.276166 33.569724 260.731281 60.622665 15.298920 0.000000 0.073998
128.000000 60.497000 12.000000 -2.000000 -3.000000 125.360931 30.577131 339.061040 53.860414 16.532593 0.000000 0.053199
129.000000 56.233000 13.000000 -2.000000 -3.000000 126.181938 27.942120 404.118079 49.910648 17.785932 0.000000 0.039468
130.000000 52.489000 14.000000 -2.000000 -3.000000 126.809180 25.613583 459.012433 47.783726 19.054704 0.000000 0.031736
131.000000 49.182000 15.000000 -2.000000 -3.000000 127.292212 23.547486 505.952881 46.858891 20.335811 0.000000 0.029018
132.000000 46.246000 16.000000 -2.000000 -3.000000 127.666607 21.706393 546.551363 46.735671 21.626931 0.000000 0.029710
135.000000 68.909000 11.000000 -1.000000 -3.000000 134.139606 31.294163 320.752996 -281.271500 14.512584 0.000000 0.126044
136.000000 63.384000 12.000000 -1.000000 -3.000000 134.338891 27.887266 405.437742 -248.925320 15.777688 0.000000 0.096316
137.000000 58.629000 13.000000 -1.000000 -3.000000 134.393666 24.976515 473.652715 -221.464799 17.057237 0.000000 0.074825
138.000000 54.504000 14.000000 -1.000000 -3.000000 134.356194 22.473075 529.776754 -197.860300 18.348196 0.000000 0.059150
139.000000 50.898000 15.000000 -1.000000 -3.000000 134.260327 20.304864 576.762790 -177.352643 19.648321 0.000000 0.047835
140.000000 47.722000 16.000000 -1.000000 -3.000000 134.128221 18.413898 616.674564 -159.369739 20.955921 0.000000 0.039975
148.000000 46.542000 3.000000 -3.000000 -1.000000 56.815060 42.746645 -19.799316 1899.523193 10.756749 0.000000 0.305905
149.000000 48.463000 7.000000 -6.000000 -2.000000 64.990859 40.215460 64.962886 1598.515670 20.658628 0.000000 0.214590
150.000000 48.856000 4.000000 -3.000000 -1.000000 71.860508 37.875576 137.864355 1387.709732 10.245341 0.000000 0.159061
151.000000 48.280000 9.000000 -6.000000 -2.000000 77.646507 35.713068 201.231802 1231.316933 20.733096 0.000000 0.127048
152.000000 47.124000 5.000000 -3.000000 -1.000000 82.542322 33.714008 256.820720 1110.373639 10.620102 0.000000 0.110631
153.000000 45.643000 11.000000 -6.000000 -2.000000 86.709074 31.864890 305.980539 1013.869483 21.927986 0.000000 0.103854
156.000000 58.663000 6.000000 -5.000000 -2.000000 67.171180 42.557021 -13.214312 1556.078450 17.065932 0.000000 0.230938
157.000000 58.784000 7.000000 -5.000000 -2.000000 75.033090 39.684726 81.927865 1314.879093 17.028803 0.000000 0.160986
158.000000 57.510000 8.000000 -5.000000 -2.000000 81.450198 37.060421 162.173174 1143.769073 17.404394 0.000000 0.121419
159.000000 55.499000 9.000000 -5.000000 -2.000000 86.723372 34.663001 230.766309 1015.914764 18.033452 0.000000 0.101557
160.000000 53.149000 10.000000 -5.000000 -2.000000 91.092825 32.471648 290.073440 916.664207 18.829319 0.000000 0.093812
161.000000 50.692000 11.000000 -5.000000 -2.000000 94.745900 30.466534 341.860702 837.330228 19.740800 0.000000 0.092489
162.000000 48.258000 12.000000 -5.000000 -2.000000 97.827467 28.629220 387.473055 772.430860 20.735705 0.000000 0.093986
163.000000 45.915000 13.000000 -5.000000 -2.000000 100.449495 26.942828 427.952767 718.333376 21.792779 0.000000 0.096427
165.000000 73.689000 5.000000 -4.000000 -2.000000 70.115517 45.989263 -139.117465 1501.286815 13.585101 0.000000 0.265108
166.000000 70.434000 7.000000 -4.000000 -2.000000 86.477081 38.984352 103.920680 1026.243299 14.209443 0.000000 0.113810
167.000000 66.872000 4.000000 -2.000000 -1.000000 92.133514 35.999314 193.046136 891.438638 7.482427 0.000000 0.086274
168.000000 63.054000 9.000000 -4.000000 -2.000000 96.649901 33.314188 267.625227 790.843453 15.869804 0.000000 0.076066
169.000000 59.295000 5.000000 -2.000000 -1.000000 100.302941 30.896107 330.950480 712.992853 8.437493 0.000000 0.075213
170.000000 55.739000 11.000000 -4.000000 -2.000000 103.295108 28.714564 385.390462 651.010056 17.950624 0.000000 0.078104
171.000000 52.444000 6.000000 -2.000000 -1.000000 105.775235 26.741950 432.692639 600.525388 9.538836 0.000000 0.081928
172.000000 49.422000 13.000000 -4.000000 -2.000000 107.853709 24.953689 474.174436 558.632060 20.243381 0.000000 0.085581
173.000000 46.665000 7.000000 -2.000000 -1.000000 109.613309 23.328132 510.847860 523.322883 10.719449 0.000000 0.088717
174.000000 89.361000 6.000000 -3.000000 -2.000000 93.364910 41.946529 7.717528 855.916869 11.198312 0.000000 0.113970
175.000000 82.844000 7.000000 -3.000000 -2.000000 99.353612 38.017895 133.565268 715.968199 12.078073 0.000000 0.066199
176.000000 76.449000 8.000000 -3.000000 -2.000000 103.877799 34.562373 233.557034 618.097249 13.087496 0.000000 0.045557
177.000000 70.553000 9.000000 -3.000000 -2.000000 107.362403 31.520397 314.918854 546.240061 14.180392 0.000000 0.044528
178.000000 65.259000 10.000000 -3.000000 -2.000000 110.095873 28.836314 382.413583 491.480198 15.330183 0.000000 0.051226
179.000000 60.555000 11.000000 -3.000000 -2.000000 112.276461 26.460396 439.308034 448.503320 16.520491 0.000000 0.058669
180.000000 56.388000 12.000000 -3.000000 -2.000000 114.042694 24.349369 487.917600 413.960582 17.740673 0.000000 0.065037
181.000000 52.696000 13.000000 -3.000000 -2.000000 115.493088 22.466149 529.929114 385.644914 18.983515 0.000000 0.070131
182.000000 49.414000 14.000000 -3.000000 -2.000000 116.698936 20.779229 566.600584 362.047035 20.243953 0.000000 0.074122
183.000000 46.487000 15.000000 -3.000000 -2.000000 117.712699 19.261951 598.889321 342.102396 21.518325 0.000000 0.077225
184.000000 77.466000 9.000000 -2.000000 -2.000000 118.713896 29.024079 377.808902 266.729059 12.912590 0.000000 0.011526
185.000000 64.875000 11.000000 -2.000000 -2.000000 121.559095 23.463205 507.835571 220.330199 15.417883 0.000000 0.037260
186.000000 59.900000 6.000000 -1.000000 -1.000000 122.510910 21.230128 556.881725 205.093382 8.349092 0.000000 0.045342
187.000000 55.595000 13.000000 -2.000000 -2.000000 123.260636 19.280176 598.505110 193.120181 17.991137 0.000000 0.051422
188.000000 51.841000 7.000000 -1.000000 -1.000000 123.860000 17.566480 634.272255 183.527522 9.646990 0.000000 0.056072
189.000000 48.543000 15.000000 -2.000000 -2.000000 124.345520 16.051131 665.337854 175.713735 20.604699 0.000000 0.059679
190.000000 45.626000 8.000000 -1.000000 -1.000000 124.743479 14.703373 692.571755 169.257107 10.960897 0.000000 0.062512
191.000000 83.195000 9.000000 -1.000000 -2.000000 130.450072 25.330638 465.533726 -74.231915 12.021283 0.000000 0.051090
192.000000 75.132000 10.000000 -1.000000 -2.000000 130.782342 22.039038 539.295621 -60.645423 13.311276 0.000000 0.037947
193.000000 68.434000 11.000000 -1.000000 -2.000000 130.947000 19.311624 597.841963 -48.539353 14.614085 0.000000 0.032774
194.000000 62.795000 12.000000 -1.000000 -2.000000 131.009000 17.024498 645.440554 -37.796397 15.926525 0.000000 0.032597
195.000000 57.989000 13.000000 -1.000000 -2.000000 131.007539 15.084812 684.899568 -28.255975 17.246383 0.000000 0.034715
196.000000 53.850000 14.000000 -1.000000 -2.000000 130.966831 13.422573 718.142406 -19.758578 18.572079 0.000000 0.037541
197.000000 50.250000 15.000000 -1.000000 -2.000000 130.902128 11.984509 746.530713 -12.160613 19.902450 0.000000 0.040388
198.000000 47.094000 16.000000 -1.000000 -2.000000 130.823189 10.729633 771.055506 -5.337879 21.236623 0.000000 0.043014
201.000000 71.003000 11.000000 0.000000 -2.000000 140.151086 13.263322 721.302196 -383.909000 14.083645 0.000000 0.044268
202.000000 64.916000 12.000000 0.000000 -2.000000 139.292118 11.126212 763.328078 -333.922197 15.404485 0.000000 0.033037
203.000000 59.768000 13.000000 0.000000 -2.000000 138.526158 9.385822 797.094260 -293.171501 16.731311 0.000000 0.026009
204.000000 55.363000 14.000000 0.000000 -2.000000 137.842839 7.943551 824.817887 -259.289309 18.062874 0.000000 0.022414
205.000000 51.552000 15.000000 0.000000 -2.000000 137.231757 6.730282 847.987747 -230.659175 19.398252 0.000000 0.021482
206.000000 48.225000 16.000000 0.000000 -2.000000 136.683415 5.696357 867.640662 -206.138272 20.736746 0.000000 0.022264
213.000000 48.990000 16.000000 1.000000 -2.000000 142.152769 -0.766840 989.405859 -444.314979 20.411407 0.000000 0.004374
214.000000 45.984000 17.000000 1.000000 -2.000000 141.288220 -1.261022 998.691972 -402.194277 21.746257 0.000000 0.006316
221.000000 47.083000 7.000000 -6.000000 -1.000000 62.651990 33.142995 272.221139 1605.819940 21.265807 0.000000 0.160222
222.000000 47.531000 8.000000 -6.000000 -1.000000 69.488654 31.114300 325.371352 1411.312985 21.063422 0.000000 0.126781
223.000000 47.016000 9.000000 -6.000000 -1.000000 75.245032 29.253571 372.158117 1265.900437 21.291983 0.000000 0.115608
224.000000 45.928000 10.000000 -6.000000 -1.000000 80.120263 27.544253 413.659688 1152.414177 21.794881 0.000000 0.115178
226.000000 54.588000 5.000000 -5.000000 -1.000000 55.027558 36.828914 168.981562 1881.568319 18.343649 0.000000 0.242485
227.000000 57.160000 6.000000 -5.000000 -1.000000 64.648481 34.112358 245.955386 1556.922507 17.516064 0.000000 0.159116
228.000000 57.294000 7.000000 -5.000000 -1.000000 72.444260 31.661970 311.253580 1341.049248 17.473071 0.000000 0.123809
229.000000 56.057000 8.000000 -5.000000 -1.000000 78.800932 29.448220 367.345369 1185.710286 17.856882 0.000000 0.114282
230.000000 54.108000 9.000000 -5.000000 -1.000000 84.030473 27.444145 416.049555 1067.816178 18.498549 0.000000 0.115282
231.000000 51.836000 10.000000 -5.000000 -1.000000 88.375548 25.625571 458.735448 974.853120 19.307900 0.000000 0.119163
232.000000 49.464000 11.000000 -5.000000 -1.000000 92.022119 23.971083 496.453644 899.412026 20.232416 0.000000 0.123106
233.000000 47.116000 12.000000 -5.000000 -1.000000 95.112287 22.461851 530.023651 836.805863 21.239438 0.000000 0.126304
235.000000 68.971000 4.000000 -4.000000 -1.000000 55.759775 39.045002 102.033485 1884.221031 14.518011 0.000000 0.262927
236.000000 72.395000 5.000000 -4.000000 -1.000000 67.494873 35.545478 205.997068 1489.056485 13.829356 0.000000 0.158489
237.000000 71.621000 6.000000 -4.000000 -1.000000 76.534352 32.456767 290.466114 1246.420757 13.976888 0.000000 0.119544
238.000000 68.860000 7.000000 -4.000000 -1.000000 83.571683 29.725650 360.453824 1080.639627 14.535585 0.000000 0.111237
239.000000 65.299000 8.000000 -4.000000 -1.000000 89.129952 27.303905 419.390191 959.394401 15.326737 0.000000 0.113241
240.000000 61.539000 9.000000 -4.000000 -1.000000 93.587789 25.149121 469.701252 866.448464 16.262093 0.000000 0.117195
241.000000 57.866000 10.000000 -4.000000 -1.000000 97.216583 23.224655 513.151363 792.698406 17.293059 0.000000 0.120656
242.000000 54.410000 11.000000 -4.000000 -1.000000 100.211694 21.499171 551.054388 732.618722 18.390667 0.000000 0.123142
243.000000 51.216000 12.000000 -4.000000 -1.000000 102.715260 19.946021 584.408845 682.647983 19.536579 0.000000 0.124721
244.000000 48.292000 13.000000 -4.000000 -1.000000 104.832078 18.542588 613.987167 640.380124 20.718621 0.000000 0.125572
245.000000 45.626000 14.000000 -4.000000 -1.000000 106.640514 17.269686 640.396255 604.126967 21.928391 0.000000 0.125873
247.000000 88.003000 6.000000 -3.000000 -1.000000 90.278011 30.152902 349.765617 934.960309 11.372291 0.000000 0.102334
248.000000 81.225000 7.000000 -3.000000 -1.000000 96.024883 27.093357 424.389851 813.402467 12.320036 0.000000 0.105210
249.000000 74.773000 8.000000 -3.000000 -1.000000 100.403923 24.450617 485.624316 723.918641 13.382143 0.000000 0.109323
250.000000 68.924000 9.000000 -3.000000 -1.000000 103.819140 22.154184 536.776092 655.152033 14.516905 0.000000 0.112472
251.000000 63.724000 10.000000 -3.000000 -1.000000 106.538236 20.146285 580.146032 600.577377 15.700694 0.000000 0.114468
252.000000 59.133000 11.000000 -3.000000 -1.000000 108.742738 18.379874 617.384410 556.167961 16.919128 0.000000 0.115536
253.000000 55.082000 12.000000 -3.000000 -1.000000 110.558695 16.816680 649.705679 519.298965 18.162948 0.000000 0.115924
254.000000 51.499000 13.000000 -3.000000 -1.000000 112.075635 15.425515 678.023436 488.183487 19.425924 0.000000 0.115835
255.000000 48.320000 14.000000 -3.000000 -1.000000 113.358497 14.180863 703.038148 461.561386 20.703711 0.000000 0.115417
256.000000 45.486000 15.000000 -3.000000 -1.000000 114.455292 13.061745 725.295880 438.517641 21.993186 0.000000 0.114776
257.000000 83.731000 8.000000 -2.000000 -1.000000 112.412519 20.491764 572.766395 467.122610 11.947831 0.000000 0.093314
258.000000 75.744000 9.000000 -2.000000 -1.000000 114.522018 18.108702 623.031861 424.417770 13.207219 0.000000 0.096108
259.000000 69.047000 10.000000 -2.000000 -1.000000 116.155999 16.084895 664.650986 390.888215 14.487872 0.000000 0.097664
260.000000 63.377000 11.000000 -2.000000 -1.000000 117.451314 14.348877 699.678022 363.874947 15.783743 0.000000 0.098402
261.000000 58.529000 12.000000 -2.000000 -1.000000 118.498596 12.845941 729.564226 341.653231 17.090878 0.000000 0.098607
262.000000 54.344000 13.000000 -2.000000 -1.000000 119.359780 11.533809 755.363985 323.056157 18.406586 0.000000 0.098467
263.000000 50.701000 14.000000 -2.000000 -1.000000 120.078371 10.379463 777.861795 307.266394 19.728967 0.000000 0.098101
264.000000 47.504000 15.000000 -2.000000 -1.000000 120.685676 9.356844 797.653426 293.694633 21.056646 0.000000 0.097594
265.000000 81.413000 9.000000 -1.000000 -1.000000 125.348816 12.414857 738.068769 159.284425 12.285403 0.000000 0.066561
266.000000 73.450000 10.000000 -1.000000 -1.000000 125.779031 10.549269 774.563183 152.015167 13.617285 0.000000 0.069190
267.000000 66.882000 11.000000 -1.000000 -1.000000 126.094112 9.002350 804.486484 146.535859 14.954508 0.000000 0.070940
268.000000 61.377000 12.000000 -1.000000 -1.000000 126.330719 7.700651 829.466859 142.291470 16.295723 0.000000 0.072119
269.000000 56.699000 13.000000 -1.000000 -1.000000 126.512188 6.591221 850.635628 138.928358 17.640000 0.000000 0.072920
270.000000 52.678000 14.000000 -1.000000 -1.000000 126.653899 5.635066 868.803336 136.212170 18.986676 0.000000 0.073461
271.000000 49.184000 15.000000 -1.000000 -1.000000 126.766292 4.802914 884.565924 133.982396 20.335268 0.000000 0.073824
272.000000 46.122000 16.000000 -1.000000 -1.000000 126.856643 4.072402 898.371342 132.125956 21.685413 0.000000 0.074057
275.000000 70.863000 11.000000 1.000000 -1.000000 141.625547 -8.326741 1132.527407 -432.670757 14.111327 0.000000 0.031301
276.000000 64.722000 12.000000 1.000000 -1.000000 140.428382 -8.179617 1129.705547 -374.714160 15.450297 0.000000 0.027639
277.000000 59.550000 13.000000 1.000000 -1.000000 139.415177 -8.061638 1127.444213 -327.947499 16.792514 0.000000 0.025174
278.000000 55.135000 14.000000 1.000000 -1.000000 138.546693 -7.964926 1125.591482 -289.398483 18.137308 0.000000 0.023816
279.000000 51.324000 15.000000 1.000000 -1.000000 137.794078 -7.884206 1124.045785 -257.065629 19.484180 0.000000 0.023396
280.000000 48.002000 16.000000 1.000000 -1.000000 137.135652 -7.815815 1122.736639 -229.550840 20.832753 0.000000 0.023692
287.000000 45.460000 17.000000 2.000000 -1.000000 140.594640 -15.103172 1265.470409 -415.922760 21.996988 0.000000 0.057107
292.000000 50.944000 2.000000 -2.000000 0.000000 51.426376 28.143766 399.255417 1914.481316 7.863066 0.000000 0.190640
293.000000 53.863000 6.000000 -5.000000 0.000000 61.036391 25.946440 451.301095 1603.482271 18.590127 0.000000 0.118331
294.000000 54.340000 7.000000 -5.000000 0.000000 68.841314 23.981649 496.215918 1396.932509 18.424924 0.000000 0.104656
295.000000 53.427000 8.000000 -5.000000 0.000000 75.229480 22.218297 535.371440 1247.537299 18.737935 0.000000 0.113763
296.000000 51.772000 9.000000 -5.000000 0.000000 80.509570 20.629796 569.808668 1133.253039 19.334832 0.000000 0.125499
297.000000 49.763000 4.000000 -2.000000 0.000000 84.919541 19.193481 600.331977 1042.318647 8.045606 0.000000 0.134881
298.000000 47.621000 11.000000 -5.000000 0.000000 88.640909 17.890054 627.572738 967.832570 21.017203 0.000000 0.141515
301.000000 67.702000 5.000000 -4.000000 0.000000 63.140316 25.434739 463.137971 1544.585866 14.789646 0.000000 0.110835
302.000000 67.511000 3.000000 -2.000000 0.000000 72.191385 23.076554 516.442064 1316.810425 7.414758 0.000000 0.108147
303.000000 65.289000 7.000000 -4.000000 0.000000 79.279340 21.011830 561.594348 1159.284407 15.332418 0.000000 0.122722
304.000000 58.852000 9.000000 -4.000000 0.000000 89.480662 17.582977 633.931260 951.234101 17.006280 0.000000 0.142800
305.000000 55.525000 5.000000 -2.000000 0.000000 93.225615 16.148767 663.350969 877.851447 9.011885 0.000000 0.147449
306.000000 52.361000 11.000000 -4.000000 0.000000 96.343443 14.864942 689.325315 817.206972 19.112026 0.000000 0.149850
307.000000 49.413000 3.000000 -1.000000 0.000000 98.971870 13.710134 712.426051 766.089692 5.062805 0.000000 0.150748
308.000000 46.696000 13.000000 -4.000000 0.000000 101.212738 12.666638 733.105055 722.317106 21.428294 0.000000 0.150650
310.000000 90.629000 4.000000 -3.000000 0.000000 66.414610 24.612760 481.944049 1457.854230 11.047696 0.000000 0.105018
311.000000 88.224000 5.000000 -3.000000 0.000000 77.099557 21.670563 547.330893 1206.261075 11.346972 0.000000 0.117804
312.000000 76.975000 7.000000 -3.000000 0.000000 90.809062 17.086703 644.162048 925.099006 13.001963 0.000000 0.144658
313.000000 71.191000 8.000000 -3.000000 0.000000 95.364484 15.277576 681.011914 836.230838 14.057107 0.000000 0.149249
314.000000 61.123000 10.000000 -3.000000 0.000000 101.887364 12.340918 739.524583 709.078141 16.370579 0.000000 0.150458
315.000000 56.888000 11.000000 -3.000000 0.000000 104.285528 11.135868 763.139653 661.686607 17.588390 0.000000 0.149145
316.000000 53.129000 4.000000 -1.000000 0.000000 106.288440 10.068027 783.902385 621.586560 6.277384 0.000000 0.147261
317.000000 49.788000 13.000000 -3.000000 0.000000 107.983544 9.115854 802.300123 587.163572 20.095390 0.000000 0.145077
318.000000 46.809000 14.000000 -3.000000 0.000000 109.434850 8.261970 818.715175 557.258250 21.373623 0.000000 0.142755
319.000000 88.414000 7.000000 -2.000000 0.000000 103.142502 11.719702 751.724177 684.346237 11.317153 0.000000 0.149896
320.000000 72.384000 9.000000 -2.000000 0.000000 108.736370 8.677576 810.734899 571.705535 13.821904 0.000000 0.143925
321.000000 66.215000 5.000000 -1.000000 0.000000 110.690140 7.492230 833.451659 531.013701 7.554548 0.000000 0.140396
322.000000 60.962000 11.000000 -2.000000 0.000000 112.282619 6.470548 852.932165 497.133449 16.410530 0.000000 0.136912
323.000000 56.448000 6.000000 -1.000000 0.000000 113.603692 5.581357 869.821995 468.455710 8.861222 0.000000 0.133582
324.000000 52.535000 13.000000 -2.000000 0.000000 114.716127 4.800810 884.605719 443.848700 19.042291 0.000000 0.130454
325.000000 49.114000 7.000000 -1.000000 0.000000 115.664969 4.110386 897.654155 422.491070 10.184145 0.000000 0.127540
326.000000 46.101000 15.000000 -2.000000 0.000000 116.483321 3.495499 909.255894 403.771142 21.699156 0.000000 0.124835
327.000000 86.857000 8.000000 -1.000000 0.000000 117.196016 2.944515 919.638894 387.223348 11.516968 0.000000 0.122332
328.000000 77.807000 9.000000 -1.000000 0.000000 118.376082 1.998467 937.443812 359.276545 12.856268 0.000000 0.117867
329.000000 70.443000 10.000000 -1.000000 0.000000 119.312386 1.215825 952.157454 336.569770 14.200036 0.000000 0.114028
330.000000 64.339000 11.000000 -1.000000 0.000000 120.072795 0.557847 964.520574 317.747075 15.547018 0.000000 0.110708
331.000000 59.200000 12.000000 -1.000000 0.000000 120.702271 -0.002915 975.054757 301.885510 16.896386 0.000000 0.107814
332.000000 54.816000 13.000000 -1.000000 0.000000 121.231739 -0.486438 984.137897 288.334334 18.247577 0.000000 0.105276
333.000000 51.033000 14.000000 -1.000000 0.000000 121.683141 -0.907595 992.050489 276.621177 19.600191 0.000000 0.103034
334.000000 47.736000 15.000000 -1.000000 0.000000 122.072467 -1.277683 999.005109 266.394643 20.953937 0.000000 0.101041
335.000000 183.729000 4.000000 0.000000 0.000000 127.302926 -6.988712 1106.937080 114.858498 5.443680 0.000000 0.068377
339.000000 107.749000 7.000000 1.000000 0.000000 136.426302 -23.018330 1432.266246 -288.122732 9.281056 0.000000 0.076948
340.000000 94.180000 8.000000 1.000000 0.000000 135.490784 -20.717120 1382.065282 -229.584590 10.618352 0.000000 0.057526
341.000000 83.611000 9.000000 1.000000 0.000000 134.716972 -18.985161 1345.286074 -186.019838 11.960716 0.000000 0.045331
342.000000 75.155000 10.000000 1.000000 0.000000 134.070182 -17.636752 1317.180659 -152.305260 13.306674 0.000000 0.037976
343.000000 68.239000 11.000000 1.000000 0.000000 133.523377 -16.558291 1295.004320 -125.424343 14.655276 0.000000 0.034023
344.000000 62.482000 12.000000 1.000000 0.000000 133.056011 -15.676672 1277.059891 -103.482362 16.005876 0.000000 0.032396
345.000000 57.615000 13.000000 1.000000 0.000000 132.652489 -14.942833 1262.241523 -85.227924 17.358026 0.000000 0.032241
346.000000 53.448000 14.000000 1.000000 0.000000 132.300884 -14.322683 1249.797792 -69.800632 18.711400 0.000000 0.032935
347.000000 49.841000 15.000000 1.000000 0.000000 131.991980 -13.791817 1239.200238 -56.589110 20.065759 0.000000 0.034070
348.000000 46.688000 16.000000 1.000000 0.000000 131.718568 -13.332323 1230.066380 -45.146804 21.420922 0.000000 0.035403
351.000000 58.039000 13.000000 2.000000 0.000000 136.967307 -24.474902 1464.926300 -325.685523 17.230009 0.000000 0.090715
352.000000 50.258000 15.000000 2.000000 0.000000 135.935870 -21.780734 1405.067250 -256.532852 19.897898 0.000000 0.066116
356.000000 45.657000 5.000000 -5.000000 1.000000 46.986603 20.006975 583.112541 2009.621506 21.936143 0.000000 0.182580
357.000000 49.148000 6.000000 -5.000000 1.000000 56.600068 18.349750 618.012645 1688.702296 20.375799 0.000000 0.089756
358.000000 50.211000 7.000000 -5.000000 1.000000 64.466553 16.872901 648.552757 1478.266289 19.941942 0.000000 0.078953
359.000000 49.840000 8.000000 -5.000000 1.000000 70.953380 15.550177 675.501870 1326.695680 20.088309 0.000000 0.101192
360.000000 48.662000 9.000000 -5.000000 1.000000 76.353738 14.359861 699.458176 1210.730209 20.572685 0.000000 0.121965
361.000000 47.060000 10.000000 -5.000000 1.000000 80.895007 13.283907 720.893993 1118.232753 21.271205 0.000000 0.136927
362.000000 55.206000 4.000000 -4.000000 1.000000 45.790079 18.089628 623.428450 2042.455922 18.142123 0.000000 0.188050
363.000000 60.377000 5.000000 -4.000000 1.000000 57.519820 16.208190 662.140758 1654.511119 16.585991 0.000000 0.074301
364.000000 61.340000 6.000000 -4.000000 1.000000 66.696928 14.576705 695.113569 1420.012624 16.323457 0.000000 0.082408
365.000000 60.129000 7.000000 -4.000000 1.000000 73.970023 13.150655 723.535202 1258.559861 16.650202 0.000000 0.113768
366.000000 57.882000 8.000000 -4.000000 1.000000 79.822054 11.895010 748.287110 1138.468504 17.294666 0.000000 0.135458
367.000000 55.210000 9.000000 -4.000000 1.000000 84.602758 10.781968 770.036929 1044.514932 18.129931 0.000000 0.148864
368.000000 52.433000 10.000000 -4.000000 1.000000 88.564532 9.789253 789.299604 968.369235 19.088735 0.000000 0.156795
369.000000 49.712000 11.000000 -4.000000 1.000000 91.890890 8.898864 806.478678 905.034039 20.132106 0.000000 0.161187
370.000000 47.126000 12.000000 -4.000000 1.000000 94.716904 8.096127 821.894872 851.298776 21.235905 0.000000 0.163281
371.000000 69.316000 3.000000 -3.000000 1.000000 43.749501 15.010762 686.391129 2105.051997 14.449583 0.000000 0.203681
372.000000 77.847000 4.000000 -3.000000 1.000000 58.794789 12.896197 728.570884 1609.831389 12.863860 0.000000 0.054771
373.000000 78.127000 5.000000 -3.000000 1.000000 69.778191 11.139907 763.060850 1345.077890 12.815465 0.000000 0.094788
374.000000 74.987000 6.000000 -3.000000 1.000000 77.988912 9.660552 791.788238 1173.285087 13.350220 0.000000 0.131417
375.000000 70.649000 7.000000 -3.000000 1.000000 84.288001 8.398998 816.085917 1049.823249 14.168226 0.000000 0.150903
376.000000 66.085000 8.000000 -3.000000 1.000000 89.239121 7.311438 836.905126 955.411029 15.145130 0.000000 0.160654
377.000000 61.701000 9.000000 -3.000000 1.000000 93.215351 6.364843 854.942939 880.161530 16.220080 0.000000 0.164961
378.000000 57.646000 10.000000 -3.000000 1.000000 96.469013 5.533903 870.721836 818.389921 17.359776 0.000000 0.166162
379.000000 53.961000 11.000000 -3.000000 1.000000 99.174957 4.798937 884.641146 766.549559 18.544467 0.000000 0.165568
380.000000 50.635000 12.000000 -3.000000 1.000000 101.457279 4.144430 897.011312 722.289133 19.761692 0.000000 0.163933
381.000000 47.640000 13.000000 -3.000000 1.000000 103.406043 3.558002 908.077319 683.975152 21.003203 0.000000 0.161710
382.000000 90.755000 2.000000 -2.000000 1.000000 39.589220 9.311123 798.535502 2259.892109 11.036548 0.000000 0.255053
383.000000 107.990000 3.000000 -2.000000 1.000000 60.585712 7.153126 839.926891 1552.574252 9.273086 0.000000 0.035834
384.000000 105.508000 4.000000 -2.000000 1.000000 74.200671 5.491674 871.522502 1246.951256 9.489000 0.000000 0.117969
385.000000 97.602000 5.000000 -2.000000 1.000000 83.481802 4.175117 896.431822 1064.301765 10.255803 0.000000 0.152301
386.000000 88.941000 6.000000 -2.000000 1.000000 90.124676 3.107207 916.574202 938.654524 11.253020 0.000000 0.165118
387.000000 80.912000 7.000000 -2.000000 1.000000 95.078931 2.224155 933.198527 845.270095 12.368382 0.000000 0.168620
388.000000 73.838000 8.000000 -2.000000 1.000000 98.900164 1.482114 947.152464 772.397249 13.552365 0.000000 0.167866
389.000000 67.702000 9.000000 -2.000000 1.000000 101.929523 0.850004 959.031598 713.584916 14.779731 0.000000 0.165145
390.000000 62.394000 10.000000 -2.000000 1.000000 104.386019 0.305207 969.266660 664.930606 16.036267 0.000000 0.161557
391.000000 57.790000 11.000000 -2.000000 1.000000 106.415851 -0.169118 978.176869 623.904402 17.313357 0.000000 0.157655
392.000000 53.775000 12.000000 -2.000000 1.000000 108.119963 -0.585761 986.003827 588.779296 18.605475 0.000000 0.153722
393.000000 50.253000 13.000000 -2.000000 1.000000 109.570108 -0.954603 992.933757 558.328337 19.908912 0.000000 0.149899
394.000000 47.144000 14.000000 -2.000000 1.000000 110.818597 -1.283398 999.112509 531.651669 21.221087 0.000000 0.146257
396.000000 167.068000 2.000000 -1.000000 1.000000 62.635557 -4.783509 1065.066994 1499.997869 5.993753 0.000000 0.051840
397.000000 154.182000 3.000000 -1.000000 1.000000 80.536780 -5.156471 1072.126051 1121.128704 6.492592 0.000000 0.145424
398.000000 133.680000 4.000000 -1.000000 1.000000 90.950967 -5.421553 1077.148273 923.054279 7.486821 0.000000 0.165992
399.000000 115.759000 5.000000 -1.000000 1.000000 97.659032 -5.619640 1080.904080 795.563887 8.644737 0.000000 0.167090
400.000000 101.310000 6.000000 -1.000000 1.000000 102.310976 -5.773278 1083.818853 704.916417 9.876736 0.000000 0.162497
401.000000 89.747000 7.000000 -1.000000 1.000000 105.716141 -5.895915 1086.146644 636.529525 11.148523 0.000000 0.156408
402.000000 80.399000 8.000000 -1.000000 1.000000 108.312272 -5.996075 1088.048545 582.834431 12.444140 0.000000 0.150234
403.000000 72.733000 9.000000 -1.000000 1.000000 110.355128 -6.079418 1089.631640 539.430565 13.755159 0.000000 0.144455
404.000000 66.356000 10.000000 -1.000000 1.000000 112.003561 -6.149850 1090.969889 503.553606 15.076705 0.000000 0.139208
405.000000 60.979000 11.000000 -1.000000 1.000000 113.361217 -6.210156 1092.116019 473.366428 16.405765 0.000000 0.134500
406.000000 56.390000 12.000000 -1.000000 1.000000 114.498494 -6.262374 1093.108629 447.594363 17.740375 0.000000 0.130290
407.000000 52.432000 13.000000 -1.000000 1.000000 115.464842 -6.308027 1093.976629 425.322281 19.079201 0.000000 0.126527
408.000000 48.985000 14.000000 -1.000000 1.000000 116.295991 -6.348282 1094.742098 405.874625 20.421305 0.000000 0.123154
409.000000 45.959000 15.000000 -1.000000 1.000000 117.018385 -6.384041 1095.422189 388.740992 21.766008 0.000000 0.120124
411.000000 158.539000 4.000000 1.000000 1.000000 115.464961 -42.752628 1970.007747 242.968745 6.309521 0.000000 0.144871
412.000000 132.481000 5.000000 1.000000 1.000000 118.975390 -37.255621 1793.599858 192.207989 7.550247 0.000000 0.080213
413.000000 113.274000 6.000000 1.000000 1.000000 121.115767 -33.116443 1677.067650 165.336480 8.830205 0.000000 0.045479
414.000000 98.710000 7.000000 1.000000 1.000000 122.511252 -29.918125 1594.349786 149.559606 10.132881 0.000000 0.027154
415.000000 87.355000 8.000000 1.000000 1.000000 123.470240 -27.387208 1532.593127 139.597305 11.449890 0.000000 0.021127
416.000000 78.284000 9.000000 1.000000 1.000000 124.157550 -25.341937 1484.726117 132.958008 12.776521 0.000000 0.023117
417.000000 70.886000 10.000000 1.000000 1.000000 124.667261 -23.658764 1446.536569 128.345756 14.109923 0.000000 0.027511
418.000000 64.744000 11.000000 1.000000 1.000000 125.056076 -22.251619 1415.359120 125.034598 15.448272 0.000000 0.031895
419.000000 59.569000 12.000000 1.000000 1.000000 125.359761 -21.059098 1389.424896 122.593404 16.790343 0.000000 0.035730
420.000000 55.151000 13.000000 1.000000 1.000000 125.601757 -20.036410 1367.513829 120.753734 18.135285 0.000000 0.038985
421.000000 51.337000 14.000000 1.000000 1.000000 125.797940 -19.150221 1348.757142 119.341779 19.482490 0.000000 0.041735
422.000000 48.013000 15.000000 1.000000 1.000000 125.959372 -18.375262 1332.519404 118.241249 20.831508 0.000000 0.044069
426.000000 78.446000 9.000000 2.000000 1.000000 128.330208 -37.618359 1804.407708 -133.276097 12.749173 0.000000 0.155393
427.000000 71.214000 10.000000 2.000000 1.000000 128.789646 -34.730442 1721.107824 -111.566287 14.043749 0.000000 0.121605
428.000000 65.154000 11.000000 2.000000 1.000000 129.082951 -32.306745 1655.582357 -93.252364 15.349913 0.000000 0.097075
429.000000 60.013000 12.000000 2.000000 1.000000 129.267454 -30.250574 1602.690731 -77.621407 16.664872 0.000000 0.078791
430.000000 55.603000 13.000000 2.000000 1.000000 129.379359 -28.488497 1559.100360 -64.138220 17.986666 0.000000 0.064952
431.000000 51.782000 14.000000 2.000000 1.000000 129.442103 -26.964349 1522.556032 -52.396732 19.313874 0.000000 0.054432
432.000000 48.443000 15.000000 2.000000 1.000000 129.471191 -25.634768 1491.477090 -42.084864 20.645446 0.000000 0.046499
433.000000 45.500000 16.000000 2.000000 1.000000 129.477077 -24.465927 1464.722773 -32.959595 21.980586 0.000000 0.040652
439.000000 48.473000 15.000000 3.000000 1.000000 132.145420 -33.640569 1691.187216 -228.997900 20.631467 0.000000 0.136785
440.000000 45.579000 16.000000 3.000000 1.000000 132.132471 -31.930632 1645.732818 -206.198800 21.941587 0.000000 0.117907
443.000000 45.609000 8.000000 -5.000000 2.000000 66.228695 9.538268 794.151043 1421.704250 21.954096 0.000000 0.074347
444.000000 51.713000 5.000000 -4.000000 2.000000 51.272534 8.157425 820.719910 1812.944118 19.366815 0.000000 0.083539
445.000000 53.987000 7.000000 -4.000000 2.000000 68.085067 6.271485 856.718161 1376.600271 18.546610 0.000000 0.084321
446.000000 50.910000 9.000000 -4.000000 2.000000 79.253690 4.797260 884.672886 1145.987130 19.663571 0.000000 0.139113
447.000000 46.620000 11.000000 -4.000000 2.000000 87.061427 3.614648 907.009058 996.359324 21.469774 0.000000 0.160382
449.000000 62.911000 4.000000 -3.000000 2.000000 50.391875 3.243235 914.011071 1833.073950 15.919985 0.000000 0.084205
450.000000 66.117000 5.000000 -3.000000 2.000000 61.667302 2.415836 929.591907 1521.833533 15.145534 0.000000 0.036628
451.000000 65.474000 6.000000 -3.000000 2.000000 70.328186 1.711285 942.844163 1325.943587 15.292027 0.000000 0.098574
452.000000 63.084000 7.000000 -3.000000 2.000000 77.114911 1.104286 954.253558 1187.255248 15.869370 0.000000 0.132453
453.000000 60.002000 8.000000 -3.000000 2.000000 82.539467 0.576002 964.179505 1081.949787 16.682825 0.000000 0.151250
454.000000 56.743000 9.000000 -3.000000 2.000000 86.955115 0.112129 972.893660 998.251811 17.639645 0.000000 0.161527
455.000000 53.550000 10.000000 -3.000000 2.000000 90.608589 -0.298384 980.605166 929.567152 18.690035 0.000000 0.166785
456.000000 50.532000 11.000000 -3.000000 2.000000 93.675270 -0.664210 987.477656 871.861011 19.804868 0.000000 0.168997
457.000000 47.731000 12.000000 -3.000000 2.000000 96.282213 -0.992241 993.640993 822.496424 20.965970 0.000000 0.169328
458.000000 78.200000 3.000000 -2.000000 2.000000 48.316169 -4.533676 1060.342743 1902.406725 12.807618 0.000000 0.114088
459.000000 81.605000 5.000000 -2.000000 2.000000 72.913754 -4.987209 1068.921441 1273.085792 12.268694 0.000000 0.114711
460.000000 71.917000 7.000000 -2.000000 2.000000 86.368105 -5.299345 1074.832385 1009.609479 13.917897 0.000000 0.159851
461.000000 62.136000 9.000000 -2.000000 2.000000 94.636553 -5.527277 1079.152526 853.304556 16.106058 0.000000 0.167737
462.000000 54.064000 11.000000 -2.000000 2.000000 100.179299 -5.701025 1082.447893 746.784895 18.508530 0.000000 0.165140
463.000000 47.606000 13.000000 -2.000000 2.000000 104.136307 -5.837854 1085.044452 668.515204 21.017806 0.000000 0.159518
464.000000 94.862000 2.000000 -1.000000 2.000000 42.789837 -17.913578 1322.915263 2162.943674 10.558256 0.000000 0.228743
465.000000 107.814000 3.000000 -1.000000 2.000000 62.487993 -16.484872 1293.503807 1525.600223 9.287639 0.000000 0.084499
466.000000 104.072000 4.000000 -1.000000 2.000000 75.333024 -15.384254 1271.142639 1233.166376 9.619513 0.000000 0.125094
467.000000 95.953000 5.000000 -1.000000 2.000000 84.157997 -14.510947 1253.568020 1054.751927 10.431766 0.000000 0.147839
468.000000 87.396000 6.000000 -1.000000 2.000000 90.521400 -13.801427 1239.391651 930.914092 11.451678 0.000000 0.156132
469.000000 79.549000 7.000000 -1.000000 2.000000 95.298013 -13.213736 1227.714788 838.478499 12.580116 0.000000 0.157666
470.000000 72.658000 8.000000 -1.000000 2.000000 99.002625 -12.719075 1217.929936 766.191605 13.772386 0.000000 0.156086
471.000000 66.683000 9.000000 -1.000000 2.000000 101.953390 -12.297033 1209.611712 707.790951 15.005371 0.000000 0.153105
472.000000 61.513000 10.000000 -1.000000 2.000000 104.355832 -11.932749 1202.453361 659.454886 16.265915 0.000000 0.149556
473.000000 57.023000 11.000000 -1.000000 2.000000 106.347937 -11.615151 1196.228099 618.691579 17.545980 0.000000 0.145853
474.000000 53.104000 12.000000 -1.000000 2.000000 108.025466 -11.335820 1190.764647 583.793440 18.840375 0.000000 0.142204
475.000000 49.662000 13.000000 -1.000000 2.000000 109.456806 -11.088245 1185.931231 553.544144 20.145601 0.000000 0.138709
476.000000 46.621000 14.000000 -1.000000 2.000000 110.692017 -10.867309 1181.624808 527.050051 21.459212 0.000000 0.135414
478.000000 131.332000 2.000000 0.000000 2.000000 57.407453 -36.124814 1760.561512 1792.915518 7.624289 0.000000 0.220360
479.000000 131.102000 3.000000 0.000000 2.000000 75.345254 -32.030092 1648.329568 1272.991237 7.635677 0.000000 0.128708
480.000000 119.218000 4.000000 0.000000 2.000000 86.549578 -28.893683 1568.991544 1015.120976 8.395186 0.000000 0.118396
481.000000 106.283000 5.000000 0.000000 2.000000 94.019548 -26.428071 1509.934534 856.542860 9.415737 0.000000 0.117725
482.000000 94.778000 6.000000 0.000000 2.000000 99.287075 -24.445657 1464.263260 747.667935 10.557679 0.000000 0.116863
483.000000 85.040000 7.000000 0.000000 2.000000 103.172673 -22.820697 1427.890006 667.706403 11.765900 0.000000 0.115268
484.000000 76.878000 8.000000 0.000000 2.000000 106.143812 -21.466540 1398.237684 606.229297 13.014264 0.000000 0.113277
485.000000 70.018000 9.000000 0.000000 2.000000 108.482515 -20.321897 1373.601032 557.363182 14.288780 0.000000 0.111152
486.000000 64.208000 10.000000 0.000000 2.000000 110.367539 -19.342372 1352.806692 517.520965 15.581282 0.000000 0.109042
487.000000 59.243000 11.000000 0.000000 2.000000 111.917042 -18.495107 1335.020820 484.376287 16.886684 0.000000 0.107021
488.000000 54.962000 12.000000 0.000000 2.000000 113.211951 -17.755314 1319.634574 456.348788 18.201651 0.000000 0.105120
489.000000 51.238000 13.000000 0.000000 2.000000 114.309403 -17.103971 1306.193015 432.324455 19.523908 0.000000 0.103352
490.000000 47.974000 14.000000 0.000000 2.000000 115.250810 -16.526252 1294.349372 411.493911 20.851848 0.000000 0.101713
492.000000 138.364000 3.000000 1.000000 2.000000 83.468815 -49.911550 2253.663595 1132.347110 7.233298 0.000000 0.274880
493.000000 124.581000 4.000000 1.000000 2.000000 94.026639 -44.629931 2037.479896 834.537944 8.032211 0.000000 0.145656
494.000000 110.448000 5.000000 1.000000 2.000000 100.962715 -40.365396 1889.877958 667.374133 9.059060 0.000000 0.079586
495.000000 98.100000 6.000000 1.000000 2.000000 105.753116 -36.885900 1782.690504 561.408508 10.198556 0.000000 0.043670
496.000000 87.742000 7.000000 1.000000 2.000000 109.206914 -34.012730 1701.317644 488.659629 11.401944 0.000000 0.027319
497.000000 79.113000 8.000000 1.000000 2.000000 111.787902 -31.611405 1637.436033 435.819182 12.645056 0.000000 0.026204
498.000000 71.893000 9.000000 1.000000 2.000000 113.774966 -29.581204 1585.953312 395.795687 13.914549 0.000000 0.031505
499.000000 65.801000 10.000000 1.000000 2.000000 115.343352 -27.846360 1543.579024 364.482536 15.202454 0.000000 0.037369
500.000000 60.612000 11.000000 1.000000 2.000000 116.607550 -26.349378 1508.092396 339.345204 16.503718 0.000000 0.042418
501.000000 56.150000 12.000000 1.000000 2.000000 117.644937 -25.046161 1477.940335 318.738552 17.814982 0.000000 0.046547
502.000000 52.278000 13.000000 1.000000 2.000000 118.509380 -23.902495 1452.004046 301.550141 19.133926 0.000000 0.049895
503.000000 48.892000 14.000000 1.000000 2.000000 119.239358 -22.891536 1429.457145 287.001820 20.458896 0.000000 0.052618
504.000000 45.908000 15.000000 1.000000 2.000000 119.862989 -21.991985 1409.675988 274.533529 21.788682 0.000000 0.054850
506.000000 87.534000 7.000000 2.000000 2.000000 112.814834 -46.196487 2097.211546 286.899151 11.428019 0.000000 0.199214
507.000000 72.239000 9.000000 2.000000 2.000000 117.451826 -39.800907 1871.763449 213.220431 13.846781 0.000000 0.107255
508.000000 61.090000 11.000000 2.000000 2.000000 120.167125 -35.046477 1729.931213 176.859214 16.373258 0.000000 0.060290
509.000000 52.758000 13.000000 2.000000 2.000000 121.882682 -31.419423 1632.473746 156.487216 18.958691 0.000000 0.034631
510.000000 46.349000 15.000000 2.000000 2.000000 123.032774 -28.582281 1561.382958 144.046790 21.579892 0.000000 0.022769
515.000000 56.444000 12.000000 3.000000 2.000000 123.471384 -41.735596 1935.143349 -12.614651 17.720025 0.000000 0.180829
516.000000 52.688000 13.000000 3.000000 2.000000 124.293647 -39.480902 1861.626176 -10.008750 18.982855 0.000000 0.150092
517.000000 49.369000 14.000000 3.000000 2.000000 124.946973 -37.474091 1800.096658 -6.730332 20.259143 0.000000 0.125916
518.000000 46.419000 15.000000 3.000000 2.000000 125.471165 -35.680612 1747.843776 -3.126894 21.546295 0.000000 0.106568
521.000000 46.362000 6.000000 -4.000000 3.000000 54.342633 0.815855 959.673234 1713.260466 21.601781 0.000000 0.035334
522.000000 47.485000 7.000000 -4.000000 3.000000 62.026047 0.363113 968.178878 1512.659825 21.088162 0.000000 0.040107
523.000000 47.258000 8.000000 -4.000000 3.000000 68.386145 -0.040226 975.755637 1367.436254 21.187360 0.000000 0.087197
524.000000 46.263000 9.000000 -4.000000 3.000000 73.706282 -0.401795 982.547795 1255.610113 21.641086 0.000000 0.117470
525.000000 48.824000 4.000000 -3.000000 3.000000 42.300476 -4.437334 1058.521826 2127.368306 20.514892 0.000000 0.202788
526.000000 54.180000 5.000000 -3.000000 3.000000 53.652865 -4.623011 1062.031654 1735.565833 18.484475 0.000000 0.051852
527.000000 55.125000 7.000000 -3.000000 3.000000 69.838054 -4.923621 1067.717973 1337.651429 18.163229 0.000000 0.098325
528.000000 53.504000 8.000000 -3.000000 3.000000 75.698668 -5.047000 1070.053250 1216.438539 18.711263 0.000000 0.127547
529.000000 49.103000 10.000000 -3.000000 3.000000 84.584973 -5.254261 1073.978273 1043.455075 20.385126 0.000000 0.156241
530.000000 46.796000 11.000000 -3.000000 3.000000 88.014045 -5.342144 1075.643347 978.483690 21.388557 0.000000 0.162571
532.000000 63.524000 4.000000 -2.000000 3.000000 51.952392 -12.323690 1210.136307 1803.201761 15.765646 0.000000 0.096453
533.000000 66.005000 5.000000 -2.000000 3.000000 62.799406 -11.895824 1201.728856 1506.294499 15.170727 0.000000 0.070451
534.000000 65.027000 6.000000 -2.000000 3.000000 71.151811 -11.531360 1194.588090 1315.979678 15.396773 0.000000 0.108488
535.000000 62.503000 7.000000 -2.000000 3.000000 77.716173 -11.217200 1188.447800 1179.915928 16.016550 0.000000 0.134368
536.000000 59.386000 8.000000 -2.000000 3.000000 82.978676 -10.943619 1183.111490 1076.014257 16.855448 0.000000 0.149252
537.000000 56.140000 9.000000 -2.000000 3.000000 87.274536 -10.703240 1178.430959 993.143341 17.828805 0.000000 0.157337
538.000000 52.980000 10.000000 -2.000000 3.000000 90.838164 -10.490374 1174.292320 924.986418 18.890599 0.000000 0.161293
539.000000 50.004000 11.000000 -2.000000 3.000000 93.836524 -10.300556 1170.606618 867.641147 20.013660 0.000000 0.162713
540.000000 47.246000 12.000000 -2.000000 3.000000 96.390866 -10.130240 1167.303354 818.538882 21.180913 0.000000 0.162563
542.000000 72.401000 3.000000 -1.000000 3.000000 47.955862 -23.522098 1443.479737 1999.562004 13.832586 0.000000 0.194025
543.000000 77.916000 4.000000 -1.000000 3.000000 61.686545 -21.960178 1408.981192 1566.213839 12.851342 0.000000 0.106202
544.000000 76.919000 5.000000 -1.000000 3.000000 71.762921 -20.662730 1380.897836 1320.020497 13.015915 0.000000 0.115660
545.000000 73.332000 6.000000 -1.000000 3.000000 79.353730 -19.568876 1357.592482 1155.725395 13.650731 0.000000 0.132620
546.000000 68.915000 7.000000 -1.000000 3.000000 85.224270 -18.634820 1337.941359 1035.894772 14.524075 0.000000 0.142802
547.000000 64.425000 8.000000 -1.000000 3.000000 89.873807 -17.828333 1321.147486 943.490094 15.534993 0.000000 0.147725
548.000000 60.169000 9.000000 -1.000000 3.000000 93.633820 -17.125216 1306.629934 869.476353 16.632458 0.000000 0.149419
549.000000 56.258000 10.000000 -1.000000 3.000000 96.729768 -16.506968 1293.955265 808.538159 17.787900 0.000000 0.149213
550.000000 52.710000 11.000000 -1.000000 3.000000 99.318910 -15.959218 1282.793513 757.305252 18.984078 0.000000 0.147911
551.000000 49.511000 12.000000 -1.000000 3.000000 101.513604 -15.470644 1272.889049 713.516988 20.209971 0.000000 0.145993
552.000000 46.629000 13.000000 -1.000000 3.000000 103.395914 -15.032209 1264.040765 675.589335 21.458204 0.000000 0.143749
555.000000 94.247000 4.000000 1.000000 3.000000 76.656145 -45.665282 2076.583531 1306.308179 10.620608 0.000000 0.224714
556.000000 89.096000 5.000000 1.000000 3.000000 85.518630 -42.199944 1950.922143 1054.868086 11.233039 0.000000 0.143547
557.000000 82.660000 6.000000 1.000000 3.000000 92.057329 -39.241218 1854.094265 891.079008 12.106488 0.000000 0.098449
558.000000 76.241000 7.000000 1.000000 3.000000 97.011418 -36.698367 1777.197316 775.907390 13.124691 0.000000 0.073936
559.000000 70.307000 8.000000 1.000000 3.000000 100.858214 -34.497655 1714.651707 690.502114 14.231507 0.000000 0.062130
560.000000 64.984000 9.000000 1.000000 3.000000 103.911039 -32.579738 1662.782741 624.642996 15.396503 0.000000 0.057834
561.000000 60.264000 10.000000 1.000000 3.000000 106.380437 -30.896973 1619.071618 572.308377 16.601749 0.000000 0.057391
562.000000 56.092000 11.000000 1.000000 3.000000 108.411433 -29.411046 1581.734078 529.719870 17.835998 0.000000 0.058609
563.000000 52.401000 12.000000 1.000000 3.000000 110.106327 -28.091019 1549.470833 494.386702 19.091835 0.000000 0.060383
564.000000 49.126000 13.000000 1.000000 3.000000 111.538895 -26.911770 1521.313282 464.600256 20.364176 0.000000 0.062220
565.000000 46.208000 14.000000 1.000000 3.000000 112.763422 -25.852776 1496.524595 439.149394 21.649414 0.000000 0.063925
568.000000 82.694000 6.000000 2.000000 3.000000 95.441352 -50.041882 2259.583390 781.362572 12.100292 0.000000 0.251484
569.000000 76.539000 7.000000 2.000000 3.000000 100.404184 -46.745720 2118.963261 652.606213 13.072458 0.000000 0.177040
570.000000 70.750000 8.000000 2.000000 3.000000 104.236352 -43.849709 2008.923096 562.344441 14.141105 0.000000 0.126232
571.000000 65.499000 9.000000 2.000000 3.000000 107.251886 -41.297548 1920.466037 496.117129 15.274282 0.000000 0.089980
572.000000 60.805000 10.000000 2.000000 3.000000 109.666170 -39.039953 1847.809282 445.765175 16.452741 0.000000 0.063187
573.000000 56.633000 11.000000 2.000000 3.000000 111.629441 -37.034638 1787.066518 406.376245 17.664199 0.000000 0.042815
574.000000 52.928000 12.000000 2.000000 3.000000 113.248427 -35.245732 1735.529378 374.835840 18.900447 0.000000 0.026957
575.000000 49.630000 13.000000 2.000000 3.000000 114.600326 -33.642981 1691.252586 349.084171 20.155789 0.000000 0.014378
576.000000 46.687000 14.000000 2.000000 3.000000 115.741949 -32.200923 1652.802884 327.710275 21.426150 0.000000 0.004331
579.000000 60.398000 10.000000 3.000000 3.000000 111.734514 -47.470989 2148.375743 306.260494 16.562882 0.000000 0.222814
580.000000 56.420000 11.000000 3.000000 3.000000 113.788224 -44.987884 2050.839163 270.185021 17.730077 0.000000 0.178682
581.000000 49.639000 13.000000 3.000000 3.000000 116.849158 -40.735756 1901.928364 221.961699 20.151326 0.000000 0.118388
582.000000 46.756000 14.000000 3.000000 3.000000 118.003562 -38.911089 1843.803988 205.431596 21.393300 0.000000 0.097276
589.000000 46.533000 6.000000 -3.000000 4.000000 55.358549 -10.062621 1165.992853 1696.253246 21.521496 0.000000 0.061131
590.000000 47.421000 7.000000 -3.000000 4.000000 62.832736 -9.885389 1162.560602 1501.687431 21.116283 0.000000 0.064940
591.000000 47.059000 8.000000 -3.000000 4.000000 69.027826 -9.727465 1159.505394 1359.568985 21.276673 0.000000 0.097063
592.000000 45.991000 9.000000 -3.000000 4.000000 74.217776 -9.585859 1156.768336 1249.507602 21.768466 0.000000 0.121449
593.000000 52.409000 5.000000 -2.000000 4.000000 53.743525 -17.149772 1307.135079 1767.088849 19.108484 0.000000 0.106643
594.000000 53.477000 7.000000 -2.000000 4.000000 69.551247 -15.900984 1281.610479 1358.279607 18.722358 0.000000 0.105015
595.000000 50.105000 9.000000 -2.000000 4.000000 80.129177 -14.923797 1261.858497 1134.816279 19.978786 0.000000 0.138979
596.000000 45.812000 11.000000 -2.000000 4.000000 87.581545 -14.138719 1246.119785 987.877431 21.847805 0.000000 0.153184
598.000000 57.535000 4.000000 -1.000000 4.000000 50.471015 -26.514653 1511.964264 1933.538342 17.405900 0.000000 0.190025
599.000000 60.621000 5.000000 -1.000000 4.000000 61.019588 -25.078289 1478.675836 1599.164218 16.517674 0.000000 0.122484
600.000000 60.499000 6.000000 -1.000000 4.000000 69.307430 -23.833029 1450.443672 1385.436730 16.548951 0.000000 0.115398
601.000000 58.778000 7.000000 -1.000000 4.000000 75.918168 -22.744088 1426.197072 1233.747431 17.031558 0.000000 0.124156
602.000000 56.333000 8.000000 -1.000000 4.000000 81.275553 -21.784428 1405.147713 1118.868350 17.769041 0.000000 0.132728
603.000000 53.626000 9.000000 -1.000000 4.000000 85.683732 -20.932770 1386.702311 1027.974606 18.664514 0.000000 0.138528
604.000000 50.895000 10.000000 -1.000000 4.000000 89.361968 -20.172174 1370.405820 953.769101 19.664675 0.000000 0.141875
605.000000 48.259000 11.000000 -1.000000 4.000000 92.470138 -19.489006 1355.903385 891.748125 20.737775 0.000000 0.143446
606.000000 45.771000 12.000000 -1.000000 4.000000 95.126479 -18.872183 1342.914204 838.956292 21.863724 0.000000 0.143799
608.000000 67.014000 5.000000 0.000000 4.000000 67.495244 -33.934298 1699.175318 1478.461777 14.939836 0.000000 0.153883
609.000000 62.818000 7.000000 0.000000 4.000000 81.554534 -30.362997 1605.524106 1126.209383 15.934104 0.000000 0.120579
610.000000 56.321000 9.000000 0.000000 4.000000 90.632674 -27.590554 1537.447131 927.589798 17.769493 0.000000 0.117918
611.000000 50.154000 11.000000 0.000000 4.000000 96.866175 -25.385450 1485.727201 797.547572 19.951980 0.000000 0.117399
614.000000 70.413000 4.000000 1.000000 4.000000 62.902073 -46.320940 2102.102047 1738.428324 14.218623 0.000000 0.318856
615.000000 70.703000 5.000000 1.000000 4.000000 72.616052 -43.407900 1993.082054 1404.824339 14.158399 0.000000 0.213734
616.000000 68.503000 6.000000 1.000000 4.000000 80.160213 -40.847481 1905.589901 1187.780713 14.611310 0.000000 0.152925
617.000000 65.235000 7.000000 1.000000 4.000000 86.106655 -38.587890 1833.822039 1034.710188 15.341941 0.000000 0.116826
618.000000 61.623000 8.000000 1.000000 4.000000 90.868828 -36.584979 1773.888974 920.672954 16.239778 0.000000 0.095696
619.000000 58.024000 9.000000 1.000000 4.000000 94.741874 -34.801517 1723.086285 832.272994 17.246077 0.000000 0.083909
620.000000 54.600000 10.000000 1.000000 4.000000 97.937275 -33.206261 1679.475228 761.651224 18.326728 0.000000 0.077829
621.000000 51.416000 11.000000 1.000000 4.000000 100.608233 -31.773035 1641.629672 703.882665 19.460565 0.000000 0.075060
622.000000 48.491000 12.000000 1.000000 4.000000 102.867272 -30.479895 1608.477184 655.718853 20.633762 0.000000 0.074103
623.000000 45.818000 13.000000 1.000000 4.000000 104.798265 -29.308404 1579.195778 614.927570 21.836900 0.000000 0.074077
626.000000 65.909000 7.000000 2.000000 4.000000 89.332882 -47.126922 2134.322508 959.419646 15.183614 0.000000 0.198623
627.000000 58.674000 9.000000 2.000000 4.000000 97.834103 -42.386350 1957.321606 740.507884 17.053576 0.000000 0.107580
628.000000 52.009000 11.000000 2.000000 4.000000 103.564760 -38.539852 1832.346069 608.999642 19.237232 0.000000 0.058831
629.000000 46.343000 13.000000 2.000000 4.000000 107.612420 -35.382838 1739.397442 521.918767 21.588253 0.000000 0.033278
633.000000 58.317000 9.000000 3.000000 4.000000 99.825135 -50.097271 2262.108945 650.433209 17.157031 0.000000 0.253831
634.000000 55.041000 10.000000 3.000000 4.000000 103.012027 -47.702592 2157.939479 571.419267 18.177435 0.000000 0.200119
635.000000 51.948000 11.000000 3.000000 4.000000 105.655198 -45.519823 2071.003273 510.514859 19.258722 0.000000 0.159236
636.000000 49.075000 12.000000 3.000000 4.000000 107.868882 -43.527590 1997.350567 462.423895 20.385903 0.000000 0.127373
637.000000 46.426000 13.000000 3.000000 4.000000 109.739947 -41.706223 1934.152949 423.676681 21.548537 0.000000 0.102046
640.000000 46.094000 13.000000 4.000000 4.000000 111.149541 -48.134248 2175.993031 317.109191 21.702745 0.000000 0.235961
642.000000 47.499000 5.000000 -1.000000 5.000000 51.942224 -28.365805 1556.120262 1898.621920 21.083108 0.000000 0.191448
643.000000 49.487000 6.000000 -1.000000 5.000000 60.510080 -27.080703 1525.310276 1624.637897 20.233929 0.000000 0.134993
644.000000 49.662000 7.000000 -1.000000 5.000000 67.544491 -25.935965 1498.455577 1435.657026 20.160770 0.000000 0.119638
645.000000 48.797000 8.000000 -1.000000 5.000000 73.375720 -24.910567 1474.840454 1295.317385 20.515950 0.000000 0.121108
646.000000 47.369000 9.000000 -1.000000 5.000000 78.260047 -23.987335 1453.912051 1185.816094 21.132497 0.000000 0.126526
647.000000 45.664000 10.000000 -1.000000 5.000000 82.393656 -23.152142 1435.236541 1097.318902 21.920244 0.000000 0.131589
649.000000 55.818000 5.000000 1.000000 5.000000 61.943889 -44.262760 2023.946732 1741.993282 17.936924 0.000000 0.290777
650.000000 56.308000 6.000000 1.000000 5.000000 69.962154 -42.011314 1944.484640 1469.314533 17.778747 0.000000 0.210616
651.000000 55.305000 7.000000 1.000000 5.000000 76.496515 -39.986801 1877.695709 1278.336409 18.099558 0.000000 0.160910
652.000000 53.514000 8.000000 1.000000 5.000000 81.872020 -38.160921 1820.772048 1136.497706 18.703664 0.000000 0.129682
653.000000 51.353000 9.000000 1.000000 5.000000 86.340178 -36.509023 1771.678210 1026.650811 19.489196 0.000000 0.110215
654.000000 49.062000 10.000000 1.000000 5.000000 90.092889 -35.009761 1728.902668 938.869613 20.397898 0.000000 0.098356
655.000000 46.776000 11.000000 1.000000 5.000000 93.276272 -33.644709 1691.299434 866.991175 21.394045 0.000000 0.091359
659.000000 57.370000 6.000000 2.000000 5.000000 73.162057 -49.817508 2249.412013 1445.832669 17.448101 0.000000 0.322032
660.000000 56.222000 7.000000 2.000000 5.000000 79.570710 -47.406950 2145.746221 1233.715206 17.802675 0.000000 0.239858
661.000000 54.334000 8.000000 2.000000 5.000000 84.848443 -45.213045 2059.328235 1078.738469 18.419783 0.000000 0.182248
662.000000 52.099000 9.000000 2.000000 5.000000 89.233618 -43.213477 1986.184134 960.754536 19.208544 0.000000 0.140645
663.000000 49.747000 10.000000 2.000000 5.000000 92.911175 -41.387797 1923.473726 868.046935 20.115686 0.000000 0.110061
664.000000 47.406000 11.000000 2.000000 5.000000 96.023692 -39.717530 1869.113154 793.349872 21.107914 0.000000 0.087454
668.000000 54.143000 8.000000 3.000000 5.000000 86.865064 -52.287200 2366.919283 1037.367281 18.483562 0.000000 0.325254
669.000000 52.020000 9.000000 3.000000 5.000000 91.256157 -49.993187 2257.367881 904.289279 19.236649 0.000000 0.255112
670.000000 49.755000 10.000000 3.000000 5.000000 94.941896 -47.880478 2165.342897 802.239484 20.111424 0.000000 0.202324
671.000000 47.478000 11.000000 3.000000 5.000000 98.059794 -45.933506 2086.949944 721.862017 21.074672 0.000000 0.161597
677.000000 46.172000 6.000000 1.000000 6.000000 61.264192 -42.892716 1974.899416 1746.493805 21.684541 0.000000 0.274910
678.000000 46.674000 7.000000 1.000000 6.000000 68.090870 -41.063043 1912.689487 1515.103559 21.449263 0.000000 0.209739
679.000000 46.215000 8.000000 1.000000 6.000000 73.840050 -39.391183 1858.800758 1344.550867 21.660672 0.000000 0.167098
681.000000 47.724000 7.000000 2.000000 6.000000 71.017231 -47.621354 2154.575234 1490.289204 20.975824 0.000000 0.288877
682.000000 45.986000 9.000000 2.000000 6.000000 81.437880 -43.862895 2009.399476 1165.752333 21.765280 0.000000 0.178081
#UB matrix in q= (UB) B0 G* 
#[[-0.89598227  -0.297116151  0.329376482]
# [-0.054035011 -0.664420291 -0.746330925]
# [ 0.440790187 -0.686918019  0.579602294]]
#B0 matrix in q= UB (B0) G*
#[[ 0.19670273 -0.          0.03056101]
# [ 0.          0.19187965 -0.        ]
# [ 0.          0.          0.18806537]]
#UBB0 matrix in q= (UB B0) G* i.e. recip. basis vectors are columns in LT frame: astar = UBB0[:,0], bstar = UBB0[:,1], cstar = UBB0[:,2]. (abcstar as columns on xyzlab1, xlab1 = ui, ui = unit vector along incident beam)
#[[-0.17624216 -0.05701054  0.03456219]
# [-0.01062883 -0.12748873 -0.14201037]
# [ 0.08670463 -0.13180559  0.12247411]]
#Euler angles phi theta psi (deg)
#[ 32.72   54.634 156.15 ]
#deviatoric strain in direct crystal frame (10-3 unit)
#[[ 3.02  0.32 -0.41]
# [ 0.32  2.13  0.22]
# [-0.41  0.22 -5.15]]
#deviatoric strain in sample2 frame (10-3 unit)
#[[-0.37  3.42 -1.81]
# [ 3.42 -1.71  1.33]
# [-1.81  1.33  2.08]]
#new lattice parameters
#[ 5.1505     5.2069876  5.3129951 89.9928801 99.2622765 89.9630646]
#CCDLabel
#sCMOS
#DetectorParameters
#[79.0, 975.0, 941.0, 0.0, 0.0]
#pixelsize
#0.0734
#Frame dimensions
#[2018, 2016]
#
