#Strain and Orientation Refinement from experimental file: /home/micha/LaueProjects/DepthEffects/testZrO2_163.cor
#File created at Wed Jun 28 14:28:06 2023 with indexingSpotsSet.py
#Number of indexed spots: 522
#Element
#ZrO2
#grainIndex
#G_0
#Mean Deviation(pixel): 0.116
##spot_index intensity h k l 2theta Chi Xexp Yexp Energy GrainIndex PixDev
0.000000 143.055000 1.000000 2.000000 1.000000 50.835209 33.420797 264.754037 1991.387003 6.993659 0.000000 0.262158
10.000000 103.304000 2.000000 0.000000 2.000000 44.392675 -24.245743 1459.739025 2146.709190 9.685944 0.000000 0.257533
11.000000 113.607000 2.000000 1.000000 2.000000 51.809401 -4.918247 1067.616260 1790.803114 8.807438 0.000000 0.089085
13.000000 169.720000 1.000000 2.000000 2.000000 77.659506 22.008135 539.971116 1194.973988 5.892729 0.000000 0.113980
14.000000 103.958000 2.000000 2.000000 2.000000 53.939657 11.833577 749.492068 1741.724275 9.624493 0.000000 0.086344
16.000000 161.256000 0.000000 3.000000 2.000000 87.269087 52.392735 -422.230081 1025.128017 6.200158 0.000000 0.331079
17.000000 126.193000 1.000000 3.000000 2.000000 70.121192 35.663299 202.649033 1419.994981 7.925850 0.000000 0.150997
18.000000 87.226000 2.000000 3.000000 2.000000 52.931379 24.424078 486.225779 1833.981687 11.470346 0.000000 0.165635
21.000000 95.135000 1.000000 4.000000 2.000000 63.534636 43.966126 -63.136278 1685.436463 10.513929 0.000000 0.283226
32.000000 180.904000 1.000000 1.000000 3.000000 95.871034 -8.989459 1145.265304 828.949407 5.526647 0.000000 0.161646
33.000000 119.397000 2.000000 1.000000 3.000000 69.316966 -10.451391 1173.535021 1354.188684 8.377950 0.000000 0.091808
34.000000 75.251000 3.000000 1.000000 3.000000 49.969796 -11.241308 1188.918513 1862.769693 13.296665 0.000000 0.127766
36.000000 158.649000 1.000000 2.000000 3.000000 93.519928 12.192798 742.438549 873.267396 6.302179 0.000000 0.154178
37.000000 111.666000 2.000000 2.000000 3.000000 70.827221 5.198756 877.073118 1316.777885 8.957855 0.000000 0.092780
38.000000 74.668000 3.000000 2.000000 3.000000 53.030892 1.093479 954.456641 1751.284018 13.400287 0.000000 0.069192
39.000000 49.041000 4.000000 2.000000 3.000000 39.526702 -1.580859 1004.703785 2245.906974 20.405701 0.000000 0.287113
40.000000 157.460000 0.000000 3.000000 3.000000 104.708540 41.608672 19.129860 563.130676 6.347967 0.000000 0.094172
41.000000 129.398000 1.000000 3.000000 3.000000 86.729346 27.115541 423.863965 1010.100553 7.727532 0.000000 0.112974
42.000000 97.216000 2.000000 3.000000 3.000000 69.066796 17.908558 627.188869 1373.675436 10.289289 0.000000 0.089450
43.000000 48.155000 4.000000 3.000000 3.000000 41.693776 7.612307 831.156379 2160.013465 20.780585 0.000000 0.253933
44.000000 121.631000 0.000000 4.000000 3.000000 92.360880 49.719632 -295.004562 872.365801 8.219434 0.000000 0.249860
45.000000 103.574000 1.000000 4.000000 3.000000 79.432196 36.943675 165.611730 1192.239207 9.655085 0.000000 0.127066
46.000000 82.089000 2.000000 4.000000 3.000000 65.903283 27.542360 413.704920 1483.903364 12.185531 0.000000 0.116176
47.000000 61.950000 3.000000 4.000000 3.000000 53.465546 20.677384 568.787712 1793.321489 16.150297 0.000000 0.136541
49.000000 83.489000 1.000000 5.000000 3.000000 73.027671 43.544905 -47.969488 1394.190100 11.978785 0.000000 0.216274
50.000000 68.906000 2.000000 5.000000 3.000000 62.473390 34.719097 229.207662 1623.420965 14.516986 0.000000 0.179268
51.000000 54.461000 3.000000 5.000000 3.000000 52.286392 27.769059 408.276973 1881.588136 18.370883 0.000000 0.196451
52.000000 68.408000 1.000000 6.000000 3.000000 67.730000 48.171079 -227.547472 1601.903477 14.620475 0.000000 0.329330
53.000000 58.189000 2.000000 6.000000 3.000000 59.265093 40.115799 68.168726 1777.808374 17.190888 0.000000 0.260736
60.000000 128.505000 1.000000 -1.000000 4.000000 83.913418 -51.589318 2332.425447 1125.723772 7.780820 0.000000 0.313524
61.000000 94.094000 2.000000 -1.000000 4.000000 65.856788 -43.091609 1981.882762 1601.617643 10.629836 0.000000 0.249264
62.000000 65.700000 3.000000 -1.000000 4.000000 50.820537 -37.530415 1801.777760 2047.089182 15.227371 0.000000 0.295436
64.000000 147.229000 1.000000 0.000000 4.000000 96.437276 -35.043289 1729.841870 792.676942 6.790250 0.000000 0.078935
65.000000 107.599000 2.000000 0.000000 4.000000 74.931623 -29.635257 1587.296591 1274.378236 9.294960 0.000000 0.124000
66.000000 75.192000 3.000000 0.000000 4.000000 57.746229 -26.393206 1509.118058 1699.224049 13.304905 0.000000 0.143819
67.000000 185.953000 0.000000 1.000000 4.000000 129.896025 -15.827423 1280.117046 5.747452 5.373320 0.000000 0.033938
68.000000 150.562000 1.000000 1.000000 4.000000 103.131370 -15.123374 1265.877570 680.909287 6.639419 0.000000 0.141879
69.000000 111.983000 2.000000 1.000000 4.000000 80.620262 -14.793713 1259.242870 1124.883823 8.930698 0.000000 0.135769
70.000000 79.696000 3.000000 1.000000 4.000000 62.731342 -14.602547 1255.404744 1514.289937 12.552647 0.000000 0.073672
71.000000 55.757000 4.000000 1.000000 4.000000 48.807412 -14.477753 1252.902809 1913.872277 17.945522 0.000000 0.153419
72.000000 168.414000 0.000000 2.000000 4.000000 125.953132 12.774027 730.984971 140.559646 5.933258 0.000000 0.060740
73.000000 139.688000 1.000000 2.000000 4.000000 102.823385 4.111431 897.634426 695.377828 7.156389 0.000000 0.160536
74.000000 107.284000 2.000000 2.000000 4.000000 82.296409 -0.383419 982.202579 1086.592643 9.321683 0.000000 0.146126
75.000000 78.849000 3.000000 2.000000 4.000000 65.363990 -3.103105 1033.348515 1435.309259 12.687234 0.000000 0.058854
76.000000 142.944000 0.000000 3.000000 4.000000 115.620932 31.020664 327.768732 338.703009 6.991491 0.000000 0.009140
77.000000 121.724000 1.000000 3.000000 4.000000 97.901161 19.291807 598.259876 782.743204 8.213159 0.000000 0.133966
78.000000 96.984000 2.000000 3.000000 4.000000 80.834350 12.055586 745.135018 1118.575867 10.311877 0.000000 0.133542
79.000000 74.047000 3.000000 3.000000 4.000000 65.910302 7.286971 837.372289 1426.135758 13.509959 0.000000 0.061519
80.000000 55.244000 4.000000 3.000000 4.000000 53.431743 3.950192 900.678334 1741.303138 18.111784 0.000000 0.067257
81.000000 102.943000 1.000000 4.000000 4.000000 91.341788 30.140134 350.086366 911.848830 9.712479 0.000000 0.099529
82.000000 67.241000 3.000000 4.000000 4.000000 65.012422 16.159308 663.136355 1463.232804 14.877351 0.000000 0.073190
83.000000 97.204000 0.000000 5.000000 4.000000 95.170201 48.103915 -224.714486 795.164815 10.284492 0.000000 0.209645
84.000000 86.355000 1.000000 5.000000 4.000000 84.840026 37.770975 141.013525 1063.955909 11.579135 0.000000 0.113711
85.000000 73.246000 2.000000 5.000000 4.000000 73.882982 29.716702 360.676691 1299.097129 13.654645 0.000000 0.114446
86.000000 59.962000 3.000000 5.000000 4.000000 63.311305 23.491076 507.213239 1530.947108 16.683231 0.000000 0.100969
87.000000 47.891000 4.000000 5.000000 4.000000 53.672579 18.641040 611.928497 1776.226286 20.891756 0.000000 0.122780
88.000000 72.705000 1.000000 6.000000 4.000000 79.025170 43.251355 -37.524541 1227.563333 13.754044 0.000000 0.182736
89.000000 53.077000 3.000000 6.000000 4.000000 61.268692 29.467810 366.859976 1618.689763 18.847336 0.000000 0.143837
91.000000 61.770000 1.000000 7.000000 4.000000 74.021493 47.309620 -191.761928 1395.526594 16.190148 0.000000 0.271541
92.000000 54.586000 2.000000 7.000000 4.000000 66.643495 40.297519 62.316190 1550.396392 18.323513 0.000000 0.211656
93.000000 46.948000 3.000000 7.000000 4.000000 59.160449 34.334370 239.855353 1719.201263 21.307864 0.000000 0.196742
101.000000 112.440000 1.000000 -1.000000 5.000000 90.776175 -50.801689 2294.746583 917.928648 8.891523 0.000000 0.275126
102.000000 88.982000 2.000000 -1.000000 5.000000 75.045051 -43.353463 1991.146223 1336.368578 11.238884 0.000000 0.202744
103.000000 67.694000 3.000000 -1.000000 5.000000 61.228669 -38.246085 1823.362743 1693.517638 14.776912 0.000000 0.220526
104.000000 50.400000 4.000000 -1.000000 5.000000 49.617837 -34.579514 1716.917860 2052.838778 19.850880 0.000000 0.275564
105.000000 149.968000 0.000000 1.000000 5.000000 129.221124 -22.220881 1414.685195 -7.940255 6.662685 0.000000 0.031397
106.000000 127.335000 1.000000 1.000000 5.000000 107.448738 -19.621532 1358.706979 581.848648 7.849840 0.000000 0.115544
107.000000 101.725000 2.000000 1.000000 5.000000 88.260121 -18.255385 1330.020786 975.426141 9.829737 0.000000 0.142899
108.000000 78.243000 3.000000 1.000000 5.000000 72.116606 -17.414014 1312.579304 1304.970953 12.783735 0.000000 0.109463
109.000000 59.013000 4.000000 1.000000 5.000000 58.851620 -16.843991 1300.854310 1620.661698 16.953080 0.000000 0.084824
111.000000 141.630000 0.000000 2.000000 5.000000 128.763910 2.440554 929.126746 75.968196 7.055057 0.000000 0.062134
112.000000 121.877000 1.000000 2.000000 5.000000 108.475937 -2.414523 1020.383393 581.059959 8.201311 0.000000 0.150811
113.000000 99.118000 2.000000 2.000000 5.000000 90.226881 -5.061495 1070.327668 936.721359 10.088129 0.000000 0.162205
114.000000 77.691000 3.000000 2.000000 5.000000 74.598200 -6.720982 1101.835125 1239.548884 12.874232 0.000000 0.116495
115.000000 59.666000 4.000000 2.000000 5.000000 61.556327 -7.856947 1123.523940 1529.535715 16.767190 0.000000 0.045529
117.000000 126.856000 0.000000 3.000000 5.000000 122.155176 21.283491 555.727616 214.871717 7.877411 0.000000 0.045780
118.000000 110.913000 1.000000 3.000000 5.000000 105.345898 12.353450 739.277904 638.631373 9.012520 0.000000 0.143236
119.000000 92.197000 2.000000 3.000000 5.000000 89.363983 6.872608 845.276143 953.034468 10.845568 0.000000 0.158149
120.000000 73.995000 3.000000 3.000000 5.000000 75.146205 3.227904 914.299988 1226.904163 13.517257 0.000000 0.116760
121.000000 58.134000 4.000000 3.000000 5.000000 62.932650 0.648232 962.822520 1491.029107 17.208833 0.000000 0.035928
123.000000 110.202000 0.000000 4.000000 5.000000 113.380937 33.609673 259.649840 382.266216 9.068984 0.000000 0.015564
124.000000 97.866000 1.000000 4.000000 5.000000 100.038010 23.723781 502.006949 732.898505 10.214839 0.000000 0.113129
125.000000 83.170000 2.000000 4.000000 5.000000 86.659442 16.881901 648.368127 1006.652455 12.023116 0.000000 0.138799
126.000000 68.414000 3.000000 4.000000 5.000000 74.241010 11.994223 746.340009 1251.507516 14.619870 0.000000 0.109015
127.000000 55.073000 4.000000 4.000000 5.000000 63.201163 8.376602 816.515770 1490.510160 18.165302 0.000000 0.045650
129.000000 85.068000 1.000000 5.000000 5.000000 94.101039 32.129896 299.059033 849.874231 11.752654 0.000000 0.087277
130.000000 73.759000 2.000000 5.000000 5.000000 83.062286 24.933527 474.635113 1085.425644 13.557651 0.000000 0.117220
131.000000 62.091000 3.000000 5.000000 5.000000 72.431646 19.444254 595.042294 1302.377347 16.108867 0.000000 0.101426
132.000000 51.173000 4.000000 5.000000 5.000000 62.665133 15.191314 682.752515 1517.491406 19.549356 0.000000 0.065015
134.000000 80.820000 0.000000 6.000000 5.000000 96.944328 47.023375 -180.128781 748.700022 12.369046 0.000000 0.185790
135.000000 73.625000 1.000000 6.000000 5.000000 88.357136 38.349313 123.488869 980.362132 13.580417 0.000000 0.104750
136.000000 64.946000 2.000000 6.000000 5.000000 79.218273 31.315144 320.213128 1180.907799 15.398091 0.000000 0.112093
137.000000 55.799000 3.000000 6.000000 5.000000 70.166701 25.655462 458.044576 1371.652940 17.925810 0.000000 0.105732
138.000000 46.984000 4.000000 6.000000 5.000000 61.613689 21.086406 559.985951 1564.358642 21.292413 0.000000 0.092100
139.000000 69.420000 0.000000 7.000000 5.000000 90.242409 50.868749 -347.904910 933.784573 14.401846 0.000000 0.282285
140.000000 63.850000 1.000000 7.000000 5.000000 83.136584 43.035081 -29.893391 1118.236690 15.660469 0.000000 0.162526
141.000000 57.139000 2.000000 7.000000 5.000000 75.482675 36.380525 182.051961 1287.165009 17.502660 0.000000 0.136697
142.000000 49.954000 3.000000 7.000000 5.000000 67.748865 30.799563 333.410981 1453.650837 20.023477 0.000000 0.128687
144.000000 55.674000 1.000000 8.000000 5.000000 78.520873 46.647570 -165.043807 1259.385043 17.961401 0.000000 0.235680
145.000000 50.418000 2.000000 8.000000 5.000000 72.017971 40.439806 57.711651 1399.995682 19.836853 0.000000 0.184119
147.000000 48.885000 1.000000 9.000000 5.000000 74.484769 49.496677 -285.030724 1401.037822 20.456810 0.000000 0.314048
151.000000 99.047000 1.000000 -1.000000 6.000000 95.543644 -50.195197 2266.588351 777.821163 10.093030 0.000000 0.254399
152.000000 82.346000 2.000000 -1.000000 6.000000 81.722295 -43.564783 1998.680466 1157.102125 12.143186 0.000000 0.175333
153.000000 66.278000 3.000000 -1.000000 6.000000 69.156934 -38.844920 1841.753004 1467.126573 15.090706 0.000000 0.184432
154.000000 52.275000 4.000000 -1.000000 6.000000 58.180903 -35.357383 1738.678289 1759.859132 19.136621 0.000000 0.211214
155.000000 107.099000 1.000000 0.000000 6.000000 104.459474 -37.724341 1807.585363 590.115884 9.333110 0.000000 0.054484
156.000000 89.072000 2.000000 0.000000 6.000000 88.803382 -32.884012 1670.860056 967.771097 11.225393 0.000000 0.105103
157.000000 56.652000 4.000000 0.000000 6.000000 63.009869 -27.317612 1530.935931 1557.972987 17.657578 0.000000 0.129763
158.000000 125.324000 0.000000 1.000000 6.000000 128.456883 -26.437500 1510.155419 -13.636881 7.972930 0.000000 0.045000
159.000000 109.729000 1.000000 1.000000 6.000000 110.236757 -23.022635 1432.361701 509.877999 9.108773 0.000000 0.089701
160.000000 91.805000 2.000000 1.000000 6.000000 93.667411 -21.060601 1389.457310 867.075812 10.890660 0.000000 0.135639
161.000000 74.420000 3.000000 1.000000 6.000000 79.174058 -19.789660 1362.270377 1159.737419 13.438532 0.000000 0.127967
162.000000 59.177000 4.000000 1.000000 6.000000 66.785307 -18.900156 1343.501160 1428.934287 16.903975 0.000000 0.096201
163.000000 46.574000 5.000000 1.000000 6.000000 56.312478 -18.243069 1329.764271 1696.430653 21.481399 0.000000 0.102640
165.000000 121.147000 0.000000 2.000000 6.000000 129.806872 -5.374105 1076.249005 40.086630 8.247743 0.000000 0.053648
166.000000 106.949000 1.000000 2.000000 6.000000 112.064478 -7.667442 1119.897963 500.803592 9.345436 0.000000 0.135124
167.000000 74.196000 3.000000 2.000000 6.000000 81.606477 -9.848551 1161.847683 1102.184316 13.478722 0.000000 0.142034
168.000000 47.518000 5.000000 2.000000 6.000000 58.850147 -10.897661 1182.216037 1603.487163 21.054688 0.000000 0.055574
170.000000 100.134000 1.000000 3.000000 6.000000 110.351246 6.326953 855.663508 539.325413 9.981751 0.000000 0.142075
171.000000 85.867000 2.000000 3.000000 6.000000 95.605451 2.321819 931.361029 835.278239 11.643610 0.000000 0.166200
172.000000 58.433000 4.000000 3.000000 6.000000 70.608443 -2.325284 1018.704171 1320.156990 17.118488 0.000000 0.093675
173.000000 47.188000 5.000000 3.000000 6.000000 60.497561 -3.783861 1046.182879 1551.328947 21.201632 0.000000 0.025903
175.000000 101.112000 0.000000 4.000000 6.000000 119.318246 26.014555 449.717716 268.416710 9.883485 0.000000 0.030212
176.000000 91.146000 1.000000 4.000000 6.000000 106.331924 17.807130 629.291966 609.748642 10.966791 0.000000 0.124303
177.000000 67.189000 3.000000 4.000000 6.000000 81.581071 8.181241 820.263306 1101.934517 14.884583 0.000000 0.139571
178.000000 45.825000 5.000000 4.000000 6.000000 61.330396 2.905834 920.367420 1530.269675 21.831740 0.000000 0.022200
180.000000 89.557000 0.000000 5.000000 6.000000 111.893882 35.185593 216.163134 411.770310 11.159808 0.000000 0.026772
181.000000 81.552000 1.000000 5.000000 6.000000 101.245819 26.720865 433.189201 701.406681 12.257930 0.000000 0.095684
182.000000 71.996000 2.000000 5.000000 6.000000 90.361500 20.417154 574.362902 933.753956 13.888073 0.000000 0.133119
183.000000 61.997000 3.000000 5.000000 6.000000 79.900817 15.647303 673.535171 1140.079206 16.131274 0.000000 0.126636
184.000000 52.410000 4.000000 5.000000 6.000000 70.226325 11.959436 747.022888 1336.516126 19.085912 0.000000 0.089784
186.000000 72.344000 1.000000 6.000000 6.000000 95.927743 33.535214 261.664678 806.933166 13.819219 0.000000 0.077987
188.000000 69.114000 0.000000 7.000000 6.000000 98.164494 46.250397 -149.327250 717.697305 14.463699 0.000000 0.170044
189.000000 64.008000 1.000000 7.000000 6.000000 90.822590 38.776293 110.370171 921.177831 15.620124 0.000000 0.098563
190.000000 57.896000 2.000000 7.000000 6.000000 83.013431 32.537976 288.321583 1097.454014 17.271888 0.000000 0.107673
191.000000 51.320000 3.000000 7.000000 6.000000 75.161654 27.367531 417.875626 1262.076067 19.488229 0.000000 0.110381
193.000000 56.700000 1.000000 8.000000 6.000000 86.123549 42.869122 -24.073983 1040.507445 17.634545 0.000000 0.149041
194.000000 46.454000 3.000000 8.000000 6.000000 72.608775 31.870579 305.832376 1337.952567 21.530174 0.000000 0.122861
196.000000 50.400000 1.000000 9.000000 6.000000 81.887626 46.123003 -144.334341 1162.344330 19.840042 0.000000 0.211353
197.000000 46.416000 2.000000 9.000000 6.000000 76.090742 40.554237 53.994386 1291.807681 21.545672 0.000000 0.166291
202.000000 57.576000 3.000000 -2.000000 7.000000 69.127015 -46.956245 2127.418626 1542.291381 17.370620 0.000000 0.288833
203.000000 47.432000 4.000000 -2.000000 7.000000 59.883236 -42.935712 1976.405214 1793.767414 21.088894 0.000000 0.287841
204.000000 88.130000 1.000000 -1.000000 7.000000 99.036153 -49.713901 2244.747022 676.287262 11.342653 0.000000 0.242547
205.000000 75.767000 2.000000 -1.000000 7.000000 86.762435 -43.738907 2004.928350 1025.266100 13.196413 0.000000 0.157711
206.000000 63.423000 3.000000 -1.000000 7.000000 75.340731 -39.353268 1857.608931 1305.102827 15.768261 0.000000 0.162461
207.000000 52.126000 4.000000 -1.000000 7.000000 65.080322 -36.033128 1757.924768 1559.353850 19.189258 0.000000 0.179293
208.000000 107.494000 0.000000 1.000000 7.000000 127.758713 -29.397785 1581.405831 -15.825666 9.295462 0.000000 0.061103
209.000000 96.145000 1.000000 1.000000 7.000000 112.154174 -25.667192 1492.226626 454.800681 10.395314 0.000000 0.066152
210.000000 83.032000 2.000000 1.000000 7.000000 97.650756 -23.369598 1440.076237 783.500723 12.040257 0.000000 0.122779
211.000000 69.854000 3.000000 1.000000 7.000000 84.609487 -21.816977 1405.856968 1050.395321 14.315440 0.000000 0.132754
212.000000 57.733000 4.000000 1.000000 7.000000 73.130924 -20.699057 1381.677466 1289.889667 17.324719 0.000000 0.114329
213.000000 47.196000 5.000000 1.000000 7.000000 63.152018 -19.856285 1363.684553 1520.244672 21.196096 0.000000 0.094577
215.000000 105.363000 0.000000 2.000000 7.000000 130.037181 -11.286937 1189.809649 18.856126 9.483263 0.000000 0.042922
216.000000 94.754000 1.000000 2.000000 7.000000 114.440261 -11.920073 1202.204623 441.079087 10.547726 0.000000 0.117680
217.000000 82.409000 2.000000 2.000000 7.000000 100.010280 -12.305055 1209.769569 746.554114 12.131077 0.000000 0.153480
218.000000 69.875000 3.000000 2.000000 7.000000 87.021805 -12.563848 1214.867335 998.369227 14.310804 0.000000 0.151109
219.000000 58.216000 4.000000 2.000000 7.000000 75.552406 -12.749753 1218.535647 1225.308711 17.180633 0.000000 0.120778
220.000000 47.967000 5.000000 2.000000 7.000000 65.541696 -12.889758 1221.301818 1443.204978 20.855014 0.000000 0.077495
222.000000 99.853000 0.000000 3.000000 7.000000 128.094397 5.576025 869.923097 93.235924 10.006869 0.000000 0.063354
223.000000 90.422000 1.000000 3.000000 7.000000 113.771264 1.152244 953.352312 466.846458 11.053285 0.000000 0.135088
224.000000 79.367000 2.000000 3.000000 7.000000 100.246221 -1.658056 1006.155086 746.366114 12.596072 0.000000 0.165022
225.000000 67.996000 3.000000 3.000000 7.000000 87.887613 -3.592873 1042.580290 980.777097 14.706231 0.000000 0.159377
226.000000 57.254000 4.000000 3.000000 7.000000 76.837648 -5.003222 1069.224530 1193.659232 17.468983 0.000000 0.126367
227.000000 47.664000 5.000000 3.000000 7.000000 67.090053 -6.075704 1089.561083 1398.434156 20.987516 0.000000 0.074162
228.000000 97.858000 -1.000000 4.000000 7.000000 135.173378 29.214982 373.110074 -299.644704 10.209669 0.000000 0.108672
229.000000 92.266000 0.000000 4.000000 7.000000 123.310391 19.033360 603.701049 192.823701 10.830457 0.000000 0.051209
230.000000 84.185000 1.000000 4.000000 7.000000 110.889070 12.444525 737.484376 520.355423 11.872736 0.000000 0.128483
231.000000 74.653000 2.000000 4.000000 7.000000 98.770767 7.942052 824.846590 773.334914 13.391829 0.000000 0.160402
232.000000 64.709000 3.000000 4.000000 7.000000 87.433676 4.707170 886.376897 989.403607 15.453180 0.000000 0.156800
233.000000 55.152000 4.000000 4.000000 7.000000 77.106354 2.284837 932.056844 1187.574702 18.134786 0.000000 0.126142
234.000000 46.462000 5.000000 4.000000 7.000000 67.855104 0.409247 967.312221 1379.031692 21.530355 0.000000 0.074494
235.000000 88.567000 -1.000000 5.000000 7.000000 126.857141 39.152942 98.666809 -99.470030 11.281891 0.000000 0.159857
236.000000 83.817000 0.000000 5.000000 7.000000 117.216593 28.988433 378.684365 308.185209 11.923121 0.000000 0.017426
237.000000 77.053000 1.000000 5.000000 7.000000 106.716390 21.619071 548.450495 593.301376 12.972436 0.000000 0.107191
238.000000 69.039000 2.000000 5.000000 7.000000 96.143824 16.196986 662.368994 820.356075 14.481403 0.000000 0.144804
239.000000 60.566000 3.000000 5.000000 7.000000 85.998509 12.107996 744.105389 1018.002992 16.510660 0.000000 0.146114
240.000000 52.277000 4.000000 5.000000 7.000000 76.560306 8.944045 805.609046 1201.363408 19.132001 0.000000 0.120640
241.000000 79.380000 -1.000000 6.000000 7.000000 118.767728 45.617254 -124.737820 96.178872 12.588928 0.000000 0.217599
242.000000 75.385000 0.000000 6.000000 7.000000 110.838468 36.244277 185.993674 433.038329 13.258061 0.000000 0.035535
243.000000 69.790000 1.000000 6.000000 7.000000 102.001047 28.871991 381.539939 679.730393 14.323381 0.000000 0.081818
244.000000 63.147000 2.000000 6.000000 7.000000 92.880689 23.099467 515.933429 882.120293 15.833153 0.000000 0.124145
245.000000 56.042000 3.000000 6.000000 7.000000 83.926577 18.542862 613.981446 1061.788350 17.843815 0.000000 0.131245
246.000000 48.976000 4.000000 6.000000 7.000000 75.424556 14.897440 688.671727 1230.595127 20.421785 0.000000 0.112520
248.000000 62.873000 1.000000 7.000000 7.000000 97.222998 34.579459 233.083649 775.325395 15.900438 0.000000 0.071421
249.000000 57.398000 2.000000 7.000000 7.000000 89.364368 28.801079 383.275829 954.626380 17.419823 0.000000 0.106422
250.000000 51.488000 3.000000 7.000000 7.000000 81.504240 24.057283 494.512975 1117.065137 19.422817 0.000000 0.117398
251.000000 45.523000 4.000000 7.000000 7.000000 73.904460 20.143246 580.210812 1271.799081 21.971135 0.000000 0.105797
253.000000 60.349000 0.000000 8.000000 7.000000 99.054407 45.670218 -126.773425 695.551753 16.564258 0.000000 0.158889
254.000000 56.543000 1.000000 8.000000 7.000000 92.644896 39.104423 100.181394 876.928446 17.681718 0.000000 0.094259
255.000000 52.031000 2.000000 8.000000 7.000000 85.841861 33.502862 262.539032 1034.837970 19.217809 0.000000 0.102579
256.000000 47.124000 3.000000 8.000000 7.000000 78.940183 28.753359 384.442638 1180.964774 21.221991 0.000000 0.111302
258.000000 54.047000 0.000000 9.000000 7.000000 93.943852 48.822882 -255.432210 828.297597 18.497090 0.000000 0.226823
259.000000 50.887000 1.000000 9.000000 7.000000 88.388986 42.737751 -19.489582 982.214452 19.648067 0.000000 0.139459
260.000000 47.153000 2.000000 9.000000 7.000000 82.455208 37.397500 152.185300 1120.437983 21.206567 0.000000 0.119674
262.000000 48.546000 0.000000 10.000000 7.000000 89.368406 51.327002 -369.733132 959.987632 20.594548 0.000000 0.296218
263.000000 45.903000 1.000000 10.000000 7.000000 84.496859 45.697189 -127.811476 1089.464243 21.782656 0.000000 0.193818
268.000000 55.434000 3.000000 -2.000000 8.000000 74.561569 -46.861905 2123.621430 1375.711098 18.040436 0.000000 0.255959
269.000000 79.201000 1.000000 -1.000000 8.000000 101.699755 -49.322712 2227.311318 599.045776 12.620837 0.000000 0.235513
270.000000 69.744000 2.000000 -1.000000 8.000000 90.687681 -43.884858 2010.193402 923.075759 14.335221 0.000000 0.146338
271.000000 60.069000 3.000000 -1.000000 8.000000 80.271084 -39.790134 1871.420634 1181.154803 16.647302 0.000000 0.146585
272.000000 50.901000 4.000000 -1.000000 8.000000 70.717761 -36.625466 1775.069156 1410.176088 19.649115 0.000000 0.160780
273.000000 83.548000 1.000000 0.000000 8.000000 108.582820 -39.318970 1856.531900 473.265321 11.963152 0.000000 0.067336
274.000000 63.441000 3.000000 0.000000 8.000000 85.154376 -31.956329 1646.403172 1048.539513 15.761736 0.000000 0.113526
276.000000 94.036000 0.000000 1.000000 8.000000 127.153686 -31.579713 1636.615440 -16.353606 10.625835 0.000000 0.075845
277.000000 85.428000 1.000000 1.000000 8.000000 113.538701 -27.774055 1541.842897 411.100630 11.699059 0.000000 0.045213
278.000000 75.483000 2.000000 1.000000 8.000000 100.684937 -25.297488 1483.704248 716.384825 13.243678 0.000000 0.108033
279.000000 65.254000 3.000000 1.000000 8.000000 88.891025 -23.563221 1444.398871 963.729781 15.323247 0.000000 0.129989
280.000000 55.520000 4.000000 1.000000 8.000000 78.278089 -22.283170 1416.051169 1182.342288 18.013285 0.000000 0.124382
281.000000 46.733000 5.000000 1.000000 8.000000 68.846392 -21.300457 1394.639503 1388.000105 21.404227 0.000000 0.105945
283.000000 84.789000 1.000000 2.000000 8.000000 116.072703 -15.397560 1271.411533 394.758154 11.787035 0.000000 0.100261
284.000000 65.434000 3.000000 2.000000 8.000000 91.284949 -14.933268 1262.049053 916.014489 15.280588 0.000000 0.151326
285.000000 47.398000 5.000000 2.000000 8.000000 71.126649 -14.686912 1257.097763 1321.366929 21.103457 0.000000 0.103897
287.000000 89.456000 0.000000 3.000000 8.000000 129.245533 -0.413722 982.771858 61.747681 11.169778 0.000000 0.059897
288.000000 81.978000 1.000000 3.000000 8.000000 116.151098 -3.271132 1036.514672 411.675692 12.191194 0.000000 0.125124
289.000000 73.252000 2.000000 3.000000 8.000000 103.759551 -5.136241 1071.742948 676.379759 13.646554 0.000000 0.158833
290.000000 64.135000 3.000000 3.000000 8.000000 92.315955 -6.446920 1096.618297 897.194335 15.590056 0.000000 0.163272
291.000000 55.297000 4.000000 3.000000 8.000000 81.932577 -7.417464 1115.119823 1094.842426 18.085321 0.000000 0.144168
292.000000 47.165000 5.000000 3.000000 8.000000 72.623497 -8.164674 1129.419070 1281.254331 21.207522 0.000000 0.107288
293.000000 88.983000 -1.000000 4.000000 8.000000 137.502084 20.734064 567.570854 -315.001414 11.227768 0.000000 0.062992
294.000000 77.595000 1.000000 4.000000 8.000000 114.205917 7.642435 830.580279 452.824252 12.880372 0.000000 0.127454
295.000000 61.667000 3.000000 4.000000 8.000000 92.131008 1.551066 945.856285 900.936122 16.214156 0.000000 0.164806
296.000000 46.159000 5.000000 4.000000 8.000000 73.378237 -1.893346 1010.579235 1262.477963 21.669548 0.000000 0.109264
297.000000 82.167000 -1.000000 5.000000 8.000000 130.789575 31.948755 303.794450 -153.480683 12.160037 0.000000 0.101443
298.000000 78.000000 0.000000 5.000000 8.000000 121.110928 23.140101 515.030983 234.627787 12.811651 0.000000 0.040377
299.000000 72.284000 1.000000 5.000000 8.000000 110.895482 16.872409 648.562854 511.616967 13.827366 0.000000 0.114392
300.000000 65.563000 2.000000 5.000000 8.000000 100.729862 12.286005 740.605278 732.270636 15.247957 0.000000 0.150875
301.000000 58.403000 3.000000 5.000000 8.000000 90.983125 8.825265 807.894827 922.309023 17.120529 0.000000 0.157860
302.000000 51.286000 4.000000 5.000000 8.000000 81.867758 6.139166 859.233140 1095.684437 19.499785 0.000000 0.142018
303.000000 75.064000 -1.000000 6.000000 8.000000 123.722644 39.606622 84.402403 8.527422 13.311868 0.000000 0.143340
304.000000 66.600000 1.000000 6.000000 8.000000 106.842552 24.410892 486.524537 583.188698 15.008330 0.000000 0.092540
305.000000 54.697000 3.000000 6.000000 8.000000 89.155423 15.269742 681.170053 957.447066 18.281111 0.000000 0.145128
306.000000 68.146000 -1.000000 7.000000 8.000000 116.904557 44.990527 -100.938440 168.764996 14.664810 0.000000 0.193451
307.000000 65.066000 0.000000 7.000000 8.000000 110.051786 37.003995 163.836410 449.083779 15.360877 0.000000 0.042363
308.000000 60.944000 1.000000 7.000000 8.000000 102.508788 30.486848 341.346966 663.909068 16.402272 0.000000 0.071058
309.000000 56.088000 2.000000 7.000000 8.000000 94.687724 25.195805 468.630604 843.465007 17.825275 0.000000 0.114600
310.000000 50.832000 3.000000 7.000000 8.000000 86.904361 20.883287 564.362874 1003.300464 19.671435 0.000000 0.129861
311.000000 45.483000 4.000000 7.000000 8.000000 79.379318 17.338329 638.981636 1152.432274 21.988557 0.000000 0.123131
312.000000 61.684000 -1.000000 8.000000 8.000000 110.585433 48.918520 -259.584663 325.841441 16.202421 0.000000 0.250668
313.000000 55.567000 1.000000 8.000000 8.000000 98.187899 35.385454 210.528643 751.046462 17.990635 0.000000 0.067019
314.000000 47.013000 3.000000 8.000000 8.000000 84.433011 25.728592 456.352892 1057.450375 21.270080 0.000000 0.116277
316.000000 53.546000 0.000000 9.000000 8.000000 99.731860 45.218791 -109.545735 678.947187 18.668569 0.000000 0.150579
317.000000 50.602000 1.000000 9.000000 8.000000 94.045899 39.364454 92.039588 842.531979 19.756961 0.000000 0.091252
318.000000 47.146000 2.000000 9.000000 8.000000 88.026968 34.283221 241.263586 985.874094 21.207811 0.000000 0.097607
320.000000 46.102000 1.000000 10.000000 8.000000 90.164852 42.631178 -15.784758 936.790941 21.686595 0.000000 0.132347
324.000000 60.082000 2.000000 -2.000000 9.000000 87.681965 -51.168157 2312.117672 1010.482004 16.640869 0.000000 0.291227
325.000000 52.924000 3.000000 -2.000000 9.000000 79.015671 -46.779366 2120.310143 1246.055494 18.894583 0.000000 0.232520
326.000000 45.954000 4.000000 -2.000000 9.000000 70.839894 -43.229921 1986.765833 1454.257712 21.763744 0.000000 0.222521
328.000000 71.820000 1.000000 -1.000000 9.000000 103.795880 -48.998521 2213.070369 538.180591 13.917359 0.000000 0.231237
329.000000 64.384000 2.000000 -1.000000 9.000000 93.824246 -44.008960 2014.690620 840.969755 15.527727 0.000000 0.139346
330.000000 56.654000 3.000000 -1.000000 9.000000 84.279592 -40.169561 1883.559499 1082.094315 17.649579 0.000000 0.134163
331.000000 49.142000 4.000000 -1.000000 9.000000 75.387959 -37.148836 1790.438004 1293.033549 20.351024 0.000000 0.147787
333.000000 83.536000 0.000000 1.000000 9.000000 126.636054 -33.250137 1680.653138 -16.063855 11.961517 0.000000 0.088731
334.000000 76.794000 1.000000 1.000000 9.000000 114.577635 -29.487771 1583.634798 375.485832 13.014251 0.000000 0.026791
335.000000 69.024000 2.000000 1.000000 9.000000 103.061261 -26.927970 1521.696055 660.940460 14.482220 0.000000 0.093068
336.000000 60.911000 3.000000 1.000000 9.000000 92.332451 -25.080391 1478.723980 892.597265 16.414669 0.000000 0.123216
337.000000 52.998000 4.000000 1.000000 9.000000 82.511754 -23.686756 1447.163462 1095.486887 18.868948 0.000000 0.127723
338.000000 45.645000 5.000000 1.000000 9.000000 73.630154 -22.599257 1423.001681 1283.450186 21.912254 0.000000 0.116470
340.000000 83.064000 0.000000 2.000000 9.000000 129.590814 -19.382333 1353.650052 -2.574503 12.029150 0.000000 0.029677
341.000000 76.573000 1.000000 2.000000 9.000000 117.230988 -18.274336 1330.415556 357.705977 13.051359 0.000000 0.083622
342.000000 69.066000 2.000000 2.000000 9.000000 105.543595 -17.537480 1315.128494 627.042353 14.473054 0.000000 0.128886
343.000000 61.187000 3.000000 2.000000 9.000000 94.701047 -17.012197 1304.306734 848.442617 16.340011 0.000000 0.146651
344.000000 53.461000 4.000000 2.000000 9.000000 84.789394 -16.618864 1296.243150 1043.429996 18.705278 0.000000 0.142048
345.000000 46.238000 5.000000 2.000000 9.000000 75.824162 -16.313337 1290.002454 1224.265736 21.630677 0.000000 0.121216
346.000000 85.264000 -1.000000 3.000000 9.000000 142.112886 -2.614554 1024.148197 -443.643938 11.716920 0.000000 0.016328
347.000000 74.722000 1.000000 3.000000 9.000000 117.837144 -7.053181 1108.166502 368.308601 13.374611 0.000000 0.113786
348.000000 67.708000 2.000000 3.000000 9.000000 106.467556 -8.180674 1129.725820 619.579243 14.763142 0.000000 0.149971
349.000000 52.981000 4.000000 3.000000 9.000000 86.138766 -9.597714 1156.997379 1014.674056 18.874303 0.000000 0.152799
350.000000 46.083000 5.000000 3.000000 9.000000 77.295240 -10.071693 1166.168637 1187.445142 21.703386 0.000000 0.127785
352.000000 81.158000 -1.000000 4.000000 9.000000 138.722102 13.223897 722.083808 -318.470239 12.310111 0.000000 0.033569
353.000000 77.069000 0.000000 4.000000 9.000000 127.672404 7.256203 837.959660 103.263810 12.965361 0.000000 0.063447
354.000000 71.597000 1.000000 4.000000 9.000000 116.638046 3.374697 911.533318 400.199989 13.958670 0.000000 0.123067
355.000000 65.227000 2.000000 4.000000 9.000000 105.983813 0.671055 962.393727 632.685486 15.325071 0.000000 0.156849
356.000000 58.452000 3.000000 4.000000 9.000000 95.933687 -1.312120 999.652332 829.106855 17.104613 0.000000 0.166856
357.000000 51.697000 4.000000 4.000000 9.000000 86.612263 -2.825617 1028.121954 1004.790040 19.343287 0.000000 0.157142
359.000000 76.114000 -1.000000 5.000000 9.000000 133.479814 25.123460 470.289411 -186.292155 13.126664 0.000000 0.064479
360.000000 72.466000 0.000000 5.000000 9.000000 123.931060 17.722012 631.055012 180.839321 13.789456 0.000000 0.053851
361.000000 67.616000 1.000000 5.000000 9.000000 114.090699 12.503177 736.328682 448.069628 14.781103 0.000000 0.117256
362.000000 61.955000 2.000000 5.000000 9.000000 104.382132 8.683914 810.613064 661.811829 16.134677 0.000000 0.152553
363.000000 55.893000 3.000000 5.000000 9.000000 95.074375 5.791465 865.835988 844.938140 17.887836 0.000000 0.163691
364.000000 49.791000 4.000000 5.000000 9.000000 86.327778 3.535589 908.499966 1010.208590 20.083649 0.000000 0.155305
366.000000 70.620000 -1.000000 6.000000 9.000000 127.473494 33.700772 257.179997 -50.744893 14.149013 0.000000 0.094666
367.000000 63.171000 1.000000 6.000000 9.000000 110.690379 20.189218 579.230759 507.898164 15.821981 0.000000 0.101248
368.000000 58.220000 2.000000 6.000000 9.000000 101.997534 15.707656 672.312131 703.402051 17.170578 0.000000 0.140245
369.000000 47.460000 4.000000 6.000000 9.000000 85.438244 9.381931 797.169341 1028.037816 21.070328 0.000000 0.148505
371.000000 65.052000 -1.000000 7.000000 9.000000 121.359367 39.918853 74.476383 85.765439 15.361384 0.000000 0.131765
372.000000 62.245000 0.000000 7.000000 9.000000 114.376065 32.493958 289.484476 362.794053 16.055972 0.000000 0.009816
373.000000 58.578000 1.000000 7.000000 9.000000 106.851219 26.534477 437.570576 576.615254 17.063534 0.000000 0.080252
374.000000 54.291000 2.000000 7.000000 9.000000 99.135916 21.742218 545.771565 754.657082 18.413782 0.000000 0.123208
375.000000 49.645000 3.000000 7.000000 9.000000 91.492183 17.855526 628.288790 911.544392 20.140311 0.000000 0.140605
377.000000 59.665000 -1.000000 8.000000 9.000000 115.475409 44.533129 -83.895431 221.630321 16.749576 0.000000 0.176534
378.000000 57.222000 0.000000 8.000000 9.000000 109.443265 37.575534 146.873744 461.614786 17.466695 0.000000 0.047797
379.000000 54.063000 1.000000 8.000000 9.000000 102.869157 31.741906 309.179144 651.857330 18.489870 0.000000 0.062891
380.000000 50.372000 2.000000 8.000000 9.000000 96.038454 26.875111 429.552484 813.360725 19.847368 0.000000 0.105509
381.000000 46.354000 3.000000 8.000000 9.000000 89.180003 22.808272 522.384695 957.711304 21.571043 0.000000 0.125691
383.000000 54.612000 -1.000000 9.000000 9.000000 109.974929 48.051116 -222.492622 355.771992 18.300770 0.000000 0.227167
384.000000 49.768000 1.000000 9.000000 9.000000 98.933897 36.026151 192.275619 731.793334 20.086731 0.000000 0.064237
385.000000 46.597000 2.000000 9.000000 9.000000 92.876812 31.228481 322.441541 877.749393 21.456204 0.000000 0.093056
386.000000 49.968000 -1.000000 10.000000 9.000000 104.912182 50.802850 -344.801203 487.473096 20.003362 0.000000 0.281658
387.000000 48.115000 0.000000 10.000000 9.000000 100.264679 44.857578 -95.956757 666.037579 20.775413 0.000000 0.144153
388.000000 45.772000 1.000000 10.000000 9.000000 95.156192 39.575584 85.384194 814.997561 21.841288 0.000000 0.089148
393.000000 50.329000 3.000000 -2.000000 10.000000 82.722211 -46.706543 2117.397104 1141.445312 19.867499 0.000000 0.215263
395.000000 65.644000 1.000000 -1.000000 10.000000 105.487219 -48.725489 2201.219804 488.917193 15.226355 0.000000 0.228608
396.000000 59.661000 2.000000 -1.000000 10.000000 96.384530 -44.115777 2018.576557 773.252835 16.756139 0.000000 0.135496
397.000000 53.375000 3.000000 -1.000000 10.000000 87.594721 -40.502153 1894.312087 1000.456248 18.732719 0.000000 0.124252
398.000000 47.152000 4.000000 -1.000000 10.000000 79.307078 -37.614546 1804.293556 1197.560152 21.208503 0.000000 0.137300
399.000000 68.332000 1.000000 0.000000 10.000000 111.082220 -40.374769 1890.181269 396.354633 14.626290 0.000000 0.087375
400.000000 62.137000 2.000000 0.000000 10.000000 101.210074 -36.578421 1773.697910 675.374205 16.087568 0.000000 0.060615
401.000000 55.618000 3.000000 0.000000 10.000000 91.805168 -33.694805 1692.658084 900.229670 17.976269 0.000000 0.096083
402.000000 49.161000 4.000000 0.000000 10.000000 83.021893 -31.440629 1633.020853 1095.404360 20.340854 0.000000 0.117185
404.000000 75.124000 0.000000 1.000000 10.000000 126.192995 -34.567983 1716.598383 -15.370005 13.300961 0.000000 0.099904
405.000000 69.705000 1.000000 1.000000 10.000000 115.381737 -30.906625 1619.317886 345.850273 14.337441 0.000000 0.011074
406.000000 63.486000 2.000000 1.000000 10.000000 104.966056 -28.322810 1555.077582 614.165268 15.744947 0.000000 0.078660
407.000000 56.926000 3.000000 1.000000 10.000000 95.148240 -26.409024 1509.488429 832.731064 17.562750 0.000000 0.114407
408.000000 50.411000 4.000000 1.000000 10.000000 86.040091 -24.937581 1475.457490 1023.165562 19.835868 0.000000 0.126614
410.000000 69.723000 1.000000 2.000000 10.000000 118.075795 -20.682312 1381.318048 327.348635 14.333380 0.000000 0.068062
411.000000 57.256000 3.000000 2.000000 10.000000 97.483202 -18.846382 1342.372984 791.615381 17.461049 0.000000 0.139275
412.000000 77.271000 -1.000000 3.000000 10.000000 141.304022 -8.220692 1130.493161 -416.577726 12.929065 0.000000 0.034156
413.000000 73.461000 0.000000 3.000000 10.000000 130.016874 -9.491629 1154.948254 24.798510 13.601637 0.000000 0.046469
414.000000 68.493000 1.000000 3.000000 10.000000 119.051657 -10.297272 1170.542888 333.343992 14.590586 0.000000 0.101981
415.000000 62.760000 2.000000 3.000000 10.000000 108.590639 -10.853401 1181.353930 572.389061 15.926420 0.000000 0.139758
416.000000 56.662000 3.000000 3.000000 10.000000 98.763164 -11.260317 1189.289714 771.832872 17.643701 0.000000 0.156730
417.000000 50.547000 4.000000 3.000000 10.000000 89.645306 -11.570940 1195.362650 947.801187 19.781739 0.000000 0.155621
418.000000 74.335000 -1.000000 4.000000 10.000000 139.219541 6.739511 847.811977 -315.441085 13.439923 0.000000 0.013524
419.000000 66.236000 1.000000 4.000000 10.000000 118.436086 -0.403179 982.573803 358.159065 15.088061 0.000000 0.116622
420.000000 55.276000 3.000000 4.000000 10.000000 99.041317 -3.908907 1048.542472 769.336691 18.086380 0.000000 0.165080
422.000000 70.562000 -1.000000 5.000000 10.000000 135.246848 18.822576 608.126235 -205.944545 14.159238 0.000000 0.040760
423.000000 63.225000 1.000000 5.000000 10.000000 116.540082 8.512884 813.899306 397.450542 15.806999 0.000000 0.116838
424.000000 58.427000 2.000000 5.000000 10.000000 107.307644 5.380720 873.625643 604.129752 17.108167 0.000000 0.151118
425.000000 53.270000 3.000000 5.000000 10.000000 98.451287 2.994475 918.697884 780.863484 18.767453 0.000000 0.165350
426.000000 48.027000 4.000000 5.000000 10.000000 90.092285 1.122043 953.919870 939.266106 20.819650 0.000000 0.162738
427.000000 66.293000 -1.000000 6.000000 10.000000 130.259574 28.016776 402.319879 -91.452117 15.071974 0.000000 0.062796
428.000000 59.738000 1.000000 6.000000 10.000000 113.745674 16.230137 661.693611 447.863094 16.730504 0.000000 0.106578
429.000000 50.833000 3.000000 6.000000 10.000000 97.171562 9.311078 798.536364 803.766990 19.667625 0.000000 0.159143
431.000000 61.817000 -1.000000 7.000000 10.000000 124.889030 34.917287 223.683834 25.700015 16.164506 0.000000 0.089365
432.000000 59.271000 0.000000 7.000000 10.000000 117.851225 28.129230 399.606565 296.137022 16.860770 0.000000 0.021308
433.000000 56.015000 1.000000 7.000000 10.000000 110.407629 22.750693 523.657048 506.782915 17.843358 0.000000 0.089472
434.000000 52.236000 2.000000 7.000000 10.000000 102.849198 18.454366 615.829923 682.190883 19.137065 0.000000 0.129663
435.000000 48.137000 3.000000 7.000000 10.000000 95.389324 14.979839 687.013686 835.890618 20.769628 0.000000 0.148213
436.000000 57.351000 -1.000000 8.000000 10.000000 119.515464 40.146854 67.170782 143.870247 17.424459 0.000000 0.123443
437.000000 52.245000 1.000000 8.000000 10.000000 106.805295 28.199876 397.899064 572.159314 19.131817 0.000000 0.070064
439.000000 53.044000 -1.000000 9.000000 10.000000 114.344984 44.184644 -71.089333 261.896803 18.840568 0.000000 0.164118
440.000000 51.060000 0.000000 9.000000 10.000000 108.958751 38.021023 133.470594 471.669647 19.574593 0.000000 0.052214
441.000000 48.563000 1.000000 9.000000 10.000000 103.135870 32.744469 282.851123 642.373727 20.583433 0.000000 0.056868
442.000000 45.671000 2.000000 9.000000 10.000000 97.081778 28.248375 396.725554 789.210569 21.889726 0.000000 0.097238
443.000000 48.987000 -1.000000 10.000000 10.000000 109.478050 47.367112 -194.113633 378.955503 20.402559 0.000000 0.209576
448.000000 52.703000 2.000000 -2.000000 11.000000 93.358367 -50.479934 2279.718126 841.747990 18.968827 0.000000 0.263268
449.000000 47.791000 3.000000 -2.000000 11.000000 85.848678 -46.641818 2114.814544 1054.783457 20.921418 0.000000 0.202348
451.000000 60.414000 1.000000 -1.000000 11.000000 106.880048 -48.492402 2191.204373 448.191315 16.544220 0.000000 0.226997
452.000000 55.506000 2.000000 -1.000000 11.000000 98.511988 -44.208685 2021.967912 716.275708 18.009742 0.000000 0.133877
453.000000 50.313000 3.000000 -1.000000 11.000000 90.377436 -40.796057 1903.903042 931.634319 19.871776 0.000000 0.116442
455.000000 68.238000 0.000000 1.000000 11.000000 125.811756 -35.633178 1746.494097 -14.485368 14.643166 0.000000 0.109613
456.000000 63.791000 1.000000 1.000000 11.000000 116.020049 -32.099321 1650.140344 320.775011 15.666441 0.000000 0.007164
457.000000 58.711000 2.000000 1.000000 11.000000 106.523014 -29.528301 1584.640006 574.055216 17.025036 0.000000 0.065182
458.000000 53.316000 3.000000 1.000000 11.000000 97.488270 -27.581011 1537.218938 781.388635 18.750996 0.000000 0.104681
459.000000 47.886000 4.000000 1.000000 11.000000 89.016319 -26.058276 1501.299594 961.571264 20.880589 0.000000 0.122698
461.000000 68.289000 0.000000 2.000000 11.000000 128.835355 -24.529245 1466.159166 -11.412569 14.631747 0.000000 0.037307
462.000000 63.945000 1.000000 2.000000 11.000000 118.706701 -22.720690 1425.680385 301.994828 15.628378 0.000000 0.053680
463.000000 58.970000 2.000000 2.000000 11.000000 108.982092 -21.434350 1397.539642 543.270167 16.949816 0.000000 0.102391
464.000000 53.671000 3.000000 2.000000 11.000000 99.782454 -20.473467 1376.841942 742.919199 18.626255 0.000000 0.130455
465.000000 48.322000 4.000000 2.000000 11.000000 91.181978 -19.728782 1360.979237 917.408746 20.691752 0.000000 0.140340
467.000000 70.531000 -1.000000 3.000000 11.000000 140.380616 -12.684079 1217.239144 -391.642813 14.164637 0.000000 0.048530
468.000000 67.273000 0.000000 3.000000 11.000000 130.017987 -12.931001 1222.117272 13.792195 14.852721 0.000000 0.039575
469.000000 63.127000 1.000000 3.000000 11.000000 119.939515 -13.093632 1225.335421 304.568747 15.830656 0.000000 0.090218
470.000000 58.369000 2.000000 3.000000 11.000000 110.281510 -13.208838 1227.617701 532.452808 17.123898 0.000000 0.128961
471.000000 53.285000 3.000000 3.000000 11.000000 101.145678 -13.294723 1229.320526 723.108763 18.760976 0.000000 0.149865
472.000000 48.130000 4.000000 3.000000 11.000000 92.596896 -13.361218 1230.639717 890.826109 20.773968 0.000000 0.154697
474.000000 68.402000 -1.000000 4.000000 11.000000 139.260827 1.218158 952.113599 -308.860887 14.605802 0.000000 0.004100
475.000000 65.352000 0.000000 4.000000 11.000000 129.429703 -1.742832 1007.748984 55.577488 15.289450 0.000000 0.058507
476.000000 61.477000 1.000000 4.000000 11.000000 119.776068 -3.743284 1045.417357 323.880747 16.255592 0.000000 0.108981
477.000000 57.023000 2.000000 4.000000 11.000000 110.463006 -5.182141 1072.612195 537.733620 17.528414 0.000000 0.143367
478.000000 52.244000 3.000000 4.000000 11.000000 101.605445 -6.265525 1093.168527 718.633685 19.134945 0.000000 0.160848
479.000000 47.374000 4.000000 4.000000 11.000000 93.277216 -7.110126 1109.252717 878.893067 21.105483 0.000000 0.163276
481.000000 65.548000 -1.000000 5.000000 11.000000 136.342501 13.121242 724.117806 -217.189739 15.242278 0.000000 0.025606
482.000000 62.738000 0.000000 5.000000 11.000000 127.386674 8.301735 817.952361 109.797654 15.926846 0.000000 0.063297
483.000000 59.179000 1.000000 5.000000 11.000000 118.424296 4.888128 882.953679 356.333443 16.887195 0.000000 0.114112
484.000000 55.082000 2.000000 5.000000 11.000000 109.666656 2.360054 930.641573 556.010815 18.146356 0.000000 0.147545
485.000000 50.669000 3.000000 5.000000 11.000000 101.256589 0.419460 967.120360 726.777342 19.729996 0.000000 0.164123
486.000000 46.147000 4.000000 5.000000 11.000000 93.286646 -1.113867 995.926491 879.181269 21.666809 0.000000 0.166035
488.000000 62.209000 -1.000000 6.000000 11.000000 132.286041 22.646244 525.962383 -119.649586 16.061054 0.000000 0.042428
489.000000 59.653000 0.000000 6.000000 11.000000 124.317081 16.864179 648.731666 173.317473 16.751197 0.000000 0.055383
490.000000 56.429000 1.000000 6.000000 11.000000 116.172699 12.544104 735.521939 399.098757 17.710969 0.000000 0.108933
491.000000 52.713000 2.000000 6.000000 11.000000 108.091348 9.228549 800.127963 584.781973 18.962345 0.000000 0.143629
492.000000 48.696000 3.000000 6.000000 11.000000 100.237711 6.619801 850.091556 745.308002 20.529756 0.000000 0.160993
494.000000 58.603000 -1.000000 7.000000 11.000000 127.651213 30.057953 352.148838 -18.414642 17.050251 0.000000 0.060623
495.000000 56.300000 0.000000 7.000000 11.000000 120.627736 23.950664 496.912975 243.740609 17.750014 0.000000 0.037739
496.000000 53.407000 1.000000 7.000000 11.000000 113.315626 19.155670 601.128142 449.936516 18.713744 0.000000 0.096290
497.000000 50.074000 2.000000 7.000000 11.000000 105.950577 15.340650 679.738286 622.016684 19.962449 0.000000 0.133647
498.000000 46.457000 3.000000 7.000000 11.000000 98.703925 12.258445 741.147486 772.383904 21.519430 0.000000 0.152873
500.000000 54.908000 -1.000000 8.000000 11.000000 122.822926 35.810528 198.451403 84.931687 18.198997 0.000000 0.085463
501.000000 52.844000 0.000000 8.000000 11.000000 116.637531 29.746144 359.943230 319.219189 18.911894 0.000000 0.014002
502.000000 50.268000 1.000000 8.000000 11.000000 110.105308 24.780967 478.116030 507.060608 19.883525 0.000000 0.079115
503.000000 47.299000 2.000000 8.000000 11.000000 103.439545 20.698310 568.338554 666.059186 21.134011 0.000000 0.119627
505.000000 51.255000 -1.000000 9.000000 11.000000 118.037448 40.320651 61.568932 189.226600 19.497328 0.000000 0.117318
506.000000 49.412000 0.000000 9.000000 11.000000 112.568692 34.483290 235.745500 398.317853 20.226407 0.000000 0.021471
507.000000 47.128000 1.000000 9.000000 11.000000 106.734691 29.538840 365.098485 569.038924 21.209367 0.000000 0.061709
509.000000 47.736000 -1.000000 10.000000 11.000000 113.428750 43.910328 -61.114870 293.611662 20.936093 0.000000 0.154677
510.000000 46.094000 0.000000 10.000000 11.000000 108.563948 38.377981 122.612938 479.915100 21.683994 0.000000 0.055870
515.000000 55.935000 1.000000 -1.000000 12.000000 108.046609 -48.291099 2182.628437 413.940012 17.868617 0.000000 0.226029
516.000000 51.843000 2.000000 -1.000000 12.000000 100.306648 -44.290233 2024.953459 667.569410 19.281697 0.000000 0.133813
517.000000 47.492000 3.000000 -1.000000 12.000000 92.743668 -41.057640 1912.510961 872.597439 21.051109 0.000000 0.110489
518.000000 57.752000 1.000000 0.000000 12.000000 112.756081 -41.124905 1914.735506 341.669849 17.305511 0.000000 0.104934
520.000000 62.501000 0.000000 1.000000 12.000000 125.481422 -36.511455 1771.748934 -13.523617 15.987458 0.000000 0.118096
521.000000 58.787000 1.000000 1.000000 12.000000 116.537534 -33.115112 1677.031992 299.264772 16.999794 0.000000 0.018748
522.000000 54.565000 2.000000 1.000000 12.000000 107.816966 -30.579669 1611.003266 539.207932 18.318008 0.000000 0.052842
523.000000 50.062000 3.000000 1.000000 12.000000 99.459601 -28.621684 1562.343219 736.705759 19.968748 0.000000 0.094689
524.000000 45.485000 4.000000 1.000000 12.000000 91.554495 -27.067407 1524.995259 908.199224 21.981850 0.000000 0.117067
526.000000 59.017000 1.000000 2.000000 12.000000 119.187552 -24.464346 1464.686938 280.484652 16.933176 0.000000 0.040495
527.000000 50.426000 3.000000 2.000000 12.000000 101.707672 -21.924422 1408.200523 700.571401 19.824203 0.000000 0.120935
529.000000 64.797000 -1.000000 3.000000 12.000000 139.436721 -16.281194 1289.347038 -368.894282 15.418310 0.000000 0.060348
530.000000 58.478000 1.000000 3.000000 12.000000 120.596893 -15.518047 1273.847932 280.481721 17.089058 0.000000 0.078785
531.000000 54.476000 2.000000 3.000000 12.000000 111.647626 -15.293616 1269.311903 498.146877 18.347174 0.000000 0.118028
532.000000 45.802000 4.000000 3.000000 12.000000 95.104398 -14.989810 1263.187031 841.473317 21.828980 0.000000 0.151335
533.000000 63.233000 -1.000000 4.000000 12.000000 139.023007 -3.457934 1040.035861 -300.399657 15.799726 0.000000 0.014243
534.000000 57.261000 1.000000 4.000000 12.000000 120.782010 -6.698413 1101.405288 295.451201 17.452346 0.000000 0.100703
535.000000 49.404000 3.000000 4.000000 12.000000 103.741085 -8.406863 1134.065043 674.951211 20.233850 0.000000 0.155051
537.000000 61.051000 -1.000000 5.000000 12.000000 136.958812 8.034484 823.076072 -222.947296 16.364796 0.000000 0.016645
538.000000 58.572000 0.000000 5.000000 12.000000 128.387984 4.286622 894.325750 85.915132 17.059403 0.000000 0.063014
539.000000 55.491000 1.000000 5.000000 12.000000 119.879201 1.606122 944.821282 322.380085 18.009278 0.000000 0.109818
540.000000 51.965000 2.000000 5.000000 12.000000 111.582263 -0.398079 982.477987 515.240051 19.234073 0.000000 0.142533
541.000000 48.163000 3.000000 5.000000 12.000000 103.602924 -1.949759 1011.640124 680.407996 20.755507 0.000000 0.160913
542.000000 58.421000 -1.000000 6.000000 12.000000 133.723237 17.649564 632.554314 -139.211496 17.102155 0.000000 0.030234
543.000000 53.308000 1.000000 6.000000 12.000000 118.102970 9.131199 802.004431 358.863585 18.747286 0.000000 0.108975
545.000000 55.506000 -1.000000 7.000000 12.000000 129.785018 25.400967 463.915631 -51.173211 18.001357 0.000000 0.042055
546.000000 53.422000 0.000000 7.000000 12.000000 122.834582 19.987921 583.517864 201.938304 18.705651 0.000000 0.049049
547.000000 50.848000 1.000000 7.000000 12.000000 115.692014 15.761739 671.215543 402.969123 19.654865 0.000000 0.100550
548.000000 47.901000 2.000000 7.000000 12.000000 108.544849 12.404517 738.272410 571.309621 20.867035 0.000000 0.135456
549.000000 52.445000 -1.000000 8.000000 12.000000 125.506903 31.571597 313.594593 39.684266 19.052783 0.000000 0.058797
550.000000 48.233000 1.000000 8.000000 12.000000 112.866953 21.501838 550.996533 453.134242 20.721463 0.000000 0.086737
552.000000 49.354000 -1.000000 9.000000 12.000000 121.135709 36.493935 178.760428 132.240923 20.247564 0.000000 0.082683
553.000000 45.561000 1.000000 9.000000 12.000000 109.808788 26.425921 440.115839 508.089095 21.937389 0.000000 0.070099
554.000000 46.314000 -1.000000 10.000000 12.000000 116.826651 40.457519 57.137071 225.645824 21.577503 0.000000 0.112715
556.000000 46.655000 2.000000 -2.000000 13.000000 97.415580 -49.941449 2255.018821 723.333210 21.426722 0.000000 0.247683
558.000000 52.061000 1.000000 -1.000000 13.000000 109.037668 -48.115496 2175.202460 384.720596 19.197962 0.000000 0.225478
559.000000 48.601000 2.000000 -1.000000 13.000000 101.840221 -44.362385 2027.601923 625.391990 20.567438 0.000000 0.134801
561.000000 57.648000 0.000000 1.000000 13.000000 125.193090 -37.247724 1793.365701 -12.546334 17.333367 0.000000 0.125555
562.000000 54.501000 1.000000 1.000000 13.000000 116.964570 -33.990122 1700.699704 280.598576 18.336493 0.000000 0.030206
563.000000 50.941000 2.000000 1.000000 13.000000 108.907769 -31.504103 1634.660013 508.605239 19.620805 0.000000 0.041827
564.000000 47.134000 3.000000 1.000000 13.000000 101.140311 -29.551357 1585.212198 697.358621 21.208812 0.000000 0.084818
566.000000 57.871000 0.000000 2.000000 13.000000 128.096527 -28.038053 1548.193065 -15.019861 17.265999 0.000000 0.053125
567.000000 54.771000 1.000000 2.000000 13.000000 119.560552 -25.970259 1499.252385 261.994577 18.245555 0.000000 0.028548
568.000000 51.258000 2.000000 2.000000 13.000000 111.278357 -24.423626 1463.763963 480.642822 19.498787 0.000000 0.077603
569.000000 47.495000 3.000000 2.000000 13.000000 103.338678 -23.224786 1436.851557 663.304422 21.047095 0.000000 0.111164
571.000000 59.874000 -1.000000 3.000000 13.000000 138.519271 -19.220337 1350.233740 -348.215613 16.686260 0.000000 0.070366
572.000000 57.425000 0.000000 3.000000 13.000000 129.703216 -18.288236 1330.705154 -0.198816 17.399856 0.000000 0.030431
573.000000 54.424000 1.000000 3.000000 13.000000 121.088845 -17.632928 1317.101574 260.029321 18.361731 0.000000 0.067845
574.000000 51.018000 2.000000 3.000000 13.000000 112.765844 -17.147177 1307.081693 468.311634 19.590393 0.000000 0.107224
575.000000 47.361000 3.000000 3.000000 13.000000 104.804155 -16.772763 1299.394209 643.908031 21.106233 0.000000 0.133293
577.000000 58.714000 -1.000000 4.000000 13.000000 138.620861 -7.419366 1115.156152 -291.027719 17.015889 0.000000 0.023889
578.000000 56.379000 0.000000 4.000000 13.000000 129.988322 -8.531766 1136.463360 28.153856 17.722566 0.000000 0.048277
579.000000 53.520000 1.000000 4.000000 13.000000 121.541887 -9.318220 1151.601395 271.529047 18.671985 0.000000 0.092157
580.000000 50.270000 2.000000 4.000000 13.000000 113.368401 -9.903477 1162.910719 468.915871 19.881851 0.000000 0.126476
581.000000 46.773000 3.000000 4.000000 13.000000 105.535892 -10.355902 1171.680800 636.836187 21.371634 0.000000 0.148277
583.000000 57.029000 -1.000000 5.000000 13.000000 137.238237 3.535779 908.496385 -225.068762 17.518779 0.000000 0.013205
584.000000 54.833000 0.000000 5.000000 13.000000 129.072438 0.695750 961.929778 67.114303 18.222751 0.000000 0.060890
585.000000 52.145000 1.000000 5.000000 13.000000 121.006635 -1.360868 1000.568555 293.945004 19.164351 0.000000 0.104488
586.000000 49.088000 2.000000 5.000000 13.000000 113.148847 -2.915254 1029.810007 480.240368 20.360547 0.000000 0.136576
587.000000 45.791000 3.000000 5.000000 13.000000 105.578885 -4.129710 1052.710719 640.139592 21.829960 0.000000 0.156347
589.000000 54.942000 -1.000000 6.000000 13.000000 134.709026 13.056731 725.395136 -152.692991 18.184920 0.000000 0.023836
590.000000 52.897000 0.000000 6.000000 13.000000 127.181420 9.014642 804.249768 114.388129 18.889929 0.000000 0.063101
591.000000 50.401000 1.000000 6.000000 13.000000 119.640586 5.983752 862.185483 325.215816 19.827829 0.000000 0.107299
592.000000 47.561000 2.000000 6.000000 13.000000 112.219580 3.638900 906.551645 500.455132 21.014907 0.000000 0.139095
595.000000 52.573000 -1.000000 7.000000 13.000000 131.409988 20.991095 562.041246 -75.685758 19.005058 0.000000 0.031398
596.000000 50.687000 0.000000 7.000000 13.000000 124.579932 16.259529 661.094604 168.159471 19.714429 0.000000 0.056375
597.000000 48.391000 1.000000 7.000000 13.000000 117.634083 12.574286 734.926834 363.663808 20.652288 0.000000 0.102629
598.000000 45.777000 2.000000 7.000000 13.000000 110.719728 9.645310 792.082845 528.041074 21.834292 0.000000 0.135508
601.000000 50.034000 -1.000000 8.000000 13.000000 127.665727 27.471222 415.403559 4.585570 19.970627 0.000000 0.041123
602.000000 48.305000 0.000000 8.000000 13.000000 121.515814 22.438113 530.545697 226.980597 20.687309 0.000000 0.042523
603.000000 46.209000 1.000000 8.000000 13.000000 115.175620 18.374187 617.503026 407.916013 21.628378 0.000000 0.092272
606.000000 47.417000 -1.000000 9.000000 13.000000 123.718256 32.737315 283.041085 87.065330 21.073683 0.000000 0.057528
607.000000 45.841000 0.000000 9.000000 13.000000 118.191682 27.655110 411.008112 289.689975 21.800296 0.000000 0.023399
612.000000 48.680000 1.000000 -1.000000 14.000000 109.889917 -47.960971 2168.709676 359.492307 20.531147 0.000000 0.225202
613.000000 45.718000 2.000000 -1.000000 14.000000 103.165362 -44.426676 2029.967342 588.472804 21.863796 0.000000 0.136484
614.000000 49.986000 1.000000 0.000000 14.000000 113.954363 -41.685155 1933.443095 300.716795 19.993757 0.000000 0.119303
615.000000 46.961000 2.000000 0.000000 14.000000 106.808320 -38.611760 1834.556198 524.918481 21.284267 0.000000 0.058485
617.000000 53.491000 0.000000 1.000000 14.000000 124.939613 -37.873654 1812.077700 -11.586823 18.680553 0.000000 0.132156
618.000000 50.791000 1.000000 1.000000 14.000000 117.322335 -34.751385 1721.690451 264.240130 19.675817 0.000000 0.040668
619.000000 47.751000 2.000000 1.000000 14.000000 109.838726 -32.322879 1656.006682 481.485787 20.931265 0.000000 0.032436
621.000000 51.080000 1.000000 2.000000 14.000000 119.854359 -27.282234 1530.094339 245.922870 19.563920 0.000000 0.018079
623.000000 55.610000 -1.000000 3.000000 14.000000 137.650109 -21.654946 1402.329466 -329.427766 17.965670 0.000000 0.079064
624.000000 53.461000 0.000000 3.000000 14.000000 129.471639 -20.397507 1375.216955 -4.627677 18.689858 0.000000 0.029623
625.000000 50.867000 1.000000 3.000000 14.000000 121.460182 -19.489200 1355.907492 242.450635 19.645732 0.000000 0.057498
626.000000 47.937000 2.000000 3.000000 14.000000 113.692029 -18.802661 1341.456239 442.093955 20.849345 0.000000 0.096701
627.000000 54.744000 -1.000000 4.000000 14.000000 138.127646 -10.788014 1180.080782 -281.317325 18.249984 0.000000 0.032363
628.000000 50.192000 1.000000 4.000000 14.000000 122.118667 -11.647433 1196.860205 251.148019 19.909880 0.000000 0.083584
630.000000 53.432000 -1.000000 5.000000 14.000000 137.284288 -0.424747 982.978967 -224.759391 18.698245 0.000000 0.014340
631.000000 51.476000 0.000000 5.000000 14.000000 129.524725 -2.510669 1022.192817 52.137878 19.410910 0.000000 0.057607
632.000000 49.116000 1.000000 5.000000 14.000000 121.882976 -4.042328 1051.060886 269.839750 20.345869 0.000000 0.098501
633.000000 46.447000 2.000000 5.000000 14.000000 114.438921 -5.213191 1073.200308 449.857819 21.517919 0.000000 0.130019
635.000000 51.763000 -1.000000 6.000000 14.000000 135.352679 8.872575 806.984592 -161.823171 19.301572 0.000000 0.021135
636.000000 47.714000 1.000000 6.000000 14.000000 120.867433 3.088828 916.920466 296.745789 20.943991 0.000000 0.104372
639.000000 49.828000 -1.000000 7.000000 14.000000 132.626783 16.856975 648.879413 -94.109249 20.051711 0.000000 0.026607
640.000000 46.063000 1.000000 7.000000 14.000000 119.221900 9.592972 793.094247 330.401149 21.695257 0.000000 0.102974
642.000000 47.714000 -1.000000 8.000000 14.000000 129.386057 23.542345 506.067789 -22.866891 20.940986 0.000000 0.031034
644.000000 46.624000 -2.000000 9.000000 14.000000 131.037434 34.745456 228.474530 -199.139424 21.429897 0.000000 0.133928
645.000000 45.498000 -1.000000 9.000000 14.000000 125.856992 29.080049 376.433069 50.921516 21.962246 0.000000 0.040269
647.000000 45.705000 1.000000 -1.000000 15.000000 110.630517 -47.823946 2162.984578 337.484640 21.867370 0.000000 0.225107
649.000000 49.890000 0.000000 1.000000 15.000000 124.715267 -38.412201 1828.433566 -10.662603 20.028765 0.000000 0.138033
650.000000 47.549000 1.000000 1.000000 15.000000 117.625997 -35.419504 1740.434095 249.781570 21.017242 0.000000 0.050177
653.000000 50.162000 0.000000 2.000000 15.000000 127.444596 -30.566003 1610.656983 -16.230306 19.919715 0.000000 0.068703
654.000000 47.844000 1.000000 2.000000 15.000000 120.088914 -28.434325 1557.783709 231.819117 20.887094 0.000000 0.010429
656.000000 51.889000 -1.000000 3.000000 15.000000 136.837825 -23.697758 1447.409920 -312.337914 19.254416 0.000000 0.086754
657.000000 47.725000 1.000000 3.000000 15.000000 121.742315 -21.128295 1390.918172 227.182613 20.938872 0.000000 0.047810
659.000000 51.238000 -1.000000 4.000000 15.000000 137.589606 -13.668906 1236.753542 -271.607383 19.498747 0.000000 0.039979
660.000000 49.405000 0.000000 4.000000 15.000000 129.996549 -13.701370 1237.399533 11.543197 20.224230 0.000000 0.038012
661.000000 47.220000 1.000000 4.000000 15.000000 122.557860 -13.725310 1237.876022 233.595565 21.162573 0.000000 0.075144
664.000000 50.209000 -1.000000 5.000000 15.000000 137.171097 -3.906561 1048.498212 -222.820794 19.898637 0.000000 0.017739
665.000000 46.374000 1.000000 5.000000 15.000000 122.565678 -6.467395 1097.007856 249.186556 21.548911 0.000000 0.092128
667.000000 48.865000 -1.000000 6.000000 15.000000 135.739356 5.083740 879.251154 -167.798163 20.446153 0.000000 0.020382
669.000000 48.488000 -2.000000 7.000000 15.000000 139.875587 17.587153 633.844934 -398.653250 20.604144 0.000000 0.058828
670.000000 47.276000 -1.000000 7.000000 15.000000 133.518761 13.012436 726.271809 -107.971446 21.133891 0.000000 0.025279
671.000000 45.723000 0.000000 7.000000 15.000000 127.027166 9.531725 794.277403 117.788515 21.853966 0.000000 0.062909
673.000000 46.646000 -2.000000 8.000000 15.000000 136.505902 24.863086 476.243419 -309.295029 21.418695 0.000000 0.083170
674.000000 45.510000 -1.000000 8.000000 15.000000 130.742967 19.808856 587.322294 -44.476515 21.954934 0.000000 0.027025
677.000000 46.742000 0.000000 1.000000 16.000000 124.515454 -38.880390 1842.851951 -9.782222 21.377815 0.000000 0.143296
680.000000 48.616000 -1.000000 3.000000 16.000000 136.084112 -25.432165 1486.802740 -296.760683 20.550871 0.000000 0.093640
681.000000 46.926000 0.000000 3.000000 16.000000 128.963947 -23.809750 1449.921129 -10.419513 21.292991 0.000000 0.035039
682.000000 48.126000 -1.000000 4.000000 16.000000 137.035639 -16.148994 1286.653639 -262.096794 20.759663 0.000000 0.046951
685.000000 47.313000 -1.000000 5.000000 16.000000 136.951247 -6.969998 1106.580278 -219.795605 21.116425 0.000000 0.021911
686.000000 45.741000 0.000000 5.000000 16.000000 129.964321 -7.934579 1125.010299 30.304717 21.844604 0.000000 0.049365
688.000000 46.225000 -1.000000 6.000000 16.000000 135.934570 1.665424 943.706394 -171.461215 21.614029 0.000000 0.020533
690.000000 46.037000 -2.000000 7.000000 16.000000 140.371080 13.301936 720.536420 -394.510302 21.700724 0.000000 0.040521
695.000000 45.718000 -1.000000 3.000000 17.000000 135.387174 -26.920538 1521.520434 -282.526586 21.853763 0.000000 0.099871
#UB matrix in q= (UB) B0 G* 
#[[ 0.276688584 -0.250727574 -0.926429535]
# [-0.23049014   0.919481269 -0.317694787]
# [ 0.932908207  0.301874815  0.196849474]]
#B0 matrix in q= UB (B0) G*
#[[ 0.19670273 -0.          0.03056101]
# [ 0.          0.19187965 -0.        ]
# [ 0.          0.          0.18806537]]
#UBB0 matrix in q= (UB B0) G* i.e. recip. basis vectors are columns in LT frame: astar = UBB0[:,0], bstar = UBB0[:,1], cstar = UBB0[:,2]. (abcstar as columns on xyzlab1, xlab1 = ui, ui = unit vector along incident beam)
#[[ 0.0544254  -0.04810952 -0.16577343]
# [-0.04533804  0.17642975 -0.0667914 ]
# [ 0.18350559  0.05792363  0.06553118]]
#Euler angles phi theta psi (deg)
#[107.919  78.657 108.896]
#deviatoric strain in direct crystal frame (10-3 unit)
#[[ 4.36 -0.19 -0.79]
# [-0.19  4.53  0.33]
# [-0.79  0.33 -8.88]]
#deviatoric strain in sample2 frame (10-3 unit)
#[[ 0.59 -2.68  5.4 ]
# [-2.68  2.93  3.59]
# [ 5.41  3.58 -3.52]]
#new lattice parameters
#[ 5.1505     5.2124828  5.3221623 89.9765212 99.2692353 90.0216937]
#CCDLabel
#sCMOS
#DetectorParameters
#[79.0, 975.0, 941.0, 0.0, 0.0]
#pixelsize
#0.0734
#Frame dimensions
#[2018, 2016]
#
