#Strain and Orientation Refinement from experimental file: /home/micha/LaueProjects/DepthEffects/testZrO2_59.cor
#File created at Wed Jun 28 14:22:07 2023 with indexingSpotsSet.py
#Number of indexed spots: 534
#Element
#ZrO2
#grainIndex
#G_0
#Mean Deviation(pixel): 0.114
##spot_index intensity h k l 2theta Chi Xexp Yexp Energy GrainIndex PixDev
1.000000 45.475000 4.000000 -5.000000 -17.000000 141.460807 8.096278 821.891976 -423.792293 21.969867 0.000000 0.025780
4.000000 45.685000 5.000000 -4.000000 -17.000000 140.226424 -5.835657 1085.002744 -358.756429 21.869323 0.000000 0.023064
11.000000 46.722000 3.000000 -6.000000 -16.000000 137.997780 21.947610 541.293244 -347.646096 21.384303 0.000000 0.076710
12.000000 45.915000 2.000000 -3.000000 -8.000000 134.114577 14.203421 702.587298 -135.438798 10.880771 0.000000 0.026905
15.000000 47.621000 4.000000 -5.000000 -16.000000 138.928482 8.333527 817.342381 -307.197609 20.980744 0.000000 0.019921
16.000000 46.426000 5.000000 -5.000000 -16.000000 133.852346 1.782877 941.498058 -93.519168 21.522076 0.000000 0.029028
19.000000 47.837000 5.000000 -4.000000 -16.000000 137.647848 -5.516446 1078.947165 -245.164787 20.886060 0.000000 0.017090
20.000000 46.262000 3.000000 -2.000000 -8.000000 131.660946 -10.237447 1169.382207 -32.120429 10.799498 0.000000 0.031866
22.000000 48.969000 5.000000 -3.000000 -16.000000 140.786405 -14.309130 1249.526637 -420.259255 20.402477 0.000000 0.060350
23.000000 47.326000 6.000000 -3.000000 -16.000000 134.252168 -18.120448 1327.212398 -162.276039 21.112587 0.000000 0.042937
25.000000 48.078000 3.000000 -1.000000 -8.000000 136.016426 -26.940917 1522.002063 -309.933533 10.390784 0.000000 0.111392
26.000000 46.104000 7.000000 -2.000000 -16.000000 129.195154 -28.654071 1563.133016 -59.138786 21.673327 0.000000 0.073513
28.000000 46.475000 7.000000 -1.000000 -16.000000 129.791207 -36.773219 1779.386653 -178.153775 21.500041 0.000000 0.168074
31.000000 47.199000 2.000000 -7.000000 -15.000000 132.227820 34.015602 248.603848 -237.542767 21.169602 0.000000 0.137944
32.000000 46.646000 3.000000 -7.000000 -15.000000 129.444613 26.010636 449.808863 -44.278731 21.421421 0.000000 0.046821
33.000000 45.734000 4.000000 -7.000000 -15.000000 125.909216 18.924421 605.989511 117.094639 21.850193 0.000000 0.039467
35.000000 48.893000 1.000000 -2.000000 -5.000000 135.133091 22.077011 538.465188 -225.860959 6.811822 0.000000 0.059767
36.000000 47.913000 4.000000 -6.000000 -15.000000 131.058889 14.373208 699.190990 -26.846464 20.855061 0.000000 0.031388
37.000000 46.570000 5.000000 -6.000000 -15.000000 126.389981 7.948606 824.721077 140.083077 21.457684 0.000000 0.067133
40.000000 49.913000 4.000000 -5.000000 -15.000000 136.098963 8.567504 812.850130 -190.015701 20.017905 0.000000 0.019254
41.000000 48.475000 2.000000 -2.000000 -6.000000 130.777052 2.029685 936.856663 12.136927 8.245355 0.000000 0.047003
42.000000 46.701000 6.000000 -5.000000 -15.000000 125.129212 -3.152427 1034.277779 182.599978 21.398324 0.000000 0.077695
44.000000 51.659000 4.000000 -4.000000 -15.000000 140.810319 1.089417 954.532963 -379.391188 19.340242 0.000000 0.004900
45.000000 50.133000 5.000000 -4.000000 -15.000000 134.763927 -5.200817 1072.965926 -130.874217 19.930264 0.000000 0.022994
46.000000 48.249000 6.000000 -4.000000 -15.000000 128.490737 -9.939733 1163.612623 72.118923 20.710238 0.000000 0.047924
47.000000 46.082000 7.000000 -4.000000 -15.000000 122.177229 -13.592056 1235.225029 244.306670 21.686464 0.000000 0.070827
50.000000 51.475000 5.000000 -3.000000 -15.000000 138.086376 -13.915109 1241.657120 -294.225971 19.409882 0.000000 0.045049
51.000000 49.499000 2.000000 -1.000000 -5.000000 131.221216 -17.768006 1319.897450 -49.159277 6.728883 0.000000 0.028899
52.000000 47.226000 7.000000 -3.000000 -15.000000 124.430598 -20.629883 1380.193208 152.649070 21.160244 0.000000 0.029990
55.000000 50.389000 6.000000 -2.000000 -15.000000 133.101613 -26.538995 1512.535454 -184.867306 19.829176 0.000000 0.085891
56.000000 48.038000 7.000000 -2.000000 -15.000000 125.947965 -28.304026 1554.622316 54.536937 20.801974 0.000000 0.046581
57.000000 45.470000 8.000000 -2.000000 -15.000000 119.044264 -29.634119 1587.268299 253.371534 21.978893 0.000000 0.010256
60.000000 48.476000 7.000000 -1.000000 -15.000000 126.600070 -36.399871 1768.508841 -52.084281 20.613338 0.000000 0.137204
61.000000 45.859000 8.000000 -1.000000 -15.000000 119.548733 -36.726642 1778.023817 179.741313 21.792040 0.000000 0.091430
65.000000 46.469000 1.000000 -4.000000 -7.000000 122.795706 36.198047 187.328001 81.610914 10.752576 0.000000 0.090851
66.000000 45.830000 3.000000 -8.000000 -14.000000 120.236471 29.096331 376.032560 223.063029 21.806204 0.000000 0.012142
68.000000 49.242000 2.000000 -7.000000 -14.000000 128.922527 34.050438 247.650982 -108.018366 20.292097 0.000000 0.111948
69.000000 48.555000 3.000000 -7.000000 -14.000000 125.991557 26.096460 447.811340 70.528276 20.580462 0.000000 0.027728
70.000000 47.454000 4.000000 -7.000000 -14.000000 122.288608 19.047140 603.411376 221.502263 21.059525 0.000000 0.055929
71.000000 45.981000 5.000000 -7.000000 -14.000000 118.010587 12.933117 727.840887 353.567063 21.735863 0.000000 0.098646
74.000000 51.188000 3.000000 -6.000000 -14.000000 131.924562 22.204514 535.673520 -102.955694 19.520262 0.000000 0.041837
75.000000 49.991000 2.000000 -3.000000 -7.000000 127.644426 14.540825 695.833039 83.339829 9.994400 0.000000 0.045698
76.000000 48.383000 5.000000 -6.000000 -14.000000 122.759747 8.137738 821.097315 241.400852 20.655054 0.000000 0.086334
77.000000 46.430000 3.000000 -3.000000 -7.000000 117.503869 2.832397 921.750378 379.938875 10.762973 0.000000 0.116797
79.000000 53.638000 3.000000 -5.000000 -14.000000 137.911573 17.011537 645.706820 -305.167243 18.627286 0.000000 0.049191
80.000000 52.349000 4.000000 -5.000000 -14.000000 132.920989 8.798269 808.414145 -71.807037 19.087143 0.000000 0.030393
81.000000 50.609000 5.000000 -5.000000 -14.000000 127.334871 2.273696 932.266461 119.400980 19.745199 0.000000 0.067018
82.000000 48.494000 6.000000 -5.000000 -14.000000 121.431266 -2.909267 1029.697235 282.371859 20.608420 0.000000 0.097313
83.000000 46.093000 7.000000 -5.000000 -14.000000 115.415361 -7.062611 1108.346358 425.674146 21.684101 0.000000 0.118939
86.000000 54.430000 2.000000 -2.000000 -7.000000 137.888176 1.407337 948.558028 -250.023710 9.178147 0.000000 0.007297
87.000000 52.568000 5.000000 -4.000000 -14.000000 131.521724 -4.888728 1067.057669 -15.431925 19.008080 0.000000 0.039606
88.000000 50.304000 3.000000 -2.000000 -7.000000 124.942853 -9.644692 1157.905222 178.187496 9.932803 0.000000 0.067873
89.000000 47.736000 7.000000 -4.000000 -14.000000 118.353903 -13.317301 1229.768371 344.117923 20.936214 0.000000 0.090508
92.000000 54.168000 5.000000 -3.000000 -14.000000 135.039495 -13.525146 1233.895038 -167.521314 18.445508 0.000000 0.030732
93.000000 51.777000 6.000000 -3.000000 -14.000000 127.817483 -17.418386 1312.669508 65.466244 19.299358 0.000000 0.030307
94.000000 49.068000 7.000000 -3.000000 -14.000000 120.709801 -20.315861 1373.472089 259.286740 20.366963 0.000000 0.048697
95.000000 46.153000 8.000000 -3.000000 -14.000000 113.824234 -22.545769 1421.823302 426.426754 21.656072 0.000000 0.068935
97.000000 55.325000 5.000000 -2.000000 -14.000000 137.559408 -23.623566 1445.748673 -343.675289 18.059315 0.000000 0.096657
98.000000 52.837000 3.000000 -1.000000 -7.000000 129.819670 -26.139626 1503.194450 -58.596368 9.455775 0.000000 0.058497
99.000000 50.021000 7.000000 -2.000000 -14.000000 122.312878 -27.955764 1546.210357 170.326295 19.978270 0.000000 0.019087
100.000000 46.995000 4.000000 -1.000000 -7.000000 115.112516 -29.325844 1579.626711 362.390482 10.633638 0.000000 0.015997
102.000000 53.422000 6.000000 -1.000000 -14.000000 130.743372 -35.527525 1743.493650 -198.267655 18.704089 0.000000 0.159300
103.000000 50.542000 7.000000 -1.000000 -14.000000 123.022421 -36.027789 1757.771414 76.000489 19.772085 0.000000 0.105509
104.000000 47.449000 8.000000 -1.000000 -14.000000 115.655687 -36.401247 1768.548747 298.717864 21.063208 0.000000 0.065831
107.000000 47.488000 8.000000 0.000000 -14.000000 115.398988 -43.568155 1998.801108 235.686031 21.045894 0.000000 0.177091
111.000000 48.457000 1.000000 -8.000000 -13.000000 120.735877 43.765435 -55.883426 54.834857 20.623399 0.000000 0.193323
112.000000 48.116000 2.000000 -8.000000 -13.000000 118.865554 36.214967 186.839837 205.628205 20.770169 0.000000 0.064611
113.000000 47.331000 3.000000 -8.000000 -13.000000 116.176143 29.153995 374.613068 335.208496 21.116003 0.000000 0.022139
114.000000 46.128000 4.000000 -8.000000 -13.000000 112.800504 22.726153 524.198990 450.472767 21.668197 0.000000 0.080920
116.000000 51.347000 2.000000 -7.000000 -13.000000 125.219462 34.084789 246.710637 23.611268 19.461250 0.000000 0.084021
117.000000 50.491000 3.000000 -7.000000 -13.000000 122.129468 26.181172 445.836797 187.793872 19.792411 0.000000 0.020878
118.000000 49.159000 4.000000 -7.000000 -13.000000 118.249782 19.168425 600.859616 328.746612 20.330331 0.000000 0.074850
119.000000 47.409000 5.000000 -7.000000 -13.000000 113.791261 13.078179 724.970547 453.858369 21.082711 0.000000 0.115807
121.000000 54.517000 2.000000 -6.000000 -13.000000 131.918306 31.243645 322.051930 -189.244566 18.328052 0.000000 0.106120
122.000000 53.589000 3.000000 -6.000000 -13.000000 128.312461 22.330161 532.917541 21.673414 18.646570 0.000000 0.027994
123.000000 52.124000 4.000000 -6.000000 -13.000000 123.811448 14.706309 692.512798 195.758037 19.172297 0.000000 0.064854
124.000000 50.189000 5.000000 -6.000000 -13.000000 118.700094 8.324800 817.509838 345.468817 19.912980 0.000000 0.105785
125.000000 47.877000 6.000000 -6.000000 -13.000000 113.228789 3.028386 918.059098 478.413400 20.876758 0.000000 0.133453
127.000000 56.513000 3.000000 -5.000000 -13.000000 134.598579 17.200831 641.814163 -170.008569 17.680426 0.000000 0.034999
128.000000 54.915000 4.000000 -5.000000 -13.000000 129.332081 9.025879 804.033377 47.999012 18.196090 0.000000 0.048976
129.000000 52.799000 5.000000 -5.000000 -13.000000 123.463690 2.514950 927.726610 228.910966 18.927264 0.000000 0.088278
130.000000 50.269000 6.000000 -5.000000 -13.000000 117.293346 -2.668387 1025.161604 385.038570 19.882137 0.000000 0.116705
131.000000 47.441000 7.000000 -5.000000 -13.000000 111.041737 -6.829237 1103.897377 523.990835 21.069321 0.000000 0.135049
133.000000 59.132000 3.000000 -4.000000 -13.000000 140.764253 10.171396 781.898757 -398.031803 16.895955 0.000000 0.031749
134.000000 57.411000 4.000000 -4.000000 -13.000000 134.570108 1.720734 942.666507 -119.741660 17.403736 0.000000 0.024933
135.000000 55.124000 5.000000 -4.000000 -13.000000 127.856706 -4.580138 1061.221064 101.753098 18.127637 0.000000 0.060855
136.000000 52.390000 6.000000 -4.000000 -13.000000 120.954058 -9.352306 1152.259006 286.775064 19.075904 0.000000 0.089321
137.000000 49.340000 7.000000 -4.000000 -13.000000 114.081758 -13.044569 1224.364126 447.219373 20.257207 0.000000 0.109758
138.000000 46.106000 8.000000 -4.000000 -13.000000 107.383998 -15.963780 1282.886218 590.524071 21.680667 0.000000 0.122778
140.000000 59.481000 4.000000 -3.000000 -13.000000 139.164935 -7.655400 1119.667669 -315.556707 16.797288 0.000000 0.026047
141.000000 57.045000 5.000000 -3.000000 -13.000000 131.580123 -13.139216 1226.238207 -39.582306 17.516205 0.000000 0.028444
142.000000 54.134000 6.000000 -3.000000 -13.000000 123.975427 -17.071579 1305.527028 182.271219 18.460218 0.000000 0.048142
143.000000 50.893000 7.000000 -3.000000 -13.000000 116.537239 -20.003871 1366.821422 368.996515 19.638058 0.000000 0.070598
144.000000 47.465000 8.000000 -3.000000 -13.000000 109.381321 -22.263643 1415.622816 531.870860 21.058914 0.000000 0.088697
147.000000 58.448000 5.000000 -2.000000 -13.000000 134.279928 -23.161217 1435.438197 -200.585467 17.095105 0.000000 0.070235
148.000000 55.401000 6.000000 -2.000000 -13.000000 126.103712 -25.742824 1493.976570 69.557545 18.037270 0.000000 0.030406
149.000000 52.014000 7.000000 -2.000000 -13.000000 118.225267 -27.609296 1537.895430 289.045757 19.214123 0.000000 0.012172
150.000000 48.439000 8.000000 -2.000000 -13.000000 110.723495 -29.018884 1572.063484 475.338640 20.634922 0.000000 0.041263
153.000000 56.109000 6.000000 -1.000000 -13.000000 127.113661 -35.094988 1731.291647 -54.353726 17.809288 0.000000 0.124410
154.000000 52.633000 7.000000 -1.000000 -13.000000 118.992483 -35.656998 1747.171673 206.969886 18.987685 0.000000 0.074212
155.000000 48.969000 8.000000 -1.000000 -13.000000 111.303293 -36.076815 1759.180366 421.714916 20.411034 0.000000 0.047773
160.000000 46.457000 1.000000 -9.000000 -12.000000 110.131838 44.543616 -84.283189 387.419469 21.514768 0.000000 0.148974
161.000000 46.026000 2.000000 -9.000000 -12.000000 108.347951 37.873083 137.939515 488.805600 21.716961 0.000000 0.044519
163.000000 50.154000 1.000000 -8.000000 -12.000000 116.465715 43.735524 -54.806626 199.424951 19.926775 0.000000 0.164856
164.000000 49.701000 1.000000 -4.000000 -6.000000 114.476730 36.231681 186.357396 333.577071 10.054582 0.000000 0.040920
165.000000 48.737000 3.000000 -8.000000 -12.000000 111.650686 29.210996 373.208342 451.514532 20.508270 0.000000 0.043679
166.000000 47.301000 1.000000 -2.000000 -3.000000 108.130683 22.814944 522.237178 558.661352 5.283178 0.000000 0.097893
167.000000 45.457000 5.000000 -8.000000 -12.000000 104.084512 17.100795 643.872302 658.471981 21.991576 0.000000 0.132768
169.000000 53.947000 1.000000 -7.000000 -12.000000 123.303990 42.681313 -17.526017 -20.863845 18.523879 0.000000 0.192079
170.000000 53.473000 2.000000 -7.000000 -12.000000 121.051558 34.118664 245.782567 158.249398 18.688712 0.000000 0.054749
171.000000 52.406000 3.000000 -7.000000 -12.000000 117.791670 26.264795 443.884838 308.426537 19.070652 0.000000 0.036468
172.000000 50.792000 4.000000 -7.000000 -12.000000 113.727902 19.288300 598.333826 439.780324 19.678369 0.000000 0.094062
173.000000 48.711000 5.000000 -7.000000 -12.000000 109.086836 13.221742 722.126521 558.435662 20.521002 0.000000 0.131321
174.000000 46.264000 6.000000 -7.000000 -12.000000 104.083104 8.008899 823.566234 668.331460 21.608190 0.000000 0.153313
176.000000 57.238000 1.000000 -3.000000 -6.000000 128.043036 31.305939 320.450001 -44.710460 8.728896 0.000000 0.077169
177.000000 56.063000 1.000000 -2.000000 -4.000000 124.224338 22.453989 530.196573 148.825121 5.941643 0.000000 0.031746
178.000000 54.261000 2.000000 -3.000000 -6.000000 119.488483 14.869700 689.229636 311.258737 9.209177 0.000000 0.085875
179.000000 51.929000 5.000000 -6.000000 -12.000000 114.142439 8.509822 813.958103 453.223083 19.247258 0.000000 0.124435
180.000000 49.190000 2.000000 -2.000000 -4.000000 108.455442 3.222543 914.401014 581.238571 6.773781 0.000000 0.147977
181.000000 46.175000 7.000000 -6.000000 -12.000000 102.642071 -1.172161 997.021978 699.539266 21.650854 0.000000 0.159839
183.000000 60.855000 2.000000 -5.000000 -12.000000 135.374741 27.400640 417.086777 -287.264848 16.418630 0.000000 0.098057
184.000000 59.572000 3.000000 -5.000000 -12.000000 130.821382 17.387043 637.977105 -33.248895 16.773388 0.000000 0.028900
185.000000 57.580000 4.000000 -5.000000 -12.000000 125.255855 9.250391 799.706801 170.160924 17.355008 0.000000 0.071116
186.000000 54.995000 5.000000 -5.000000 -12.000000 119.088962 2.753484 923.236287 341.521720 18.172746 0.000000 0.109785
187.000000 51.960000 6.000000 -5.000000 -12.000000 112.645206 -2.429765 1020.670227 491.581218 19.236370 0.000000 0.134794
188.000000 48.630000 7.000000 -5.000000 -12.000000 106.161611 -6.597697 1099.487658 627.010030 20.556195 0.000000 0.148601
190.000000 62.766000 3.000000 -4.000000 -12.000000 137.349846 10.456064 776.374204 -247.136601 15.918342 0.000000 0.023037
191.000000 57.765000 5.000000 -4.000000 -12.000000 123.689981 -4.275006 1055.454817 221.470914 17.299910 0.000000 0.084284
192.000000 54.449000 3.000000 -2.000000 -6.000000 116.448827 -9.062553 1146.672996 398.811016 9.177889 0.000000 0.110732
193.000000 50.821000 7.000000 -4.000000 -12.000000 109.291430 -12.773851 1219.011544 554.707228 19.668705 0.000000 0.127301
194.000000 47.046000 2.000000 -1.000000 -3.000000 102.370273 -15.712306 1277.782116 695.783865 5.312418 0.000000 0.135506
196.000000 63.126000 4.000000 -3.000000 -12.000000 135.668369 -7.236530 1111.664812 -169.548253 15.827880 0.000000 0.020908
197.000000 60.084000 5.000000 -3.000000 -12.000000 127.626794 -12.757291 1218.684498 90.340536 16.631233 0.000000 0.045184
198.000000 56.520000 2.000000 -1.000000 -4.000000 119.615632 -16.727577 1298.468503 302.158109 5.894040 0.000000 0.071491
199.000000 52.632000 7.000000 -3.000000 -12.000000 111.839124 -19.693911 1360.240105 482.862104 18.991008 0.000000 0.092322
200.000000 48.600000 8.000000 -3.000000 -12.000000 104.419573 -21.983034 1409.480426 642.564841 20.568970 0.000000 0.106267
202.000000 65.008000 2.000000 -1.000000 -6.000000 139.403016 -18.833827 1342.109672 -385.912303 7.684486 0.000000 0.077347
203.000000 61.798000 5.000000 -2.000000 -12.000000 130.517003 -22.702781 1425.285032 -56.046494 16.169240 0.000000 0.042221
204.000000 58.041000 3.000000 -1.000000 -6.000000 121.871820 -25.348602 1484.879395 200.504983 8.608994 0.000000 0.014778
205.000000 53.951000 7.000000 -2.000000 -12.000000 113.608193 -27.264635 1529.675866 411.801429 18.525772 0.000000 0.039110
206.000000 49.723000 4.000000 -1.000000 -6.000000 105.808370 -28.713249 1564.577419 593.544797 10.051877 0.000000 0.064919
207.000000 45.518000 9.000000 -2.000000 -12.000000 98.514595 -29.845554 1592.536456 755.227435 21.963744 0.000000 0.084333
209.000000 62.777000 5.000000 -1.000000 -12.000000 131.984820 -33.788023 1695.190440 -224.422519 15.916495 0.000000 0.148003
210.000000 58.901000 6.000000 -1.000000 -12.000000 122.970546 -34.664308 1719.269987 92.162838 16.966021 0.000000 0.088168
211.000000 54.688000 7.000000 -1.000000 -12.000000 114.431453 -35.287522 1736.706986 342.000567 18.275707 0.000000 0.047108
212.000000 50.340000 8.000000 -1.000000 -12.000000 106.420731 -35.753361 1749.916882 550.145619 19.856813 0.000000 0.046921
213.000000 46.025000 9.000000 -1.000000 -12.000000 98.963198 -36.114709 1760.270613 730.859417 21.721254 0.000000 0.070712
215.000000 54.783000 7.000000 0.000000 -12.000000 114.209119 -43.473170 1995.407703 274.176270 18.243575 0.000000 0.169197
216.000000 50.405000 4.000000 0.000000 -6.000000 106.189395 -42.904156 1975.299873 514.407325 9.915494 0.000000 0.132338
217.000000 46.063000 3.000000 0.000000 -4.000000 98.725135 -42.462698 1959.953688 717.093794 7.234390 0.000000 0.124815
220.000000 49.906000 8.000000 1.000000 -12.000000 105.110906 -49.947108 2255.275507 489.362460 20.029168 0.000000 0.281336
221.000000 45.623000 9.000000 1.000000 -12.000000 97.798419 -48.736024 2201.674659 717.501605 21.912466 0.000000 0.241803
224.000000 47.491000 1.000000 -9.000000 -11.000000 105.190937 44.513098 -83.155184 531.178243 21.048066 0.000000 0.134248
225.000000 46.938000 2.000000 -9.000000 -11.000000 103.300806 37.878946 137.762756 618.640919 21.297150 0.000000 0.050262
226.000000 45.892000 3.000000 -9.000000 -11.000000 100.706299 31.583909 313.275936 702.126122 21.783712 0.000000 0.072043
228.000000 51.742000 1.000000 -8.000000 -11.000000 111.675620 43.705983 -53.744186 349.241717 19.316537 0.000000 0.139685
229.000000 51.147000 2.000000 -8.000000 -11.000000 109.559393 36.248193 185.880578 466.840953 19.542203 0.000000 0.029894
230.000000 49.966000 3.000000 -8.000000 -11.000000 106.592183 29.267345 371.818152 573.374520 20.005694 0.000000 0.065004
231.000000 48.254000 4.000000 -8.000000 -11.000000 102.928665 22.902795 520.293622 672.784542 20.717350 0.000000 0.112573
232.000000 46.098000 5.000000 -8.000000 -11.000000 98.748723 17.211600 641.592460 767.602002 21.688119 0.000000 0.141508
234.000000 56.190000 1.000000 -7.000000 -11.000000 118.745059 42.654812 -16.605244 138.287174 17.785477 0.000000 0.159314
235.000000 55.553000 2.000000 -7.000000 -11.000000 116.338843 34.152073 244.866535 297.116645 17.990363 0.000000 0.026109
236.000000 54.222000 3.000000 -7.000000 -11.000000 112.899591 26.347349 441.955079 433.662308 18.433498 0.000000 0.058508
237.000000 52.265000 4.000000 -7.000000 -11.000000 108.647812 19.406788 595.833614 555.907095 19.125287 0.000000 0.111938
238.000000 49.793000 5.000000 -7.000000 -11.000000 103.827588 13.363829 719.308450 668.714245 20.076748 0.000000 0.143867
239.000000 46.940000 6.000000 -7.000000 -11.000000 98.668344 8.164708 820.580285 775.232125 21.299560 0.000000 0.160062
241.000000 60.040000 2.000000 -6.000000 -11.000000 123.620639 31.367242 318.871494 102.856970 16.644218 0.000000 0.045730
242.000000 58.547000 3.000000 -6.000000 -11.000000 119.572313 22.576038 527.509950 279.583745 17.069787 0.000000 0.051298
243.000000 56.326000 4.000000 -6.000000 -11.000000 114.590304 15.031032 685.982935 431.005094 17.744583 0.000000 0.106859
244.000000 53.512000 5.000000 -6.000000 -11.000000 109.006771 8.692835 810.441579 565.951634 18.679700 0.000000 0.140967
245.000000 50.270000 6.000000 -6.000000 -11.000000 103.111350 3.414888 910.775680 689.867802 19.886899 0.000000 0.158971
246.000000 46.768000 7.000000 -6.000000 -11.000000 97.131998 -0.978340 993.379792 806.310377 21.378660 0.000000 0.164799
248.000000 64.438000 2.000000 -5.000000 -11.000000 131.334843 27.510394 414.468473 -126.402235 15.506404 0.000000 0.069746
249.000000 62.780000 3.000000 -5.000000 -11.000000 126.485447 17.570243 634.194464 106.054894 15.917269 0.000000 0.041769
250.000000 60.284000 4.000000 -5.000000 -11.000000 120.598817 9.471863 795.433416 295.713841 16.578024 0.000000 0.094756
251.000000 57.115000 5.000000 -5.000000 -11.000000 114.121500 2.989336 918.794684 458.408846 17.499843 0.000000 0.130254
252.000000 53.472000 6.000000 -5.000000 -11.000000 107.405087 -2.193377 1016.222460 603.357494 18.694573 0.000000 0.150196
253.000000 49.555000 7.000000 -5.000000 -11.000000 100.703028 -6.367978 1095.116684 736.310244 20.174791 0.000000 0.158101
254.000000 45.545000 8.000000 -5.000000 -11.000000 94.186436 -9.768886 1160.306458 861.058927 21.953857 0.000000 0.156730
257.000000 66.707000 3.000000 -4.000000 -11.000000 133.398227 10.735618 770.939038 -94.868420 14.978700 0.000000 0.026985
258.000000 63.941000 4.000000 -4.000000 -11.000000 126.409977 2.334266 931.126810 146.538868 15.628446 0.000000 0.072252
259.000000 60.424000 5.000000 -4.000000 -11.000000 118.925050 -3.973291 1049.757662 344.806546 16.540095 0.000000 0.108255
260.000000 56.390000 6.000000 -4.000000 -11.000000 111.337375 -8.775412 1141.146234 515.581403 17.725588 0.000000 0.130579
261.000000 52.074000 7.000000 -4.000000 -11.000000 103.903131 -12.505134 1213.709886 668.107738 19.197602 0.000000 0.141623
262.000000 47.680000 8.000000 -4.000000 -11.000000 96.780794 -15.462386 1272.722041 808.219678 20.969609 0.000000 0.143735
264.000000 70.079000 3.000000 -3.000000 -11.000000 139.876066 1.195898 952.531941 -336.335687 14.256885 0.000000 0.001505
265.000000 67.067000 4.000000 -3.000000 -11.000000 131.615306 -6.823452 1103.787149 -21.913425 14.898735 0.000000 0.036856
266.000000 63.236000 5.000000 -3.000000 -11.000000 123.078011 -12.379341 1211.231844 223.273639 15.803430 0.000000 0.070167
267.000000 58.852000 6.000000 -3.000000 -11.000000 114.642039 -16.386371 1291.492462 426.374948 16.983007 0.000000 0.095583
268.000000 54.180000 7.000000 -3.000000 -11.000000 106.529188 -19.385981 1353.727059 602.392918 18.450250 0.000000 0.111931
269.000000 49.448000 8.000000 -3.000000 -11.000000 98.865164 -21.703943 1403.395322 760.318124 20.218751 0.000000 0.120157
271.000000 69.425000 4.000000 -2.000000 -11.000000 135.645156 -18.297730 1330.902992 -218.433055 14.391829 0.000000 0.051648
272.000000 65.343000 5.000000 -2.000000 -11.000000 126.166373 -22.248267 1415.285606 90.957278 15.292871 0.000000 0.021877
273.000000 60.682000 6.000000 -2.000000 -11.000000 117.023615 -24.956972 1475.900569 335.503501 16.469945 0.000000 0.038301
274.000000 55.730000 7.000000 -2.000000 -11.000000 108.370604 -26.921790 1521.550034 540.134071 17.935949 0.000000 0.065474
275.000000 50.736000 8.000000 -2.000000 -11.000000 100.288772 -28.408946 1557.167340 718.872159 19.704597 0.000000 0.085781
276.000000 45.885000 9.000000 -2.000000 -11.000000 92.811017 -29.572299 1585.732153 880.237703 21.790486 0.000000 0.099794
278.000000 66.566000 5.000000 -1.000000 -11.000000 127.776202 -33.274907 1681.318619 -56.722497 15.011500 0.000000 0.108067
279.000000 61.731000 6.000000 -1.000000 -11.000000 118.211203 -34.235522 1707.424702 242.617757 16.189579 0.000000 0.052524
280.000000 56.606000 7.000000 -1.000000 -11.000000 109.245374 -34.919385 1726.374788 482.731182 17.657974 0.000000 0.037066
281.000000 51.449000 8.000000 -1.000000 -11.000000 100.926805 -35.430902 1740.756542 685.992678 19.430528 0.000000 0.062557
282.000000 46.456000 9.000000 -1.000000 -11.000000 93.267862 -35.827875 1752.044208 865.204964 21.521981 0.000000 0.089660
285.000000 50.961000 8.000000 1.000000 -11.000000 99.618137 -49.617434 2240.421413 659.482236 19.616477 0.000000 0.263891
286.000000 46.008000 9.000000 1.000000 -11.000000 92.104026 -48.442564 2189.074821 881.392803 21.731199 0.000000 0.240700
289.000000 48.375000 0.000000 -9.000000 -10.000000 100.905260 51.259336 -366.482592 609.639694 20.664539 0.000000 0.278771
290.000000 48.246000 1.000000 -9.000000 -10.000000 99.686651 44.482910 -82.040578 683.499345 20.720576 0.000000 0.129471
291.000000 47.543000 2.000000 -9.000000 -10.000000 97.686183 37.884746 137.587857 756.955832 21.027974 0.000000 0.067385
292.000000 46.291000 3.000000 -9.000000 -10.000000 94.981644 31.621989 312.289801 830.825873 21.598539 0.000000 0.088679
294.000000 53.118000 1.000000 -8.000000 -10.000000 106.284687 43.676804 -52.695821 506.268384 18.818049 0.000000 0.121760
295.000000 52.344000 1.000000 -4.000000 -5.000000 104.033765 36.264507 185.409283 607.345260 9.548663 0.000000 0.042678
296.000000 50.901000 3.000000 -8.000000 -10.000000 100.924207 29.323053 370.442274 702.738923 19.640121 0.000000 0.084143
297.000000 48.868000 2.000000 -4.000000 -5.000000 97.123551 22.989720 518.368068 794.886064 10.229535 0.000000 0.123440
298.000000 46.361000 5.000000 -8.000000 -10.000000 92.824424 17.321342 639.331812 885.378070 21.567623 0.000000 0.145003
300.000000 58.331000 1.000000 -7.000000 -10.000000 113.558889 42.628685 -15.698260 303.151759 17.134134 0.000000 0.129187
301.000000 57.482000 2.000000 -7.000000 -10.000000 110.986563 34.185025 243.962306 441.909822 17.388426 0.000000 0.017331
302.000000 55.823000 3.000000 -7.000000 -10.000000 107.361515 26.428853 440.047143 565.231135 17.906695 0.000000 0.080321
303.000000 53.455000 4.000000 -7.000000 -10.000000 102.923587 19.523913 593.358592 678.962738 18.701656 0.000000 0.126766
304.000000 50.529000 5.000000 -7.000000 -10.000000 97.935886 13.504461 716.515978 786.698504 19.786855 0.000000 0.151719
305.000000 47.218000 6.000000 -7.000000 -10.000000 92.642820 8.319109 817.619033 890.791392 21.176734 0.000000 0.160736
307.000000 63.766000 1.000000 -6.000000 -10.000000 121.541785 41.211478 32.394653 62.827537 15.671850 0.000000 0.153696
308.000000 62.838000 1.000000 -3.000000 -5.000000 118.542899 31.427578 317.315899 254.929443 7.952195 0.000000 0.012664
309.000000 60.939000 3.000000 -6.000000 -10.000000 114.250165 22.696345 524.857029 415.465036 16.401469 0.000000 0.074988
310.000000 58.197000 2.000000 -3.000000 -5.000000 109.016074 15.190344 682.772091 556.634929 8.587946 0.000000 0.125965
311.000000 54.805000 5.000000 -6.000000 -10.000000 103.200974 8.873866 806.959744 685.479653 18.241304 0.000000 0.153643
312.000000 50.980000 3.000000 -3.000000 -5.000000 97.115783 3.605443 907.182658 806.372913 9.806129 0.000000 0.164549
313.000000 46.937000 7.000000 -6.000000 -10.000000 91.000671 -0.786073 989.767211 922.198839 21.304293 0.000000 0.162982
315.000000 68.217000 2.000000 -5.000000 -10.000000 126.645683 27.618111 411.893671 37.379964 14.648385 0.000000 0.038654
316.000000 66.062000 3.000000 -5.000000 -10.000000 121.472730 17.750502 630.465089 249.216808 15.127710 0.000000 0.065491
317.000000 62.919000 4.000000 -5.000000 -10.000000 115.246792 9.690348 791.212250 426.113854 15.885150 0.000000 0.118046
318.000000 54.660000 6.000000 -5.000000 -10.000000 101.479209 -1.959199 1011.817672 722.304310 18.290290 0.000000 0.161044
319.000000 50.073000 7.000000 -5.000000 -10.000000 94.586680 -6.140065 1090.783947 854.157056 19.968331 0.000000 0.161536
320.000000 45.485000 8.000000 -5.000000 -10.000000 87.952463 -9.550646 1156.088062 980.019960 21.985334 0.000000 0.152701
322.000000 70.926000 3.000000 -4.000000 -10.000000 128.784200 11.010181 765.591106 59.907711 14.088751 0.000000 0.048333
323.000000 67.376000 2.000000 -2.000000 -5.000000 121.344475 2.634554 925.475308 284.764364 7.416433 0.000000 0.099073
324.000000 62.982000 5.000000 -4.000000 -10.000000 113.444245 -3.674953 1044.128367 473.297046 15.869850 0.000000 0.130969
325.000000 58.071000 3.000000 -2.000000 -5.000000 105.514055 -8.490863 1135.677782 638.921877 8.607249 0.000000 0.146972
326.000000 52.949000 7.000000 -4.000000 -10.000000 97.826747 -12.238410 1208.458431 789.613722 18.882618 0.000000 0.150755
327.000000 47.865000 4.000000 -2.000000 -5.000000 90.542414 -15.214016 1267.705426 930.440428 10.445561 0.000000 0.145468
329.000000 75.192000 3.000000 -3.000000 -10.000000 135.724638 1.616766 944.621187 -163.308603 13.287987 0.000000 0.018507
330.000000 71.263000 4.000000 -3.000000 -10.000000 126.875257 -6.416088 1096.031765 128.533142 14.022547 0.000000 0.063796
331.000000 66.403000 5.000000 -3.000000 -10.000000 117.807196 -12.005339 1203.878230 360.668770 15.051115 0.000000 0.097152
332.000000 60.993000 6.000000 -3.000000 -10.000000 108.939205 -16.047951 1284.597468 556.703330 16.388621 0.000000 0.117811
333.000000 55.384000 7.000000 -3.000000 -10.000000 100.508038 -19.080077 1347.281227 729.759469 18.051021 0.000000 0.127421
334.000000 49.856000 8.000000 -3.000000 -10.000000 92.636971 -21.426372 1397.366705 887.749555 20.055388 0.000000 0.128549
335.000000 78.489000 3.000000 -2.000000 -10.000000 141.501926 -11.455450 1193.103169 -439.684750 12.728880 0.000000 0.049948
336.000000 69.008000 5.000000 -2.000000 -10.000000 121.095777 -21.797680 1405.436453 241.857919 14.481941 0.000000 0.038507
337.000000 63.195000 3.000000 -1.000000 -5.000000 111.436531 -24.567944 1467.037798 476.347539 7.908239 0.000000 0.067257
338.000000 57.199000 7.000000 -2.000000 -10.000000 102.406034 -26.580772 1513.516339 676.260765 17.477489 0.000000 0.088828
339.000000 51.321000 4.000000 -1.000000 -5.000000 94.077378 -28.105984 1549.832098 854.020570 9.741110 0.000000 0.102440
340.000000 45.767000 9.000000 -2.000000 -10.000000 86.465930 -29.300065 1578.989796 1017.222657 21.849158 0.000000 0.111049
342.000000 76.028000 4.000000 -1.000000 -10.000000 133.661350 -31.194875 1626.695407 -259.757843 13.142166 0.000000 0.132875
343.000000 70.543000 5.000000 -1.000000 -10.000000 122.852623 -32.764717 1667.686651 114.475796 14.166094 0.000000 0.065784
344.000000 64.475000 6.000000 -1.000000 -10.000000 112.708835 -33.808664 1695.751938 398.914938 15.501964 0.000000 0.027692
345.000000 58.234000 7.000000 -1.000000 -10.000000 103.323378 -34.552610 1716.172579 631.520704 17.166052 0.000000 0.053096
346.000000 52.139000 8.000000 -1.000000 -10.000000 94.730261 -35.109454 1731.697633 832.132209 19.175792 0.000000 0.083961
347.000000 46.402000 9.000000 -1.000000 -10.000000 86.920076 -35.541820 1743.899143 1012.171673 21.549872 0.000000 0.109264
349.000000 64.694000 6.000000 0.000000 -10.000000 112.561577 -43.346589 1990.902030 326.090293 15.449053 0.000000 0.159248
350.000000 58.387000 7.000000 0.000000 -10.000000 103.136454 -42.714838 1968.691962 599.132316 17.120826 0.000000 0.126271
351.000000 52.234000 8.000000 0.000000 -10.000000 94.514928 -42.242349 1952.374625 826.198640 19.140366 0.000000 0.129967
352.000000 46.451000 9.000000 0.000000 -10.000000 86.685422 -41.875686 1939.879519 1024.714655 21.526576 0.000000 0.150160
354.000000 57.629000 7.000000 1.000000 -10.000000 101.830675 -50.744475 2292.059190 584.713409 17.346012 0.000000 0.296422
355.000000 51.587000 8.000000 1.000000 -10.000000 93.422778 -49.287853 2225.771090 842.307519 19.380295 0.000000 0.257987
356.000000 45.902000 9.000000 1.000000 -10.000000 85.757194 -48.149240 2176.625479 1060.675477 21.783785 0.000000 0.251144
360.000000 48.825000 0.000000 -3.000000 -3.000000 94.878100 51.192772 -363.294341 794.428655 6.825404 0.000000 0.272980
361.000000 48.587000 1.000000 -9.000000 -9.000000 93.547030 44.453048 -80.939132 847.537580 20.577380 0.000000 0.136772
362.000000 47.705000 2.000000 -9.000000 -9.000000 91.434671 37.890485 137.414789 906.843611 20.959051 0.000000 0.088689
363.000000 46.216000 1.000000 -3.000000 -3.000000 88.626859 31.659681 311.312940 971.309921 7.211956 0.000000 0.101975
364.000000 54.324000 0.000000 -8.000000 -9.000000 101.613086 51.267706 -366.884181 587.485731 18.401173 0.000000 0.280262
365.000000 54.131000 1.000000 -8.000000 -9.000000 100.201253 43.647981 -51.661254 673.335832 18.467684 0.000000 0.116178
366.000000 53.136000 2.000000 -8.000000 -9.000000 97.810609 36.280626 184.943418 757.856709 18.814948 0.000000 0.065330
367.000000 51.385000 3.000000 -8.000000 -9.000000 94.562919 29.378130 369.080489 842.428245 19.457702 0.000000 0.099596
368.000000 48.988000 4.000000 -8.000000 -9.000000 90.639606 23.075733 516.460268 927.939581 20.411729 0.000000 0.128686
369.000000 46.097000 5.000000 -8.000000 -9.000000 86.246071 17.430034 637.090115 1015.016763 21.693957 0.000000 0.141167
371.000000 60.220000 1.000000 -7.000000 -9.000000 107.632778 42.602926 -14.804758 476.231790 16.598330 0.000000 0.106915
372.000000 59.097000 2.000000 -7.000000 -9.000000 104.883872 34.217531 243.069656 595.066482 16.914987 0.000000 0.042394
373.000000 57.036000 3.000000 -7.000000 -9.000000 101.072202 26.509328 438.160661 705.635910 17.527612 0.000000 0.099256
374.000000 54.185000 4.000000 -7.000000 -9.000000 96.459219 19.639697 590.908381 811.621062 18.452098 0.000000 0.136434
375.000000 50.744000 5.000000 -7.000000 -9.000000 91.327899 13.643657 713.748761 915.326653 19.705500 0.000000 0.152569
376.000000 46.937000 6.000000 -7.000000 -9.000000 85.936706 8.472117 814.682173 1018.300232 21.306136 0.000000 0.152765
377.000000 66.748000 1.000000 -6.000000 -9.000000 115.902700 41.192922 33.010428 246.401090 14.973005 0.000000 0.117413
378.000000 65.485000 2.000000 -6.000000 -9.000000 112.677648 31.486967 315.782720 413.617249 15.262975 0.000000 0.020892
379.000000 59.689000 4.000000 -6.000000 -9.000000 102.648279 15.347669 679.596513 690.535130 16.748698 0.000000 0.140952
380.000000 55.615000 5.000000 -6.000000 -9.000000 96.621373 9.052944 803.512088 814.485673 17.977653 0.000000 0.160089
381.000000 51.136000 2.000000 -2.000000 -3.000000 90.381655 3.794228 903.621519 933.814795 6.518290 0.000000 0.162094
382.000000 46.515000 7.000000 -6.000000 -9.000000 84.178625 -0.595345 986.183877 1050.737602 21.500223 0.000000 0.151532
383.000000 73.501000 1.000000 -5.000000 -9.000000 125.041090 39.189462 97.525400 -32.833690 13.595467 0.000000 0.148058
384.000000 72.089000 2.000000 -5.000000 -9.000000 121.157370 27.723847 409.361296 205.874703 13.862799 0.000000 0.015923
385.000000 69.275000 3.000000 -5.000000 -9.000000 115.636065 17.927885 626.787863 398.133925 14.427493 0.000000 0.091915
386.000000 65.309000 4.000000 -5.000000 -9.000000 109.061427 9.905901 787.042349 563.482804 15.305692 0.000000 0.138737
387.000000 60.536000 5.000000 -5.000000 -9.000000 101.967068 3.453141 910.054505 712.458137 16.514729 0.000000 0.160591
388.000000 55.324000 6.000000 -5.000000 -9.000000 94.762641 -1.727209 1007.455241 851.286983 18.073236 0.000000 0.164746
389.000000 49.998000 7.000000 -5.000000 -9.000000 87.728263 -5.913945 1086.488946 983.925146 20.001273 0.000000 0.156109
391.000000 78.565000 2.000000 -4.000000 -9.000000 130.173158 22.267567 534.291112 -40.901110 12.718428 0.000000 0.033725
392.000000 75.333000 3.000000 -4.000000 -9.000000 123.345887 11.279873 760.328324 218.822234 13.265593 0.000000 0.076930
393.000000 70.748000 4.000000 -4.000000 -9.000000 115.424423 2.930622 919.900560 428.705573 14.127333 0.000000 0.125318
394.000000 65.245000 5.000000 -4.000000 -9.000000 107.105390 -3.379951 1038.565724 609.200653 15.321134 0.000000 0.150066
395.000000 59.279000 6.000000 -4.000000 -9.000000 98.856853 -8.208884 1130.266723 771.550950 16.865806 0.000000 0.157362
396.000000 53.241000 7.000000 -4.000000 -9.000000 90.963504 -11.973668 1203.256467 922.496408 18.781603 0.000000 0.152008
397.000000 47.419000 8.000000 -4.000000 -9.000000 83.579670 -14.967191 1262.731712 1066.365641 21.090372 0.000000 0.138113
399.000000 84.427000 2.000000 -3.000000 -9.000000 139.341168 13.857176 709.497642 -349.692280 11.833917 0.000000 0.041617
400.000000 75.607000 4.000000 -3.000000 -9.000000 121.279527 -6.014361 1088.395835 283.510426 13.217968 0.000000 0.094283
401.000000 69.406000 5.000000 -3.000000 -9.000000 111.657079 -11.635253 1196.621694 504.657910 14.401377 0.000000 0.122785
402.000000 56.028000 7.000000 -3.000000 -9.000000 93.664001 -18.776197 1340.901574 868.204250 17.846068 0.000000 0.136264
403.000000 49.629000 8.000000 -3.000000 -9.000000 85.649248 -21.150321 1391.393792 1028.800289 20.149899 0.000000 0.129246
405.000000 85.112000 3.000000 -2.000000 -9.000000 137.071217 -10.840980 1181.112040 -237.089778 11.739097 0.000000 0.029579
406.000000 79.422000 4.000000 -2.000000 -9.000000 125.955852 -17.244631 1309.087680 123.546399 12.582039 0.000000 0.038003
407.000000 72.635000 5.000000 -2.000000 -9.000000 115.137359 -21.351026 1395.734210 398.755194 13.760062 0.000000 0.069804
408.000000 65.369000 6.000000 -2.000000 -9.000000 104.962386 -24.181530 1458.288846 625.697930 15.292364 0.000000 0.093673
409.000000 58.130000 7.000000 -2.000000 -9.000000 95.592649 -26.241590 1505.573223 823.497776 17.199634 0.000000 0.107034
410.000000 51.270000 8.000000 -2.000000 -9.000000 87.080246 -27.804372 1542.570563 1003.059840 19.504208 0.000000 0.113402
412.000000 81.743000 4.000000 -1.000000 -9.000000 128.651889 -30.566738 1610.675597 -58.714403 12.224087 0.000000 0.086682
413.000000 74.573000 5.000000 -1.000000 -9.000000 117.040278 -32.257510 1654.288371 291.384210 13.401903 0.000000 0.024722
414.000000 66.925000 6.000000 -1.000000 -9.000000 106.308251 -33.383770 1684.247954 563.877466 14.936024 0.000000 0.042067
415.000000 59.343000 7.000000 -1.000000 -9.000000 96.537145 -34.187219 1706.097921 791.901560 16.847384 0.000000 0.077954
416.000000 52.193000 8.000000 -1.000000 -9.000000 87.731869 -34.789032 1722.738481 992.906726 19.158585 0.000000 0.105503
417.000000 45.678000 9.000000 -1.000000 -9.000000 79.847790 -35.256554 1735.834218 1177.021347 21.894074 0.000000 0.128916
420.000000 58.649000 7.000000 1.000000 -9.000000 95.045969 -50.368884 2274.578628 792.007487 17.046370 0.000000 0.283344
421.000000 51.570000 8.000000 1.000000 -9.000000 86.425585 -48.958389 2211.320374 1043.393362 19.389330 0.000000 0.266350
425.000000 48.717000 0.000000 -9.000000 -8.000000 88.148721 51.126914 -360.148962 996.430698 20.523716 0.000000 0.280069
426.000000 48.339000 1.000000 -9.000000 -8.000000 86.697329 44.423507 -79.850616 1027.964905 20.685382 0.000000 0.155740
427.000000 47.248000 2.000000 -9.000000 -8.000000 84.475556 37.896163 137.243524 1072.916718 21.164472 0.000000 0.111421
428.000000 45.499000 3.000000 -9.000000 -8.000000 81.577985 31.696990 310.345221 1128.292728 21.979641 0.000000 0.111896
430.000000 54.576000 1.000000 -8.000000 -8.000000 93.324473 43.619509 -50.640213 854.638894 18.319518 0.000000 0.125899
431.000000 53.311000 1.000000 -4.000000 -4.000000 90.793456 36.296555 184.482889 922.505471 9.377774 0.000000 0.088918
432.000000 51.207000 3.000000 -8.000000 -8.000000 87.420056 29.432587 367.732580 996.683538 19.527941 0.000000 0.109976
433.000000 48.413000 1.000000 -2.000000 -2.000000 83.399959 23.160849 514.569977 1076.448863 5.164246 0.000000 0.126313
434.000000 61.931000 0.000000 -7.000000 -8.000000 102.509008 51.278485 -367.401518 559.269185 16.140766 0.000000 0.282396
435.000000 61.630000 1.000000 -7.000000 -8.000000 100.835732 42.577525 -13.924438 661.233119 16.220489 0.000000 0.100432
436.000000 60.160000 2.000000 -7.000000 -8.000000 97.904034 34.249598 242.188361 760.227505 16.618144 0.000000 0.069311
437.000000 57.619000 3.000000 -7.000000 -8.000000 93.914376 26.588792 436.295275 858.644538 17.352636 0.000000 0.112901
438.000000 54.215000 4.000000 -7.000000 -8.000000 89.151440 19.754162 588.482610 957.938041 18.444405 0.000000 0.138226
439.000000 50.216000 5.000000 -7.000000 -8.000000 83.917513 13.781438 711.006455 1059.089569 19.915575 0.000000 0.143300
440.000000 45.901000 6.000000 -7.000000 -8.000000 78.482379 8.623751 811.769404 1162.827179 21.790136 0.000000 0.132610
441.000000 69.446000 1.000000 -6.000000 -8.000000 109.332335 41.174669 33.615778 439.350077 14.392890 0.000000 0.089054
442.000000 67.738000 1.000000 -3.000000 -4.000000 105.865440 31.545434 314.271477 582.070703 7.378514 0.000000 0.052803
443.000000 64.671000 3.000000 -6.000000 -8.000000 101.064304 22.931872 519.649782 712.475142 15.458677 0.000000 0.116702
444.000000 60.529000 2.000000 -3.000000 -4.000000 95.353612 15.503043 676.455623 836.331112 8.259221 0.000000 0.148808
445.000000 55.683000 5.000000 -6.000000 -8.000000 89.155629 9.230097 800.098110 957.070640 17.958636 0.000000 0.156949
446.000000 50.502000 3.000000 -3.000000 -4.000000 82.819843 3.981264 900.091839 1076.916902 9.901734 0.000000 0.147856
448.000000 77.824000 1.000000 -5.000000 -8.000000 118.888806 39.187239 97.594902 174.797770 12.841421 0.000000 0.104474
449.000000 75.849000 2.000000 -5.000000 -8.000000 114.679585 27.827656 406.870309 381.750505 13.177077 0.000000 0.039796
450.000000 72.166000 3.000000 -5.000000 -8.000000 108.793501 18.102458 623.161702 555.662488 13.851129 0.000000 0.116663
451.000000 67.167000 4.000000 -5.000000 -8.000000 101.877900 10.118574 782.922786 711.046128 14.884361 0.000000 0.153752
452.000000 61.345000 5.000000 -5.000000 -8.000000 94.515770 3.681168 905.754401 855.819976 16.299293 0.000000 0.164711
453.000000 55.188000 6.000000 -5.000000 -8.000000 87.142776 -1.497383 1003.134561 994.735484 18.120369 0.000000 0.157556
454.000000 49.090000 7.000000 -5.000000 -8.000000 80.043385 -5.689602 1082.231192 1130.874919 20.374167 0.000000 0.137843
455.000000 86.356000 1.000000 -4.000000 -8.000000 129.512981 36.163576 188.321906 -158.466135 11.570891 0.000000 0.141917
456.000000 79.731000 3.000000 -4.000000 -8.000000 116.873710 11.544812 755.148674 384.323157 12.535184 0.000000 0.107271
457.000000 66.905000 5.000000 -4.000000 -8.000000 99.739976 -3.088245 1033.068558 755.983979 14.943167 0.000000 0.162207
458.000000 59.710000 3.000000 -2.000000 -4.000000 91.229419 -7.929454 1124.912157 917.678989 8.373348 0.000000 0.158105
459.000000 52.678000 7.000000 -4.000000 -8.000000 83.210437 -11.710896 1198.103299 1071.865558 18.985019 0.000000 0.141660
460.000000 46.120000 2.000000 -1.000000 -2.000000 75.820266 -14.721904 1257.800351 1222.169904 5.421854 0.000000 0.118675
461.000000 86.775000 3.000000 -3.000000 -8.000000 124.806072 2.434836 929.234350 192.110716 11.516158 0.000000 0.081110
462.000000 79.873000 4.000000 -3.000000 -8.000000 114.610008 -5.618193 1080.876620 445.626998 12.513579 0.000000 0.124357
463.000000 71.940000 5.000000 -3.000000 -8.000000 104.434581 -11.269052 1189.460327 658.515881 13.896019 0.000000 0.143546
464.000000 63.732000 6.000000 -3.000000 -8.000000 94.777153 -15.379424 1271.045035 847.712674 15.688455 0.000000 0.145149
465.000000 55.811000 7.000000 -3.000000 -8.000000 85.876856 -18.474338 1334.587087 1022.802372 17.918071 0.000000 0.135146
466.000000 48.518000 8.000000 -3.000000 -8.000000 77.817055 -20.875790 1385.475815 1189.693158 20.614507 0.000000 0.120200
467.000000 75.935000 5.000000 -2.000000 -8.000000 108.079413 -20.908306 1386.175616 564.873932 13.163759 0.000000 0.100139
468.000000 66.867000 3.000000 -1.000000 -4.000000 97.425697 -23.797736 1449.651534 787.687599 7.475905 0.000000 0.114024
469.000000 58.206000 7.000000 -2.000000 -8.000000 87.796158 -25.904253 1497.719162 987.045772 17.179758 0.000000 0.117576
470.000000 50.314000 4.000000 -1.000000 -4.000000 79.202077 -27.504117 1535.381630 1172.430489 9.938814 0.000000 0.117994
471.000000 87.839000 4.000000 -1.000000 -8.000000 122.578411 -29.943700 1594.989471 147.307345 11.376878 0.000000 0.036276
472.000000 78.380000 5.000000 -1.000000 -8.000000 110.116197 -31.753338 1641.117819 477.395612 12.752448 0.000000 0.029316
473.000000 68.743000 6.000000 -1.000000 -8.000000 98.822802 -32.960871 1672.909115 741.894699 14.543088 0.000000 0.072037
474.000000 59.602000 7.000000 -1.000000 -8.000000 88.743170 -33.823234 1696.148438 969.423642 16.776689 0.000000 0.101951
475.000000 51.329000 8.000000 -1.000000 -8.000000 79.829510 -34.469650 1713.877446 1175.203727 19.483694 0.000000 0.126123
476.000000 78.898000 5.000000 0.000000 -8.000000 110.130801 -43.169502 1984.630042 400.061859 12.668302 0.000000 0.146749
477.000000 59.818000 7.000000 0.000000 -8.000000 88.570374 -41.959429 1942.720622 977.121926 16.715650 0.000000 0.144422
478.000000 51.443000 4.000000 0.000000 -4.000000 79.607938 -41.582898 1930.004447 1204.882126 9.719903 0.000000 0.174960
480.000000 67.843000 6.000000 1.000000 -8.000000 97.088702 -51.799026 2342.678232 724.571612 14.735551 0.000000 0.322540
481.000000 58.804000 7.000000 1.000000 -8.000000 87.253548 -49.993349 2257.375225 1021.312976 17.003614 0.000000 0.287979
482.000000 50.626000 8.000000 1.000000 -8.000000 78.524427 -48.629061 2197.065214 1271.589176 19.753266 0.000000 0.290934
486.000000 47.841000 0.000000 -9.000000 -7.000000 80.642151 51.061751 -357.045596 1223.213083 20.902401 0.000000 0.302359
487.000000 47.287000 1.000000 -9.000000 -7.000000 79.065041 44.394281 -78.774802 1232.015207 21.148328 0.000000 0.185146
488.000000 45.961000 2.000000 -9.000000 -7.000000 76.742297 37.901781 137.074033 1262.375786 21.760027 0.000000 0.136318
490.000000 54.736000 0.000000 -8.000000 -7.000000 87.254385 51.118731 -359.758761 1023.228531 18.267096 0.000000 0.281982
491.000000 54.175000 1.000000 -8.000000 -7.000000 85.548709 43.591379 -49.632435 1056.681921 18.457602 0.000000 0.149461
492.000000 52.594000 2.000000 -8.000000 -7.000000 82.883821 36.312295 184.027604 1107.751022 19.013851 0.000000 0.111843
493.000000 50.104000 3.000000 -8.000000 -7.000000 79.408945 29.486435 366.398336 1172.195286 19.960598 0.000000 0.114894
494.000000 46.903000 4.000000 -8.000000 -7.000000 75.333162 23.245080 512.696955 1247.581528 21.324883 0.000000 0.115192
495.000000 62.229000 1.000000 -7.000000 -7.000000 93.020476 42.552477 -13.057012 863.906044 16.066699 0.000000 0.113964
496.000000 60.331000 2.000000 -7.000000 -7.000000 89.907831 34.281236 241.318208 943.095381 16.573419 0.000000 0.093190
497.000000 57.238000 3.000000 -7.000000 -7.000000 85.763749 26.667265 434.450632 1030.212495 17.471042 0.000000 0.118733
498.000000 53.235000 4.000000 -7.000000 -7.000000 80.896154 19.867329 586.080916 1124.383105 18.786823 0.000000 0.128834
499.000000 48.672000 5.000000 -7.000000 -7.000000 75.623611 13.917825 708.288727 1225.216814 20.550613 0.000000 0.119956
501.000000 71.499000 1.000000 -6.000000 -7.000000 101.635093 41.156713 34.210966 646.651579 13.981505 0.000000 0.081800
502.000000 69.212000 2.000000 -6.000000 -7.000000 97.918664 31.602998 312.781701 765.227282 14.444869 0.000000 0.080739
503.000000 65.352000 3.000000 -6.000000 -7.000000 92.881126 23.047163 517.094244 882.134239 15.299828 0.000000 0.127686
504.000000 60.337000 4.000000 -6.000000 -7.000000 86.987843 15.656499 673.348857 999.817508 16.573877 0.000000 0.145315
505.000000 54.661000 5.000000 -6.000000 -7.000000 80.689735 9.405353 796.717319 1119.852286 18.297147 0.000000 0.139376
506.000000 48.787000 6.000000 -6.000000 -7.000000 74.347182 4.166571 896.593204 1243.375733 20.502729 0.000000 0.116326
508.000000 81.872000 1.000000 -5.000000 -7.000000 111.533713 39.185060 97.663039 393.083294 12.208063 0.000000 0.067333
509.000000 79.117000 2.000000 -5.000000 -7.000000 106.973264 27.929588 404.419702 569.185390 12.634504 0.000000 0.072328
510.000000 74.311000 3.000000 -5.000000 -7.000000 100.724558 18.274283 619.585547 726.327534 13.453537 0.000000 0.135372
511.000000 68.053000 4.000000 -5.000000 -7.000000 93.506189 10.328419 778.852654 873.968159 14.692924 0.000000 0.158608
512.000000 61.042000 5.000000 -5.000000 -7.000000 85.949471 3.906658 901.499963 1017.393213 16.383104 0.000000 0.155269
513.000000 53.897000 6.000000 -5.000000 -7.000000 78.507227 -1.269698 998.855034 1159.886921 18.557528 0.000000 0.133867
514.000000 47.068000 7.000000 -5.000000 -7.000000 71.456205 -5.467024 1078.010200 1303.687841 21.253044 0.000000 0.101127
515.000000 89.645000 2.000000 -4.000000 -7.000000 117.002437 22.636407 526.179317 346.766741 11.148797 0.000000 0.063018
516.000000 83.725000 3.000000 -4.000000 -7.000000 109.098171 11.805111 750.050204 560.285729 11.938935 0.000000 0.134731
517.000000 76.022000 4.000000 -4.000000 -7.000000 100.200330 3.510388 908.975157 746.973637 13.151040 0.000000 0.162581
518.000000 67.492000 5.000000 -4.000000 -7.000000 91.155487 -2.799795 1027.635718 919.265433 14.815891 0.000000 0.162377
519.000000 58.944000 6.000000 -4.000000 -7.000000 82.487987 -7.652552 1119.613205 1084.201783 16.967337 0.000000 0.143805
520.000000 50.923000 7.000000 -4.000000 -7.000000 74.469287 -11.450084 1192.998243 1246.177859 19.642686 0.000000 0.114841
521.000000 83.614000 4.000000 -3.000000 -7.000000 106.587239 -5.227507 1073.471464 619.064744 11.955502 0.000000 0.149425
522.000000 73.501000 5.000000 -3.000000 -7.000000 95.908812 -10.906707 1182.392268 827.559369 13.603138 0.000000 0.154526
523.000000 63.534000 6.000000 -3.000000 -7.000000 85.985678 -15.049294 1264.384883 1019.214730 15.740159 0.000000 0.141759
524.000000 54.346000 7.000000 -3.000000 -7.000000 77.026549 -18.174497 1328.336771 1201.976739 18.404378 0.000000 0.120308
525.000000 46.231000 8.000000 -3.000000 -7.000000 69.065668 -20.602780 1379.612020 1380.868883 21.637604 0.000000 0.103267
526.000000 89.936000 4.000000 -2.000000 -7.000000 111.889816 -16.216814 1288.034923 490.635481 11.113800 0.000000 0.107085
527.000000 78.396000 5.000000 -2.000000 -7.000000 99.659790 -20.469522 1376.757503 745.455993 12.752695 0.000000 0.123659
528.000000 67.182000 6.000000 -2.000000 -7.000000 88.626729 -23.416571 1441.123740 969.117432 14.884239 0.000000 0.124109
529.000000 56.998000 7.000000 -2.000000 -7.000000 78.878037 -25.568769 1489.952669 1175.559986 17.546792 0.000000 0.118513
530.000000 48.130000 8.000000 -2.000000 -7.000000 70.355912 -27.205225 1528.264216 1372.971593 20.782800 0.000000 0.120125
531.000000 81.456000 5.000000 -1.000000 -7.000000 101.798114 -31.252250 1628.169239 678.027891 12.272649 0.000000 0.067126
532.000000 69.399000 6.000000 -1.000000 -7.000000 90.035694 -32.540000 1661.731891 940.204634 14.408074 0.000000 0.099239
533.000000 58.557000 7.000000 -1.000000 -7.000000 79.790497 -33.460676 1686.321810 1173.348645 17.078868 0.000000 0.123276
534.000000 49.205000 8.000000 -1.000000 -7.000000 70.927993 -34.151324 1705.112926 1390.650167 20.328170 0.000000 0.149738
536.000000 68.342000 6.000000 1.000000 -7.000000 88.303683 -51.362901 2321.461526 992.049254 14.630315 0.000000 0.320563
537.000000 57.642000 7.000000 1.000000 -7.000000 78.302433 -49.617904 2240.442441 1284.954932 17.349196 0.000000 0.314070
538.000000 48.415000 8.000000 1.000000 -7.000000 69.624096 -48.299893 2183.001665 1541.926038 20.658663 0.000000 0.334483
545.000000 53.407000 0.000000 -4.000000 -3.000000 78.635957 51.045568 -356.276221 1285.067827 9.362249 0.000000 0.310553
546.000000 52.581000 1.000000 -8.000000 -6.000000 76.772474 43.563587 -48.637663 1290.136947 19.020059 0.000000 0.184917
547.000000 50.649000 1.000000 -4.000000 -3.000000 73.991002 36.327851 183.577474 1324.304190 9.873551 0.000000 0.136771
548.000000 47.769000 3.000000 -8.000000 -6.000000 70.454829 29.539683 365.077551 1380.177774 20.939779 0.000000 0.118611
550.000000 62.429000 0.000000 -7.000000 -6.000000 86.086439 51.108226 -359.258036 1058.273497 16.016603 0.000000 0.284797
551.000000 61.552000 1.000000 -7.000000 -6.000000 84.030993 42.527773 -12.202198 1093.703076 16.245886 0.000000 0.143572
552.000000 59.152000 2.000000 -7.000000 -6.000000 80.752900 34.312453 240.458986 1153.148755 16.906564 0.000000 0.113810
553.000000 55.463000 3.000000 -7.000000 -6.000000 76.499989 26.744763 432.626388 1230.350283 18.033050 0.000000 0.115619
554.000000 50.870000 4.000000 -7.000000 -6.000000 71.600338 19.979219 583.702942 1321.955598 19.663517 0.000000 0.106249
555.000000 45.805000 5.000000 -7.000000 -6.000000 66.381901 14.052835 705.595247 1426.145677 21.840428 0.000000 0.080655
556.000000 72.338000 1.000000 -6.000000 -6.000000 92.584391 41.139046 34.796246 876.494044 13.821507 0.000000 0.101692
557.000000 58.606000 2.000000 -3.000000 -3.000000 77.407832 15.808071 670.275660 1190.876207 8.533262 0.000000 0.124815
558.000000 52.133000 5.000000 -6.000000 -6.000000 71.121372 9.578739 793.369234 1314.253384 19.188175 0.000000 0.100648
559.000000 45.671000 2.000000 -2.000000 -2.000000 64.899438 4.350170 893.125207 1446.642663 7.301866 0.000000 0.059569
561.000000 85.040000 1.000000 -5.000000 -6.000000 102.667229 39.182923 97.729848 628.915922 11.754972 0.000000 0.060614
562.000000 81.232000 2.000000 -5.000000 -6.000000 97.746097 28.029693 402.008501 775.143132 12.307602 0.000000 0.099348
563.000000 75.026000 3.000000 -5.000000 -6.000000 91.172899 18.443422 616.058371 917.771031 13.327735 0.000000 0.142107
564.000000 67.326000 4.000000 -5.000000 -6.000000 83.740364 10.535486 774.831070 1061.080921 14.854321 0.000000 0.146464
565.000000 59.078000 5.000000 -5.000000 -6.000000 76.118071 4.129647 897.290468 1207.688092 16.930757 0.000000 0.124361
566.000000 51.025000 6.000000 -5.000000 -6.000000 68.758424 -1.044133 994.616076 1359.435264 19.605549 0.000000 0.084985
567.000000 86.581000 3.000000 -4.000000 -6.000000 99.680334 12.060880 745.031018 753.261730 11.547219 0.000000 0.153017
568.000000 66.330000 5.000000 -4.000000 -6.000000 81.146728 -2.514562 1022.266084 1108.805582 15.078387 0.000000 0.142644
569.000000 56.445000 3.000000 -2.000000 -3.000000 72.496619 -7.378157 1114.369004 1283.257943 8.860904 0.000000 0.106505
570.000000 47.590000 7.000000 -4.000000 -6.000000 64.661682 -11.191221 1187.940628 1460.521647 21.022021 0.000000 0.070179
571.000000 86.020000 4.000000 -3.000000 -6.000000 96.862426 -4.842225 1066.177792 811.006219 11.623304 0.000000 0.162555
572.000000 73.308000 5.000000 -3.000000 -6.000000 85.817930 -10.548183 1175.415707 1021.052270 13.641635 0.000000 0.148175
573.000000 51.167000 7.000000 -3.000000 -6.000000 67.009540 -17.876669 1322.149653 1420.813994 19.551145 0.000000 0.093245
574.000000 79.164000 5.000000 -2.000000 -6.000000 89.566929 -20.034670 1367.476797 949.659367 12.631439 0.000000 0.133441
575.000000 65.591000 3.000000 -1.000000 -3.000000 78.354677 -23.038041 1432.703393 1182.043247 7.624202 0.000000 0.119525
576.000000 53.976000 7.000000 -2.000000 -6.000000 68.712452 -25.235146 1482.272285 1404.603866 18.532757 0.000000 0.114707
577.000000 82.914000 5.000000 -1.000000 -6.000000 91.740480 -30.754296 1615.437066 902.943238 12.059128 0.000000 0.098636
578.000000 68.115000 6.000000 -1.000000 -6.000000 79.711633 -32.121186 1650.712850 1171.681590 14.682349 0.000000 0.120607
579.000000 55.633000 7.000000 -1.000000 -6.000000 69.537795 -33.099565 1676.615776 1420.395908 17.979630 0.000000 0.147790
580.000000 83.763000 5.000000 0.000000 -6.000000 91.818611 -42.110265 1947.856835 894.934623 11.936433 0.000000 0.135712
581.000000 55.863000 7.000000 0.000000 -6.000000 69.327217 -41.207190 1917.462998 1480.806126 17.905019 0.000000 0.219854
582.000000 45.514000 8.000000 0.000000 -6.000000 60.684343 -40.925965 1908.169420 1740.906860 21.978955 0.000000 0.270775
584.000000 66.875000 6.000000 1.000000 -6.000000 77.981723 -50.926738 2300.643293 1304.521097 14.953841 0.000000 0.347806
590.000000 49.393000 1.000000 -8.000000 -5.000000 66.913869 43.536126 -47.655648 1573.839122 20.250910 0.000000 0.235190
591.000000 47.104000 2.000000 -8.000000 -5.000000 64.048041 36.343226 183.132414 1591.328023 21.236812 0.000000 0.173651
593.000000 60.300000 0.000000 -7.000000 -5.000000 75.977532 51.024824 -355.290785 1368.353968 16.584805 0.000000 0.322756
594.000000 59.001000 1.000000 -7.000000 -5.000000 73.719697 42.503406 -11.359723 1367.360582 16.951246 0.000000 0.186690
595.000000 56.056000 2.000000 -7.000000 -5.000000 70.312661 34.343258 239.610491 1407.408650 17.843629 0.000000 0.137277
596.000000 51.798000 3.000000 -7.000000 -5.000000 66.026472 26.821305 430.822207 1477.297241 19.312543 0.000000 0.112668
597.000000 46.717000 4.000000 -7.000000 -5.000000 61.201162 20.089854 581.348337 1571.001764 21.415281 0.000000 0.086937
598.000000 72.585000 0.000000 -6.000000 -5.000000 84.497050 51.094247 -358.592080 1106.102677 13.775880 0.000000 0.289187
599.000000 71.124000 1.000000 -6.000000 -5.000000 81.936445 41.121661 35.371863 1143.413298 14.060078 0.000000 0.138865
600.000000 67.258000 2.000000 -6.000000 -5.000000 77.774825 31.715502 309.864751 1215.135000 14.869996 0.000000 0.116149
601.000000 61.529000 3.000000 -6.000000 -5.000000 72.450080 23.272963 512.076411 1311.534873 16.256692 0.000000 0.110030
602.000000 54.732000 4.000000 -6.000000 -5.000000 66.494694 15.957791 667.235493 1427.866225 18.278057 0.000000 0.084394
603.000000 47.643000 5.000000 -6.000000 -5.000000 60.381772 9.750281 790.053381 1561.841141 20.999999 0.000000 0.043150
604.000000 86.277000 1.000000 -5.000000 -5.000000 91.916275 39.180827 97.795369 894.544288 11.588660 0.000000 0.091433
605.000000 81.116000 2.000000 -5.000000 -5.000000 86.660889 28.128021 399.635765 1012.205543 12.327838 0.000000 0.114347
606.000000 73.298000 3.000000 -5.000000 -5.000000 79.864363 18.609935 612.579177 1144.023436 13.644812 0.000000 0.128476
607.000000 64.130000 4.000000 -5.000000 -5.000000 72.383104 10.739825 770.857170 1288.863366 15.598162 0.000000 0.107006
608.000000 46.128000 6.000000 -5.000000 -5.000000 57.836894 -0.820663 990.417111 1617.880615 21.690776 0.000000 0.009906
609.000000 87.031000 3.000000 -4.000000 -5.000000 88.215738 12.312227 740.089282 975.317282 11.490062 0.000000 0.152086
610.000000 74.699000 4.000000 -4.000000 -5.000000 78.702017 4.074132 898.338667 1156.570167 13.389614 0.000000 0.134689
611.000000 62.539000 5.000000 -4.000000 -5.000000 69.523719 -2.232504 1016.958557 1343.207461 15.995954 0.000000 0.089822
612.000000 51.607000 6.000000 -4.000000 -5.000000 61.154672 -7.106247 1109.178710 1538.396015 19.386776 0.000000 0.043447
613.000000 85.718000 4.000000 -3.000000 -5.000000 85.025890 -4.462271 1058.993105 1034.958314 11.667011 0.000000 0.152066
614.000000 70.247000 5.000000 -3.000000 -5.000000 73.895433 -10.193450 1168.528877 1256.732893 14.239476 0.000000 0.112707
615.000000 56.835000 6.000000 -3.000000 -5.000000 64.134285 -14.397241 1251.290158 1479.743949 17.602612 0.000000 0.076687
616.000000 45.797000 7.000000 -3.000000 -5.000000 55.765046 -17.580851 1316.024780 1709.294866 21.847681 0.000000 0.103777
617.000000 76.928000 5.000000 -2.000000 -5.000000 77.461375 -19.603749 1358.330513 1195.098738 13.001515 0.000000 0.120377
618.000000 61.163000 6.000000 -2.000000 -5.000000 66.419283 -22.662151 1424.388476 1450.095967 16.355770 0.000000 0.106219
619.000000 48.564000 7.000000 -2.000000 -5.000000 57.215315 -24.903391 1474.676588 1705.280746 20.601539 0.000000 0.141458
620.000000 81.315000 5.000000 -1.000000 -5.000000 79.550625 -30.259519 1602.915919 1170.806592 12.299067 0.000000 0.118580
621.000000 63.858000 6.000000 -1.000000 -5.000000 67.628540 -31.704461 1639.848659 1461.692224 15.664529 0.000000 0.145311
622.000000 50.191000 7.000000 -1.000000 -5.000000 57.884113 -32.739922 1667.028130 1744.170421 19.932896 0.000000 0.198885
632.000000 53.893000 1.000000 -7.000000 -4.000000 61.978935 42.479370 -10.529322 1717.633963 18.561267 0.000000 0.251545
633.000000 50.435000 2.000000 -7.000000 -4.000000 58.508423 34.373658 238.772522 1739.834265 19.835885 0.000000 0.185544
634.000000 45.754000 3.000000 -7.000000 -4.000000 54.300707 26.896909 429.037759 1808.186302 21.867297 0.000000 0.153212
636.000000 66.738000 1.000000 -6.000000 -4.000000 69.466740 41.104552 35.938054 1475.991716 14.987160 0.000000 0.191962
637.000000 61.993000 1.000000 -3.000000 -2.000000 65.182992 31.770481 308.436705 1526.422933 8.068105 0.000000 0.137483
638.000000 55.455000 3.000000 -6.000000 -4.000000 59.912269 23.383537 509.612989 1620.397923 18.041047 0.000000 0.105044
639.000000 48.109000 2.000000 -3.000000 -2.000000 54.191270 16.105690 664.227825 1749.218527 10.399137 0.000000 0.089964
640.000000 86.560000 0.000000 -5.000000 -4.000000 82.209031 51.074729 -357.662949 1175.377992 11.552173 0.000000 0.296586
641.000000 83.898000 1.000000 -5.000000 -4.000000 78.870478 39.178771 97.859639 1214.145451 11.920130 0.000000 0.136436
642.000000 77.173000 2.000000 -5.000000 -4.000000 73.374866 28.224616 397.300579 1305.738729 12.960771 0.000000 0.115060
643.000000 67.787000 3.000000 -5.000000 -4.000000 66.554922 18.773880 609.146989 1433.988766 14.757587 0.000000 0.090104
644.000000 57.473000 4.000000 -5.000000 -4.000000 59.294324 10.941484 766.930111 1592.035823 17.408480 0.000000 0.045879
645.000000 47.583000 5.000000 -5.000000 -4.000000 52.241316 4.568260 889.003486 1777.273726 21.029014 0.000000 0.067384
646.000000 83.097000 3.000000 -4.000000 -4.000000 74.275913 12.559256 735.223217 1251.449494 12.037332 0.000000 0.115185
647.000000 55.143000 5.000000 -4.000000 -4.000000 56.164749 -1.953584 1011.712067 1662.895135 18.145314 0.000000 0.026266
648.000000 80.626000 4.000000 -3.000000 -4.000000 70.658701 -4.087567 1051.914978 1319.747475 12.407300 0.000000 0.096645
649.000000 62.942000 5.000000 -3.000000 -4.000000 59.931462 -9.842473 1161.730060 1573.424982 15.895940 0.000000 0.051040
650.000000 48.785000 6.000000 -3.000000 -4.000000 50.861286 -14.075291 1244.853052 1843.999593 20.511008 0.000000 0.125198
651.000000 69.923000 5.000000 -2.000000 -4.000000 63.040350 -19.176753 1349.315750 1520.607509 14.307663 0.000000 0.092382
652.000000 52.906000 3.000000 -1.000000 -2.000000 52.709801 -22.288906 1416.177020 1826.810555 9.456120 0.000000 0.154930
653.000000 74.605000 5.000000 -1.000000 -4.000000 64.852622 -29.767963 1590.600597 1523.066413 13.408784 0.000000 0.142112
654.000000 55.470000 6.000000 -1.000000 -4.000000 53.641264 -31.289851 1629.136076 1868.173309 18.037070 0.000000 0.217229
655.000000 75.613000 5.000000 0.000000 -4.000000 64.819474 -41.057143 1912.494537 1612.063739 13.229242 0.000000 0.244373
656.000000 55.834000 3.000000 0.000000 -2.000000 53.395232 -40.707574 1901.006694 1995.637064 8.959260 0.000000 0.329827
664.000000 57.949000 1.000000 -6.000000 -3.000000 55.041835 41.087713 36.495049 1939.347412 17.263940 0.000000 0.284022
665.000000 52.517000 2.000000 -6.000000 -3.000000 50.778404 31.824637 307.028384 1974.912044 19.051479 0.000000 0.219249
666.000000 45.620000 1.000000 -2.000000 -1.000000 45.781844 23.492602 507.179169 2082.970413 7.311426 0.000000 0.211014
668.000000 75.584000 1.000000 -5.000000 -3.000000 63.171074 39.176754 97.922694 1643.214847 13.234654 0.000000 0.204714
669.000000 67.437000 2.000000 -5.000000 -3.000000 57.637447 28.319524 395.002059 1715.779714 14.835554 0.000000 0.143646
670.000000 57.082000 3.000000 -5.000000 -3.000000 51.124503 18.935312 605.760864 1858.341741 17.529153 0.000000 0.129336
671.000000 46.520000 4.000000 -5.000000 -3.000000 44.468266 11.140511 763.049069 2058.517266 21.511128 0.000000 0.181751
672.000000 88.387000 2.000000 -4.000000 -3.000000 66.383512 23.328441 510.840966 1453.486072 11.317969 0.000000 0.101093
673.000000 72.211000 3.000000 -4.000000 -3.000000 57.528895 12.802067 730.431098 1643.372244 13.855890 0.000000 0.056505
674.000000 56.578000 4.000000 -4.000000 -3.000000 48.856797 4.622406 887.979779 1884.409940 17.686701 0.000000 0.110183
675.000000 68.187000 4.000000 -3.000000 -3.000000 53.470157 -3.718036 1044.941058 1739.965385 14.674519 0.000000 0.058097
676.000000 50.146000 5.000000 -3.000000 -3.000000 43.881412 -9.495219 1155.017577 2075.707920 19.956215 0.000000 0.199903
677.000000 79.912000 4.000000 -2.000000 -3.000000 57.695354 -14.235928 1248.062546 1643.087319 12.520582 0.000000 0.075997
678.000000 56.333000 5.000000 -2.000000 -3.000000 46.171184 -18.753676 1340.429694 2032.095508 17.763310 0.000000 0.204190
679.000000 88.736000 4.000000 -1.000000 -3.000000 60.478721 -26.907705 1521.217260 1624.459372 11.274426 0.000000 0.139368
680.000000 60.499000 5.000000 -1.000000 -3.000000 47.436710 -29.279668 1578.486064 2074.206576 16.538952 0.000000 0.261265
689.000000 83.228000 1.000000 -4.000000 -2.000000 53.034437 36.358423 182.692336 1946.845997 12.020870 0.000000 0.243637
691.000000 68.201000 3.000000 -3.000000 -2.000000 43.031785 4.712319 886.279526 2097.811690 14.673152 0.000000 0.196474
693.000000 87.770000 3.000000 -2.000000 -2.000000 48.438396 -6.836800 1104.041497 1902.124058 11.401124 0.000000 0.127028
#UB matrix in q= (UB) B0 G* 
#[[ 0.150571411  0.046197123  0.9863946  ]
# [-0.621617231 -0.772032711  0.131040706]
# [ 0.768713385 -0.633816185 -0.087596068]]
#B0 matrix in q= UB (B0) G*
#[[ 0.19670273 -0.          0.03056101]
# [ 0.          0.19187965 -0.        ]
# [ 0.          0.          0.18806537]]
#UBB0 matrix in q= (UB B0) G* i.e. recip. basis vectors are columns in LT frame: astar = UBB0[:,0], bstar = UBB0[:,1], cstar = UBB0[:,2]. (abcstar as columns on xyzlab1, xlab1 = ui, ui = unit vector along incident beam)
#[[ 0.02961781  0.00886429  0.19010828]
# [-0.12227381 -0.14813737  0.00564697]
# [ 0.15120802 -0.12161643  0.00701887]]
#Euler angles phi theta psi (deg)
#[50.505 95.022 82.446]
#deviatoric strain in direct crystal frame (10-3 unit)
#[[ 0.08  0.17 -0.08]
# [ 0.17  0.15  0.13]
# [-0.08  0.13 -0.23]]
#deviatoric strain in sample2 frame (10-3 unit)
#[[-0.28 -0.1   0.08]
# [-0.1   0.27  0.07]
# [ 0.08  0.07  0.01]]
#new lattice parameters
#[ 5.1505     5.2119595  5.3231865 89.9954449 99.2247841 89.9804722]
#CCDLabel
#sCMOS
#DetectorParameters
#[79.0, 975.0, 941.0, 0.0, 0.0]
#pixelsize
#0.0734
#Frame dimensions
#[2018, 2016]
#
