#Strain and Orientation Refinement from experimental file: /home/micha/LaueProjects/DepthEffects/testZrO2_186.cor
#File created at Wed Jun 28 14:29:23 2023 with indexingSpotsSet.py
#Number of indexed spots: 537
#Element
#ZrO2
#grainIndex
#G_0
#Mean Deviation(pixel): 0.116
##spot_index intensity h k l 2theta Chi Xexp Yexp Energy GrainIndex PixDev
30.000000 175.858000 -1.000000 2.000000 1.000000 59.975747 -19.477902 1355.668702 1600.764609 5.691050 0.000000 0.090922
32.000000 149.723000 -1.000000 3.000000 1.000000 71.293589 -28.756182 1565.626347 1356.706867 6.682945 0.000000 0.118511
33.000000 81.013000 -2.000000 4.000000 1.000000 51.781228 -32.086866 1649.814360 1941.339360 12.354387 0.000000 0.235023
34.000000 124.388000 -1.000000 4.000000 1.000000 77.013750 -34.572102 1716.712483 1242.440649 8.043061 0.000000 0.126313
35.000000 161.438000 0.000000 4.000000 1.000000 104.629708 -38.595741 1834.063448 581.530208 6.193994 0.000000 0.058161
38.000000 76.620000 -2.000000 5.000000 1.000000 59.375387 -35.697171 1748.315303 1725.550182 13.061060 0.000000 0.207866
39.000000 104.915000 -1.000000 5.000000 1.000000 80.318972 -38.484361 1830.643589 1175.558908 9.535141 0.000000 0.134018
40.000000 128.591000 0.000000 5.000000 1.000000 102.461782 -42.608965 1965.014170 617.822741 7.776398 0.000000 0.106321
43.000000 70.614000 -2.000000 6.000000 1.000000 64.651964 -38.432204 1829.045751 1591.884218 14.170546 0.000000 0.202663
44.000000 90.206000 -1.000000 6.000000 1.000000 82.425759 -41.272257 1919.624661 1131.419058 11.089432 0.000000 0.146757
45.000000 106.552000 0.000000 6.000000 1.000000 100.842932 -45.217220 2059.486267 648.348184 9.385028 0.000000 0.148622
47.000000 49.989000 -3.000000 7.000000 1.000000 54.080630 -38.401955 1828.120133 1935.882470 20.020188 0.000000 0.282549
48.000000 64.663000 -2.000000 7.000000 1.000000 68.490466 -40.566870 1896.416753 1499.378066 15.473634 0.000000 0.204034
49.000000 78.900000 -1.000000 7.000000 1.000000 83.868244 -43.350548 1991.042655 1100.008855 12.677976 0.000000 0.162831
50.000000 90.831000 0.000000 7.000000 1.000000 99.605536 -47.041431 2130.858884 673.712073 11.009498 0.000000 0.183540
52.000000 47.941000 -3.000000 8.000000 1.000000 58.514442 -40.131114 1882.323323 1803.157273 20.874045 0.000000 0.265786
53.000000 59.256000 -2.000000 8.000000 1.000000 71.389971 -42.274904 1953.491021 1430.809639 16.884610 0.000000 0.208304
54.000000 70.011000 -1.000000 8.000000 1.000000 84.910125 -44.955678 2049.630388 1076.468818 14.287387 0.000000 0.180039
55.000000 79.089000 0.000000 8.000000 1.000000 98.634998 -48.386428 2186.681211 694.883566 12.644266 0.000000 0.212430
57.000000 45.558000 -3.000000 9.000000 1.000000 62.045019 -41.575844 1929.767611 1704.545459 21.964868 0.000000 0.257984
58.000000 54.486000 -2.000000 9.000000 1.000000 73.648495 -43.670279 2002.461543 1377.568363 18.361853 0.000000 0.214261
59.000000 62.868000 -1.000000 9.000000 1.000000 85.694209 -46.230867 2098.560332 1058.146200 15.910448 0.000000 0.197028
60.000000 70.000000 0.000000 9.000000 1.000000 97.855862 -49.418073 2231.536035 712.721362 14.286106 0.000000 0.236596
62.000000 50.317000 -2.000000 10.000000 1.000000 75.452682 -44.830363 2044.939840 1334.821546 19.882710 0.000000 0.221271
63.000000 57.017000 -1.000000 10.000000 1.000000 86.303689 -47.267412 2140.038679 1043.466162 17.542928 0.000000 0.213146
64.000000 62.765000 0.000000 10.000000 1.000000 97.217733 -50.233958 2268.366443 727.906708 15.933011 0.000000 0.257054
66.000000 46.674000 -2.000000 11.000000 1.000000 76.924429 -45.809287 2082.136703 1299.623080 21.433796 0.000000 0.228895
67.000000 52.143000 -1.000000 11.000000 1.000000 86.789956 -48.126047 2175.647204 1031.432942 19.182178 0.000000 0.228136
68.000000 56.874000 0.000000 11.000000 1.000000 96.686090 -50.895111 2299.148959 740.964787 17.583669 0.000000 0.274568
70.000000 48.026000 -1.000000 12.000000 1.000000 87.186302 -48.848653 2206.549572 1021.385189 20.826461 0.000000 0.241944
71.000000 51.985000 0.000000 12.000000 1.000000 96.236647 -51.441603 2325.260234 752.299060 19.237185 0.000000 0.289717
73.000000 47.866000 0.000000 13.000000 1.000000 95.851891 -51.900803 2347.688570 762.221290 20.892927 0.000000 0.302942
77.000000 140.317000 -1.000000 1.000000 2.000000 45.376958 18.723782 610.196481 2062.581760 7.133876 0.000000 0.199255
78.000000 161.705000 -1.000000 2.000000 2.000000 67.487855 2.273050 932.278622 1387.434278 6.188645 0.000000 0.078129
79.000000 88.947000 -2.000000 3.000000 2.000000 49.803471 -12.656738 1216.699591 1873.076639 11.253623 0.000000 0.128996
80.000000 146.029000 -1.000000 3.000000 2.000000 78.751205 -10.076813 1166.267856 1158.418593 6.851528 0.000000 0.133539
81.000000 192.175000 0.000000 3.000000 2.000000 110.644956 -5.523259 1079.076340 533.591967 5.203076 0.000000 0.143880
83.000000 125.242000 -1.000000 4.000000 2.000000 84.419033 -18.921909 1343.957767 1052.178552 7.987608 0.000000 0.136340
84.000000 154.778000 0.000000 4.000000 2.000000 110.600580 -18.016554 1325.053042 515.575384 6.460154 0.000000 0.113690
85.000000 167.504000 1.000000 4.000000 2.000000 135.943098 -16.283187 1289.387666 -217.804975 5.966957 0.000000 0.031052
86.000000 56.762000 -3.000000 5.000000 2.000000 48.102165 -24.276849 1460.442057 2000.305138 17.634222 0.000000 0.211624
87.000000 81.899000 -2.000000 5.000000 2.000000 66.687649 -24.696752 1469.966150 1451.494611 12.218473 0.000000 0.107843
88.000000 107.254000 -1.000000 5.000000 2.000000 87.419531 -25.287964 1483.485383 994.647511 9.326530 0.000000 0.122847
89.000000 127.358000 0.000000 5.000000 2.000000 109.168718 -26.181924 1504.180739 524.076057 7.851061 0.000000 0.077338
90.000000 137.872000 1.000000 5.000000 2.000000 130.423251 -27.690114 1539.830262 -94.323222 7.249876 0.000000 0.058530
91.000000 56.235000 -3.000000 6.000000 2.000000 54.863273 -27.848550 1543.631643 1797.679357 17.797715 0.000000 0.171339
92.000000 92.866000 -1.000000 6.000000 2.000000 89.103989 -29.982184 1595.952648 960.433390 10.770943 0.000000 0.107408
93.000000 107.291000 0.000000 6.000000 2.000000 107.517718 -31.727652 1640.450681 541.591067 9.319647 0.000000 0.047566
94.000000 115.849000 1.000000 6.000000 2.000000 125.561745 -34.404675 1712.083066 8.391836 8.628625 0.000000 0.085623
95.000000 54.056000 -3.000000 7.000000 2.000000 59.979714 -30.772045 1615.888636 1664.812887 18.513363 0.000000 0.160863
96.000000 68.167000 -2.000000 7.000000 2.000000 74.581789 -31.973990 1646.864124 1290.915013 14.677433 0.000000 0.123362
97.000000 81.470000 -1.000000 7.000000 2.000000 90.099106 -33.542632 1688.535896 938.766333 12.277200 0.000000 0.096584
98.000000 92.267000 0.000000 7.000000 2.000000 105.979878 -35.672068 1747.600541 561.598755 10.837321 0.000000 0.040443
99.000000 99.258000 1.000000 7.000000 2.000000 121.561045 -38.717653 1837.818886 93.652669 10.071436 0.000000 0.112866
101.000000 51.253000 -3.000000 8.000000 2.000000 63.940601 -33.197317 1679.235265 1569.981879 19.524423 0.000000 0.159879
102.000000 72.359000 -1.000000 8.000000 2.000000 90.711224 -36.316016 1766.080032 924.418274 13.822815 0.000000 0.093261
103.000000 86.486000 1.000000 8.000000 2.000000 118.298346 -41.690972 1933.639037 164.983769 11.559185 0.000000 0.138686
104.000000 48.311000 -3.000000 9.000000 2.000000 67.073157 -35.234887 1735.223981 1498.348575 20.711967 0.000000 0.161604
105.000000 56.981000 -2.000000 9.000000 2.000000 78.868030 -36.705635 1777.409693 1205.163420 17.557063 0.000000 0.129567
106.000000 64.968000 -1.000000 9.000000 2.000000 91.099298 -38.527738 1831.974194 914.600227 15.395025 0.000000 0.097298
107.000000 71.621000 0.000000 9.000000 2.000000 103.464661 -40.838738 1905.302905 600.384929 13.961898 0.000000 0.082423
108.000000 76.435000 1.000000 9.000000 2.000000 115.618678 -43.854190 2009.084965 225.285799 13.079673 0.000000 0.162346
110.000000 58.882000 -1.000000 10.000000 2.000000 91.350517 -40.327745 1888.660328 907.716300 16.986045 0.000000 0.106565
111.000000 68.362000 1.000000 10.000000 2.000000 113.392431 -45.494388 2070.030450 276.807156 14.624749 0.000000 0.183702
112.000000 48.529000 -2.000000 11.000000 2.000000 81.479632 -39.987278 1877.710973 1151.450462 20.613528 0.000000 0.139814
113.000000 53.799000 -1.000000 11.000000 2.000000 91.515082 -41.818465 1937.942476 902.802290 18.590861 0.000000 0.118713
114.000000 58.286000 0.000000 11.000000 2.000000 101.595516 -44.039111 2015.786070 633.788532 17.156488 0.000000 0.128454
115.000000 61.759000 1.000000 11.000000 2.000000 111.520219 -46.778847 2120.289387 321.268152 16.188759 0.000000 0.202869
117.000000 49.498000 -1.000000 12.000000 2.000000 91.623133 -43.071717 1981.182305 899.249764 20.206094 0.000000 0.132082
118.000000 56.273000 1.000000 12.000000 2.000000 109.927361 -47.811017 2162.445975 359.988645 17.767661 0.000000 0.220059
119.000000 45.817000 -1.000000 13.000000 2.000000 91.693424 -44.139099 2019.426869 896.660881 21.829386 0.000000 0.145700
120.000000 49.040000 0.000000 13.000000 2.000000 100.184831 -46.203742 2097.496028 661.614287 20.391405 0.000000 0.166926
121.000000 51.649000 1.000000 13.000000 2.000000 108.557676 -48.658069 2198.313360 393.989983 19.358487 0.000000 0.235500
123.000000 47.706000 1.000000 14.000000 2.000000 107.368522 -49.365418 2229.201244 424.070981 20.959007 0.000000 0.249408
125.000000 110.027000 -1.000000 1.000000 3.000000 48.748461 30.777537 333.971629 2039.672269 9.096875 0.000000 0.236276
126.000000 165.432000 0.000000 1.000000 3.000000 76.383218 45.679766 -127.140764 1314.162523 6.047326 0.000000 0.224719
127.000000 76.357000 -2.000000 2.000000 3.000000 41.356189 9.232327 800.055124 2179.746541 13.110408 0.000000 0.234765
128.000000 130.829000 -1.000000 2.000000 3.000000 68.091843 17.181486 642.212329 1394.064025 7.648883 0.000000 0.095950
129.000000 173.438000 0.000000 2.000000 3.000000 95.491835 29.217497 373.048036 822.434744 5.766598 0.000000 0.099678
131.000000 87.172000 -2.000000 3.000000 3.000000 55.425391 -0.081128 976.523981 1682.782691 11.482208 0.000000 0.030039
132.000000 127.777000 -1.000000 3.000000 3.000000 80.150421 5.157379 877.856754 1128.627175 7.830069 0.000000 0.141516
133.000000 158.455000 0.000000 3.000000 3.000000 105.650686 13.316633 720.244883 631.135004 6.310906 0.000000 0.141132
134.000000 169.381000 1.000000 3.000000 3.000000 128.012825 26.925211 428.369145 -2.565298 5.901462 0.000000 0.049300
135.000000 57.780000 -3.000000 4.000000 3.000000 45.293159 -9.931940 1163.461752 2022.545103 17.324999 0.000000 0.182073
136.000000 86.773000 -2.000000 4.000000 3.000000 65.018989 -7.785438 1122.155306 1447.115271 11.533276 0.000000 0.064128
137.000000 115.948000 -1.000000 4.000000 3.000000 87.067092 -4.719145 1063.849570 996.330063 8.627683 0.000000 0.159263
138.000000 137.959000 0.000000 4.000000 3.000000 109.846329 -0.017670 975.331924 552.526815 7.247955 0.000000 0.148822
139.000000 147.589000 1.000000 4.000000 3.000000 131.167214 7.938784 824.909168 -9.244022 6.772578 0.000000 0.045191
141.000000 59.744000 -3.000000 5.000000 3.000000 53.694592 -15.141348 1266.239902 1760.212643 16.753446 0.000000 0.100081
142.000000 81.745000 -2.000000 5.000000 3.000000 71.508465 -14.051734 1244.382775 1312.049163 12.241019 0.000000 0.103375
143.000000 102.863000 -1.000000 5.000000 3.000000 90.928395 -12.539530 1214.387884 923.132484 9.724304 0.000000 0.155772
144.000000 118.999000 0.000000 5.000000 3.000000 110.929405 -10.303871 1170.670933 522.622964 8.402557 0.000000 0.135613
145.000000 127.287000 1.000000 5.000000 3.000000 130.242449 -6.678331 1101.022876 23.870110 7.852877 0.000000 0.051298
147.000000 75.382000 -2.000000 6.000000 3.000000 75.966860 -19.134606 1348.428491 1225.743382 13.273028 0.000000 0.118157
148.000000 91.024000 -1.000000 6.000000 3.000000 93.072868 -18.672374 1338.727202 880.010972 10.988521 0.000000 0.142577
149.000000 110.214000 1.000000 6.000000 3.000000 127.745770 -17.013679 1304.337187 69.635710 9.069600 0.000000 0.039606
151.000000 56.093000 -3.000000 7.000000 3.000000 64.736748 -23.105042 1434.190371 1493.212301 17.840480 0.000000 0.102363
152.000000 69.051000 -2.000000 7.000000 3.000000 79.105548 -23.279473 1438.068502 1166.512992 14.488858 0.000000 0.121044
153.000000 80.947000 -1.000000 7.000000 3.000000 94.257296 -23.507757 1443.159353 853.628400 12.356088 0.000000 0.125892
154.000000 90.364000 0.000000 7.000000 3.000000 109.701471 -23.819376 1450.137186 519.716047 11.065223 0.000000 0.089291
155.000000 96.302000 1.000000 7.000000 3.000000 124.887887 -24.270115 1460.289820 117.743728 10.380224 0.000000 0.021924
157.000000 53.045000 -3.000000 8.000000 3.000000 68.409125 -26.160695 1503.685640 1415.549106 18.864332 0.000000 0.112326
158.000000 63.242000 -2.000000 8.000000 3.000000 81.374094 -26.690707 1516.100925 1123.744478 15.818936 0.000000 0.118495
159.000000 72.518000 -1.000000 8.000000 3.000000 94.896866 -27.366961 1532.110804 837.167459 13.791876 0.000000 0.109199
160.000000 79.988000 0.000000 8.000000 3.000000 108.617419 -28.259370 1553.540638 529.360733 12.500600 0.000000 0.066071
161.000000 85.019000 1.000000 8.000000 3.000000 122.138995 -29.490544 1583.703527 164.172532 11.758237 0.000000 0.016540
163.000000 58.077000 -2.000000 9.000000 3.000000 83.055692 -29.528433 1584.643279 1091.659478 17.224865 0.000000 0.114067
164.000000 65.475000 -1.000000 9.000000 3.000000 95.221065 -30.492113 1608.786244 826.865668 15.275056 0.000000 0.094750
165.000000 75.814000 1.000000 9.000000 3.000000 119.649006 -33.367138 1683.799961 207.444791 13.186247 0.000000 0.034430
166.000000 78.167000 2.000000 9.000000 3.000000 131.327760 -35.642718 1746.765433 -223.649861 12.787148 0.000000 0.144683
167.000000 46.884000 -3.000000 10.000000 3.000000 73.598858 -30.979578 1621.180831 1310.503277 21.340599 0.000000 0.122116
168.000000 53.541000 -2.000000 10.000000 3.000000 84.331384 -31.915091 1645.327556 1066.858842 18.683723 0.000000 0.109824
169.000000 59.558000 -1.000000 10.000000 3.000000 95.359480 -33.060214 1675.562915 820.522574 16.792494 0.000000 0.084236
170.000000 64.550000 0.000000 10.000000 3.000000 106.472816 -34.492966 1714.522022 554.856882 15.490708 0.000000 0.039279
171.000000 68.230000 1.000000 10.000000 3.000000 117.443641 -36.334568 1766.616946 247.158663 14.652375 0.000000 0.056036
172.000000 70.467000 2.000000 10.000000 3.000000 128.046987 -38.783036 1839.838270 -139.551930 14.185025 0.000000 0.161427
174.000000 49.567000 -2.000000 11.000000 3.000000 85.319441 -33.943697 1699.431833 1047.221378 20.180977 0.000000 0.106952
175.000000 54.546000 -1.000000 11.000000 3.000000 95.387152 -35.199978 1734.241477 816.791624 18.335501 0.000000 0.078833
176.000000 58.728000 0.000000 11.000000 3.000000 105.508321 -36.739636 1778.403864 568.320551 17.026680 0.000000 0.044629
177.000000 61.912000 1.000000 11.000000 3.000000 115.504412 -38.667530 1836.273341 283.369511 16.148227 0.000000 0.077149
178.000000 63.995000 2.000000 11.000000 3.000000 125.196687 -41.145085 1915.403788 -67.104444 15.620184 0.000000 0.176559
180.000000 46.082000 -2.000000 12.000000 3.000000 86.098975 -35.685090 1747.971278 1031.360167 21.706969 0.000000 0.106039
181.000000 50.262000 -1.000000 12.000000 3.000000 95.348601 -37.005599 1786.210817 814.818392 19.898097 0.000000 0.078806
182.000000 56.588000 1.000000 12.000000 3.000000 113.799904 -40.544084 1895.675294 316.317282 17.667706 0.000000 0.097059
183.000000 58.509000 2.000000 12.000000 3.000000 122.715383 -42.980531 1977.977111 -4.039068 17.085420 0.000000 0.190550
184.000000 46.569000 -1.000000 13.000000 3.000000 95.270812 -38.546799 1832.559394 814.044500 21.476029 0.000000 0.083332
185.000000 49.619000 0.000000 13.000000 3.000000 103.833714 -40.151924 1882.992227 594.248850 20.152676 0.000000 0.074228
186.000000 52.056000 1.000000 13.000000 3.000000 112.297597 -42.083157 1946.931962 346.303355 19.206276 0.000000 0.115604
187.000000 53.817000 2.000000 13.000000 3.000000 120.545405 -44.445033 2030.643674 51.358401 18.575272 0.000000 0.203593
189.000000 46.005000 0.000000 14.000000 3.000000 103.113636 -41.473615 1926.341504 606.361426 21.735824 0.000000 0.090543
190.000000 48.160000 1.000000 14.000000 3.000000 110.967974 -43.366547 1991.611193 373.635021 20.760491 0.000000 0.132794
191.000000 49.772000 2.000000 14.000000 3.000000 118.637125 -45.639272 2075.583589 100.407879 20.085527 0.000000 0.215782
193.000000 46.256000 2.000000 15.000000 3.000000 116.949215 -46.630937 2114.381003 144.142396 21.612880 0.000000 0.227178
197.000000 117.917000 0.000000 1.000000 4.000000 70.121878 49.577464 -288.634166 1541.149131 8.484785 0.000000 0.329695
198.000000 104.418000 -1.000000 2.000000 4.000000 66.557297 26.811154 431.061618 1463.921955 9.583393 0.000000 0.118791
199.000000 130.337000 0.000000 2.000000 4.000000 87.163925 37.545529 147.770696 1008.248008 7.674496 0.000000 0.109132
201.000000 51.433000 -3.000000 3.000000 4.000000 39.366413 5.343158 874.337450 2258.594417 19.463836 0.000000 0.267094
202.000000 79.586000 -2.000000 3.000000 4.000000 58.163019 10.006677 785.090956 1619.616305 12.576061 0.000000 0.047116
203.000000 107.570000 -1.000000 3.000000 4.000000 78.624215 16.323127 659.797882 1166.640802 9.301022 0.000000 0.129895
204.000000 128.226000 0.000000 3.000000 4.000000 98.776528 25.088380 471.093078 757.522033 7.799530 0.000000 0.111637
205.000000 136.960000 1.000000 3.000000 4.000000 116.111216 37.318711 154.527869 277.667118 7.299685 0.000000 0.067844
206.000000 57.847000 -3.000000 4.000000 4.000000 49.705067 -1.100890 995.682633 1853.768778 17.304250 0.000000 0.101471
207.000000 102.696000 -1.000000 4.000000 4.000000 86.591443 6.852175 845.665529 1005.566146 9.741087 0.000000 0.157169
208.000000 126.432000 1.000000 4.000000 4.000000 122.945658 22.807367 522.404695 184.335656 7.906818 0.000000 0.034370
210.000000 59.547000 -3.000000 5.000000 4.000000 57.631360 -6.700686 1101.448583 1627.903113 16.808318 0.000000 0.033069
211.000000 77.824000 -2.000000 5.000000 4.000000 74.096385 -4.402322 1057.860216 1248.571355 12.857366 0.000000 0.116177
212.000000 94.678000 -1.000000 5.000000 4.000000 91.585855 -1.313771 999.683349 911.194453 10.565007 0.000000 0.166654
213.000000 107.310000 0.000000 5.000000 4.000000 109.181102 3.025038 918.122161 566.070243 9.318188 0.000000 0.149523
214.000000 113.947000 1.000000 5.000000 4.000000 125.777606 9.466794 795.531285 154.682602 8.772846 0.000000 0.070533
216.000000 58.576000 -3.000000 6.000000 4.000000 63.665572 -11.524537 1194.454592 1484.704196 17.085142 0.000000 0.063677
217.000000 86.097000 -1.000000 6.000000 4.000000 94.620041 -8.163254 1129.391845 853.134212 11.617190 0.000000 0.163779
218.000000 101.865000 1.000000 6.000000 4.000000 126.112440 -1.667739 1006.337134 155.461957 9.813348 0.000000 0.079109
219.000000 103.316000 2.000000 6.000000 4.000000 140.326199 4.415743 891.886174 -360.472799 9.673595 0.000000 0.022478
220.000000 56.271000 -3.000000 7.000000 4.000000 68.279034 -15.667715 1276.878397 1386.311759 17.783585 0.000000 0.090986
221.000000 67.743000 -2.000000 7.000000 4.000000 82.050834 -14.871124 1260.799013 1096.497971 14.768146 0.000000 0.138458
222.000000 78.040000 -1.000000 7.000000 4.000000 96.417180 -13.838255 1240.125323 816.328860 12.816124 0.000000 0.153938
223.000000 86.057000 0.000000 7.000000 4.000000 110.935622 -12.446781 1212.560059 519.325488 11.618981 0.000000 0.130634
224.000000 91.067000 1.000000 7.000000 4.000000 125.123618 -10.473682 1173.968026 171.076659 10.977010 0.000000 0.073123
225.000000 92.927000 2.000000 7.000000 4.000000 138.533692 -7.467644 1116.078529 -287.390495 10.755242 0.000000 0.012590
227.000000 53.403000 -3.000000 8.000000 4.000000 71.842415 -19.229597 1350.428842 1314.842930 18.737266 0.000000 0.106327
228.000000 70.856000 -1.000000 8.000000 4.000000 97.446290 -18.530669 1335.763758 792.637403 14.114980 0.000000 0.140573
229.000000 81.733000 1.000000 8.000000 4.000000 123.537720 -17.311037 1310.455783 193.749083 12.230843 0.000000 0.059706
231.000000 50.388000 -3.000000 9.000000 4.000000 74.630365 -22.302059 1416.465633 1260.767067 19.857171 0.000000 0.113876
232.000000 57.892000 -2.000000 9.000000 4.000000 86.143989 -22.357368 1417.679882 1019.440701 17.279439 0.000000 0.130455
233.000000 64.586000 -1.000000 9.000000 4.000000 97.999887 -22.426401 1419.196797 777.363072 15.484937 0.000000 0.125829
234.000000 69.988000 0.000000 9.000000 4.000000 109.953652 -22.514992 1421.145655 518.005710 14.286639 0.000000 0.095402
235.000000 73.763000 1.000000 9.000000 4.000000 121.748558 -22.632820 1423.741578 219.438890 13.552673 0.000000 0.042665
236.000000 75.794000 2.000000 9.000000 4.000000 133.147455 -22.797219 1427.370975 -153.339380 13.187389 0.000000 0.045279
238.000000 47.437000 -3.000000 10.000000 4.000000 76.841717 -24.965005 1476.084173 1218.548455 21.091367 0.000000 0.116715
239.000000 59.152000 -1.000000 10.000000 4.000000 98.258381 -25.684235 1492.620775 767.657080 16.907287 0.000000 0.111122
240.000000 66.973000 1.000000 10.000000 4.000000 119.952491 -26.825562 1519.278199 245.997594 14.927048 0.000000 0.024090
242.000000 49.820000 -2.000000 11.000000 4.000000 88.376465 -27.804952 1542.584474 975.488049 20.077979 0.000000 0.114855
243.000000 54.443000 -1.000000 11.000000 4.000000 98.333338 -28.432315 1557.734879 761.721460 18.369355 0.000000 0.097487
244.000000 58.284000 0.000000 11.000000 4.000000 108.340083 -29.205269 1576.650452 532.253145 17.155668 0.000000 0.060832
245.000000 61.172000 1.000000 11.000000 4.000000 118.240072 -30.180738 1600.933919 272.277028 16.342865 0.000000 0.005144
246.000000 63.028000 2.000000 11.000000 4.000000 127.883061 -31.449433 1633.248075 -40.550059 15.859303 0.000000 0.071946
248.000000 50.351000 -1.000000 12.000000 4.000000 98.294356 -30.771481 1615.874279 758.384304 19.862249 0.000000 0.085800
249.000000 56.191000 1.000000 12.000000 4.000000 116.647842 -32.909121 1671.529069 297.675296 17.791947 0.000000 0.013555
251.000000 46.777000 -1.000000 13.000000 4.000000 98.185328 -32.780374 1668.102650 756.861252 21.379549 0.000000 0.076870
252.000000 49.631000 0.000000 13.000000 4.000000 106.727033 -33.856320 1697.049309 551.497535 20.147103 0.000000 0.040052
253.000000 51.887000 1.000000 13.000000 4.000000 115.185622 -35.161816 1733.168392 321.895529 19.268132 0.000000 0.031626
254.000000 53.494000 2.000000 13.000000 4.000000 123.459263 -36.777181 1779.502652 52.972003 18.686855 0.000000 0.099342
257.000000 48.144000 1.000000 14.000000 4.000000 113.850521 -37.047796 1787.454466 344.813277 20.766693 0.000000 0.048906
259.000000 46.237000 2.000000 15.000000 4.000000 119.847500 -40.330796 1888.758936 130.861759 21.621151 0.000000 0.126020
265.000000 62.315000 -2.000000 2.000000 5.000000 47.551289 25.645165 458.282615 2033.046736 16.062603 0.000000 0.210526
266.000000 84.901000 -1.000000 2.000000 5.000000 64.685916 33.208003 270.478018 1549.453572 11.786367 0.000000 0.155935
267.000000 101.998000 0.000000 2.000000 5.000000 80.986211 42.470255 -10.214575 1172.463299 9.807611 0.000000 0.164127
269.000000 49.828000 -3.000000 3.000000 5.000000 42.979946 12.737296 731.710324 2125.134609 20.089948 0.000000 0.214402
270.000000 70.636000 -2.000000 3.000000 5.000000 59.219444 17.824627 628.929334 1614.431316 14.168961 0.000000 0.083988
271.000000 90.189000 -1.000000 3.000000 5.000000 76.173116 24.294983 489.147954 1231.637861 11.093648 0.000000 0.119848
272.000000 104.654000 0.000000 3.000000 5.000000 92.451216 32.550116 288.000688 886.340197 9.557124 0.000000 0.094588
273.000000 111.766000 1.000000 3.000000 5.000000 106.510534 42.932374 -26.288254 505.263354 8.946518 0.000000 0.116479
274.000000 55.371000 -3.000000 4.000000 5.000000 52.565934 6.465766 853.023140 1770.177705 18.077475 0.000000 0.071185
275.000000 73.159000 -2.000000 4.000000 5.000000 68.268558 10.534396 774.852247 1377.348333 13.678662 0.000000 0.088428
276.000000 89.392000 -1.000000 4.000000 5.000000 84.599022 15.776559 670.914960 1046.741657 11.191161 0.000000 0.143271
277.000000 101.377000 0.000000 4.000000 5.000000 100.488909 22.646449 525.957860 725.089048 9.864857 0.000000 0.119105
278.000000 107.543000 1.000000 4.000000 5.000000 114.712320 31.720776 309.727838 358.695125 9.296748 0.000000 0.006078
280.000000 57.234000 -3.000000 5.000000 5.000000 60.158906 0.806061 959.857239 1558.486200 17.487006 0.000000 0.018894
281.000000 71.991000 -2.000000 5.000000 5.000000 75.035290 3.929890 901.061500 1229.359814 13.898905 0.000000 0.121359
282.000000 85.211000 -1.000000 5.000000 5.000000 90.459059 7.965696 824.393777 932.292425 11.739086 0.000000 0.161523
283.000000 100.501000 1.000000 5.000000 5.000000 119.713236 20.592298 570.612693 284.838793 9.947456 0.000000 0.060161
284.000000 101.522000 2.000000 5.000000 5.000000 131.742505 30.643455 337.379036 -175.255106 9.845572 0.000000 0.107435
285.000000 56.771000 -3.000000 6.000000 5.000000 66.084237 -4.232859 1054.658709 1419.607754 17.627951 0.000000 0.068301
286.000000 68.865000 -2.000000 6.000000 5.000000 79.999812 -1.931630 1011.299188 1130.891273 14.528479 0.000000 0.141470
287.000000 79.585000 -1.000000 6.000000 5.000000 94.383111 1.026709 955.711330 858.489551 12.568018 0.000000 0.168319
288.000000 87.712000 0.000000 6.000000 5.000000 108.676060 4.945237 881.872952 575.836334 11.400277 0.000000 0.149226
289.000000 92.509000 1.000000 6.000000 5.000000 122.250348 10.319238 779.030842 250.734669 10.806426 0.000000 0.086770
290.000000 93.927000 2.000000 6.000000 5.000000 134.464028 17.969725 625.919431 -169.515276 10.641391 0.000000 0.045991
292.000000 54.998000 -3.000000 7.000000 5.000000 70.688972 -8.682097 1139.352011 1322.517234 18.194591 0.000000 0.098319
293.000000 64.898000 -2.000000 7.000000 5.000000 83.615919 -7.066297 1108.416655 1062.344635 15.415344 0.000000 0.150270
294.000000 73.628000 -1.000000 7.000000 5.000000 96.934043 -5.009550 1069.344312 809.603269 13.584040 0.000000 0.166731
295.000000 80.368000 0.000000 7.000000 5.000000 110.241358 -2.311158 1018.438389 543.795398 12.441660 0.000000 0.147343
296.000000 84.607000 1.000000 7.000000 5.000000 123.099474 1.364479 949.363584 239.187653 11.815676 0.000000 0.095079
297.000000 86.263000 2.000000 7.000000 5.000000 135.073559 6.609902 850.279993 -145.282085 11.586729 0.000000 0.029860
299.000000 52.578000 -3.000000 8.000000 5.000000 74.276908 -12.594510 1215.471988 1251.471461 19.030753 0.000000 0.115166
300.000000 60.722000 -2.000000 8.000000 5.000000 86.249910 -11.533228 1194.624649 1012.999495 16.474463 0.000000 0.151538
301.000000 67.893000 -1.000000 8.000000 5.000000 98.544391 -10.199166 1168.639732 776.697859 14.730892 0.000000 0.159777
302.000000 73.530000 0.000000 8.000000 5.000000 110.864789 -8.473855 1135.351199 526.232968 13.598389 0.000000 0.139230
303.000000 77.274000 1.000000 8.000000 5.000000 122.898061 -6.160711 1091.176289 240.721421 12.936918 0.000000 0.092719
304.000000 79.037000 2.000000 8.000000 5.000000 134.344913 -2.911050 1029.730817 -112.319215 12.646197 0.000000 0.031201
306.000000 49.906000 -3.000000 9.000000 5.000000 77.091164 -16.031245 1284.257715 1197.660184 20.048331 0.000000 0.123587
307.000000 56.661000 -2.000000 9.000000 5.000000 88.176161 -15.410035 1271.663649 976.550242 17.654554 0.000000 0.148050
308.000000 62.613000 -1.000000 9.000000 5.000000 99.522102 -14.639697 1256.150107 754.405343 15.972817 0.000000 0.149608
309.000000 67.372000 0.000000 9.000000 5.000000 110.905960 -13.659622 1236.568838 517.908072 14.841325 0.000000 0.127449
310.000000 70.680000 1.000000 9.000000 5.000000 122.096351 -12.371557 1211.078582 249.888941 14.143854 0.000000 0.084131
311.000000 72.457000 2.000000 9.000000 5.000000 132.877006 -10.605470 1176.529348 -75.717521 13.794756 0.000000 0.030777
313.000000 47.206000 -3.000000 10.000000 5.000000 79.317983 -19.053411 1346.720469 1155.785134 21.193851 0.000000 0.126616
314.000000 52.861000 -2.000000 10.000000 5.000000 89.592937 -18.777200 1340.922599 949.076612 18.922853 0.000000 0.141684
315.000000 57.855000 -1.000000 10.000000 5.000000 100.078028 -18.439320 1333.855995 739.356036 17.285999 0.000000 0.137687
316.000000 64.841000 1.000000 10.000000 5.000000 120.983560 -17.472389 1313.784144 263.456746 15.417822 0.000000 0.071972
317.000000 66.574000 2.000000 10.000000 5.000000 131.062372 -16.745927 1298.844364 -38.193088 15.014194 0.000000 0.027584
318.000000 67.155000 3.000000 10.000000 5.000000 140.698223 -15.727542 1278.091005 -425.033599 14.882510 0.000000 0.049480
320.000000 49.377000 -2.000000 11.000000 5.000000 90.641338 -21.709829 1403.523393 928.032218 20.257449 0.000000 0.133720
321.000000 53.612000 -1.000000 11.000000 5.000000 100.353940 -21.700376 1403.317702 729.358268 18.653964 0.000000 0.125022
322.000000 57.100000 0.000000 11.000000 5.000000 110.098203 -21.688737 1403.064462 517.165210 17.511270 0.000000 0.099086
323.000000 59.702000 1.000000 11.000000 5.000000 119.734644 -21.674054 1402.745029 279.458762 16.745210 0.000000 0.057879
324.000000 61.358000 2.000000 11.000000 5.000000 129.132754 -21.654950 1402.329550 -1.200414 16.290945 0.000000 0.024783
325.000000 62.087000 3.000000 11.000000 5.000000 138.180892 -21.629078 1401.767040 -353.078656 16.097713 0.000000 0.069002
327.000000 46.215000 -2.000000 12.000000 5.000000 91.421414 -24.274198 1460.382113 911.703257 21.643131 0.000000 0.125052
328.000000 49.841000 -1.000000 12.000000 5.000000 100.444558 -24.512587 1465.781133 722.944371 20.064953 0.000000 0.112340
329.000000 52.867000 0.000000 12.000000 5.000000 109.491936 -24.801787 1472.358516 521.325771 18.913529 0.000000 0.084453
330.000000 55.186000 1.000000 12.000000 5.000000 118.451056 -25.159962 1480.547291 296.679465 18.115861 0.000000 0.042906
331.000000 56.748000 2.000000 12.000000 5.000000 127.215456 -25.615085 1491.022285 34.498334 17.614699 0.000000 0.026103
332.000000 57.559000 3.000000 12.000000 5.000000 135.691570 -26.212591 1504.896266 -287.982001 17.364516 0.000000 0.084373
334.000000 46.492000 -1.000000 13.000000 5.000000 100.413183 -26.951540 1522.253180 719.107314 21.510348 0.000000 0.100207
335.000000 49.137000 0.000000 13.000000 5.000000 108.838983 -27.459597 1534.319063 527.157090 20.349345 0.000000 0.070469
336.000000 51.212000 1.000000 13.000000 5.000000 117.189338 -28.078409 1549.166516 314.360238 19.522036 0.000000 0.027830
337.000000 52.674000 2.000000 13.000000 5.000000 125.375722 -28.848417 1567.882714 68.529408 18.977476 0.000000 0.032621
338.000000 53.523000 3.000000 13.000000 5.000000 133.318162 -29.832328 1592.206265 -228.925539 18.674585 0.000000 0.097438
340.000000 45.840000 0.000000 14.000000 5.000000 108.174031 -29.745944 1590.051772 534.050839 21.812751 0.000000 0.057852
341.000000 47.704000 1.000000 14.000000 5.000000 115.979332 -30.545513 1610.137919 332.026918 20.957742 0.000000 0.013850
342.000000 49.067000 2.000000 14.000000 5.000000 123.643578 -31.522309 1635.130555 100.739588 20.373008 0.000000 0.042468
343.000000 49.924000 3.000000 14.000000 5.000000 131.097769 -32.741784 1667.077585 -175.180054 20.021290 0.000000 0.109196
345.000000 45.864000 2.000000 15.000000 5.000000 122.029650 -33.761265 1694.462985 131.100900 21.796301 0.000000 0.053850
346.000000 46.710000 3.000000 15.000000 5.000000 129.040971 -35.119925 1731.991596 -126.108369 21.399289 0.000000 0.120164
350.000000 70.689000 -1.000000 2.000000 6.000000 62.969981 37.663529 144.239054 1634.659741 14.156029 0.000000 0.199294
352.000000 62.255000 -2.000000 3.000000 6.000000 59.405325 23.852760 499.113305 1636.814805 16.075806 0.000000 0.115671
353.000000 76.331000 -1.000000 3.000000 6.000000 73.651606 30.065408 351.961877 1305.799866 13.107964 0.000000 0.123831
354.000000 92.736000 1.000000 3.000000 6.000000 98.973804 46.384254 -154.598539 694.610752 10.783601 0.000000 0.170740
356.000000 51.710000 -3.000000 4.000000 6.000000 54.314029 12.812001 730.234859 1733.733099 19.356405 0.000000 0.078798
357.000000 77.617000 -1.000000 4.000000 6.000000 82.082387 22.562755 527.802572 1103.091965 12.889234 0.000000 0.128435
358.000000 91.823000 1.000000 4.000000 6.000000 107.477157 37.402375 152.040187 514.404969 10.889535 0.000000 0.045805
359.000000 53.801000 -3.000000 5.000000 6.000000 61.623420 7.312294 836.888784 1527.148769 18.602394 0.000000 0.044497
360.000000 65.590000 -2.000000 5.000000 6.000000 74.917038 10.917067 767.405879 1236.409367 15.255345 0.000000 0.120090
361.000000 75.953000 -1.000000 5.000000 6.000000 88.427894 15.398074 678.578087 971.639037 13.170366 0.000000 0.148669
362.000000 83.726000 0.000000 5.000000 6.000000 101.529480 21.038463 561.020142 705.768052 11.944464 0.000000 0.123769
363.000000 88.248000 1.000000 5.000000 6.000000 113.538520 28.191382 398.104495 409.050529 11.329717 0.000000 0.039893
364.000000 89.532000 2.000000 5.000000 6.000000 123.804910 37.225068 157.305734 35.962711 11.165226 0.000000 0.117967
365.000000 72.608000 -1.000000 6.000000 6.000000 93.030574 8.752665 809.291227 883.346486 13.776001 0.000000 0.162332
366.000000 83.264000 1.000000 6.000000 6.000000 117.486695 19.212565 599.929993 348.007093 12.007268 0.000000 0.077498
367.000000 52.751000 -3.000000 7.000000 6.000000 72.145570 -2.293138 1018.099327 1287.966351 18.969355 0.000000 0.106238
368.000000 61.162000 -2.000000 7.000000 6.000000 84.104160 -0.054527 976.024275 1052.145257 16.357080 0.000000 0.154035
369.000000 68.486000 -1.000000 7.000000 6.000000 96.271822 2.729041 923.696489 822.577441 14.604217 0.000000 0.167973
370.000000 74.131000 0.000000 7.000000 6.000000 108.289721 6.264629 856.848489 583.126857 13.488861 0.000000 0.148689
371.000000 77.743000 1.000000 7.000000 6.000000 119.768327 10.862804 768.462941 314.158119 12.859450 0.000000 0.097462
372.000000 79.275000 2.000000 7.000000 6.000000 130.312434 16.990818 646.132416 -13.842919 12.608938 0.000000 0.035032
374.000000 50.889000 -3.000000 8.000000 6.000000 75.831638 -6.399805 1095.722031 1214.415888 19.661882 0.000000 0.123805
375.000000 64.145000 -1.000000 8.000000 6.000000 98.495328 -2.642090 1024.666551 780.065379 15.591729 0.000000 0.167453
376.000000 72.214000 1.000000 8.000000 6.000000 120.832650 3.386362 911.313432 297.444593 13.843844 0.000000 0.105111
377.000000 73.855000 3.000000 8.000000 6.000000 140.562618 14.238322 701.889589 -409.032063 13.532454 0.000000 0.060340
378.000000 54.667000 -2.000000 9.000000 6.000000 89.279160 -8.865809 1142.885230 954.705366 18.298288 0.000000 0.159292
379.000000 59.897000 -1.000000 9.000000 6.000000 99.978989 -7.381707 1114.436803 750.044624 16.697168 0.000000 0.162647
380.000000 66.957000 1.000000 9.000000 6.000000 121.062534 -3.134308 1033.936395 291.726066 14.930741 0.000000 0.104783
381.000000 68.537000 2.000000 9.000000 6.000000 131.022765 0.036789 974.308927 4.640429 14.584170 0.000000 0.051306
383.000000 46.336000 -3.000000 10.000000 6.000000 81.072154 -13.362361 1230.662408 1114.783839 21.591608 0.000000 0.137812
384.000000 55.894000 -1.000000 10.000000 6.000000 100.934020 -11.540799 1194.772786 728.785101 17.892347 0.000000 0.154994
385.000000 62.099000 1.000000 10.000000 6.000000 120.750903 -8.733698 1140.344068 293.137084 16.098713 0.000000 0.099327
386.000000 64.175000 3.000000 10.000000 6.000000 139.262085 -3.880660 1048.009398 -311.505698 15.573866 0.000000 0.006096
387.000000 48.366000 -2.000000 11.000000 6.000000 92.157480 -15.791371 1279.385515 898.862524 20.680862 0.000000 0.149910
388.000000 52.202000 -1.000000 11.000000 6.000000 101.515276 -15.183381 1267.087474 713.795457 19.157400 0.000000 0.145545
389.000000 55.345000 0.000000 11.000000 6.000000 110.874208 -14.439277 1252.131990 517.170500 18.066426 0.000000 0.125257
390.000000 57.681000 1.000000 11.000000 6.000000 120.106253 -13.507951 1233.553370 299.182838 17.331914 0.000000 0.090613
391.000000 59.166000 2.000000 11.000000 6.000000 129.090714 -12.309321 1209.853531 46.034517 16.894668 0.000000 0.046863
392.000000 59.820000 3.000000 11.000000 6.000000 137.720895 -10.710719 1178.576467 -263.686887 16.707914 0.000000 0.019474
394.000000 48.836000 -1.000000 12.000000 6.000000 101.834005 -18.375535 1332.525094 703.366928 20.477920 0.000000 0.135061
395.000000 53.696000 1.000000 12.000000 6.000000 119.270003 -17.573677 1315.876510 308.220403 18.618376 0.000000 0.079885
396.000000 45.783000 -1.000000 13.000000 6.000000 101.969289 -21.179410 1392.022122 696.300964 21.843209 0.000000 0.124100
397.000000 48.216000 0.000000 13.000000 6.000000 110.191128 -21.118659 1390.710144 516.691891 20.737605 0.000000 0.101540
398.000000 50.115000 1.000000 13.000000 6.000000 118.334968 -21.044748 1389.115398 319.150448 19.948890 0.000000 0.067991
399.000000 51.447000 2.000000 13.000000 6.000000 126.321527 -20.952881 1387.135426 93.734952 19.430208 0.000000 0.030832
400.000000 52.211000 3.000000 13.000000 6.000000 134.080530 -20.835610 1384.611470 -174.222959 19.143506 0.000000 0.040756
403.000000 46.901000 1.000000 14.000000 6.000000 117.360558 -24.022120 1454.695063 331.228373 21.316255 0.000000 0.055532
404.000000 48.928000 3.000000 14.000000 6.000000 132.223591 -24.580399 1467.320691 -133.065303 20.428424 0.000000 0.049714
410.000000 48.766000 -2.000000 2.000000 7.000000 49.421580 34.677383 230.366886 2061.899689 20.523923 0.000000 0.265537
411.000000 60.150000 -1.000000 2.000000 7.000000 61.502246 40.908929 42.391015 1714.171543 16.636278 0.000000 0.242829
412.000000 69.038000 0.000000 2.000000 7.000000 72.870951 47.924275 -217.173488 1436.004814 14.491542 0.000000 0.280418
414.000000 55.009000 -2.000000 3.000000 7.000000 59.171935 28.546250 389.494471 1672.206460 18.192962 0.000000 0.145432
415.000000 65.475000 -1.000000 3.000000 7.000000 71.348703 34.355418 239.275370 1381.051905 15.281536 0.000000 0.142607
416.000000 73.473000 0.000000 3.000000 7.000000 82.841706 41.074588 36.928970 1120.307336 13.615005 0.000000 0.144042
417.000000 78.321000 1.000000 3.000000 7.000000 93.019672 48.705878 -250.373594 854.964799 12.769514 0.000000 0.222170
419.000000 47.713000 -3.000000 4.000000 7.000000 55.318370 18.089250 623.436293 1724.475111 20.977256 0.000000 0.099500
420.000000 58.361000 -2.000000 4.000000 7.000000 67.430801 22.511454 528.932212 1425.236743 17.146562 0.000000 0.105366
421.000000 67.711000 -1.000000 4.000000 7.000000 79.527971 27.761866 408.449557 1165.813989 14.775260 0.000000 0.120377
422.000000 74.795000 0.000000 4.000000 7.000000 91.030798 33.980274 249.569363 917.646411 13.372685 0.000000 0.095269
423.000000 79.077000 1.000000 4.000000 7.000000 101.358324 41.269820 30.456404 653.345591 12.645962 0.000000 0.090613
424.000000 80.571000 2.000000 4.000000 7.000000 110.030045 49.633767 -291.152586 335.170229 12.409468 0.000000 0.269582
425.000000 49.952000 -3.000000 5.000000 7.000000 62.348575 12.869640 729.095847 1519.434297 20.035397 0.000000 0.065219
426.000000 59.377000 -2.000000 5.000000 7.000000 74.193995 16.698757 652.121703 1259.096970 16.851502 0.000000 0.116561
427.000000 67.572000 -1.000000 5.000000 7.000000 86.052312 21.299602 555.379000 1020.719776 14.804236 0.000000 0.134255
428.000000 73.789000 0.000000 5.000000 7.000000 97.436717 26.850632 430.130297 783.535675 13.553790 0.000000 0.106236
429.000000 77.612000 1.000000 5.000000 7.000000 107.841814 33.537631 261.599347 525.382336 12.883531 0.000000 0.033224
430.000000 79.039000 2.000000 5.000000 7.000000 116.810033 41.503313 22.664300 214.735739 12.648831 0.000000 0.133993
432.000000 50.526000 -3.000000 6.000000 7.000000 68.145362 7.973167 824.250673 1376.891731 19.806038 0.000000 0.085569
433.000000 58.736000 -2.000000 6.000000 7.000000 79.593802 11.207242 761.746621 1142.499806 17.033807 0.000000 0.136675
434.000000 65.840000 -1.000000 6.000000 7.000000 91.085161 15.120493 684.180488 919.881818 15.192521 0.000000 0.150905
435.000000 71.271000 0.000000 6.000000 7.000000 102.225505 19.901174 585.361976 692.984162 14.031622 0.000000 0.126883
436.000000 74.710000 1.000000 6.000000 7.000000 112.597138 25.779667 455.170139 443.533760 13.383062 0.000000 0.061589
437.000000 76.138000 2.000000 6.000000 7.000000 121.796551 33.007541 275.844899 145.338274 13.129926 0.000000 0.053440
439.000000 49.951000 -3.000000 7.000000 7.000000 72.860836 3.435178 910.393163 1273.514292 20.032506 0.000000 0.110614
440.000000 57.043000 -2.000000 7.000000 7.000000 83.827742 6.102466 859.930477 1058.059056 17.538275 0.000000 0.151751
441.000000 63.170000 -1.000000 7.000000 7.000000 94.861331 9.338156 798.013989 848.231332 15.833672 0.000000 0.161885
442.000000 71.015000 1.000000 7.000000 7.000000 115.863943 18.271612 619.641185 391.511660 14.078657 0.000000 0.089101
443.000000 72.458000 2.000000 7.000000 7.000000 125.168952 24.503929 484.415301 107.566003 13.796210 0.000000 0.026443
444.000000 72.395000 3.000000 7.000000 7.000000 133.244238 32.361378 292.980161 -257.396850 13.806471 0.000000 0.137276
445.000000 48.646000 -3.000000 8.000000 7.000000 76.666650 -0.731708 988.745794 1196.107561 20.568195 0.000000 0.128606
446.000000 54.753000 -2.000000 8.000000 7.000000 87.106464 1.417047 948.375522 995.417621 18.270402 0.000000 0.160522
447.000000 60.035000 -1.000000 8.000000 7.000000 97.627602 4.020809 899.345362 796.508265 16.659509 0.000000 0.166901
448.000000 64.176000 0.000000 8.000000 7.000000 107.987585 7.226111 838.534074 588.750862 15.581387 0.000000 0.148125
449.000000 66.987000 1.000000 8.000000 7.000000 117.928958 11.239559 761.115640 359.277902 14.924809 0.000000 0.104884
450.000000 68.432000 2.000000 8.000000 7.000000 127.191614 16.351883 659.211294 89.868816 14.607496 0.000000 0.044548
451.000000 68.612000 3.000000 8.000000 7.000000 135.514651 22.960199 519.022293 -249.088909 14.567271 0.000000 0.076774
453.000000 46.921000 -3.000000 9.000000 7.000000 79.727141 -4.532447 1060.319510 1136.681139 21.323282 0.000000 0.139822
454.000000 52.183000 -2.000000 9.000000 7.000000 89.624225 -2.843690 1028.462271 948.067700 19.169356 0.000000 0.164108
455.000000 56.746000 -1.000000 9.000000 7.000000 99.608681 -0.805224 990.127022 758.772721 17.624344 0.000000 0.167162
456.000000 60.374000 0.000000 9.000000 7.000000 109.491558 1.696921 943.114223 559.875523 16.562104 0.000000 0.149393
457.000000 62.921000 1.000000 9.000000 7.000000 119.074727 4.827464 884.101475 340.433542 15.889086 0.000000 0.111877
458.000000 64.348000 2.000000 9.000000 7.000000 128.159728 8.829042 807.822180 85.122660 15.534441 0.000000 0.059206
459.000000 64.719000 3.000000 9.000000 7.000000 136.548314 14.062631 705.399697 -230.194497 15.443536 0.000000 0.041750
461.000000 49.533000 -2.000000 10.000000 7.000000 91.546447 -6.694044 1101.322089 911.743678 20.194206 0.000000 0.163808
462.000000 53.491000 -1.000000 10.000000 7.000000 100.993022 -5.145853 1071.924962 731.079546 18.696410 0.000000 0.163913
463.000000 56.681000 0.000000 10.000000 7.000000 110.378108 -3.256451 1036.237994 540.551173 17.640911 0.000000 0.146494
464.000000 58.990000 1.000000 10.000000 7.000000 119.548466 -0.904944 992.000681 330.783454 16.947743 0.000000 0.112727
465.000000 60.380000 2.000000 10.000000 7.000000 128.353187 2.090015 935.721896 88.803636 16.555122 0.000000 0.066140
466.000000 60.890000 3.000000 10.000000 7.000000 136.645564 6.008762 861.710507 -205.261526 16.414555 0.000000 0.025746
468.000000 46.923000 -2.000000 11.000000 7.000000 93.007482 -10.160551 1167.890968 883.551939 21.316397 0.000000 0.160696
469.000000 50.374000 -1.000000 11.000000 7.000000 101.930818 -9.028123 1146.009849 710.731836 19.852934 0.000000 0.158169
470.000000 53.191000 0.000000 11.000000 7.000000 110.818235 -7.656575 1119.690138 528.080753 18.798222 0.000000 0.140661
471.000000 55.286000 1.000000 11.000000 7.000000 119.549578 -5.963443 1087.428837 327.512009 18.083002 0.000000 0.109341
472.000000 56.626000 2.000000 11.000000 7.000000 128.008546 -3.824943 1046.958016 97.970373 17.652823 0.000000 0.067259
473.000000 57.231000 3.000000 11.000000 7.000000 136.085742 -1.047919 994.687234 -177.065310 17.464290 0.000000 0.022762
476.000000 47.447000 -1.000000 12.000000 7.000000 102.537948 -12.490603 1213.423506 695.840754 21.077167 0.000000 0.150706
477.000000 49.946000 0.000000 12.000000 7.000000 110.942128 -11.547452 1194.902987 520.586675 20.019344 0.000000 0.132823
478.000000 51.851000 1.000000 12.000000 7.000000 119.229966 -10.394488 1172.429938 328.691816 19.281285 0.000000 0.103062
479.000000 53.130000 2.000000 12.000000 7.000000 127.309781 -8.954277 1144.587933 110.673781 18.814582 0.000000 0.064298
480.000000 53.794000 3.000000 12.000000 7.000000 135.097552 -7.106941 1109.191944 -147.327218 18.580129 0.000000 0.023878
483.000000 46.958000 0.000000 13.000000 7.000000 110.846208 -14.982474 1263.039345 516.737771 21.293032 0.000000 0.123662
484.000000 48.692000 1.000000 13.000000 7.000000 118.700811 -14.264027 1248.624437 332.981466 20.532045 0.000000 0.094837
485.000000 49.906000 2.000000 13.000000 7.000000 126.391723 -13.377567 1230.964196 125.602848 20.030191 0.000000 0.058534
486.000000 50.603000 3.000000 13.000000 7.000000 133.851957 -12.256977 1208.823632 -117.123964 19.752018 0.000000 0.024843
487.000000 50.814000 4.000000 13.000000 7.000000 141.023333 -10.796712 1180.250101 -413.191931 19.668260 0.000000 0.028359
489.000000 45.804000 1.000000 14.000000 7.000000 118.041224 -17.643176 1317.313549 339.434362 21.826964 0.000000 0.085347
490.000000 46.950000 2.000000 14.000000 7.000000 125.349091 -17.188235 1307.926560 141.865772 21.291502 0.000000 0.050879
491.000000 47.661000 3.000000 14.000000 7.000000 132.468886 -16.621807 1296.303365 -87.128922 20.971844 0.000000 0.025496
492.000000 47.956000 4.000000 14.000000 7.000000 139.353184 -15.897358 1281.536838 -362.513796 20.841062 0.000000 0.044131
496.000000 52.136000 -1.000000 2.000000 8.000000 60.268083 43.363765 -41.512297 1786.522188 19.193646 0.000000 0.283989
498.000000 48.918000 -2.000000 3.000000 8.000000 58.752505 32.257971 295.699523 1713.239404 20.457886 0.000000 0.174426
499.000000 56.937000 -1.000000 3.000000 8.000000 69.330638 37.636017 145.063482 1453.737846 17.573359 0.000000 0.170123
500.000000 63.183000 0.000000 3.000000 8.000000 79.304371 43.682118 -52.886682 1222.094747 15.833165 0.000000 0.184571
501.000000 67.245000 1.000000 3.000000 8.000000 88.245544 50.369256 -324.595814 992.686453 14.874048 0.000000 0.268928
503.000000 59.527000 -1.000000 4.000000 8.000000 77.138079 31.810635 307.392657 1230.189300 16.807133 0.000000 0.123167
504.000000 68.799000 1.000000 4.000000 8.000000 96.227053 44.049100 -66.149257 777.607810 14.536310 0.000000 0.134070
505.000000 46.105000 -3.000000 5.000000 8.000000 62.587325 17.587756 633.832482 1526.572492 21.706621 0.000000 0.082732
506.000000 53.696000 -2.000000 5.000000 8.000000 73.164398 21.471039 551.664723 1290.969203 18.634362 0.000000 0.114421
507.000000 60.262000 -1.000000 5.000000 8.000000 83.638182 26.006144 449.913328 1074.518688 16.600525 0.000000 0.122976
508.000000 65.314000 0.000000 5.000000 8.000000 93.635870 31.298950 320.629825 860.960525 15.313258 0.000000 0.095630
509.000000 68.583000 1.000000 5.000000 8.000000 102.785494 37.440950 150.891317 633.383407 14.580708 0.000000 0.055239
510.000000 70.058000 2.000000 5.000000 8.000000 110.761743 44.476736 -81.812752 369.165820 14.271571 0.000000 0.156792
512.000000 47.021000 -3.000000 6.000000 8.000000 68.287640 12.915463 728.189982 1380.702551 21.282298 0.000000 0.090976
513.000000 59.611000 -1.000000 6.000000 8.000000 88.892853 20.338571 576.042750 963.183228 16.780491 0.000000 0.137862
514.000000 67.074000 1.000000 6.000000 8.000000 107.950266 30.708058 335.738473 535.458544 14.907559 0.000000 0.048401
516.000000 46.916000 -3.000000 7.000000 8.000000 73.034835 8.503295 814.083468 1272.990225 21.328151 0.000000 0.111872
517.000000 52.886000 -2.000000 7.000000 8.000000 83.051879 11.434830 757.300049 1074.819398 18.916776 0.000000 0.145764
518.000000 58.023000 -1.000000 7.000000 8.000000 93.035169 14.908220 688.454883 881.943442 17.238663 0.000000 0.151755
519.000000 62.025000 0.000000 7.000000 8.000000 102.722569 19.054905 603.248115 683.914366 16.123254 0.000000 0.129086
520.000000 64.720000 1.000000 7.000000 8.000000 111.840814 24.032976 495.060488 468.678433 15.449080 0.000000 0.075937
521.000000 66.087000 2.000000 7.000000 8.000000 120.123538 30.018184 353.145676 219.760967 15.127289 0.000000 0.016340
522.000000 66.236000 3.000000 7.000000 8.000000 127.325847 37.173928 158.819828 -88.968615 15.091383 0.000000 0.145391
524.000000 46.105000 -3.000000 8.000000 8.000000 76.947492 4.377813 892.602907 1191.251403 21.701743 0.000000 0.129721
525.000000 55.864000 -1.000000 8.000000 8.000000 96.230061 9.790676 789.272069 821.769110 17.903718 0.000000 0.160986
526.000000 61.879000 1.000000 8.000000 8.000000 114.630222 17.589183 633.802966 423.345604 16.157570 0.000000 0.097292
527.000000 63.506000 3.000000 8.000000 8.000000 130.379929 29.202446 373.419157 -107.627538 15.739504 0.000000 0.083653
528.000000 49.436000 -2.000000 9.000000 8.000000 89.390584 2.600247 926.121107 952.460038 20.234523 0.000000 0.163875
529.000000 53.407000 -1.000000 9.000000 8.000000 98.645834 5.033606 880.200295 776.711420 18.726792 0.000000 0.165596
530.000000 56.570000 0.000000 9.000000 8.000000 107.745922 7.957543 824.549921 593.211057 17.676487 0.000000 0.147599
531.000000 58.817000 1.000000 9.000000 8.000000 116.512103 11.516054 755.711378 393.064991 16.998484 0.000000 0.110278
532.000000 60.120000 2.000000 9.000000 8.000000 124.764279 15.902120 668.366456 164.224415 16.627548 0.000000 0.056956
533.000000 60.531000 3.000000 9.000000 8.000000 132.322725 21.368219 553.893420 -111.482758 16.512842 0.000000 0.048096
535.000000 50.835000 -1.000000 10.000000 8.000000 100.437227 0.658664 962.626523 742.726989 19.673288 0.000000 0.166408
536.000000 55.710000 1.000000 10.000000 8.000000 117.675393 5.905348 863.674280 373.510846 17.946195 0.000000 0.116690
537.000000 57.478000 3.000000 10.000000 8.000000 133.345563 13.943195 707.782833 -105.706701 17.389683 0.000000 0.034554
539.000000 48.271000 -1.000000 11.000000 8.000000 101.737587 -3.333489 1037.689930 716.994710 20.718021 0.000000 0.164294
540.000000 50.790000 0.000000 11.000000 8.000000 110.106199 -1.465600 1002.537123 546.871237 19.687122 0.000000 0.147984
541.000000 52.671000 1.000000 11.000000 8.000000 118.288668 0.800852 959.955121 361.693208 18.981284 0.000000 0.118243
542.000000 53.888000 2.000000 11.000000 8.000000 126.172861 3.598663 907.310525 152.499501 18.550096 0.000000 0.077287
543.000000 54.461000 3.000000 11.000000 8.000000 133.648692 7.120018 840.558570 -93.665370 18.353058 0.000000 0.034805
544.000000 54.444000 4.000000 11.000000 8.000000 140.604458 11.646844 753.151321 -397.059923 18.357260 0.000000 0.049046
546.000000 45.785000 -1.000000 12.000000 8.000000 102.657016 -6.957126 1106.334876 697.502069 21.842221 0.000000 0.159992
547.000000 49.767000 1.000000 12.000000 8.000000 118.493040 -3.792859 1046.352661 355.506779 20.088774 0.000000 0.116262
548.000000 51.550000 3.000000 12.000000 8.000000 133.417902 0.996079 956.286889 -77.592026 19.389517 0.000000 0.037701
550.000000 47.032000 1.000000 13.000000 8.000000 118.401267 -7.898236 1124.314397 353.445364 21.256925 0.000000 0.111736
551.000000 48.142000 2.000000 13.000000 8.000000 125.728502 -6.344791 1094.675717 162.020603 20.764330 0.000000 0.077386
552.000000 48.786000 3.000000 13.000000 8.000000 132.810531 -4.412518 1058.052883 -58.990964 20.488258 0.000000 0.038899
553.000000 48.990000 4.000000 13.000000 8.000000 139.584564 -1.950153 1011.647534 -323.683936 20.401148 0.000000 0.006180
556.000000 46.189000 3.000000 14.000000 8.000000 131.951020 -9.143861 1148.239575 -38.886958 21.640511 0.000000 0.037887
563.000000 50.141000 -1.000000 3.000000 9.000000 67.585898 40.210361 65.127139 1522.299554 19.955395 0.000000 0.201042
564.000000 58.582000 1.000000 3.000000 9.000000 84.354819 51.617641 -383.804641 1112.343874 17.074651 0.000000 0.310903
566.000000 46.940000 -2.000000 4.000000 9.000000 65.617457 30.316183 345.656541 1506.110552 21.318341 0.000000 0.136032
567.000000 52.784000 -1.000000 4.000000 9.000000 74.978778 35.023080 220.724342 1293.682998 18.954446 0.000000 0.136174
568.000000 57.370000 0.000000 4.000000 9.000000 83.841459 40.294829 62.403069 1093.262976 17.436390 0.000000 0.134393
569.000000 60.477000 1.000000 4.000000 9.000000 91.912395 46.133811 -144.757031 889.140436 16.537646 0.000000 0.174983
571.000000 48.654000 -2.000000 5.000000 9.000000 72.008454 25.425651 463.347291 1328.019075 20.565471 0.000000 0.116113
572.000000 53.991000 -1.000000 5.000000 9.000000 81.333933 29.799646 358.609283 1130.041057 18.529023 0.000000 0.118240
573.000000 58.162000 0.000000 5.000000 9.000000 90.210673 34.774300 227.671743 936.182060 17.197412 0.000000 0.096714
574.000000 60.983000 1.000000 5.000000 9.000000 98.362698 40.390825 59.298931 733.268065 16.398914 0.000000 0.086915
575.000000 62.443000 2.000000 5.000000 9.000000 105.553823 46.652520 -165.241117 504.574208 16.013400 0.000000 0.183565
577.000000 49.216000 -2.000000 6.000000 9.000000 77.441652 20.640986 569.568655 1197.205321 20.329049 0.000000 0.123642
578.000000 54.039000 -1.000000 6.000000 9.000000 86.658990 24.625983 481.643483 1010.118182 18.511122 0.000000 0.126228
579.000000 60.387000 1.000000 6.000000 9.000000 103.689264 34.491361 235.522356 622.928004 16.559512 0.000000 0.048889
580.000000 61.748000 2.000000 6.000000 9.000000 111.023912 40.500881 55.729217 396.985918 16.192317 0.000000 0.090332
581.000000 48.898000 -2.000000 7.000000 9.000000 81.977242 16.022539 665.919333 1098.830488 20.459777 0.000000 0.138121
582.000000 53.227000 -1.000000 7.000000 9.000000 91.021811 19.583240 592.103563 920.624773 18.792330 0.000000 0.140120
583.000000 56.632000 0.000000 7.000000 9.000000 99.750815 23.727680 501.919561 738.964669 17.659432 0.000000 0.115835
584.000000 58.990000 1.000000 7.000000 9.000000 107.943677 28.556534 389.244084 544.186079 16.950767 0.000000 0.063004
585.000000 60.284000 2.000000 7.000000 9.000000 115.391089 34.166725 244.464562 323.580687 16.584422 0.000000 0.026140
586.000000 60.592000 3.000000 7.000000 9.000000 121.908406 40.628331 51.580691 57.998771 16.498296 0.000000 0.153875
588.000000 47.955000 -2.000000 8.000000 9.000000 85.708145 11.618103 753.714096 1023.462629 20.860845 0.000000 0.150932
589.000000 51.825000 -1.000000 8.000000 9.000000 94.526268 14.740637 691.823428 852.897612 19.299557 0.000000 0.151952
590.000000 54.893000 0.000000 8.000000 9.000000 103.094777 18.400887 616.946050 677.151639 18.217755 0.000000 0.130719
591.000000 57.059000 1.000000 8.000000 9.000000 111.225401 22.711827 524.515283 487.845610 17.523518 0.000000 0.086056
592.000000 58.304000 2.000000 8.000000 9.000000 118.733575 27.799807 407.539030 273.935168 17.147008 0.000000 0.018691
593.000000 58.683000 3.000000 8.000000 9.000000 125.445887 33.790468 254.743045 19.087120 17.034218 0.000000 0.088941
595.000000 46.599000 -2.000000 9.000000 9.000000 88.741034 7.461224 834.044140 964.855319 21.466730 0.000000 0.160053
596.000000 50.054000 -1.000000 9.000000 9.000000 97.291597 10.150862 782.296887 801.094025 19.981733 0.000000 0.159956
597.000000 54.811000 1.000000 9.000000 9.000000 113.661251 17.071739 644.469689 447.670634 18.241649 0.000000 0.103340
598.000000 56.012000 2.000000 9.000000 9.000000 121.166409 21.554522 549.852861 241.089259 17.848062 0.000000 0.048269
601.000000 48.078000 -1.000000 10.000000 9.000000 99.437501 5.848525 864.753002 761.160691 20.802097 0.000000 0.164260
602.000000 50.571000 0.000000 10.000000 9.000000 107.548700 8.532496 813.522623 596.830357 19.773359 0.000000 0.147126
603.000000 52.407000 1.000000 10.000000 9.000000 115.387570 11.727601 751.569397 419.334236 19.078031 0.000000 0.114350
604.000000 53.565000 2.000000 10.000000 9.000000 122.824349 15.568387 675.133286 220.285711 18.663112 0.000000 0.067673
605.000000 54.071000 3.000000 10.000000 9.000000 129.729845 20.225185 578.463591 -12.282479 18.486271 0.000000 0.034443
606.000000 53.987000 4.000000 10.000000 9.000000 135.973866 25.903402 452.300614 -296.886652 18.513289 0.000000 0.100497
608.000000 46.016000 -1.000000 11.000000 9.000000 101.074965 1.851257 940.212249 730.217784 21.733511 0.000000 0.165458
609.000000 48.268000 0.000000 11.000000 9.000000 108.911129 4.083064 898.170038 571.330250 20.716367 0.000000 0.149430
610.000000 49.960000 1.000000 11.000000 9.000000 116.536802 6.741418 847.775647 399.774000 20.011887 0.000000 0.120258
611.000000 51.074000 2.000000 11.000000 9.000000 123.846412 9.946017 786.265699 208.207333 19.573133 0.000000 0.079546
612.000000 51.625000 3.000000 11.000000 9.000000 130.734684 13.856723 709.506666 -13.676597 19.362115 0.000000 0.038085
613.000000 51.658000 4.000000 11.000000 9.000000 137.094302 18.684188 611.025517 -281.422849 19.347755 0.000000 0.063118
615.000000 47.548000 1.000000 12.000000 9.000000 117.228895 2.145935 934.670018 386.784874 21.027041 0.000000 0.122234
616.000000 48.614000 2.000000 12.000000 9.000000 124.363954 4.752549 885.518625 202.500971 20.563110 0.000000 0.085873
617.000000 49.326000 4.000000 12.000000 9.000000 137.553653 11.894027 748.306408 -261.598764 20.262528 0.000000 0.038512
619.000000 46.236000 2.000000 13.000000 9.000000 124.493166 0.015959 974.700207 201.472397 21.621035 0.000000 0.088095
620.000000 46.836000 3.000000 13.000000 9.000000 131.157461 2.536895 927.313560 -0.736813 21.341668 0.000000 0.050010
621.000000 47.042000 4.000000 13.000000 9.000000 137.493673 5.666135 868.213992 -239.074456 21.246542 0.000000 0.024232
625.000000 48.747000 0.000000 3.000000 10.000000 73.943493 47.255557 -189.555172 1397.399035 20.523567 0.000000 0.262557
628.000000 47.206000 -1.000000 4.000000 10.000000 73.056521 37.618908 145.575848 1354.963405 21.194699 0.000000 0.155965
629.000000 53.682000 1.000000 4.000000 10.000000 88.259133 47.751452 -209.967908 989.653441 18.631988 0.000000 0.212985
630.000000 48.644000 -1.000000 5.000000 10.000000 79.201327 32.897000 278.793948 1185.493172 20.566576 0.000000 0.121502
631.000000 54.591000 1.000000 5.000000 10.000000 94.508862 42.687333 -17.735312 825.535720 18.320225 0.000000 0.119887
632.000000 55.997000 2.000000 5.000000 10.000000 101.060599 48.309266 -233.399602 624.673163 17.857945 0.000000 0.211775
634.000000 49.129000 -1.000000 6.000000 10.000000 84.495113 28.174158 398.520937 1058.669951 20.361733 0.000000 0.118449
635.000000 54.583000 1.000000 6.000000 10.000000 99.847196 37.463149 150.229643 705.632812 18.321538 0.000000 0.064769
637.000000 48.859000 -1.000000 7.000000 10.000000 88.965866 23.513720 506.707432 962.187509 20.473029 0.000000 0.129038
638.000000 51.779000 0.000000 7.000000 10.000000 96.872574 27.558914 413.309314 794.673995 19.315258 0.000000 0.104147
639.000000 53.857000 1.000000 7.000000 10.000000 104.288061 32.160792 298.249476 617.212067 18.567125 0.000000 0.055863
640.000000 55.080000 2.000000 7.000000 10.000000 111.048528 37.370003 153.003410 419.822220 18.152659 0.000000 0.048331
641.000000 55.499000 3.000000 7.000000 10.000000 117.013670 43.211142 -36.101560 188.123900 18.013584 0.000000 0.165166
643.000000 48.026000 -1.000000 8.000000 10.000000 92.674924 18.974147 604.945295 887.826164 20.826671 0.000000 0.141564
644.000000 52.608000 1.000000 8.000000 10.000000 107.884727 26.869808 429.677678 551.647052 19.006968 0.000000 0.074289
645.000000 54.217000 3.000000 8.000000 10.000000 120.834994 37.263834 156.156590 133.703742 18.438565 0.000000 0.096692
646.000000 46.803000 -1.000000 9.000000 10.000000 95.703006 14.604978 694.546491 829.925391 21.370172 0.000000 0.151831
647.000000 49.228000 0.000000 9.000000 10.000000 103.383662 17.880415 627.772661 671.918017 20.314208 0.000000 0.131972
648.000000 51.005000 1.000000 9.000000 10.000000 110.717231 21.678610 547.155848 502.949258 19.603833 0.000000 0.093545
649.000000 52.118000 2.000000 9.000000 10.000000 117.570761 26.092931 447.893526 315.250944 19.182701 0.000000 0.036177
650.000000 52.596000 3.000000 9.000000 10.000000 123.817581 31.219542 322.671167 97.916385 19.006083 0.000000 0.051091
651.000000 52.504000 4.000000 9.000000 10.000000 129.340785 37.141708 159.772748 -165.721155 19.038022 0.000000 0.161939
653.000000 49.183000 1.000000 10.000000 10.000000 112.880370 16.665962 652.793078 466.873362 20.329428 0.000000 0.107971
654.000000 50.761000 3.000000 10.000000 10.000000 126.037003 25.210721 468.288353 75.525151 19.692961 0.000000 0.029934
655.000000 45.720000 0.000000 11.000000 10.000000 107.384922 8.996245 804.604036 599.823896 21.871502 0.000000 0.146706
656.000000 47.247000 1.000000 11.000000 10.000000 114.473553 11.894675 748.293696 440.354508 21.161876 0.000000 0.117517
657.000000 48.271000 2.000000 11.000000 10.000000 121.239411 15.310929 680.338524 264.136857 20.710236 0.000000 0.076415
658.000000 48.807000 3.000000 11.000000 10.000000 127.586479 19.365286 596.709772 62.864747 20.480790 0.000000 0.034747
659.000000 48.890000 4.000000 11.000000 10.000000 133.418653 24.200716 491.278003 -175.596974 20.444073 0.000000 0.069938
662.000000 46.809000 3.000000 12.000000 10.000000 128.567601 13.791225 710.811547 57.325973 21.354759 0.000000 0.046065
666.000000 45.742000 0.000000 4.000000 11.000000 78.522179 44.229799 -72.740140 1245.991051 21.870211 0.000000 0.194758
667.000000 48.078000 1.000000 4.000000 11.000000 85.139829 49.041273 -264.937758 1080.611313 20.805043 0.000000 0.248070
669.000000 47.043000 0.000000 5.000000 11.000000 84.466026 39.797147 78.356194 1076.724877 21.263799 0.000000 0.128815
670.000000 49.197000 1.000000 5.000000 11.000000 91.146539 44.520449 -83.426792 910.788966 20.330089 0.000000 0.152106
671.000000 50.529000 2.000000 5.000000 11.000000 97.165805 49.610899 -290.128984 732.172440 19.791703 0.000000 0.239888
673.000000 47.570000 0.000000 6.000000 11.000000 89.677164 35.279220 213.527076 948.428821 21.026507 0.000000 0.098086
674.000000 49.561000 1.000000 6.000000 11.000000 96.407838 39.847336 76.757913 783.560556 20.179275 0.000000 0.088010
675.000000 50.790000 2.000000 6.000000 11.000000 102.514934 44.844430 -95.465351 604.053736 19.688367 0.000000 0.143700
676.000000 51.302000 3.000000 6.000000 11.000000 107.894041 50.247352 -318.981567 397.569492 19.489788 0.000000 0.277015
678.000000 47.457000 0.000000 7.000000 11.000000 94.156608 30.730649 335.164258 850.003548 21.075242 0.000000 0.096494
679.000000 49.301000 1.000000 7.000000 11.000000 100.917238 35.078663 219.166338 687.326196 20.284245 0.000000 0.059089
680.000000 50.451000 2.000000 7.000000 11.000000 107.105898 39.903392 74.970025 509.216775 19.819327 0.000000 0.073128
681.000000 50.944000 3.000000 7.000000 11.000000 112.614385 45.207799 -109.129673 304.646288 19.625578 0.000000 0.179437
683.000000 46.843000 0.000000 8.000000 11.000000 97.935473 26.208321 445.203389 773.781554 21.350111 0.000000 0.108183
684.000000 48.555000 1.000000 8.000000 11.000000 104.699506 30.278663 346.601972 614.047678 20.594604 0.000000 0.065168
685.000000 49.643000 2.000000 8.000000 11.000000 110.952530 34.854546 225.435401 438.775888 20.140995 0.000000 0.023864
686.000000 50.134000 3.000000 8.000000 11.000000 116.586699 39.966408 72.956662 238.180752 19.941434 0.000000 0.108128
688.000000 45.860000 0.000000 9.000000 11.000000 101.066226 21.767189 545.227788 714.336788 21.806852 0.000000 0.121690
689.000000 47.452000 1.000000 9.000000 11.000000 107.802980 25.514125 461.308234 558.030431 21.072379 0.000000 0.082974
690.000000 48.488000 2.000000 9.000000 11.000000 114.094059 29.774101 359.246375 386.482363 20.619965 0.000000 0.024480
691.000000 48.988000 3.000000 9.000000 11.000000 119.836229 34.602463 232.446014 191.036844 20.407386 0.000000 0.057050
692.000000 49.000000 4.000000 9.000000 11.000000 124.937732 40.037765 70.672302 -41.062784 20.400444 0.000000 0.167857
694.000000 46.103000 1.000000 10.000000 11.000000 110.291641 20.848947 565.101677 515.162144 21.688412 0.000000 0.099292
695.000000 47.092000 2.000000 10.000000 11.000000 116.588433 24.741152 479.023054 347.857911 21.230202 0.000000 0.050147
696.000000 47.604000 3.000000 10.000000 11.000000 122.409546 29.207317 373.299061 158.183898 20.999767 0.000000 0.025955
697.000000 47.676000 4.000000 10.000000 11.000000 127.665634 34.316846 240.338018 -64.922368 20.966261 0.000000 0.112481
699.000000 45.544000 2.000000 11.000000 11.000000 118.505512 19.830479 586.863329 319.639406 21.951114 0.000000 0.069750
700.000000 46.068000 3.000000 11.000000 11.000000 124.369124 23.875525 498.601970 136.012289 21.699637 0.000000 0.026930
701.000000 46.196000 4.000000 11.000000 11.000000 129.746055 28.566181 389.009180 -78.075976 21.637485 0.000000 0.073570
704.000000 45.869000 2.000000 5.000000 12.000000 93.770124 50.659537 -338.081606 829.120084 21.803439 0.000000 0.267105
706.000000 46.351000 2.000000 7.000000 12.000000 103.542878 41.949709 7.609558 592.423529 21.573608 0.000000 0.098415
707.000000 46.889000 3.000000 7.000000 12.000000 108.665444 46.793938 -170.894006 409.931811 21.324227 0.000000 0.195975
709.000000 46.431000 3.000000 8.000000 12.000000 112.700013 42.120262 1.801910 334.015463 21.533166 0.000000 0.122778
711.000000 45.749000 4.000000 9.000000 12.000000 120.861122 42.310916 -4.727345 71.284185 21.851358 0.000000 0.174733
#UB matrix in q= (UB) B0 G* 
#[[-0.625105572 -0.712419297 -0.316488203]
# [ 0.289757042 -0.589331574  0.754328781]
# [-0.724764707  0.380206818  0.575449345]]
#B0 matrix in q= UB (B0) G*
#[[ 0.19670273 -0.          0.03056101]
# [ 0.          0.19187965 -0.        ]
# [ 0.          0.          0.18806537]]
#UBB0 matrix in q= (UB B0) G* i.e. recip. basis vectors are columns in LT frame: astar = UBB0[:,0], bstar = UBB0[:,1], cstar = UBB0[:,2]. (abcstar as columns on xyzlab1, xlab1 = ui, ui = unit vector along incident beam)
#[[-0.12295997 -0.13669877 -0.07862433]
# [ 0.056996   -0.11308074  0.15071839]
# [-0.1425632   0.07295395  0.08607256]]
#Euler angles phi theta psi (deg)
#[242.356  54.901  22.8  ]
#deviatoric strain in direct crystal frame (10-3 unit)
#[[-3.86  0.46  0.64]
# [ 0.46 -3.45  0.42]
# [ 0.64  0.42  7.31]]
#deviatoric strain in sample2 frame (10-3 unit)
#[[-3.56  0.81  0.08]
# [ 0.8   2.38  5.51]
# [ 0.07  5.51  1.18]]
#new lattice parameters
#[ 5.1505     5.2136987  5.3170238 89.9834768 99.191989  89.9468444]
#CCDLabel
#sCMOS
#DetectorParameters
#[79.0, 975.0, 941.0, 0.0, 0.0]
#pixelsize
#0.0734
#Frame dimensions
#[2018, 2016]
#
