#Strain and Orientation Refinement from experimental file: /home/micha/LaueProjects/DepthEffects/testZrO2_148.cor
#File created at Wed Jun 28 14:27:13 2023 with indexingSpotsSet.py
#Number of indexed spots: 525
#Element
#ZrO2
#grainIndex
#G_0
#Mean Deviation(pixel): 0.114
##spot_index intensity h k l 2theta Chi Xexp Yexp Energy GrainIndex PixDev
26.000000 45.840000 12.000000 11.000000 -4.000000 128.302104 37.888707 137.468400 -136.121956 21.803339 0.000000 0.160917
34.000000 45.494000 11.000000 13.000000 -4.000000 137.957291 24.344448 488.028975 -369.039288 21.966756 0.000000 0.096116
53.000000 57.616000 10.000000 7.000000 -3.000000 116.019987 46.805279 -171.348653 173.397298 17.349916 0.000000 0.235973
54.000000 52.395000 11.000000 7.000000 -3.000000 110.704441 47.948261 -218.177355 333.666168 19.080469 0.000000 0.236190
55.000000 47.787000 12.000000 7.000000 -3.000000 106.007604 48.834491 -255.935410 471.902558 20.921988 0.000000 0.241662
59.000000 61.649000 9.000000 8.000000 -3.000000 127.179056 39.410859 90.580258 -115.585375 16.212265 0.000000 0.174537
60.000000 56.504000 10.000000 8.000000 -3.000000 121.277872 41.847643 11.070217 63.286063 17.690150 0.000000 0.170386
61.000000 51.820000 11.000000 8.000000 -3.000000 115.976879 43.662745 -52.191045 216.097478 19.290522 0.000000 0.170375
62.000000 47.600000 12.000000 8.000000 -3.000000 111.223248 45.064565 -103.722691 349.234604 21.002288 0.000000 0.175083
65.000000 59.418000 3.000000 3.000000 -1.000000 131.307267 33.215897 270.266185 -189.499103 5.606768 0.000000 0.126074
66.000000 54.973000 10.000000 9.000000 -3.000000 125.689252 36.613085 175.291880 -22.134198 18.181541 0.000000 0.123089
67.000000 50.832000 11.000000 9.000000 -3.000000 120.531073 39.146979 98.853041 122.497747 19.664146 0.000000 0.121873
68.000000 47.025000 4.000000 3.000000 -1.000000 115.826896 41.102501 36.005931 249.692182 7.085940 0.000000 0.124551
72.000000 56.978000 9.000000 10.000000 -3.000000 134.517393 26.817213 430.918726 -244.851876 17.539791 0.000000 0.090495
73.000000 53.174000 10.000000 10.000000 -3.000000 129.306585 31.171292 323.909873 -88.825660 18.795801 0.000000 0.089198
74.000000 49.551000 11.000000 10.000000 -3.000000 124.398736 34.442030 236.885666 47.438437 20.171570 0.000000 0.086857
75.000000 46.154000 12.000000 10.000000 -3.000000 119.836214 36.973788 164.725822 168.318852 21.657535 0.000000 0.086941
79.000000 54.460000 9.000000 11.000000 -3.000000 136.909931 20.368182 575.409959 -286.288511 18.350566 0.000000 0.063387
80.000000 51.223000 10.000000 11.000000 -3.000000 132.196184 25.612076 459.047229 -141.121116 19.511288 0.000000 0.064891
81.000000 48.076000 11.000000 11.000000 -3.000000 127.623636 29.602458 363.518682 -13.100942 20.789834 0.000000 0.062402
85.000000 51.949000 3.000000 4.000000 -1.000000 138.595782 14.029462 706.061785 -317.164597 6.412350 0.000000 0.041570
86.000000 49.204000 10.000000 12.000000 -3.000000 134.433835 20.037708 582.458546 -182.222734 20.311162 0.000000 0.047090
87.000000 46.484000 11.000000 12.000000 -3.000000 130.258144 24.693482 480.108267 -62.144881 21.500945 0.000000 0.046080
91.000000 49.504000 9.000000 13.000000 -3.000000 139.689364 7.945965 824.771648 -339.943676 20.187021 0.000000 0.022848
92.000000 47.180000 10.000000 13.000000 -3.000000 136.100695 14.552120 695.606587 -214.532483 21.182119 0.000000 0.033359
96.000000 47.159000 9.000000 14.000000 -3.000000 140.301644 2.229111 933.105287 -356.460212 21.190751 0.000000 0.005831
112.000000 81.864000 7.000000 5.000000 -2.000000 116.016604 45.150490 -106.963062 196.112203 12.210903 0.000000 0.200013
113.000000 71.622000 8.000000 5.000000 -2.000000 108.692530 46.974781 -178.166255 407.307571 13.958638 0.000000 0.206128
114.000000 63.049000 9.000000 5.000000 -2.000000 102.524866 48.268060 -231.651270 581.802111 15.858327 0.000000 0.221014
115.000000 55.892000 10.000000 5.000000 -2.000000 97.296221 49.231820 -273.299789 729.967362 17.890443 0.000000 0.240772
116.000000 49.904000 11.000000 5.000000 -2.000000 92.828559 49.977378 -306.649561 858.309629 20.038668 0.000000 0.262622
117.000000 79.293000 7.000000 6.000000 -2.000000 123.052303 37.966753 135.112057 52.643953 12.605563 0.000000 0.122072
118.000000 62.912000 9.000000 6.000000 -2.000000 109.558685 43.314905 -39.777169 415.464186 15.891197 0.000000 0.136080
119.000000 56.343000 5.000000 3.000000 -1.000000 104.125486 44.954961 -99.603520 558.253283 8.872780 0.000000 0.154029
120.000000 50.706000 11.000000 6.000000 -2.000000 99.402798 46.217426 -148.032817 683.408896 19.719720 0.000000 0.175282
121.000000 45.869000 6.000000 3.000000 -1.000000 95.279097 47.218339 -188.038576 794.580916 10.900318 0.000000 0.197759
122.000000 83.584000 6.000000 7.000000 -2.000000 135.809095 23.588843 505.028156 -267.075236 11.956555 0.000000 0.076107
123.000000 75.753000 7.000000 7.000000 -2.000000 128.429899 30.338244 345.100298 -48.475326 13.193867 0.000000 0.074789
124.000000 68.452000 8.000000 7.000000 -2.000000 121.626499 34.857384 225.356206 133.242946 14.602473 0.000000 0.072269
125.000000 61.848000 9.000000 7.000000 -2.000000 115.512879 38.058315 132.341231 288.633156 16.163184 0.000000 0.077329
126.000000 55.978000 10.000000 7.000000 -2.000000 110.075703 40.430781 58.004292 424.242947 17.859577 0.000000 0.090743
127.000000 50.810000 11.000000 7.000000 -2.000000 105.255832 42.253803 -2.767295 544.404872 19.677508 0.000000 0.109374
128.000000 46.281000 12.000000 7.000000 -2.000000 100.981731 43.695746 -53.376260 652.135591 21.604736 0.000000 0.130385
130.000000 71.756000 7.000000 8.000000 -2.000000 132.338258 22.509066 528.984769 -120.535842 13.928086 0.000000 0.047126
131.000000 65.762000 4.000000 4.000000 -1.000000 126.192788 28.362357 393.963388 46.050769 7.599380 0.000000 0.042513
132.000000 60.146000 9.000000 8.000000 -2.000000 120.437465 32.565054 287.605669 190.621663 16.619417 0.000000 0.039400
133.000000 55.002000 5.000000 4.000000 -1.000000 115.166199 35.698038 201.659976 318.308039 9.087529 0.000000 0.045414
134.000000 50.358000 11.000000 8.000000 -2.000000 110.388870 38.110312 130.764639 432.586041 19.852622 0.000000 0.059837
135.000000 46.201000 6.000000 4.000000 -1.000000 106.078678 40.018652 71.284625 535.922586 10.820339 0.000000 0.078418
138.000000 72.476000 6.000000 9.000000 -2.000000 140.049039 5.036339 880.148568 -348.889385 13.788463 0.000000 0.014183
139.000000 67.641000 7.000000 9.000000 -2.000000 135.003357 14.764300 691.348101 -172.174800 14.774986 0.000000 0.030538
140.000000 62.763000 8.000000 9.000000 -2.000000 129.661207 21.774937 545.059041 -19.887475 15.924250 0.000000 0.030562
141.000000 58.043000 9.000000 9.000000 -2.000000 124.412505 26.924915 428.376128 114.061256 17.220618 0.000000 0.023003
142.000000 53.597000 10.000000 9.000000 -2.000000 119.442043 30.810297 333.137660 233.671627 18.650391 0.000000 0.016491
143.000000 49.485000 11.000000 9.000000 -2.000000 114.824620 33.820373 253.929442 341.713618 20.201523 0.000000 0.023025
144.000000 45.727000 12.000000 9.000000 -2.000000 110.578402 36.208779 187.018399 440.188775 21.863373 0.000000 0.038631
146.000000 67.399000 3.000000 5.000000 -1.000000 140.534277 -3.050962 1032.366187 -368.097487 7.413467 0.000000 0.010510
147.000000 63.611000 7.000000 10.000000 -2.000000 136.663292 7.371426 835.759554 -209.176590 15.710711 0.000000 0.019024
148.000000 59.659000 4.000000 5.000000 -1.000000 132.185235 15.266445 681.236605 -70.098631 8.376217 0.000000 0.028203
149.000000 55.719000 9.000000 10.000000 -2.000000 127.536744 21.243545 556.591629 53.742897 17.937933 0.000000 0.026244
150.000000 51.912000 5.000000 5.000000 -1.000000 122.965898 25.833480 453.922910 165.451792 9.627341 0.000000 0.017729
151.000000 48.311000 11.000000 10.000000 -2.000000 118.601572 29.426258 367.889320 267.222064 20.691573 0.000000 0.005296
154.000000 62.752000 6.000000 11.000000 -2.000000 140.361111 -10.093538 1166.591982 -378.643986 15.924891 0.000000 0.034312
155.000000 59.779000 7.000000 11.000000 -2.000000 137.546004 0.530174 965.040461 -235.514494 16.717698 0.000000 0.011937
156.000000 56.580000 8.000000 11.000000 -2.000000 133.923133 8.996377 804.601501 -108.489002 17.663591 0.000000 0.027177
157.000000 53.305000 9.000000 11.000000 -2.000000 129.918482 15.631263 673.860086 5.904369 18.749690 0.000000 0.032483
158.000000 50.065000 10.000000 11.000000 -2.000000 125.811314 20.841163 565.269104 110.060886 19.964521 0.000000 0.030365
159.000000 46.933000 11.000000 11.000000 -2.000000 121.769027 24.977115 473.639019 205.707382 21.297826 0.000000 0.023830
162.000000 58.540000 3.000000 6.000000 -1.000000 139.767099 -16.108917 1285.837850 -383.130470 8.535490 0.000000 0.058005
163.000000 56.198000 7.000000 12.000000 -2.000000 137.852504 -5.648442 1081.450379 -253.977454 17.782727 0.000000 0.016654
164.000000 53.608000 4.000000 6.000000 -1.000000 135.026907 3.090936 916.880758 -137.875184 9.321373 0.000000 0.024893
165.000000 50.890000 9.000000 12.000000 -2.000000 131.668119 10.190615 781.526088 -32.222447 19.639294 0.000000 0.035619
166.000000 48.141000 5.000000 6.000000 -1.000000 128.057277 15.908292 668.241092 64.816300 10.380917 0.000000 0.038906
169.000000 54.739000 6.000000 13.000000 -2.000000 138.921544 -21.200551 1392.478948 -383.347598 18.256565 0.000000 0.081693
170.000000 52.888000 7.000000 13.000000 -2.000000 137.748188 -11.133815 1186.820285 -266.559928 18.895656 0.000000 0.029600
171.000000 50.786000 8.000000 13.000000 -2.000000 135.634059 -2.367810 1019.504368 -160.323607 19.678323 0.000000 0.022356
172.000000 48.530000 9.000000 13.000000 -2.000000 132.892131 5.006010 880.722681 -62.707521 20.593823 0.000000 0.035547
173.000000 46.202000 10.000000 13.000000 -2.000000 129.783785 11.104619 763.749356 27.681407 21.632458 0.000000 0.043239
176.000000 49.847000 7.000000 14.000000 -2.000000 137.361806 -15.952135 1282.649587 -274.711482 20.048579 0.000000 0.045297
177.000000 48.137000 4.000000 7.000000 -1.000000 135.862750 -7.341374 1113.666516 -177.373576 10.380617 0.000000 0.022457
178.000000 46.263000 9.000000 14.000000 -2.000000 133.688559 0.137802 972.411400 -87.121027 21.603065 0.000000 0.033208
181.000000 47.062000 7.000000 15.000000 -2.000000 136.789455 -20.161484 1370.177930 -279.500622 21.235236 0.000000 0.062336
182.000000 45.667000 8.000000 15.000000 -2.000000 135.810266 -11.826658 1200.372256 -190.187232 21.884238 0.000000 0.027582
191.000000 76.228000 7.000000 3.000000 -1.000000 88.464602 48.703427 -250.267867 984.713742 13.119704 0.000000 0.242353
192.000000 64.551000 8.000000 3.000000 -1.000000 83.099903 49.751475 -296.436498 1142.589367 15.494470 0.000000 0.283913
193.000000 55.579000 9.000000 3.000000 -1.000000 78.788554 50.530179 -332.051433 1276.606348 17.996839 0.000000 0.321672
195.000000 78.397000 7.000000 4.000000 -1.000000 98.692186 42.836343 -22.928299 716.608571 12.754636 0.000000 0.119082
196.000000 67.311000 8.000000 4.000000 -1.000000 92.663285 44.810332 -94.191965 870.429844 14.856838 0.000000 0.159276
197.000000 58.485000 9.000000 4.000000 -1.000000 87.692986 46.267040 -149.981261 1003.723177 17.100436 0.000000 0.197132
198.000000 51.386000 10.000000 4.000000 -1.000000 83.547607 47.384911 -194.842773 1120.778271 19.464220 0.000000 0.232241
199.000000 45.608000 11.000000 4.000000 -1.000000 80.050046 48.269229 -231.700834 1224.656362 21.931022 0.000000 0.264626
200.000000 89.905000 6.000000 5.000000 -1.000000 114.503092 32.294073 294.750835 360.666663 11.119356 0.000000 0.009487
201.000000 78.020000 7.000000 5.000000 -1.000000 107.162904 36.551908 177.074118 527.209412 12.814658 0.000000 0.042489
202.000000 68.099000 8.000000 5.000000 -1.000000 100.906407 39.539090 86.537485 672.082719 14.683084 0.000000 0.076918
203.000000 59.879000 9.000000 5.000000 -1.000000 95.587590 41.739569 14.722623 799.886038 16.700157 0.000000 0.110877
204.000000 53.066000 10.000000 5.000000 -1.000000 91.049950 43.423387 -43.633430 913.841045 18.845808 0.000000 0.143522
205.000000 47.392000 11.000000 5.000000 -1.000000 87.155076 44.751273 -91.989991 1016.313702 21.103423 0.000000 0.174504
206.000000 85.626000 6.000000 6.000000 -1.000000 120.763321 24.287545 489.316139 238.123662 11.673952 0.000000 0.031992
207.000000 75.920000 7.000000 6.000000 -1.000000 113.935668 29.968473 354.390595 389.517179 13.167801 0.000000 0.022349
208.000000 67.392000 8.000000 6.000000 -1.000000 107.817823 34.000683 249.011669 523.730095 14.835614 0.000000 0.032073
209.000000 60.035000 9.000000 6.000000 -1.000000 102.430547 36.983777 164.431774 644.006358 16.655124 0.000000 0.055504
210.000000 53.739000 10.000000 6.000000 -1.000000 97.713567 39.268653 95.046243 752.698881 18.607708 0.000000 0.082129
211.000000 48.363000 11.000000 6.000000 -1.000000 93.583817 41.069470 37.098143 851.587233 20.677671 0.000000 0.109181
212.000000 88.583000 5.000000 7.000000 -1.000000 131.068307 6.489214 852.577006 -2.910942 11.282563 0.000000 0.044212
213.000000 80.549000 6.000000 7.000000 -1.000000 125.184976 16.301123 660.246637 150.398126 12.409049 0.000000 0.051148
214.000000 72.797000 7.000000 7.000000 -1.000000 119.169150 23.246120 512.673815 287.159646 13.731599 0.000000 0.045871
215.000000 65.657000 8.000000 7.000000 -1.000000 113.464626 28.283973 395.863528 410.463003 15.226356 0.000000 0.037789
216.000000 59.253000 9.000000 7.000000 -1.000000 108.239317 32.051731 301.104731 522.525487 16.873184 0.000000 0.036754
217.000000 53.598000 10.000000 7.000000 -1.000000 103.529755 34.952785 222.691660 625.017934 18.654966 0.000000 0.047722
218.000000 48.642000 11.000000 7.000000 -1.000000 99.314525 37.244471 156.730720 719.245307 20.557065 0.000000 0.066042
220.000000 86.746000 4.000000 8.000000 -1.000000 135.554009 -15.844987 1280.473531 -199.652478 11.520753 0.000000 0.037074
221.000000 81.314000 5.000000 8.000000 -1.000000 132.593547 -2.012012 1012.810937 -49.090018 12.291002 0.000000 0.039445
222.000000 75.284000 6.000000 8.000000 -1.000000 128.130168 8.632447 811.602293 86.481610 13.276354 0.000000 0.057280
223.000000 69.165000 7.000000 8.000000 -1.000000 123.073766 16.566285 654.832243 209.719540 14.451869 0.000000 0.060717
224.000000 63.283000 8.000000 8.000000 -1.000000 117.963624 22.497338 529.242897 322.533413 15.796318 0.000000 0.056100
225.000000 57.816000 9.000000 8.000000 -1.000000 113.073801 27.009614 426.373179 426.372954 17.291520 0.000000 0.049012
226.000000 52.838000 10.000000 8.000000 -1.000000 108.524184 30.517578 340.569369 522.382038 18.921811 0.000000 0.044800
227.000000 48.364000 11.000000 8.000000 -1.000000 104.352603 33.303602 267.909946 611.488752 20.673625 0.000000 0.047889
229.000000 78.567000 4.000000 9.000000 -1.000000 134.655524 -22.629458 1423.667458 -211.129116 12.720329 0.000000 0.062860
230.000000 74.701000 5.000000 9.000000 -1.000000 133.122650 -9.410387 1153.379834 -80.726571 13.378996 0.000000 0.031628
231.000000 70.171000 6.000000 9.000000 -1.000000 129.945580 1.513443 946.563543 39.307990 14.243390 0.000000 0.054915
232.000000 65.365000 7.000000 9.000000 -1.000000 125.876353 10.103731 783.210475 150.307381 15.291542 0.000000 0.066542
233.000000 60.565000 8.000000 9.000000 -1.000000 121.457638 16.757309 650.922452 253.338279 16.504502 0.000000 0.068006
234.000000 55.954000 9.000000 9.000000 -1.000000 117.020775 21.933221 541.607400 349.280237 17.865840 0.000000 0.063760
235.000000 51.635000 10.000000 9.000000 -1.000000 112.746911 26.012770 449.759223 438.873305 19.361240 0.000000 0.057415
236.000000 47.659000 11.000000 9.000000 -1.000000 108.724304 29.280182 371.501230 522.749209 20.978169 0.000000 0.052283
238.000000 71.566000 4.000000 10.000000 -1.000000 133.490769 -28.027178 1547.930847 -215.686231 13.964858 0.000000 0.092404
239.000000 68.793000 5.000000 10.000000 -1.000000 133.019488 -15.707985 1277.694541 -102.308681 14.527843 0.000000 0.030514
240.000000 65.377000 6.000000 10.000000 -1.000000 130.931939 -4.920412 1067.657227 4.181623 15.287513 0.000000 0.047449
241.000000 61.605000 7.000000 10.000000 -1.000000 127.796063 4.000985 899.719571 104.219678 16.224401 0.000000 0.065776
242.000000 57.706000 8.000000 10.000000 -1.000000 124.097808 11.174951 762.376944 198.271894 17.321528 0.000000 0.073373
243.000000 53.847000 9.000000 10.000000 -1.000000 120.181232 16.901471 647.966606 286.796053 18.564016 0.000000 0.073647
244.000000 50.137000 10.000000 10.000000 -1.000000 116.263513 21.493034 551.187558 370.224250 19.938773 0.000000 0.069669
245.000000 46.642000 11.000000 10.000000 -1.000000 112.470650 25.212141 468.255750 448.956469 21.434234 0.000000 0.063916
247.000000 65.560000 4.000000 11.000000 -1.000000 132.237045 -32.352454 1656.784926 -215.752972 15.244210 0.000000 0.123029
248.000000 63.559000 5.000000 11.000000 -1.000000 132.535269 -21.012505 1388.420215 -116.803099 15.724277 0.000000 0.042174
249.000000 60.970000 6.000000 11.000000 -1.000000 131.331467 -10.625369 1176.916286 -22.109122 16.392450 0.000000 0.038062
250.000000 58.003000 7.000000 11.000000 -1.000000 129.029409 -1.646235 1005.932833 68.158726 17.231381 0.000000 0.060435
251.000000 54.841000 8.000000 11.000000 -1.000000 126.031185 5.843769 864.843264 154.041404 18.225793 0.000000 0.073588
252.000000 51.625000 9.000000 11.000000 -1.000000 122.660782 11.989228 746.438071 235.685986 19.362175 0.000000 0.078580
253.000000 48.459000 10.000000 11.000000 -1.000000 119.147874 17.014131 645.653537 313.290639 20.628541 0.000000 0.078106
255.000000 60.385000 4.000000 12.000000 -1.000000 130.987180 -35.858812 1752.928608 -212.890632 16.551084 0.000000 0.153542
256.000000 58.933000 5.000000 12.000000 -1.000000 131.835000 -25.469787 1487.669542 -126.222919 16.958627 0.000000 0.061423
257.000000 56.961000 6.000000 12.000000 -1.000000 131.328582 -15.624099 1275.994809 -41.814982 17.546209 0.000000 0.031208
258.000000 54.621000 7.000000 12.000000 -1.000000 129.742890 -6.790392 1103.157266 39.759549 18.298286 0.000000 0.052192
259.000000 52.055000 8.000000 12.000000 -1.000000 127.392667 0.832178 959.366536 118.242373 19.201054 0.000000 0.069945
260.000000 49.379000 9.000000 12.000000 -1.000000 124.562737 7.261012 837.867870 193.552928 20.242209 0.000000 0.079406
261.000000 46.687000 10.000000 12.000000 -1.000000 121.476624 12.628870 733.850247 265.712456 21.410755 0.000000 0.082658
264.000000 54.843000 5.000000 13.000000 -1.000000 131.023552 -29.225075 1577.138842 -131.964650 18.223677 0.000000 0.083635
265.000000 53.333000 6.000000 13.000000 -1.000000 131.058011 -19.977117 1366.252358 -56.546460 18.739756 0.000000 0.032851
266.000000 51.481000 7.000000 13.000000 -1.000000 130.071432 -11.423971 1192.487632 17.292739 19.414327 0.000000 0.042688
267.000000 49.394000 8.000000 13.000000 -1.000000 128.300526 -3.818471 1046.835900 89.086743 20.234866 0.000000 0.063524
268.000000 47.169000 9.000000 13.000000 -1.000000 125.983439 2.766816 922.985251 158.589573 21.190136 0.000000 0.076996
271.000000 51.217000 5.000000 14.000000 -1.000000 130.166017 -32.406402 1658.205820 -135.015478 19.513933 0.000000 0.106905
272.000000 50.057000 6.000000 14.000000 -1.000000 130.615343 -23.760521 1448.816728 -67.476849 19.966157 0.000000 0.043787
273.000000 48.585000 7.000000 14.000000 -1.000000 130.120682 -15.567455 1274.847852 -0.527945 20.571159 0.000000 0.034154
274.000000 46.885000 8.000000 14.000000 -1.000000 128.854775 -8.091297 1128.012562 65.223456 21.317534 0.000000 0.055271
277.000000 47.993000 5.000000 15.000000 -1.000000 129.301936 -35.120261 1732.001020 -136.084595 20.825136 0.000000 0.130382
278.000000 47.099000 6.000000 15.000000 -1.000000 130.067026 -27.052043 1524.631314 -75.474418 21.219999 0.000000 0.059701
279.000000 45.926000 7.000000 15.000000 -1.000000 129.971242 -19.257795 1351.023080 -14.673456 21.762224 0.000000 0.030227
283.000000 152.311000 3.000000 1.000000 0.000000 71.725578 44.610694 -86.766633 1440.255314 6.568103 0.000000 0.243638
284.000000 106.549000 4.000000 1.000000 0.000000 64.672594 47.598034 -203.611428 1696.407120 9.389917 0.000000 0.345695
289.000000 168.678000 3.000000 2.000000 0.000000 94.783842 31.636568 311.912053 835.204718 5.928705 0.000000 0.086385
290.000000 123.727000 4.000000 2.000000 0.000000 84.348776 38.298974 125.025306 1076.709550 8.083958 0.000000 0.120306
291.000000 95.153000 5.000000 2.000000 0.000000 77.026464 42.136448 1.249114 1275.379085 10.512658 0.000000 0.182587
292.000000 62.907000 7.000000 2.000000 0.000000 67.749710 46.332648 -152.563250 1578.724664 15.903488 0.000000 0.298090
294.000000 159.674000 3.000000 3.000000 0.000000 109.362267 17.932453 626.693066 543.461096 6.261518 0.000000 0.113282
295.000000 125.996000 4.000000 3.000000 0.000000 99.177104 28.222591 397.349588 743.659263 7.936520 0.000000 0.090901
296.000000 100.864000 5.000000 3.000000 0.000000 90.877103 34.334272 239.858054 921.045604 9.915333 0.000000 0.090714
297.000000 68.902000 7.000000 3.000000 0.000000 79.197645 41.054687 37.586588 1213.330700 14.517406 0.000000 0.161339
298.000000 58.662000 8.000000 3.000000 0.000000 75.076416 43.072674 -31.215989 1333.688412 17.052718 0.000000 0.203542
299.000000 176.766000 1.000000 4.000000 0.000000 120.498065 -41.543429 1928.680085 94.004136 5.654779 0.000000 0.155092
300.000000 164.290000 2.000000 4.000000 0.000000 122.887296 -15.275255 1268.941237 219.565125 6.084180 0.000000 0.068564
301.000000 142.370000 3.000000 4.000000 0.000000 117.390901 4.962924 881.538206 381.220182 7.021613 0.000000 0.117434
302.000000 100.182000 5.000000 4.000000 0.000000 101.560696 26.160917 446.309191 695.710180 9.981154 0.000000 0.095757
303.000000 71.790000 7.000000 4.000000 0.000000 89.093929 35.478209 207.904185 961.902740 13.931380 0.000000 0.096013
304.000000 53.953000 9.000000 4.000000 0.000000 80.376845 40.448471 57.430629 1180.804784 18.539728 0.000000 0.150744
306.000000 136.848000 2.000000 5.000000 0.000000 123.194319 -25.435337 1486.875811 161.266003 7.304133 0.000000 0.021841
307.000000 124.838000 3.000000 5.000000 0.000000 121.297022 -6.208134 1092.077582 282.819622 8.007200 0.000000 0.098651
308.000000 110.175000 4.000000 5.000000 0.000000 115.857809 8.065231 822.486937 414.147550 9.073694 0.000000 0.119111
309.000000 83.036000 6.000000 5.000000 0.000000 103.048633 24.784186 478.042663 666.249007 12.041808 0.000000 0.099179
310.000000 72.196000 7.000000 5.000000 0.000000 97.359798 29.690123 361.338451 780.972763 13.851108 0.000000 0.088128
311.000000 63.169000 8.000000 5.000000 0.000000 92.383637 33.326968 267.281402 887.379945 15.831808 0.000000 0.087907
312.000000 55.693000 9.000000 5.000000 0.000000 88.074894 36.110090 189.862343 985.779202 17.958317 0.000000 0.100008
314.000000 116.250000 2.000000 6.000000 0.000000 122.500522 -32.574349 1662.640184 127.312878 8.598371 0.000000 0.050646
315.000000 100.050000 4.000000 6.000000 0.000000 119.728042 -0.883150 991.591172 326.321232 9.991260 0.000000 0.110058
316.000000 89.756000 5.000000 6.000000 0.000000 114.801174 9.977631 785.653522 436.017845 11.138111 0.000000 0.119340
317.000000 70.859000 7.000000 6.000000 0.000000 104.063358 23.800731 500.281265 646.324356 14.110867 0.000000 0.101583
318.000000 45.481000 11.000000 6.000000 0.000000 87.415858 36.510761 178.271269 1001.436749 21.990473 0.000000 0.102960
320.000000 100.573000 2.000000 7.000000 0.000000 121.514402 -37.717983 1807.394479 106.739758 9.938689 0.000000 0.103992
321.000000 96.754000 3.000000 7.000000 0.000000 123.260954 -22.445216 1419.610489 177.194190 10.330878 0.000000 0.035190
322.000000 90.577000 4.000000 7.000000 0.000000 121.858048 -8.669759 1139.114845 264.427913 11.035764 0.000000 0.091846
323.000000 83.251000 5.000000 7.000000 0.000000 118.432862 2.564543 926.793178 357.667589 12.007650 0.000000 0.115065
324.000000 75.683000 6.000000 7.000000 0.000000 114.034722 11.271890 760.484263 451.580596 13.209332 0.000000 0.119135
325.000000 61.778000 8.000000 7.000000 0.000000 104.798691 23.063496 516.731837 631.955568 16.184880 0.000000 0.103329
326.000000 55.825000 9.000000 7.000000 0.000000 100.524119 27.077967 424.754558 716.437186 17.912093 0.000000 0.093520
327.000000 50.572000 10.000000 7.000000 0.000000 96.605524 30.275451 346.682871 796.679747 19.773921 0.000000 0.087313
328.000000 45.969000 11.000000 7.000000 0.000000 93.051912 32.867304 279.584926 872.679910 21.755140 0.000000 0.087134
330.000000 86.216000 3.000000 8.000000 0.000000 123.025024 -28.092368 1549.503402 147.948055 11.593585 0.000000 0.021011
331.000000 76.920000 5.000000 8.000000 0.000000 120.747665 -4.142369 1052.949759 299.054588 12.995535 0.000000 0.103608
332.000000 65.408000 7.000000 8.000000 0.000000 113.455230 12.205137 742.195932 463.214175 15.284702 0.000000 0.118803
333.000000 54.751000 9.000000 8.000000 0.000000 105.355646 22.490478 529.393849 621.105165 18.262061 0.000000 0.104644
334.000000 45.905000 11.000000 8.000000 0.000000 98.031879 29.157116 374.536204 767.089232 21.783977 0.000000 0.089032
336.000000 78.697000 2.000000 9.000000 0.000000 119.543807 -44.475751 2031.776422 86.081154 12.701721 0.000000 0.202446
337.000000 74.792000 4.000000 9.000000 0.000000 123.242187 -20.810644 1384.074656 186.325168 13.364585 0.000000 0.043340
338.000000 71.043000 5.000000 9.000000 0.000000 122.135603 -10.083057 1166.388865 254.303511 14.070218 0.000000 0.087489
339.000000 62.126000 7.000000 9.000000 0.000000 116.548194 6.722101 848.143563 399.526304 16.091119 0.000000 0.118580
340.000000 57.580000 8.000000 9.000000 0.000000 113.002454 12.909589 728.306128 472.237236 17.362788 0.000000 0.118450
341.000000 49.154000 10.000000 9.000000 0.000000 105.791911 22.032392 539.440915 612.622764 20.341388 0.000000 0.105664
342.000000 70.234000 3.000000 10.000000 0.000000 121.854331 -36.177057 1762.066681 112.522293 14.231885 0.000000 0.086283
343.000000 58.805000 7.000000 10.000000 0.000000 118.833940 1.560732 945.674579 348.251788 16.999377 0.000000 0.113800
344.000000 51.420000 9.000000 10.000000 0.000000 112.639252 13.460041 717.398359 479.438650 19.442750 0.000000 0.118111
346.000000 64.119000 3.000000 11.000000 0.000000 121.172355 -39.114490 1850.132698 101.808841 15.589200 0.000000 0.121403
347.000000 62.911000 4.000000 11.000000 0.000000 122.912524 -29.309603 1579.225394 142.112427 15.888284 0.000000 0.026461
348.000000 60.944000 5.000000 11.000000 0.000000 123.210352 -19.781738 1362.102314 192.229039 16.401392 0.000000 0.048375
349.000000 58.430000 6.000000 11.000000 0.000000 122.298541 -10.999100 1184.192863 247.901256 17.107404 0.000000 0.084487
350.000000 55.572000 7.000000 11.000000 0.000000 120.481692 -3.230748 1035.753605 306.468904 17.987892 0.000000 0.105581
351.000000 52.540000 8.000000 11.000000 0.000000 118.060060 3.454858 910.022144 366.231590 19.026701 0.000000 0.116052
352.000000 49.467000 9.000000 11.000000 0.000000 115.284192 9.123226 802.158060 426.087434 20.209613 0.000000 0.119315
353.000000 46.448000 10.000000 11.000000 0.000000 112.341592 13.901942 708.605387 485.318907 21.524061 0.000000 0.117799
354.000000 56.689000 5.000000 12.000000 0.000000 123.249197 -23.684174 1447.105634 170.473437 17.632372 0.000000 0.029133
355.000000 52.498000 7.000000 12.000000 0.000000 121.633505 -7.631116 1119.203282 272.067071 19.040776 0.000000 0.094838
357.000000 54.462000 3.000000 13.000000 0.000000 119.852570 -43.578545 1999.172952 88.313572 18.353568 0.000000 0.187097
358.000000 53.949000 4.000000 13.000000 0.000000 122.021652 -35.346005 1738.357008 115.781178 18.527874 0.000000 0.077353
359.000000 52.899000 5.000000 13.000000 0.000000 123.102723 -27.066669 1524.977768 152.995606 18.895516 0.000000 0.019164
360.000000 51.418000 6.000000 13.000000 0.000000 123.179498 -19.074906 1347.172474 196.355869 19.439848 0.000000 0.051757
361.000000 49.617000 7.000000 13.000000 0.000000 122.404831 -11.640756 1196.729465 243.489142 20.146078 0.000000 0.082299
362.000000 47.598000 8.000000 13.000000 0.000000 120.964980 -4.927104 1067.783878 292.796920 21.001022 0.000000 0.101805
363.000000 50.601000 3.000000 14.000000 0.000000 119.245142 -45.304349 2062.789784 84.183606 19.754142 0.000000 0.217362
364.000000 49.520000 5.000000 14.000000 0.000000 122.838053 -30.007233 1596.579972 138.844436 20.184888 0.000000 0.030717
366.000000 47.056000 4.000000 15.000000 0.000000 121.001960 -39.764302 1870.599087 99.621137 21.241972 0.000000 0.129975
368.000000 189.789000 1.000000 1.000000 1.000000 48.910447 1.690820 943.228921 1879.974649 5.273753 0.000000 0.123821
369.000000 137.895000 2.000000 1.000000 1.000000 50.811254 20.877923 564.478288 1880.112625 7.257910 0.000000 0.165838
370.000000 100.517000 3.000000 1.000000 1.000000 49.845339 30.761448 334.380991 1997.762218 9.956379 0.000000 0.249231
374.000000 164.668000 2.000000 2.000000 1.000000 75.823270 7.058709 841.728061 1214.955634 6.075691 0.000000 0.118983
375.000000 124.872000 3.000000 2.000000 1.000000 71.363758 20.113805 580.838137 1327.546007 8.012318 0.000000 0.100981
376.000000 96.562000 4.000000 2.000000 1.000000 67.018621 28.132647 399.524012 1458.596789 10.361768 0.000000 0.120006
377.000000 77.116000 5.000000 2.000000 1.000000 63.474900 33.367306 266.195522 1584.239839 12.975007 0.000000 0.165654
378.000000 63.462000 6.000000 2.000000 1.000000 60.674454 36.997442 164.029409 1698.039965 15.767032 0.000000 0.216393
379.000000 53.550000 7.000000 2.000000 1.000000 58.451699 39.643218 83.243632 1799.149384 18.685820 0.000000 0.264655
380.000000 46.117000 8.000000 2.000000 1.000000 56.662608 41.649340 17.762515 1888.503204 21.697746 0.000000 0.308574
381.000000 168.988000 0.000000 3.000000 1.000000 78.863410 -48.196284 2178.612538 1258.852577 5.919072 0.000000 0.255470
382.000000 175.364000 1.000000 3.000000 1.000000 89.353883 -25.358960 1485.117670 954.432029 5.703336 0.000000 0.121459
383.000000 154.822000 2.000000 3.000000 1.000000 90.377793 -4.939077 1068.010467 933.876647 6.460248 0.000000 0.161764
384.000000 127.459000 3.000000 3.000000 1.000000 86.488949 9.778026 789.516770 1008.010809 7.847661 0.000000 0.150027
385.000000 103.478000 4.000000 3.000000 1.000000 81.459609 19.664385 590.385490 1112.639037 9.667063 0.000000 0.125138
386.000000 84.813000 5.000000 3.000000 1.000000 76.769971 26.391428 440.923557 1223.478086 11.795360 0.000000 0.112247
387.000000 70.692000 6.000000 3.000000 1.000000 72.770414 31.144073 324.608076 1330.986866 14.152171 0.000000 0.122457
388.000000 59.971000 7.000000 3.000000 1.000000 69.442553 34.636092 231.513252 1431.582069 16.682775 0.000000 0.149576
389.000000 51.710000 8.000000 3.000000 1.000000 66.679656 37.292144 155.316683 1524.212654 19.348633 0.000000 0.183461
390.000000 139.216000 0.000000 4.000000 1.000000 86.069591 -51.492846 2327.740637 1059.771008 7.183962 0.000000 0.302626
391.000000 145.395000 1.000000 4.000000 1.000000 95.644101 -32.940447 1672.364266 814.256145 6.877972 0.000000 0.082398
392.000000 136.209000 2.000000 4.000000 1.000000 98.428816 -14.642014 1256.196593 776.160222 7.341770 0.000000 0.148966
393.000000 119.619000 3.000000 4.000000 1.000000 96.328091 0.346821 968.484924 821.639670 8.360468 0.000000 0.166230
394.000000 102.135000 4.000000 4.000000 1.000000 92.071501 11.414053 757.706277 901.284681 9.792350 0.000000 0.154366
395.000000 86.673000 5.000000 4.000000 1.000000 87.370699 19.368483 596.642294 993.390848 11.540172 0.000000 0.133773
396.000000 73.904000 6.000000 4.000000 1.000000 82.956514 25.155295 469.559717 1087.915181 13.534985 0.000000 0.117085
397.000000 63.608000 7.000000 4.000000 1.000000 79.052032 29.473030 366.730612 1180.144563 15.726543 0.000000 0.112659
398.000000 55.339000 8.000000 4.000000 1.000000 75.673881 32.783408 281.816710 1267.940517 18.077362 0.000000 0.122573
399.000000 48.661000 9.000000 4.000000 1.000000 72.768705 35.386067 210.511310 1350.451602 20.558914 0.000000 0.142689
401.000000 122.322000 1.000000 5.000000 1.000000 99.116346 -38.288299 1824.649159 720.960872 8.174665 0.000000 0.067846
402.000000 118.419000 2.000000 5.000000 1.000000 102.929018 -22.242545 1415.160139 674.058794 8.443838 0.000000 0.115463
403.000000 108.654000 3.000000 5.000000 1.000000 102.512864 -7.864365 1123.665947 699.869882 9.202988 0.000000 0.157139
404.000000 96.648000 4.000000 5.000000 1.000000 99.536551 3.689957 905.588623 759.808574 10.346858 0.000000 0.163595
405.000000 84.764000 5.000000 5.000000 1.000000 95.482284 12.504946 736.293829 835.190427 11.798324 0.000000 0.152991
406.000000 74.087000 6.000000 5.000000 1.000000 91.232859 19.158924 601.059645 916.479149 13.499587 0.000000 0.136296
407.000000 64.921000 7.000000 5.000000 1.000000 87.202751 24.233103 490.546548 998.669422 15.406474 0.000000 0.120745
408.000000 57.208000 8.000000 5.000000 1.000000 83.545683 28.173219 398.543623 1079.123298 17.484648 0.000000 0.111699
409.000000 50.759000 9.000000 5.000000 1.000000 80.291582 31.293900 320.759750 1156.487500 19.707014 0.000000 0.112269
411.000000 104.900000 1.000000 6.000000 1.000000 101.213163 -42.200117 1950.928065 652.976175 9.531800 0.000000 0.099973
412.000000 103.473000 2.000000 6.000000 1.000000 105.518895 -28.163334 1551.217453 601.999130 9.662968 0.000000 0.075791
413.000000 97.732000 3.000000 6.000000 1.000000 106.357152 -14.806843 1259.506731 614.253475 10.230703 0.000000 0.135032
414.000000 89.645000 4.000000 6.000000 1.000000 104.654351 -3.309296 1037.233948 659.085710 11.154077 0.000000 0.157986
415.000000 80.831000 5.000000 6.000000 1.000000 101.513399 5.980729 862.242905 720.563480 12.371000 0.000000 0.159627
416.000000 72.293000 6.000000 6.000000 1.000000 97.776140 13.283738 720.897335 789.981996 13.833042 0.000000 0.150306
417.000000 64.514000 7.000000 6.000000 1.000000 93.948275 19.002732 604.344762 862.432848 15.501869 0.000000 0.136520
418.000000 57.656000 8.000000 6.000000 1.000000 90.287776 23.519072 506.587875 935.104343 17.346747 0.000000 0.122808
419.000000 51.709000 9.000000 6.000000 1.000000 86.905278 27.134290 423.419330 1006.387085 19.342743 0.000000 0.112709
420.000000 46.589000 10.000000 6.000000 1.000000 83.833173 30.071850 351.800322 1075.380412 21.469420 0.000000 0.108805
422.000000 91.535000 1.000000 7.000000 1.000000 102.571988 -45.160431 2057.338561 600.594894 10.923261 0.000000 0.147158
423.000000 91.293000 2.000000 7.000000 1.000000 107.055152 -32.813634 1668.986881 548.122120 10.951662 0.000000 0.040116
424.000000 87.912000 3.000000 7.000000 1.000000 108.742478 -20.593392 1379.410754 550.876011 11.372787 0.000000 0.106562
425.000000 82.477000 4.000000 7.000000 1.000000 108.109988 -9.503488 1155.177246 584.106961 12.122612 0.000000 0.143262
426.000000 76.035000 5.000000 7.000000 1.000000 105.909100 -0.075162 976.411918 634.224419 13.150313 0.000000 0.156386
427.000000 69.368000 6.000000 7.000000 1.000000 102.843573 7.643582 830.558333 693.411124 14.415028 0.000000 0.155713
428.000000 62.958000 7.000000 7.000000 1.000000 99.422434 13.867407 709.293757 757.025328 15.883536 0.000000 0.147484
429.000000 57.053000 8.000000 7.000000 1.000000 95.959542 18.881825 606.883507 822.255373 17.528543 0.000000 0.135852
430.000000 51.746000 9.000000 7.000000 1.000000 92.626494 22.950032 519.247536 887.382991 19.327426 0.000000 0.123856
431.000000 47.041000 10.000000 7.000000 1.000000 89.505456 26.285384 443.403816 951.361569 21.261264 0.000000 0.113937
433.000000 81.050000 1.000000 8.000000 1.000000 103.502685 -47.467388 2148.227735 558.684897 12.336082 0.000000 0.194581
434.000000 81.382000 2.000000 8.000000 1.000000 107.989003 -36.517455 1771.923421 506.146893 12.285056 0.000000 0.036363
435.000000 79.407000 3.000000 8.000000 1.000000 110.221070 -25.398482 1486.027156 502.133460 12.590446 0.000000 0.075395
436.000000 75.739000 4.000000 8.000000 1.000000 110.419246 -14.903587 1261.451916 526.369993 13.200400 0.000000 0.123135
437.000000 71.047000 5.000000 8.000000 1.000000 109.066959 -5.591993 1080.379722 567.215826 14.072655 0.000000 0.146365
438.000000 65.900000 6.000000 8.000000 1.000000 106.706578 2.325798 931.286156 617.695217 15.172425 0.000000 0.154031
439.000000 60.709000 7.000000 8.000000 1.000000 103.795792 8.903622 806.387106 673.497205 16.470814 0.000000 0.152187
440.000000 55.729000 8.000000 8.000000 1.000000 100.660619 14.321032 700.235227 731.900389 17.943619 0.000000 0.144855
441.000000 51.099000 9.000000 8.000000 1.000000 97.508222 18.785460 608.904294 791.164462 19.570417 0.000000 0.134850
442.000000 46.877000 10.000000 8.000000 1.000000 94.458577 22.485977 529.492899 850.171279 21.333854 0.000000 0.124307
444.000000 72.645000 1.000000 9.000000 1.000000 104.168823 -49.310257 2226.760724 524.225755 13.763098 0.000000 0.239041
445.000000 73.249000 2.000000 9.000000 1.000000 108.565676 -39.513778 1862.663328 472.421003 13.648874 0.000000 0.067662
446.000000 72.129000 3.000000 9.000000 1.000000 111.131462 -29.399519 1581.448751 463.522970 13.860649 0.000000 0.044016
447.000000 69.642000 4.000000 9.000000 1.000000 111.946833 -19.574334 1357.707976 480.708893 14.355603 0.000000 0.099924
448.000000 66.219000 5.000000 9.000000 1.000000 111.309137 -10.550210 1175.455091 513.953365 15.098097 0.000000 0.131843
449.000000 62.262000 6.000000 9.000000 1.000000 109.614536 -2.613569 1024.129651 557.041754 16.058234 0.000000 0.147101
450.000000 58.095000 7.000000 9.000000 1.000000 107.245463 4.172830 896.475006 606.007156 17.210745 0.000000 0.151540
451.000000 53.949000 8.000000 9.000000 1.000000 104.509307 9.890522 787.340042 658.262726 18.534127 0.000000 0.149096
452.000000 49.973000 9.000000 9.000000 1.000000 101.625329 14.683678 692.967176 712.096644 20.009965 0.000000 0.142503
453.000000 46.248000 10.000000 9.000000 1.000000 98.737020 18.706855 610.550961 766.366505 21.622401 0.000000 0.133755
455.000000 65.777000 1.000000 10.000000 1.000000 104.662868 -50.813386 2295.296849 495.299435 15.200025 0.000000 0.279935
456.000000 66.498000 2.000000 10.000000 1.000000 108.923499 -41.975099 1943.253075 444.667626 15.034335 0.000000 0.104139
457.000000 65.907000 3.000000 10.000000 1.000000 111.681268 -32.752073 1667.350786 432.210391 15.168861 0.000000 0.018155
458.000000 64.218000 4.000000 10.000000 1.000000 112.942880 -23.603439 1445.298351 443.810455 15.567660 0.000000 0.075099
459.000000 61.711000 5.000000 10.000000 1.000000 112.882840 -14.967210 1262.732101 470.782621 16.200305 0.000000 0.114395
460.000000 58.669000 6.000000 10.000000 1.000000 111.779715 -7.148228 1109.979656 507.586269 17.040869 0.000000 0.136414
461.000000 55.338000 7.000000 10.000000 1.000000 109.937384 -0.281567 980.289239 550.587737 18.067120 0.000000 0.146712
462.000000 51.913000 8.000000 10.000000 1.000000 107.627326 5.634994 868.804698 597.353648 19.259887 0.000000 0.149144
463.000000 48.532000 9.000000 10.000000 1.000000 105.062989 10.683974 771.943866 646.229308 20.602549 0.000000 0.146401
465.000000 60.828000 2.000000 11.000000 1.000000 109.143404 -44.025889 2015.305547 421.389129 16.435740 0.000000 0.139863
466.000000 60.569000 3.000000 11.000000 1.000000 111.999192 -35.583776 1745.090128 406.324143 16.505454 0.000000 0.028582
467.000000 59.426000 4.000000 11.000000 1.000000 113.576753 -27.082078 1525.342858 413.456132 16.822699 0.000000 0.049644
468.000000 57.583000 5.000000 11.000000 1.000000 113.971857 -18.882584 1343.132419 435.216894 17.361213 0.000000 0.095103
469.000000 55.239000 6.000000 11.000000 1.000000 113.374539 -11.276085 1189.597673 466.657074 18.098320 0.000000 0.123079
470.000000 52.580000 7.000000 11.000000 1.000000 112.017730 -4.434226 1058.463097 504.454721 19.014343 0.000000 0.138722
471.000000 49.761000 8.000000 11.000000 1.000000 110.130315 1.588114 945.159826 546.334771 20.092119 0.000000 0.145789
472.000000 46.904000 9.000000 11.000000 1.000000 107.908338 6.819801 846.282416 590.715008 21.316613 0.000000 0.146928
474.000000 56.011000 2.000000 12.000000 1.000000 109.274352 -45.756793 2080.109097 401.557372 17.849230 0.000000 0.173820
475.000000 55.963000 3.000000 12.000000 1.000000 112.166257 -37.996173 1815.777477 384.579370 17.863800 0.000000 0.056843
476.000000 55.198000 4.000000 12.000000 1.000000 113.962845 -30.094834 1598.776338 388.107153 18.111022 0.000000 0.024484
477.000000 53.840000 5.000000 12.000000 1.000000 114.710416 -22.346352 1417.437978 405.508776 18.568008 0.000000 0.074715
478.000000 52.028000 6.000000 12.000000 1.000000 114.534940 -15.012234 1263.638520 432.351672 19.214776 0.000000 0.107912
479.000000 49.902000 7.000000 12.000000 1.000000 113.610199 -8.275659 1131.547409 465.600100 20.033805 0.000000 0.128378
480.000000 47.586000 8.000000 12.000000 1.000000 112.122699 -2.227878 1016.871521 503.134449 21.009666 0.000000 0.139750
482.000000 51.875000 2.000000 13.000000 1.000000 109.346860 -47.234706 2138.705263 384.441513 19.272098 0.000000 0.205810
483.000000 51.962000 3.000000 13.000000 1.000000 112.234323 -40.069051 1880.330761 366.065258 19.239184 0.000000 0.085750
484.000000 51.462000 4.000000 13.000000 1.000000 114.178677 -32.715705 1666.385335 366.664488 19.425642 0.000000 0.008084
485.000000 50.460000 5.000000 13.000000 1.000000 115.195669 -25.411050 1486.316491 380.396803 19.811354 0.000000 0.053751
486.000000 49.056000 6.000000 13.000000 1.000000 115.366046 -18.382404 1332.668380 403.281082 20.378589 0.000000 0.091509
487.000000 47.354000 7.000000 13.000000 1.000000 114.816640 -11.808873 1200.023540 432.541702 21.111658 0.000000 0.116301
489.000000 48.291000 2.000000 14.000000 1.000000 109.380448 -48.509716 2191.945167 369.506805 20.702389 0.000000 0.235849
490.000000 48.463000 3.000000 14.000000 1.000000 112.237127 -41.864933 1939.515226 350.118501 20.628164 0.000000 0.113808
491.000000 48.151000 4.000000 14.000000 1.000000 114.277127 -35.007394 1728.836383 348.323459 20.761403 0.000000 0.028514
492.000000 47.413000 5.000000 14.000000 1.000000 115.497701 -28.127082 1550.341573 358.949176 21.084289 0.000000 0.032587
493.000000 46.322000 6.000000 14.000000 1.000000 115.948199 -21.417727 1397.179308 378.409350 21.580987 0.000000 0.074309
496.000000 100.691000 1.000000 2.000000 2.000000 43.676534 -13.934201 1242.037817 2102.377484 9.940600 0.000000 0.221947
497.000000 81.705000 3.000000 2.000000 2.000000 50.630251 12.949320 727.520441 1847.172003 12.249724 0.000000 0.128264
498.000000 58.491000 5.000000 2.000000 2.000000 50.417347 26.562498 436.912806 1935.848463 17.110293 0.000000 0.208177
500.000000 103.788000 0.000000 3.000000 2.000000 52.734956 -38.918698 1844.040086 1993.492432 9.641683 0.000000 0.290526
501.000000 112.552000 1.000000 3.000000 2.000000 61.640125 -22.018539 1410.256278 1567.685212 8.890709 0.000000 0.099854
502.000000 105.880000 2.000000 3.000000 2.000000 65.499504 -6.985685 1106.879373 1435.175298 9.450813 0.000000 0.063244
503.000000 92.734000 3.000000 3.000000 2.000000 65.964962 4.896887 882.787944 1422.744349 10.790588 0.000000 0.062155
504.000000 79.218000 4.000000 3.000000 2.000000 64.832253 13.807220 710.492954 1461.773983 12.631630 0.000000 0.069669
505.000000 67.548000 5.000000 3.000000 2.000000 63.153500 20.438957 573.896509 1522.372643 14.813988 0.000000 0.090352
506.000000 58.046000 6.000000 3.000000 2.000000 61.404654 25.443103 462.945300 1590.715680 17.239219 0.000000 0.120149
507.000000 50.428000 7.000000 3.000000 2.000000 59.768646 29.298982 371.036974 1660.209746 19.843418 0.000000 0.153515
509.000000 101.316000 0.000000 4.000000 2.000000 65.116192 -42.915071 1975.682058 1622.668723 9.875103 0.000000 0.247406
510.000000 107.440000 1.000000 4.000000 2.000000 72.962701 -28.240879 1553.092996 1315.387279 9.311716 0.000000 0.116778
511.000000 103.367000 2.000000 4.000000 2.000000 76.671297 -14.298216 1249.308285 1204.145916 9.678469 0.000000 0.122188
512.000000 93.628000 3.000000 4.000000 2.000000 77.162751 -2.415534 1020.402414 1186.482136 10.685295 0.000000 0.127106
513.000000 71.678000 5.000000 4.000000 2.000000 73.695690 14.413430 698.385677 1266.049343 13.958158 0.000000 0.107308
514.000000 54.693000 7.000000 4.000000 2.000000 69.101756 24.579601 482.697435 1392.909114 18.293614 0.000000 0.105331
516.000000 93.209000 0.000000 5.000000 2.000000 73.230052 -45.897222 2085.541805 1407.035832 10.732438 0.000000 0.243494
517.000000 97.986000 1.000000 5.000000 2.000000 80.359883 -33.072428 1675.889595 1159.163311 10.208625 0.000000 0.115846
518.000000 96.021000 2.000000 5.000000 2.000000 84.189650 -20.358926 1374.392197 1057.819974 10.417268 0.000000 0.132379
519.000000 89.529000 3.000000 5.000000 2.000000 85.141721 -8.882816 1143.212487 1033.592053 11.172751 0.000000 0.150362
520.000000 81.015000 4.000000 5.000000 2.000000 84.158312 0.781458 960.319488 1051.127480 12.347293 0.000000 0.150888
521.000000 72.227000 5.000000 5.000000 2.000000 82.134922 8.610959 812.015222 1091.374654 13.850045 0.000000 0.141007
522.000000 64.067000 6.000000 5.000000 2.000000 79.686465 14.864448 689.335234 1143.639734 15.614650 0.000000 0.127514
523.000000 56.869000 7.000000 5.000000 2.000000 77.164216 19.863298 586.166519 1201.748001 17.591510 0.000000 0.115745
524.000000 50.674000 8.000000 5.000000 2.000000 74.743831 23.893536 498.197286 1262.071989 19.742809 0.000000 0.109811
526.000000 88.366000 1.000000 6.000000 2.000000 85.418734 -36.882378 1782.587079 1048.820623 11.318743 0.000000 0.109337
527.000000 83.540000 3.000000 6.000000 2.000000 90.810785 -14.506813 1253.485180 925.266875 11.972318 0.000000 0.150547
528.000000 70.539000 5.000000 6.000000 2.000000 88.747730 3.129895 916.146740 964.562632 14.179733 0.000000 0.159639
529.000000 57.407000 7.000000 6.000000 2.000000 83.984082 15.213067 682.313709 1058.544565 17.424669 0.000000 0.137383
530.000000 46.753000 9.000000 6.000000 2.000000 79.036118 23.335461 510.684570 1168.081320 21.396750 0.000000 0.116074
532.000000 76.538000 0.000000 7.000000 2.000000 82.965604 -50.017416 2258.469660 1147.687818 13.067708 0.000000 0.276640
533.000000 79.737000 1.000000 7.000000 2.000000 89.029568 -39.938670 1876.156667 964.777791 12.542669 0.000000 0.110002
534.000000 79.767000 2.000000 7.000000 2.000000 92.998914 -29.495355 1583.822824 876.218276 12.537499 0.000000 0.102249
535.000000 77.188000 3.000000 7.000000 2.000000 94.872843 -19.353766 1353.047121 843.747173 12.956369 0.000000 0.138471
536.000000 72.863000 4.000000 7.000000 2.000000 94.995208 -10.075265 1166.237853 845.453717 13.725640 0.000000 0.159407
537.000000 67.631000 5.000000 7.000000 2.000000 93.865963 -1.964817 1011.923333 868.225163 14.787792 0.000000 0.165670
538.000000 62.132000 6.000000 7.000000 2.000000 91.964474 4.922489 882.303457 903.946462 16.097240 0.000000 0.162341
539.000000 56.773000 7.000000 7.000000 2.000000 89.661756 10.686761 771.889637 947.466100 17.617394 0.000000 0.153489
540.000000 51.776000 8.000000 7.000000 2.000000 87.208804 15.490586 676.707608 995.451797 19.318541 0.000000 0.142139
541.000000 47.235000 9.000000 7.000000 2.000000 84.759804 19.502618 593.808863 1045.720021 21.176306 0.000000 0.130642
543.000000 72.287000 1.000000 8.000000 2.000000 91.703736 -42.431599 1958.880798 897.625626 13.834483 0.000000 0.122052
544.000000 71.132000 3.000000 8.000000 2.000000 97.823502 -23.517926 1443.386533 779.719509 14.058513 0.000000 0.120002
545.000000 64.172000 5.000000 8.000000 2.000000 97.803762 -6.640984 1100.311746 792.497628 15.583821 0.000000 0.163011
546.000000 55.367000 7.000000 8.000000 2.000000 94.333628 6.333147 855.545721 858.936929 18.063299 0.000000 0.162402
547.000000 47.038000 9.000000 8.000000 2.000000 89.713996 15.716733 672.128129 946.581266 21.263212 0.000000 0.144261
550.000000 65.920000 1.000000 9.000000 2.000000 93.746831 -44.496489 2032.541791 842.184737 15.170038 0.000000 0.142911
551.000000 66.521000 2.000000 9.000000 2.000000 97.614216 -35.834551 1752.234973 763.525991 15.032425 0.000000 0.068777
552.000000 65.610000 3.000000 9.000000 2.000000 100.000480 -27.098335 1525.728131 727.808063 15.240805 0.000000 0.098638
553.000000 63.500000 4.000000 9.000000 2.000000 100.995877 -18.680084 1338.888583 720.240730 15.747373 0.000000 0.133639
554.000000 60.558000 5.000000 9.000000 2.000000 100.827884 -10.893507 1182.135114 731.365389 16.512739 0.000000 0.154522
555.000000 57.129000 6.000000 9.000000 2.000000 99.784431 -3.919491 1048.742238 754.957742 17.504163 0.000000 0.163911
556.000000 53.494000 7.000000 9.000000 2.000000 98.145905 2.189524 933.850029 786.828200 18.694201 0.000000 0.165258
557.000000 49.855000 8.000000 9.000000 2.000000 96.146257 7.470902 833.859211 824.106088 20.059678 0.000000 0.161271
558.000000 46.342000 9.000000 9.000000 2.000000 93.961496 12.009132 746.047297 864.797237 21.580891 0.000000 0.153986
560.000000 60.475000 1.000000 10.000000 2.000000 95.349180 -46.230648 2098.551712 795.317832 16.535426 0.000000 0.168451
561.000000 60.675000 3.000000 10.000000 2.000000 101.632125 -30.186906 1601.088974 684.679920 16.479983 0.000000 0.076933
562.000000 57.011000 5.000000 10.000000 2.000000 103.152136 -14.736759 1258.098673 680.951483 17.539073 0.000000 0.142158
563.000000 51.375000 7.000000 10.000000 2.000000 101.238657 -1.718963 1007.300202 727.036978 19.464381 0.000000 0.163425
565.000000 55.794000 1.000000 11.000000 2.000000 96.633949 -47.705106 2158.043768 754.985523 17.922071 0.000000 0.195788
566.000000 56.507000 2.000000 11.000000 2.000000 100.285784 -40.387840 1890.604440 684.565488 17.695519 0.000000 0.080051
567.000000 56.297000 3.000000 11.000000 2.000000 102.873601 -32.863759 1670.320683 648.150953 17.760994 0.000000 0.057732
568.000000 55.288000 4.000000 11.000000 2.000000 104.396346 -25.385618 1485.731068 635.200678 18.084990 0.000000 0.095821
569.000000 53.645000 5.000000 11.000000 2.000000 104.942487 -18.197242 1328.810142 638.643724 18.638941 0.000000 0.127258
570.000000 51.546000 6.000000 11.000000 2.000000 104.663247 -11.489576 1193.770629 653.618432 19.398339 0.000000 0.147201
571.000000 49.155000 7.000000 11.000000 2.000000 103.737665 -5.378592 1076.334037 676.714404 20.342040 0.000000 0.158055
572.000000 46.614000 8.000000 11.000000 2.000000 102.342158 0.092145 973.269061 705.499886 21.451703 0.000000 0.162236
573.000000 51.744000 1.000000 12.000000 2.000000 97.683631 -48.972558 2211.937908 719.788731 19.324395 0.000000 0.223333
574.000000 52.421000 3.000000 12.000000 2.000000 103.831524 -35.196434 1734.141768 616.725093 19.073663 0.000000 0.045878
575.000000 50.509000 5.000000 12.000000 2.000000 106.325555 -21.307689 1394.796011 602.617353 19.795679 0.000000 0.110754
576.000000 46.933000 7.000000 12.000000 2.000000 105.751384 -8.785394 1141.338221 633.821531 21.304374 0.000000 0.150040
578.000000 48.215000 1.000000 13.000000 2.000000 98.555174 -50.072719 2260.988737 688.726316 20.738616 0.000000 0.250275
579.000000 48.897000 2.000000 13.000000 2.000000 101.960679 -43.777326 2006.311798 625.223340 20.448478 0.000000 0.123092
580.000000 48.986000 3.000000 13.000000 2.000000 104.580178 -37.240874 1793.162657 589.339865 20.410870 0.000000 0.047279
581.000000 48.533000 4.000000 13.000000 2.000000 106.384020 -30.624881 1612.149690 573.264037 20.601024 0.000000 0.056530
582.000000 47.617000 5.000000 13.000000 2.000000 107.397130 -24.102882 1456.514675 571.558795 20.997305 0.000000 0.093329
583.000000 46.330000 6.000000 13.000000 2.000000 107.691445 -17.834256 1321.270258 580.357607 21.580738 0.000000 0.121317
584.000000 45.932000 3.000000 14.000000 2.000000 105.172100 -39.043036 1847.905279 565.217714 21.767481 0.000000 0.060447
588.000000 65.542000 1.000000 3.000000 3.000000 40.704515 -20.105124 1368.976932 2273.293376 15.271486 0.000000 0.291529
589.000000 66.973000 2.000000 3.000000 3.000000 45.974981 -8.216671 1130.416062 1992.063432 14.945279 0.000000 0.173195
590.000000 57.510000 4.000000 3.000000 3.000000 50.301428 9.627152 792.433773 1847.274582 17.403661 0.000000 0.120332
591.000000 51.494000 5.000000 3.000000 3.000000 50.797097 15.902530 668.358130 1853.829719 19.436370 0.000000 0.139355
594.000000 73.660000 1.000000 4.000000 3.000000 54.055962 -25.316471 1484.140570 1804.278070 13.586255 0.000000 0.155390
595.000000 73.687000 2.000000 4.000000 3.000000 58.451783 -14.082344 1244.993876 1622.274844 13.581109 0.000000 0.066957
596.000000 69.551000 3.000000 4.000000 3.000000 60.664801 -4.246179 1054.910308 1547.522746 14.388535 0.000000 0.025200
597.000000 63.531000 4.000000 4.000000 3.000000 61.366510 3.975748 900.195959 1530.048617 15.751745 0.000000 0.027283
598.000000 57.145000 5.000000 4.000000 3.000000 61.170539 10.690379 771.819260 1543.882319 17.511839 0.000000 0.048909
599.000000 51.148000 6.000000 4.000000 3.000000 60.502901 16.137399 663.582404 1574.840706 19.565221 0.000000 0.073079
600.000000 45.817000 7.000000 4.000000 3.000000 59.621083 20.569993 571.090773 1614.890647 21.841462 0.000000 0.098434
603.000000 69.486000 0.000000 5.000000 3.000000 57.502461 -40.391659 1890.728090 1841.184739 14.400464 0.000000 0.267840
604.000000 74.057000 1.000000 5.000000 3.000000 63.712481 -29.597715 1586.363475 1552.428545 13.511195 0.000000 0.134876
605.000000 74.037000 2.000000 5.000000 3.000000 67.722229 -19.118747 1348.094743 1407.673590 13.514631 0.000000 0.094265
606.000000 70.658000 3.000000 5.000000 3.000000 69.731681 -9.572000 1156.500570 1344.068683 14.160749 0.000000 0.091158
607.000000 65.462000 4.000000 5.000000 3.000000 70.247500 -1.282188 999.089760 1327.578942 15.284921 0.000000 0.090874
608.000000 59.650000 5.000000 5.000000 3.000000 69.804332 5.705705 867.463310 1338.878020 16.774324 0.000000 0.087641
609.000000 53.943000 6.000000 5.000000 3.000000 68.820779 11.513289 755.765480 1366.581411 18.549046 0.000000 0.084319
610.000000 48.689000 7.000000 5.000000 3.000000 67.576343 16.323568 659.788899 1403.791706 20.550905 0.000000 0.084689
613.000000 71.127000 1.000000 6.000000 3.000000 70.814056 -33.140455 1677.710808 1388.264491 14.065878 0.000000 0.134765
614.000000 71.349000 2.000000 6.000000 3.000000 74.636869 -23.427198 1441.360839 1263.282915 14.021916 0.000000 0.113965
615.000000 64.808000 4.000000 6.000000 3.000000 77.267890 -6.107578 1090.166659 1185.575518 15.436996 0.000000 0.127279
616.000000 59.926000 5.000000 6.000000 3.000000 76.857857 1.003685 956.143966 1192.334747 16.694696 0.000000 0.125416
617.000000 50.061000 7.000000 6.000000 3.000000 74.448373 12.168835 742.909664 1247.412350 19.985452 0.000000 0.110999
618.000000 45.618000 8.000000 6.000000 3.000000 72.922805 16.474756 656.702852 1285.798251 21.932021 0.000000 0.104238
621.000000 64.073000 0.000000 7.000000 3.000000 70.866236 -44.992138 2050.998949 1469.010130 15.613475 0.000000 0.242554
622.000000 66.996000 1.000000 7.000000 3.000000 76.157458 -36.099417 1759.830498 1269.232802 14.931550 0.000000 0.133886
623.000000 67.439000 2.000000 7.000000 3.000000 79.863752 -27.115510 1526.135308 1157.180306 14.833075 0.000000 0.117487
624.000000 65.800000 3.000000 7.000000 3.000000 81.998373 -18.466583 1334.425149 1100.507741 15.202501 0.000000 0.132246
625.000000 62.705000 4.000000 7.000000 3.000000 82.787989 -10.491707 1174.318231 1079.512575 15.952903 0.000000 0.143483
626.000000 58.783000 5.000000 7.000000 3.000000 82.560376 -3.381503 1038.594977 1081.788300 17.017632 0.000000 0.146457
627.000000 54.531000 6.000000 7.000000 3.000000 81.642345 2.814933 922.079234 1099.311633 18.344728 0.000000 0.143030
628.000000 50.288000 7.000000 7.000000 3.000000 80.303446 8.144740 820.963089 1126.781644 19.893086 0.000000 0.135722
629.000000 46.251000 8.000000 7.000000 3.000000 78.741217 12.703233 732.382799 1160.635984 21.629759 0.000000 0.126780
632.000000 60.177000 0.000000 8.000000 3.000000 75.324704 -46.727399 2118.230573 1352.198848 16.622898 0.000000 0.246130
633.000000 62.621000 1.000000 8.000000 3.000000 80.273231 -38.595419 1834.053541 1177.052889 15.973525 0.000000 0.133178
634.000000 63.209000 2.000000 8.000000 3.000000 83.882449 -30.283797 1603.527363 1074.585463 15.824541 0.000000 0.112177
635.000000 62.167000 3.000000 8.000000 3.000000 86.123259 -22.133414 1412.769123 1019.737699 16.089507 0.000000 0.130275
636.000000 59.892000 4.000000 8.000000 3.000000 87.132902 -14.447935 1252.305428 996.663464 16.700808 0.000000 0.147099
637.000000 56.817000 5.000000 8.000000 3.000000 87.149708 -7.434773 1115.450498 995.040928 17.604796 0.000000 0.155427
638.000000 53.324000 6.000000 8.000000 3.000000 86.439573 -1.189673 997.351079 1007.982856 18.758357 0.000000 0.156413
639.000000 49.700000 7.000000 8.000000 3.000000 85.243719 4.282752 894.398855 1030.802727 20.126451 0.000000 0.152254
640.000000 46.139000 8.000000 8.000000 3.000000 83.754877 9.035124 803.855320 1060.260441 21.680302 0.000000 0.144942
643.000000 58.406000 1.000000 9.000000 3.000000 83.513404 -40.721643 1901.466702 1102.466072 17.125080 0.000000 0.135468
644.000000 59.071000 2.000000 9.000000 3.000000 87.027232 -33.018995 1674.461094 1007.659406 16.931750 0.000000 0.103485
645.000000 56.809000 4.000000 9.000000 3.000000 90.569520 -18.003488 1324.781660 929.750471 17.605705 0.000000 0.142786
646.000000 54.432000 5.000000 9.000000 3.000000 90.841374 -11.156422 1187.261439 924.889310 18.374718 0.000000 0.156170
647.000000 48.569000 7.000000 9.000000 3.000000 89.385199 0.606052 963.614959 952.550056 20.593633 0.000000 0.161439
648.000000 45.490000 8.000000 9.000000 3.000000 88.042024 5.494876 871.461792 977.964528 21.988145 0.000000 0.157019
650.000000 52.719000 0.000000 10.000000 3.000000 81.729666 -49.454202 2233.140886 1181.664422 18.972226 0.000000 0.268864
651.000000 54.506000 1.000000 10.000000 3.000000 86.114775 -42.549850 1962.966071 1040.221680 18.349390 0.000000 0.142186
652.000000 55.201000 2.000000 10.000000 3.000000 89.530290 -35.393987 1739.712534 951.824062 18.117673 0.000000 0.095379
653.000000 54.881000 3.000000 10.000000 3.000000 91.915687 -28.201229 1552.133645 900.151668 18.223261 0.000000 0.109056
654.000000 53.706000 4.000000 10.000000 3.000000 93.306914 -21.192786 1392.311140 874.299980 18.621776 0.000000 0.133478
655.000000 51.883000 5.000000 10.000000 3.000000 93.817508 -14.557868 1254.508685 866.800028 19.276303 0.000000 0.151320
656.000000 49.619000 6.000000 10.000000 3.000000 93.606085 -8.427894 1134.468753 872.430070 20.155875 0.000000 0.161295
657.000000 47.100000 7.000000 10.000000 3.000000 92.843364 -2.870383 1028.964943 887.476706 21.234328 0.000000 0.164876
659.000000 49.409000 0.000000 11.000000 3.000000 84.092311 -50.542567 2282.627468 1116.246785 20.242380 0.000000 0.284940
660.000000 50.962000 1.000000 11.000000 3.000000 88.239839 -44.135542 2019.297128 987.084813 19.624467 0.000000 0.153256
661.000000 51.658000 2.000000 11.000000 3.000000 91.554233 -37.468777 1799.938178 904.205510 19.359557 0.000000 0.090904
662.000000 51.540000 3.000000 11.000000 3.000000 93.972598 -30.712943 1614.385661 854.061088 19.403565 0.000000 0.095376
663.000000 50.714000 4.000000 11.000000 3.000000 95.505148 -24.052692 1455.383604 827.403587 19.719452 0.000000 0.121103
664.000000 49.322000 5.000000 11.000000 3.000000 96.226183 -17.657695 1317.613882 817.773633 20.275876 0.000000 0.142670
665.000000 47.518000 6.000000 11.000000 3.000000 96.253648 -11.659156 1197.089791 820.572482 21.046131 0.000000 0.156636
666.000000 47.767000 1.000000 12.000000 3.000000 90.002527 -45.521962 2071.085106 940.932242 20.936373 0.000000 0.167751
667.000000 48.445000 2.000000 12.000000 3.000000 93.214486 -39.292364 1855.697137 862.895280 20.642645 0.000000 0.091941
668.000000 47.896000 4.000000 12.000000 3.000000 97.285587 -26.619498 1514.426207 787.083867 20.878796 0.000000 0.107021
669.000000 46.838000 5.000000 12.000000 3.000000 98.185205 -20.478435 1376.948288 775.743764 21.350346 0.000000 0.131467
670.000000 45.544000 2.000000 13.000000 3.000000 94.594254 -40.904659 1907.468557 826.567726 21.956951 0.000000 0.098724
671.000000 45.656000 3.000000 13.000000 3.000000 97.017918 -34.923684 1726.494893 779.405260 21.902608 0.000000 0.072174
673.000000 49.790000 3.000000 4.000000 4.000000 46.897277 -5.546034 1079.508175 1953.011690 20.102759 0.000000 0.155357
675.000000 53.669000 1.000000 5.000000 4.000000 49.571447 -27.133685 1526.566310 1971.314966 18.647792 0.000000 0.209033
676.000000 55.054000 2.000000 5.000000 4.000000 53.708783 -18.241165 1329.724618 1773.182072 18.178510 0.000000 0.115803
677.000000 54.021000 3.000000 5.000000 4.000000 56.433524 -10.069243 1166.121175 1666.353317 18.526108 0.000000 0.056432
678.000000 51.430000 4.000000 5.000000 4.000000 57.999039 -2.818749 1027.992627 1614.383132 19.459059 0.000000 0.016613
679.000000 48.054000 5.000000 5.000000 4.000000 58.715375 3.465650 909.818671 1596.199867 20.825779 0.000000 0.016031
681.000000 55.273000 1.000000 6.000000 4.000000 57.853102 -30.385897 1606.102051 1725.090476 18.104317 0.000000 0.166405
682.000000 55.294000 3.000000 6.000000 4.000000 64.124093 -14.144786 1246.240990 1479.384359 18.097063 0.000000 0.071356
683.000000 49.811000 5.000000 6.000000 4.000000 66.028680 -0.638856 987.001332 1419.581424 20.088847 0.000000 0.061806
685.000000 51.934000 0.000000 7.000000 4.000000 59.622495 -41.071520 1912.969619 1777.846425 19.266621 0.000000 0.260423
686.000000 54.657000 1.000000 7.000000 4.000000 64.368430 -33.181948 1678.823024 1558.015751 18.306281 0.000000 0.155368
687.000000 55.516000 2.000000 7.000000 4.000000 67.930840 -25.330984 1484.474243 1423.781926 18.022643 0.000000 0.109817
688.000000 54.761000 3.000000 7.000000 4.000000 70.310155 -17.800537 1320.571410 1345.519703 18.270920 0.000000 0.100098
689.000000 52.813000 4.000000 7.000000 4.000000 71.644343 -10.808515 1180.479884 1304.560315 18.944882 0.000000 0.101594
690.000000 50.115000 5.000000 7.000000 4.000000 72.143337 -4.481800 1059.362199 1288.798286 19.964820 0.000000 0.102684
691.000000 47.041000 6.000000 7.000000 4.000000 72.028053 1.138631 953.608143 1290.195644 21.269756 0.000000 0.101062
693.000000 52.920000 1.000000 8.000000 4.000000 69.560608 -35.600636 1745.569103 1434.316438 18.905295 0.000000 0.152266
694.000000 53.213000 3.000000 8.000000 4.000000 75.302518 -21.072688 1389.718059 1243.542480 18.800607 0.000000 0.115380
695.000000 49.453000 5.000000 8.000000 4.000000 77.229807 -8.056170 1127.339429 1187.370695 20.230064 0.000000 0.126700
697.000000 48.757000 0.000000 9.000000 4.000000 69.567992 -44.508416 2032.982234 1503.232682 20.518715 0.000000 0.242827
698.000000 50.676000 1.000000 9.000000 4.000000 73.757064 -37.706426 1807.047593 1337.341077 19.740804 0.000000 0.150946
699.000000 51.442000 2.000000 9.000000 4.000000 77.031468 -30.804830 1616.723137 1229.572295 19.446720 0.000000 0.118095
700.000000 51.149000 3.000000 9.000000 4.000000 79.358376 -24.000349 1454.204936 1162.371525 19.557828 0.000000 0.120414
701.000000 49.988000 4.000000 9.000000 4.000000 80.793466 -17.473841 1313.814122 1123.887078 20.011656 0.000000 0.131126
702.000000 48.191000 5.000000 9.000000 4.000000 81.455501 -11.364221 1191.319653 1105.941716 20.757949 0.000000 0.139199
703.000000 45.981000 6.000000 9.000000 4.000000 81.493772 -5.756715 1083.504563 1102.788806 21.755818 0.000000 0.142599
704.000000 48.258000 1.000000 10.000000 4.000000 77.196285 -39.551622 1863.858398 1258.231139 20.728535 0.000000 0.150906
705.000000 48.867000 3.000000 10.000000 4.000000 82.681008 -26.622115 1514.487719 1095.633102 20.469347 0.000000 0.118848
706.000000 46.587000 5.000000 10.000000 4.000000 84.970740 -14.414978 1251.645335 1038.796229 21.471394 0.000000 0.143779
707.000000 45.842000 1.000000 11.000000 4.000000 80.052141 -41.178573 1916.513659 1191.803387 21.820007 0.000000 0.152772
708.000000 46.544000 2.000000 11.000000 4.000000 83.114218 -35.086238 1731.046147 1099.837672 21.490267 0.000000 0.112306
709.000000 46.543000 3.000000 11.000000 4.000000 85.427706 -28.974130 1570.964545 1039.387051 21.490312 0.000000 0.113340
710.000000 45.926000 4.000000 11.000000 4.000000 87.004707 -22.978834 1431.390653 1002.171541 21.778738 0.000000 0.128562
#UB matrix in q= (UB) B0 G* 
#[[-0.353900699 -0.804826594  0.47460873 ]
# [ 0.773395424 -0.537929508 -0.335495034]
# [ 0.525940884  0.24857686   0.813850576]]
#B0 matrix in q= UB (B0) G*
#[[ 0.19670273 -0.          0.03056101]
# [ 0.          0.19187965 -0.        ]
# [ 0.          0.          0.18806537]]
#UBB0 matrix in q= (UB B0) G* i.e. recip. basis vectors are columns in LT frame: astar = UBB0[:,0], bstar = UBB0[:,1], cstar = UBB0[:,2]. (abcstar as columns on xyzlab1, xlab1 = ui, ui = unit vector along incident beam)
#[[-0.06961323 -0.15442985  0.07844191]
# [ 0.15212899 -0.10321773 -0.03945926]
# [ 0.10345401  0.04769684  0.16913039]]
#Euler angles phi theta psi (deg)
#[115.331  35.583 125.21 ]
#deviatoric strain in direct crystal frame (10-3 unit)
#[[ 3.01  0.3  -0.52]
# [ 0.3   3.46 -0.68]
# [-0.52 -0.68 -6.47]]
#deviatoric strain in sample2 frame (10-3 unit)
#[[-3.88  2.69 -3.51]
# [ 2.69  1.85  1.16]
# [-3.52  1.16  2.03]]
#new lattice parameters
#[ 5.1505     5.2139711  5.3163712 90.0458381 99.2629173 89.9662107]
#CCDLabel
#sCMOS
#DetectorParameters
#[79.0, 975.0, 941.0, 0.0, 0.0]
#pixelsize
#0.0734
#Frame dimensions
#[2018, 2016]
#
