#Strain and Orientation Refinement from experimental file: /home/micha/LaueProjects/DepthEffects/testZrO2_13.cor
#File created at Wed Jun 28 14:18:26 2023 with indexingSpotsSet.py
#Number of indexed spots: 537
#Element
#ZrO2
#grainIndex
#G_0
#Mean Deviation(pixel): 0.115
##spot_index intensity h k l 2theta Chi Xexp Yexp Energy GrainIndex PixDev
2.000000 46.002000 2.000000 1.000000 -5.000000 115.648508 -45.419479 2067.170517 204.731850 7.246075 0.000000 0.206236
6.000000 45.851000 7.000000 4.000000 -15.000000 121.146947 -37.506261 1801.056515 121.037285 21.808234 0.000000 0.104918
7.000000 46.308000 8.000000 4.000000 -15.000000 127.848317 -35.844253 1752.512313 -90.707318 21.590928 0.000000 0.133376
15.000000 46.299000 4.000000 3.000000 -14.000000 102.578362 -45.327179 2063.657056 599.415475 21.603754 0.000000 0.159710
16.000000 48.212000 5.000000 3.000000 -14.000000 110.649404 -44.532027 2033.854717 372.006417 20.743698 0.000000 0.163832
17.000000 49.541000 6.000000 3.000000 -14.000000 118.479560 -43.587243 1999.484345 134.893977 20.184401 0.000000 0.186515
21.000000 46.940000 5.000000 4.000000 -14.000000 109.016182 -37.992039 1815.652452 470.324143 21.306797 0.000000 0.056457
22.000000 48.267000 3.000000 2.000000 -7.000000 116.615157 -36.504632 1771.550530 270.039165 10.359027 0.000000 0.063583
23.000000 49.058000 7.000000 4.000000 -14.000000 123.901583 -34.733770 1721.200406 60.888603 20.381704 0.000000 0.089225
24.000000 49.353000 4.000000 2.000000 -7.000000 130.819228 -32.594487 1663.173010 -162.451789 10.129065 0.000000 0.119180
28.000000 46.660000 6.000000 5.000000 -14.000000 114.117486 -30.083278 1598.486371 384.146663 21.432783 0.000000 0.020013
29.000000 47.483000 7.000000 5.000000 -14.000000 121.112438 -27.858810 1543.878193 206.264551 21.059131 0.000000 0.012923
30.000000 47.838000 8.000000 5.000000 -14.000000 127.730433 -25.226669 1482.077692 20.436406 20.900938 0.000000 0.036095
31.000000 47.776000 9.000000 5.000000 -14.000000 133.919881 -22.078334 1411.563770 -177.477707 20.926235 0.000000 0.057925
32.000000 47.358000 10.000000 5.000000 -14.000000 139.633688 -18.271375 1330.353871 -392.374817 21.109079 0.000000 0.071708
35.000000 45.652000 7.000000 6.000000 -14.000000 117.831718 -21.857641 1406.743503 328.759859 21.904989 0.000000 0.059974
36.000000 46.071000 4.000000 3.000000 -7.000000 124.133527 -18.943154 1344.403805 169.596788 10.851925 0.000000 0.044859
37.000000 46.097000 9.000000 6.000000 -14.000000 130.006226 -15.544994 1274.393222 3.384859 21.689451 0.000000 0.032993
38.000000 45.786000 5.000000 3.000000 -7.000000 135.402693 -11.562787 1195.203081 -173.141485 10.917761 0.000000 0.027585
41.000000 48.619000 3.000000 2.000000 -13.000000 96.854058 -50.950995 2301.790834 735.645301 20.574250 0.000000 0.285335
42.000000 51.367000 4.000000 2.000000 -13.000000 105.824547 -50.632618 2286.824016 460.055261 19.470671 0.000000 0.290482
45.000000 47.597000 3.000000 3.000000 -13.000000 96.016380 -44.501973 2032.744281 781.956255 21.016781 0.000000 0.147546
46.000000 50.285000 4.000000 3.000000 -13.000000 104.796670 -43.627555 2000.928654 548.230546 19.890420 0.000000 0.131568
47.000000 52.264000 5.000000 3.000000 -13.000000 113.356965 -42.587415 1964.267100 309.696328 19.134553 0.000000 0.139271
48.000000 53.527000 6.000000 3.000000 -13.000000 121.606171 -41.330439 1921.561205 59.006843 18.680739 0.000000 0.166889
52.000000 46.113000 3.000000 4.000000 -13.000000 94.535575 -38.411458 1828.410836 832.038808 21.694376 0.000000 0.087600
53.000000 48.723000 4.000000 4.000000 -13.000000 103.038314 -37.067781 1788.043976 628.638645 20.529193 0.000000 0.054715
54.000000 50.671000 5.000000 4.000000 -13.000000 111.314535 -35.487727 1742.365452 425.250045 19.736952 0.000000 0.032584
55.000000 51.949000 6.000000 4.000000 -13.000000 119.272655 -33.606087 1690.253028 216.615169 19.249216 0.000000 0.044568
56.000000 52.587000 7.000000 4.000000 -13.000000 126.833978 -31.332916 1630.244380 -2.812270 19.013326 0.000000 0.074968
57.000000 52.652000 8.000000 4.000000 -13.000000 133.932510 -28.541821 1560.397706 -239.370016 18.988105 0.000000 0.104423
60.000000 46.782000 4.000000 5.000000 -13.000000 100.698113 -31.065126 1623.369043 703.624748 21.382075 0.000000 0.073688
61.000000 48.693000 5.000000 5.000000 -13.000000 108.630365 -29.082438 1573.625671 525.804517 20.540117 0.000000 0.054558
62.000000 49.985000 6.000000 5.000000 -13.000000 116.240059 -26.761450 1517.766730 346.819233 20.006704 0.000000 0.035325
63.000000 50.683000 7.000000 5.000000 -13.000000 123.447336 -24.017479 1454.590559 162.649657 19.728810 0.000000 0.023954
64.000000 50.843000 8.000000 5.000000 -13.000000 130.182752 -20.740092 1382.558608 -30.971105 19.664902 0.000000 0.032373
65.000000 50.538000 9.000000 5.000000 -13.000000 136.384743 -16.786147 1299.668484 -238.893912 19.781985 0.000000 0.046361
69.000000 46.436000 5.000000 6.000000 -13.000000 105.491167 -23.410445 1440.987099 615.937425 21.539861 0.000000 0.100741
70.000000 47.739000 6.000000 6.000000 -13.000000 112.728046 -20.816277 1384.195753 458.673193 20.949500 0.000000 0.088317
71.000000 48.497000 7.000000 6.000000 -13.000000 119.566669 -17.814108 1320.852657 299.657929 20.619570 0.000000 0.072186
72.000000 48.756000 8.000000 6.000000 -13.000000 125.938862 -14.320526 1249.754643 135.758667 20.507984 0.000000 0.053835
73.000000 48.578000 9.000000 6.000000 -13.000000 131.784727 -10.237577 1169.384733 -36.362353 20.581263 0.000000 0.035293
74.000000 48.035000 10.000000 6.000000 -13.000000 137.050262 -5.456078 1077.802689 -220.478387 20.812436 0.000000 0.018347
75.000000 47.200000 11.000000 6.000000 -13.000000 141.684790 0.133813 972.486333 -421.085060 21.179540 0.000000 0.004880
77.000000 46.123000 7.000000 7.000000 -13.000000 115.408071 -12.602344 1215.626511 417.130945 21.682386 0.000000 0.110072
78.000000 46.479000 8.000000 7.000000 -13.000000 121.438766 -9.069232 1146.801665 274.697487 21.514461 0.000000 0.091556
79.000000 46.428000 9.000000 7.000000 -13.000000 126.966674 -5.047781 1070.068052 127.781225 21.536112 0.000000 0.068817
80.000000 46.032000 10.000000 7.000000 -13.000000 131.945101 -0.477999 983.979359 -26.267649 21.719826 0.000000 0.042916
83.000000 49.487000 1.000000 1.000000 -6.000000 89.218168 -50.154200 2264.710783 963.923361 10.108149 0.000000 0.273230
84.000000 53.339000 3.000000 2.000000 -12.000000 99.014824 -49.759390 2246.792727 676.674880 18.752913 0.000000 0.254564
85.000000 56.305000 2.000000 1.000000 -6.000000 108.647905 -49.285320 2225.659248 384.171484 8.881144 0.000000 0.263649
88.000000 48.262000 2.000000 3.000000 -12.000000 88.342085 -43.662086 2002.167399 984.062458 20.730246 0.000000 0.154855
89.000000 51.996000 1.000000 1.000000 -4.000000 97.896846 -42.706030 1968.385531 737.844022 6.412752 0.000000 0.118275
90.000000 54.895000 4.000000 3.000000 -12.000000 107.281758 -41.567585 1929.490438 493.440153 18.219476 0.000000 0.102066
91.000000 56.896000 5.000000 3.000000 -12.000000 116.369461 -40.190277 1884.226162 242.533697 17.575848 0.000000 0.114647
92.000000 58.015000 2.000000 1.000000 -4.000000 125.050937 -38.492357 1830.888727 -23.692375 5.744885 0.000000 0.147593
95.000000 46.507000 1.000000 2.000000 -6.000000 86.821387 -37.553614 1802.470912 1016.394116 10.756845 0.000000 0.110515
96.000000 50.088000 3.000000 4.000000 -12.000000 96.034581 -36.130173 1760.715802 800.127407 19.972172 0.000000 0.076336
97.000000 52.900000 2.000000 2.000000 -6.000000 105.067455 -34.455849 1713.496072 589.600626 9.453695 0.000000 0.042994
98.000000 54.884000 5.000000 4.000000 -12.000000 113.794893 -32.461693 1659.663852 378.525963 18.221284 0.000000 0.011037
99.000000 56.047000 3.000000 2.000000 -6.000000 122.106210 -30.052945 1597.725579 160.790240 8.920483 0.000000 0.029498
100.000000 56.451000 7.000000 4.000000 -12.000000 129.907456 -27.097201 1525.701265 -70.148361 17.711122 0.000000 0.062324
101.000000 56.199000 4.000000 2.000000 -6.000000 137.119038 -23.406941 1440.908926 -321.933896 8.894512 0.000000 0.087838
104.000000 47.757000 3.000000 5.000000 -12.000000 93.596775 -30.138119 1599.863018 862.770924 20.948309 0.000000 0.097967
105.000000 50.467000 4.000000 5.000000 -12.000000 102.212313 -28.071584 1549.001832 676.997686 19.820560 0.000000 0.085163
106.000000 52.425000 5.000000 5.000000 -12.000000 110.517920 -25.653898 1491.919261 494.159308 19.077272 0.000000 0.069492
107.000000 53.634000 6.000000 5.000000 -12.000000 118.404811 -22.798506 1427.399432 309.604161 18.644951 0.000000 0.051701
108.000000 54.142000 7.000000 5.000000 -12.000000 125.778020 -19.393583 1353.887567 118.723478 18.467712 0.000000 0.035991
109.000000 54.036000 8.000000 5.000000 -12.000000 132.555131 -15.296149 1269.363048 -83.439507 18.502305 0.000000 0.030009
110.000000 53.418000 9.000000 5.000000 -12.000000 138.661868 -10.328598 1171.150832 -302.629107 18.714735 0.000000 0.031534
113.000000 47.741000 2.000000 3.000000 -6.000000 98.924556 -22.442497 1419.550692 758.134535 10.476847 0.000000 0.121348
114.000000 49.665000 5.000000 6.000000 -12.000000 106.785090 -19.769861 1361.850366 596.019638 20.139198 0.000000 0.114216
115.000000 50.914000 2.000000 2.000000 -4.000000 114.235668 -16.681501 1297.525011 435.202214 6.547518 0.000000 0.100872
116.000000 51.526000 7.000000 6.000000 -12.000000 121.185691 -13.095081 1225.364129 272.147095 19.407005 0.000000 0.082159
117.000000 51.570000 4.000000 3.000000 -6.000000 127.557064 -8.915587 1143.843185 103.304714 9.694277 0.000000 0.059402
118.000000 51.133000 3.000000 2.000000 -4.000000 133.282438 -4.039883 1051.014724 -75.150632 6.517519 0.000000 0.034008
119.000000 50.309000 5.000000 3.000000 -6.000000 138.302826 1.631149 944.350775 -267.615936 9.935688 0.000000 0.008376
123.000000 46.737000 5.000000 7.000000 -12.000000 102.805744 -14.734119 1258.045658 688.040255 21.402578 0.000000 0.141870
124.000000 48.016000 6.000000 7.000000 -12.000000 109.833508 -11.563715 1195.221250 544.756239 20.829822 0.000000 0.132962
125.000000 48.722000 7.000000 7.000000 -12.000000 116.387466 -7.965390 1125.600366 401.814225 20.525495 0.000000 0.116982
126.000000 48.910000 8.000000 7.000000 -12.000000 122.397193 -3.881065 1048.017053 256.467007 20.444633 0.000000 0.094704
127.000000 48.651000 9.000000 7.000000 -12.000000 127.804642 0.744041 961.022487 105.930486 20.551785 0.000000 0.067115
128.000000 48.024000 10.000000 7.000000 -12.000000 132.563528 5.951727 862.793645 -52.796587 20.818621 0.000000 0.036600
129.000000 47.108000 11.000000 7.000000 -12.000000 136.639327 11.756445 751.004166 -223.135876 21.222230 0.000000 0.026206
130.000000 45.976000 12.000000 7.000000 -12.000000 140.010825 18.127654 622.637748 -409.185389 21.743885 0.000000 0.066889
131.000000 45.837000 7.000000 8.000000 -12.000000 111.564433 -3.769627 1045.914334 514.715334 21.819765 0.000000 0.140362
132.000000 46.154000 2.000000 2.000000 -3.000000 117.255782 0.135089 972.462359 386.533037 5.416872 0.000000 0.120786
133.000000 46.060000 9.000000 8.000000 -12.000000 122.397043 4.457688 891.093511 255.968581 21.709663 0.000000 0.094686
134.000000 45.621000 5.000000 4.000000 -6.000000 126.951524 9.211590 800.454926 120.803549 10.958576 0.000000 0.063168
138.000000 49.287000 1.000000 2.000000 -11.000000 80.214503 -49.340410 2228.094122 1225.895840 20.301345 0.000000 0.284878
139.000000 54.617000 2.000000 2.000000 -11.000000 90.892920 -48.866006 2207.302622 915.499561 18.316790 0.000000 0.239350
140.000000 58.953000 3.000000 2.000000 -11.000000 101.513118 -48.295319 2182.807522 611.473438 16.966605 0.000000 0.221111
141.000000 62.116000 4.000000 2.000000 -11.000000 111.894529 -47.595881 2153.522480 299.575445 16.099825 0.000000 0.235444
144.000000 47.860000 1.000000 3.000000 -11.000000 79.342180 -42.807494 1971.920963 1217.085159 20.907695 0.000000 0.179528
145.000000 52.972000 2.000000 3.000000 -11.000000 89.714476 -41.767457 1936.218706 948.191187 18.886465 0.000000 0.128471
146.000000 57.159000 3.000000 3.000000 -11.000000 100.014447 -40.527814 1895.146144 690.951450 17.500010 0.000000 0.088538
147.000000 60.253000 4.000000 3.000000 -11.000000 110.066506 -39.026583 1847.393042 434.914511 16.598552 0.000000 0.071442
148.000000 62.202000 5.000000 3.000000 -11.000000 119.712400 -37.174099 1791.185204 170.149435 16.076001 0.000000 0.090824
149.000000 63.060000 6.000000 3.000000 -11.000000 128.820316 -34.836423 1724.059172 -114.075374 15.855104 0.000000 0.128660
152.000000 45.841000 1.000000 4.000000 -11.000000 77.839035 -36.684012 1776.777930 1230.217332 21.829868 0.000000 0.135889
153.000000 50.676000 2.000000 4.000000 -11.000000 87.791698 -35.179435 1733.663684 991.777693 19.743516 0.000000 0.102495
154.000000 54.672000 3.000000 4.000000 -11.000000 97.652702 -33.409348 1684.937296 767.756910 18.297147 0.000000 0.074330
155.000000 57.677000 4.000000 4.000000 -11.000000 107.253451 -31.301147 1629.426694 549.789327 17.341029 0.000000 0.046143
156.000000 59.636000 5.000000 4.000000 -11.000000 116.438318 -28.755472 1565.609002 330.544551 16.768761 0.000000 0.018501
157.000000 60.590000 6.000000 4.000000 -11.000000 125.072055 -25.634405 1491.468694 102.855569 16.502654 0.000000 0.023917
158.000000 60.649000 7.000000 4.000000 -11.000000 133.040523 -21.744625 1404.280837 -141.080952 16.484661 0.000000 0.050658
159.000000 59.967000 8.000000 4.000000 -11.000000 140.244118 -16.815439 1300.268873 -410.626411 16.670534 0.000000 0.067048
162.000000 47.922000 2.000000 5.000000 -11.000000 85.313114 -29.201917 1576.567794 1042.087084 20.879410 0.000000 0.113760
163.000000 51.699000 3.000000 5.000000 -11.000000 94.664683 -27.051205 1524.611486 842.392787 19.350842 0.000000 0.108721
164.000000 54.596000 4.000000 5.000000 -11.000000 103.748446 -24.536850 1466.331802 651.521912 18.321137 0.000000 0.100052
165.000000 56.558000 5.000000 5.000000 -11.000000 112.416180 -21.570748 1400.499555 463.592326 17.682867 0.000000 0.085664
166.000000 57.611000 6.000000 5.000000 -11.000000 120.536335 -18.040230 1325.544904 273.268350 17.357382 0.000000 0.066451
167.000000 57.843000 7.000000 5.000000 -11.000000 127.995816 -13.803380 1239.430550 75.230069 17.285779 0.000000 0.045204
168.000000 57.381000 8.000000 5.000000 -11.000000 134.697011 -8.687910 1139.463749 -136.332374 17.423072 0.000000 0.025939
169.000000 56.370000 9.000000 5.000000 -11.000000 140.551787 -2.500938 1022.009673 -368.303511 17.734313 0.000000 0.010461
172.000000 48.441000 3.000000 6.000000 -11.000000 91.279766 -21.469228 1398.295992 915.163044 20.654180 0.000000 0.133101
173.000000 51.213000 4.000000 6.000000 -11.000000 99.826275 -18.719060 1339.704629 744.171844 19.532964 0.000000 0.134290
174.000000 53.165000 5.000000 6.000000 -11.000000 107.969385 -15.546203 1274.417702 578.670544 18.813203 0.000000 0.126951
175.000000 54.308000 6.000000 6.000000 -11.000000 115.587206 -11.869780 1201.217950 414.360855 18.414815 0.000000 0.111407
176.000000 54.709000 7.000000 6.000000 -11.000000 122.575361 -7.598206 1118.574010 247.241631 18.277687 0.000000 0.088706
177.000000 54.470000 8.000000 6.000000 -11.000000 128.846839 -2.634949 1024.532122 73.270148 18.355822 0.000000 0.060236
178.000000 53.712000 9.000000 6.000000 -11.000000 134.330228 3.107977 916.559698 -111.969519 18.613418 0.000000 0.028569
179.000000 52.555000 10.000000 6.000000 -11.000000 138.968647 9.685094 791.313823 -313.649633 19.022199 0.000000 0.025473
182.000000 47.706000 4.000000 7.000000 -11.000000 95.711352 -13.758860 1238.543933 830.176121 20.970790 0.000000 0.152737
183.000000 49.630000 5.000000 7.000000 -11.000000 103.350499 -10.526194 1174.988352 681.200942 20.154810 0.000000 0.151107
184.000000 50.845000 6.000000 7.000000 -11.000000 110.500362 -6.865468 1104.587797 535.675969 19.670611 0.000000 0.140153
185.000000 51.399000 7.000000 7.000000 -11.000000 117.068326 -2.722137 1026.173521 390.361634 19.456552 0.000000 0.120601
186.000000 51.370000 8.000000 7.000000 -11.000000 122.979656 1.953227 938.294639 242.183500 19.465370 0.000000 0.093338
187.000000 50.857000 9.000000 7.000000 -11.000000 128.177492 7.195016 839.127526 88.007523 19.660221 0.000000 0.059806
188.000000 49.960000 10.000000 7.000000 -11.000000 132.622825 13.008590 726.347909 -75.584203 20.011955 0.000000 0.028918
189.000000 48.774000 11.000000 7.000000 -11.000000 136.295548 19.354074 596.946391 -252.551685 20.497213 0.000000 0.052832
192.000000 46.095000 5.000000 8.000000 -11.000000 98.738817 -6.339139 1094.568233 774.539738 21.702876 0.000000 0.163405
193.000000 47.359000 6.000000 8.000000 -11.000000 105.461839 -2.783392 1027.326845 642.937392 21.120552 0.000000 0.157085
194.000000 48.041000 7.000000 8.000000 -11.000000 111.658211 1.158352 953.237528 513.512172 20.818642 0.000000 0.141661
195.000000 48.198000 8.000000 8.000000 -11.000000 117.264232 5.508787 871.198056 383.760105 20.748394 0.000000 0.117757
196.000000 47.909000 9.000000 8.000000 -11.000000 122.233763 10.276702 779.856243 251.270360 20.871739 0.000000 0.086087
197.000000 47.257000 10.000000 8.000000 -11.000000 126.538286 15.449683 677.534830 113.571264 21.158513 0.000000 0.048761
198.000000 46.321000 11.000000 8.000000 -11.000000 130.166966 20.987091 562.127547 -32.025411 21.584512 0.000000 0.030295
203.000000 47.367000 0.000000 1.000000 -5.000000 69.592537 -48.509414 2191.932218 1545.425150 10.564031 0.000000 0.324908
204.000000 54.585000 1.000000 2.000000 -10.000000 81.157054 -47.952212 2168.342802 1191.011610 18.330710 0.000000 0.251566
205.000000 60.827000 1.000000 1.000000 -5.000000 92.849345 -47.280729 2140.582098 862.037392 8.223234 0.000000 0.202230
206.000000 65.704000 3.000000 2.000000 -10.000000 104.424287 -46.456046 2107.436390 539.160263 15.222716 0.000000 0.184866
208.000000 45.788000 0.000000 3.000000 -10.000000 68.792740 -41.938199 1941.999647 1502.423519 21.857692 0.000000 0.220839
209.000000 52.630000 1.000000 3.000000 -10.000000 79.975175 -40.811876 1904.421688 1192.381611 19.012494 0.000000 0.156207
210.000000 58.574000 2.000000 3.000000 -10.000000 91.255155 -39.468216 1861.226204 910.452839 17.080097 0.000000 0.104490
211.000000 63.265000 3.000000 3.000000 -10.000000 102.398114 -37.839609 1811.051793 641.402462 15.810460 0.000000 0.060671
212.000000 66.506000 4.000000 3.000000 -10.000000 113.176964 -35.828375 1752.058479 372.668776 15.037224 0.000000 0.040187
213.000000 68.274000 5.000000 3.000000 -10.000000 123.392345 -33.288990 1681.697158 92.252425 14.645408 0.000000 0.069226
214.000000 68.699000 6.000000 3.000000 -10.000000 132.882170 -29.997315 1596.331555 -213.127060 14.552996 0.000000 0.109465
217.000000 49.948000 1.000000 4.000000 -10.000000 78.069654 -34.215824 1706.883459 1216.002121 20.034888 0.000000 0.125720
218.000000 55.518000 1.000000 2.000000 -5.000000 88.802051 -32.348625 1656.684139 967.641081 9.010757 0.000000 0.101896
219.000000 59.975000 3.000000 4.000000 -10.000000 99.373950 -30.125078 1599.535512 735.577278 16.679060 0.000000 0.082819
220.000000 63.138000 2.000000 2.000000 -5.000000 109.568907 -27.441494 1533.887234 509.900326 7.920316 0.000000 0.061698
221.000000 64.974000 5.000000 4.000000 -10.000000 119.191090 -24.155027 1457.690751 281.997924 15.390447 0.000000 0.039427
222.000000 65.583000 3.000000 2.000000 -5.000000 128.073352 -20.067783 1368.181684 43.389181 7.622833 0.000000 0.028712
223.000000 65.149000 7.000000 4.000000 -10.000000 136.074345 -14.907829 1261.537249 -215.355203 15.345452 0.000000 0.037756
226.000000 46.796000 1.000000 5.000000 -10.000000 75.645100 -28.256889 1553.480548 1253.706583 21.385837 0.000000 0.119288
227.000000 51.950000 2.000000 5.000000 -10.000000 85.755810 -26.021822 1500.451327 1029.883082 19.260895 0.000000 0.120933
228.000000 56.139000 3.000000 5.000000 -10.000000 95.688248 -23.411044 1441.000449 824.177438 17.820356 0.000000 0.122438
229.000000 59.202000 4.000000 5.000000 -10.000000 105.242654 -20.335249 1373.886274 628.223021 16.895483 0.000000 0.116154
230.000000 61.893000 6.000000 5.000000 -10.000000 122.508552 -12.309861 1209.864147 238.958333 16.155977 0.000000 0.077885
231.000000 61.737000 7.000000 5.000000 -10.000000 129.928201 -7.054685 1108.195188 33.306019 16.194953 0.000000 0.049490
232.000000 60.815000 8.000000 5.000000 -10.000000 136.382751 -0.738257 988.868844 -188.632988 16.439003 0.000000 0.018061
233.000000 59.320000 9.000000 5.000000 -10.000000 141.776465 6.790131 846.847702 -435.223598 16.852290 0.000000 0.022464
234.000000 48.135000 1.000000 3.000000 -5.000000 82.363491 -20.491161 1377.220701 1095.053982 10.394417 0.000000 0.131077
235.000000 52.038000 3.000000 6.000000 -10.000000 91.642802 -17.664558 1317.755881 908.604223 19.226501 0.000000 0.144027
236.000000 54.979000 2.000000 3.000000 -5.000000 100.557021 -14.409100 1251.527623 733.897836 9.097566 0.000000 0.146515
237.000000 56.910000 5.000000 6.000000 -10.000000 108.941439 -10.645740 1177.312455 565.163386 17.574747 0.000000 0.137782
238.000000 57.877000 3.000000 3.000000 -5.000000 116.653639 -6.286792 1093.572875 397.502644 8.639491 0.000000 0.118611
239.000000 57.987000 7.000000 6.000000 -10.000000 123.576998 -1.242810 998.349692 226.366349 17.244086 0.000000 0.090268
240.000000 57.389000 4.000000 3.000000 -5.000000 129.620683 4.562794 889.106813 47.124409 8.710989 0.000000 0.054669
241.000000 56.243000 9.000000 6.000000 -10.000000 134.718920 11.168542 762.502022 -145.359507 17.775707 0.000000 0.024875
242.000000 54.699000 5.000000 3.000000 -5.000000 138.832679 18.540106 614.039046 -357.233440 9.138205 0.000000 0.062743
245.000000 47.899000 3.000000 7.000000 -10.000000 87.472700 -12.783306 1219.198303 989.713251 20.889944 0.000000 0.151477
246.000000 50.699000 4.000000 7.000000 -10.000000 95.778910 -9.490458 1154.925641 830.562719 19.733164 0.000000 0.160756
247.000000 52.639000 5.000000 7.000000 -10.000000 103.599967 -5.770253 1083.761450 679.291607 19.002787 0.000000 0.158051
248.000000 53.743000 6.000000 7.000000 -10.000000 110.812049 -1.571856 1004.534542 531.741146 18.609881 0.000000 0.144047
249.000000 54.089000 7.000000 7.000000 -10.000000 117.315698 3.148702 915.792405 384.269136 18.488640 0.000000 0.119634
250.000000 53.791000 8.000000 7.000000 -10.000000 123.037404 8.418512 815.711344 233.422856 18.589321 0.000000 0.085829
251.000000 52.976000 9.000000 7.000000 -10.000000 127.929847 14.234309 701.969817 75.659495 18.873628 0.000000 0.045594
252.000000 51.772000 10.000000 7.000000 -10.000000 131.972253 20.547809 571.566106 -92.935700 19.311596 0.000000 0.035787
253.000000 50.290000 11.000000 7.000000 -10.000000 135.171491 27.255153 420.549535 -276.981796 19.879445 0.000000 0.096578
256.000000 46.529000 2.000000 4.000000 -5.000000 91.087338 -5.399066 1076.722068 920.481009 10.751694 0.000000 0.164018
257.000000 48.451000 5.000000 8.000000 -10.000000 98.396898 -1.803389 1008.887642 782.047497 20.647573 0.000000 0.166862
258.000000 49.656000 3.000000 4.000000 -5.000000 105.165436 2.172311 934.173844 649.064612 10.072011 0.000000 0.158216
259.000000 50.197000 7.000000 8.000000 -10.000000 111.308554 6.546950 851.478277 518.429596 19.924521 0.000000 0.138825
260.000000 50.159000 4.000000 4.000000 -5.000000 116.765497 11.324849 759.449710 387.358264 9.968702 0.000000 0.109331
261.000000 49.643000 9.000000 8.000000 -10.000000 121.499508 16.488911 656.413674 253.171559 20.142814 0.000000 0.070535
262.000000 48.752000 5.000000 4.000000 -5.000000 125.497372 21.994473 540.269654 113.107191 10.254760 0.000000 0.028711
263.000000 47.582000 11.000000 8.000000 -10.000000 128.768590 27.766166 408.346388 -35.872572 21.012698 0.000000 0.054057
264.000000 46.217000 6.000000 4.000000 -5.000000 131.344065 33.700260 257.193883 -197.305673 10.816184 0.000000 0.128734
265.000000 45.727000 6.000000 9.000000 -10.000000 99.813436 5.193553 877.171650 754.064319 21.876885 0.000000 0.164147
266.000000 46.420000 7.000000 9.000000 -10.000000 105.639929 9.237156 799.962005 635.725862 21.547750 0.000000 0.150007
267.000000 46.599000 8.000000 9.000000 -10.000000 110.868043 13.583288 714.949295 518.884107 21.462692 0.000000 0.125733
268.000000 46.342000 9.000000 9.000000 -10.000000 115.467047 18.211759 620.887658 401.362008 21.580109 0.000000 0.091663
269.000000 45.730000 10.000000 9.000000 -10.000000 119.426261 23.085157 516.251100 281.041842 21.867344 0.000000 0.048325
274.000000 52.313000 0.000000 2.000000 -9.000000 69.473440 -47.017781 2129.902656 1532.076014 19.130778 0.000000 0.295568
275.000000 61.077000 1.000000 2.000000 -9.000000 82.255722 -46.241284 2098.969343 1152.629402 16.382202 0.000000 0.215683
276.000000 68.458000 2.000000 2.000000 -9.000000 95.155645 -45.285739 2062.083326 802.975081 14.612689 0.000000 0.161751
277.000000 73.915000 3.000000 2.000000 -9.000000 107.840878 -44.081921 2017.343397 458.770531 13.530877 0.000000 0.145922
278.000000 77.212000 4.000000 2.000000 -9.000000 120.004294 -42.520257 1961.942257 97.751799 12.950579 0.000000 0.176673
281.000000 50.122000 0.000000 1.000000 -3.000000 68.386452 -39.839367 1872.988138 1496.359857 6.655939 0.000000 0.198942
282.000000 58.335000 1.000000 3.000000 -9.000000 80.644812 -38.388963 1827.722801 1167.220529 17.153179 0.000000 0.135607
283.000000 65.300000 2.000000 3.000000 -9.000000 92.977061 -36.629700 1775.192628 871.251050 15.320457 0.000000 0.087493
284.000000 73.815000 4.000000 3.000000 -9.000000 116.616549 -31.710466 1640.004528 306.995836 13.547678 0.000000 0.009464
285.000000 75.193000 5.000000 3.000000 -9.000000 127.368865 -28.153430 1550.978098 8.738865 13.297070 0.000000 0.051808
287.000000 47.161000 0.000000 4.000000 -9.000000 66.625228 -33.239634 1680.371048 1497.192896 21.223144 0.000000 0.152086
288.000000 54.702000 1.000000 4.000000 -9.000000 78.208068 -31.274129 1628.731720 1203.891286 18.293752 0.000000 0.119964
289.000000 61.158000 2.000000 4.000000 -9.000000 89.815240 -28.934181 1569.984402 944.965731 16.359538 0.000000 0.109128
290.000000 66.111000 3.000000 4.000000 -9.000000 101.154740 -26.112102 1502.553039 704.648048 15.130566 0.000000 0.098965
291.000000 69.358000 4.000000 4.000000 -9.000000 111.944680 -22.660789 1424.358439 471.080364 14.419557 0.000000 0.081635
292.000000 70.918000 5.000000 4.000000 -9.000000 121.936324 -18.379131 1332.600093 234.058286 14.100149 0.000000 0.058013
293.000000 70.989000 6.000000 4.000000 -9.000000 130.921717 -12.996541 1223.413664 -16.558792 14.083994 0.000000 0.034504
294.000000 69.873000 7.000000 4.000000 -9.000000 138.724973 -6.167897 1091.312839 -292.336920 14.307459 0.000000 0.019132
297.000000 50.572000 1.000000 5.000000 -9.000000 75.233979 -24.983987 1476.518112 1253.972626 19.789652 0.000000 0.117717
298.000000 56.472000 2.000000 5.000000 -9.000000 86.048879 -22.277254 1415.921378 1021.335419 17.718502 0.000000 0.130491
299.000000 61.106000 3.000000 5.000000 -9.000000 96.584207 -19.093094 1347.555032 809.537149 16.371582 0.000000 0.137287
300.000000 64.288000 4.000000 5.000000 -9.000000 106.586085 -15.318899 1269.822406 608.617919 15.558395 0.000000 0.131531
301.000000 66.011000 5.000000 5.000000 -9.000000 115.828261 -10.817620 1180.657165 410.618828 15.149870 0.000000 0.113161
302.000000 66.416000 6.000000 5.000000 -9.000000 124.122400 -5.431506 1077.336910 208.390800 15.055445 0.000000 0.083955
303.000000 65.735000 7.000000 5.000000 -9.000000 131.318699 1.000684 956.200357 -5.314494 15.209708 0.000000 0.046566
304.000000 64.232000 8.000000 5.000000 -9.000000 137.302331 8.601114 812.204395 -238.732026 15.564230 0.000000 0.019957
307.000000 46.278000 1.000000 6.000000 -9.000000 71.978495 -19.508834 1356.322555 1312.482693 21.627335 0.000000 0.110307
308.000000 51.619000 2.000000 6.000000 -9.000000 82.000349 -16.607052 1296.001502 1098.840557 19.386436 0.000000 0.136760
309.000000 55.912000 1.000000 2.000000 -3.000000 91.746478 -13.271084 1228.851723 907.282004 5.964869 0.000000 0.153993
310.000000 58.994000 4.000000 6.000000 -9.000000 100.996297 -9.424076 1153.644062 729.000510 16.956671 0.000000 0.156794
311.000000 60.839000 5.000000 6.000000 -9.000000 109.553243 -4.982671 1068.835536 557.288216 16.439834 0.000000 0.145324
312.000000 61.265000 7.000000 6.000000 -9.000000 123.981848 5.994257 861.985983 211.537933 16.321293 0.000000 0.084688
313.000000 60.225000 8.000000 6.000000 -9.000000 129.649507 12.617922 734.066226 26.969139 16.601609 0.000000 0.041295
314.000000 58.625000 3.000000 2.000000 -3.000000 134.217811 19.955011 584.217719 -173.197038 5.684493 0.000000 0.044354
317.000000 46.869000 2.000000 7.000000 -9.000000 77.906580 -11.808024 1200.006901 1176.593675 21.352922 0.000000 0.131120
318.000000 50.816000 3.000000 7.000000 -9.000000 86.914574 -8.457178 1135.030980 999.653243 19.691029 0.000000 0.156212
319.000000 53.767000 4.000000 7.000000 -9.000000 95.475246 -4.680507 1063.118860 837.488753 18.607138 0.000000 0.166251
320.000000 55.684000 5.000000 7.000000 -9.000000 103.422050 -0.431044 983.097255 684.145516 17.963867 0.000000 0.161606
321.000000 56.621000 6.000000 7.000000 -9.000000 110.619202 4.329673 893.512443 534.876856 17.664175 0.000000 0.143319
322.000000 56.700000 7.000000 7.000000 -9.000000 116.966884 9.621595 792.541161 385.570870 17.637569 0.000000 0.112377
323.000000 56.077000 8.000000 7.000000 -9.000000 122.402756 15.433342 677.865209 232.336357 17.831604 0.000000 0.069963
324.000000 54.918000 9.000000 7.000000 -9.000000 126.901648 21.709154 546.491278 71.151672 18.206458 0.000000 0.026931
325.000000 53.376000 10.000000 7.000000 -9.000000 130.474673 28.340814 394.485900 -102.493382 18.731348 0.000000 0.070646
328.000000 46.005000 3.000000 8.000000 -9.000000 82.258120 -4.463229 1059.011206 1087.766941 21.752576 0.000000 0.148807
329.000000 48.801000 4.000000 8.000000 -9.000000 90.198806 -0.830129 990.594957 937.265051 20.502821 0.000000 0.165202
330.000000 50.741000 5.000000 8.000000 -9.000000 97.605239 3.176465 915.269290 797.070389 19.716001 0.000000 0.166970
331.000000 51.852000 6.000000 8.000000 -9.000000 104.363707 7.571745 831.931859 662.956830 19.290964 0.000000 0.155157
332.000000 52.217000 7.000000 8.000000 -9.000000 110.391139 12.355748 739.232651 531.432750 19.154025 0.000000 0.130613
333.000000 51.950000 8.000000 8.000000 -9.000000 115.636641 17.507041 635.500297 399.392359 19.250240 0.000000 0.093892
334.000000 51.182000 9.000000 8.000000 -9.000000 120.080757 22.977433 518.640393 263.850985 19.537799 0.000000 0.045828
335.000000 50.035000 10.000000 8.000000 -9.000000 123.733328 28.689902 385.992628 121.712831 19.984325 0.000000 0.026580
336.000000 48.621000 11.000000 8.000000 -9.000000 126.630314 34.541835 234.125792 -30.468379 20.564356 0.000000 0.101106
338.000000 46.127000 5.000000 9.000000 -9.000000 92.183633 6.084579 860.270307 899.728346 21.690471 0.000000 0.164741
339.000000 47.353000 2.000000 3.000000 -3.000000 98.554291 10.137462 782.556658 776.536406 7.041994 0.000000 0.159136
340.000000 47.937000 7.000000 9.000000 -9.000000 104.298709 14.481522 697.021673 657.680313 20.866286 0.000000 0.141140
341.000000 47.961000 8.000000 9.000000 -9.000000 109.373086 19.094184 602.422045 540.511089 20.853653 0.000000 0.111268
342.000000 47.523000 3.000000 3.000000 -3.000000 113.759499 23.936291 497.236198 422.624395 7.014688 0.000000 0.069636
343.000000 46.722000 10.000000 9.000000 -9.000000 117.463756 28.951865 379.581826 301.684327 21.403371 0.000000 0.016194
344.000000 45.650000 11.000000 9.000000 -9.000000 120.512258 34.070486 247.102262 175.264820 21.904676 0.000000 0.051900
352.000000 58.337000 0.000000 1.000000 -4.000000 69.275985 -45.176769 2057.956020 1518.671603 8.577680 0.000000 0.264376
353.000000 69.182000 1.000000 2.000000 -8.000000 83.544028 -44.084738 2017.445938 1110.551080 14.462740 0.000000 0.177926
354.000000 84.013000 3.000000 2.000000 -8.000000 111.870066 -40.913167 1907.748381 369.327671 11.903867 0.000000 0.104860
356.000000 55.220000 0.000000 3.000000 -8.000000 67.793707 -37.290290 1794.628310 1493.260734 18.124938 0.000000 0.177563
357.000000 65.227000 1.000000 3.000000 -8.000000 81.324559 -35.397294 1739.806015 1142.463556 15.340809 0.000000 0.120713
358.000000 73.450000 2.000000 3.000000 -8.000000 94.876579 -33.057333 1675.485863 831.436672 13.620234 0.000000 0.084376
359.000000 79.223000 3.000000 3.000000 -8.000000 108.013188 -30.102373 1598.965539 536.456337 12.624731 0.000000 0.050388
360.000000 82.331000 4.000000 3.000000 -8.000000 120.330995 -26.277423 1506.410176 238.709008 12.145670 0.000000 0.020447
361.000000 82.988000 5.000000 3.000000 -8.000000 131.495529 -21.187160 1392.189584 -80.096220 12.047459 0.000000 0.039462
364.000000 51.180000 0.000000 2.000000 -4.000000 65.558017 -30.186360 1601.075263 1506.922130 9.778620 0.000000 0.137201
365.000000 60.202000 1.000000 4.000000 -8.000000 78.178329 -27.729224 1540.767594 1195.502460 16.622813 0.000000 0.118855
366.000000 67.722000 1.000000 2.000000 -4.000000 90.757038 -24.768476 1471.599357 925.337477 7.386842 0.000000 0.122407
367.000000 73.182000 3.000000 4.000000 -8.000000 102.899904 -21.153526 1391.462998 676.687379 13.668365 0.000000 0.118581
368.000000 77.421000 5.000000 4.000000 -8.000000 124.448141 -11.085819 1185.883912 188.678757 12.915330 0.000000 0.071195
369.000000 74.672000 7.000000 4.000000 -8.000000 140.532153 4.789140 884.826478 -370.722841 13.387794 0.000000 0.012729
370.000000 46.711000 0.000000 5.000000 -8.000000 62.863457 -23.938286 1452.808659 1544.549613 21.429658 0.000000 0.111124
371.000000 54.715000 1.000000 5.000000 -8.000000 74.514902 -21.136292 1391.090836 1260.688299 18.291602 0.000000 0.116599
372.000000 61.492000 2.000000 5.000000 -8.000000 86.079550 -17.845405 1321.501371 1018.488554 16.272382 0.000000 0.140644
373.000000 66.588000 3.000000 5.000000 -8.000000 97.215983 -13.953953 1242.431730 800.583666 15.023908 0.000000 0.151358
374.000000 69.804000 4.000000 5.000000 -8.000000 107.601651 -9.328675 1151.803089 594.968844 14.328918 0.000000 0.144165
375.000000 71.204000 5.000000 5.000000 -8.000000 116.962086 -3.820856 1046.880894 392.277836 14.044794 0.000000 0.120198
376.000000 71.046000 6.000000 5.000000 -8.000000 125.084530 2.713229 923.994186 184.153333 14.074041 0.000000 0.081756
377.000000 69.684000 7.000000 5.000000 -8.000000 131.819822 10.367335 778.097251 -37.970845 14.347750 0.000000 0.035115
378.000000 67.477000 8.000000 5.000000 -8.000000 137.083365 19.111412 602.059594 -284.078183 14.815834 0.000000 0.056009
380.000000 49.231000 1.000000 6.000000 -8.000000 70.662017 -15.547252 1274.438924 1333.059648 20.330983 0.000000 0.104080
381.000000 55.278000 1.000000 3.000000 -4.000000 81.253891 -12.133053 1206.387013 1110.365978 9.051764 0.000000 0.140577
382.000000 59.980000 3.000000 6.000000 -8.000000 91.447509 -8.205887 1130.209261 913.521597 16.680980 0.000000 0.161608
383.000000 63.158000 2.000000 3.000000 -4.000000 100.972891 -3.687118 1044.357841 731.885162 7.919365 0.000000 0.163645
384.000000 64.826000 5.000000 6.000000 -8.000000 109.601415 1.497398 946.865162 557.587965 15.428629 0.000000 0.147804
385.000000 65.153000 3.000000 3.000000 -4.000000 117.160359 7.401181 835.191221 384.161585 7.674500 0.000000 0.115620
386.000000 64.396000 7.000000 6.000000 -8.000000 123.538170 14.032601 705.999122 205.640102 15.527745 0.000000 0.068935
387.000000 62.834000 4.000000 3.000000 -4.000000 128.684966 21.325616 554.815956 15.842550 7.956158 0.000000 0.027493
388.000000 60.727000 9.000000 6.000000 -8.000000 132.612157 29.117794 375.504399 -192.357282 16.463510 0.000000 0.093063
390.000000 49.411000 2.000000 7.000000 -8.000000 76.544064 -7.427014 1115.302267 1200.698898 20.254943 0.000000 0.128387
391.000000 53.713000 3.000000 7.000000 -8.000000 85.887419 -3.596973 1042.657606 1018.540039 18.629656 0.000000 0.157781
392.000000 56.793000 4.000000 7.000000 -8.000000 94.652467 0.699525 961.858853 853.404845 17.616228 0.000000 0.168040
393.000000 58.635000 5.000000 7.000000 -8.000000 102.651625 5.495420 871.451475 698.285749 17.059874 0.000000 0.160422
394.000000 59.343000 6.000000 7.000000 -8.000000 109.744081 10.803738 769.613120 547.725597 16.853961 0.000000 0.136293
395.000000 59.096000 7.000000 7.000000 -8.000000 115.841107 16.605536 654.029509 397.061060 16.922629 0.000000 0.096597
396.000000 58.102000 8.000000 7.000000 -8.000000 120.905924 22.838494 521.716426 241.891742 17.210440 0.000000 0.042726
397.000000 56.568000 9.000000 7.000000 -8.000000 124.950391 29.391148 368.758396 77.634508 17.675941 0.000000 0.039356
398.000000 54.673000 10.000000 7.000000 -8.000000 128.029492 36.108272 189.914682 -100.936818 18.287512 0.000000 0.130970
400.000000 47.974000 3.000000 8.000000 -8.000000 80.687243 0.135904 972.447052 1117.496511 20.860442 0.000000 0.145066
401.000000 50.911000 2.000000 4.000000 -4.000000 88.784438 4.170348 896.521881 963.898240 9.826744 0.000000 0.162637
402.000000 52.844000 5.000000 8.000000 -8.000000 96.235478 8.582787 812.556524 822.070802 18.931821 0.000000 0.162730
403.000000 53.828000 3.000000 4.000000 -4.000000 102.924164 13.369171 719.202439 687.138391 9.291583 0.000000 0.146766
404.000000 53.984000 7.000000 8.000000 -8.000000 108.776283 18.504085 614.791649 555.148492 18.527407 0.000000 0.115643
405.000000 52.426000 9.000000 8.000000 -8.000000 117.879939 29.587629 363.887096 286.233360 19.074449 0.000000 0.009075
406.000000 51.018000 5.000000 4.000000 -4.000000 121.176673 35.357007 211.332308 142.497817 9.799811 0.000000 0.071001
407.000000 49.365000 11.000000 8.000000 -8.000000 123.714771 41.129852 35.100689 -12.505315 20.255213 0.000000 0.170630
409.000000 45.604000 4.000000 9.000000 -8.000000 83.418435 6.965986 843.496221 1066.104043 21.942901 0.000000 0.150908
410.000000 47.559000 5.000000 9.000000 -8.000000 90.385867 11.025696 765.288616 933.615106 21.037999 0.000000 0.157987
411.000000 48.727000 6.000000 9.000000 -8.000000 96.713739 15.365190 679.242566 809.606361 20.531053 0.000000 0.149678
412.000000 49.186000 7.000000 9.000000 -8.000000 102.338030 19.959726 584.117473 690.536807 20.337242 0.000000 0.127025
413.000000 49.043000 8.000000 9.000000 -8.000000 107.227882 24.768664 478.396362 573.444621 20.394253 0.000000 0.090589
414.000000 48.419000 9.000000 9.000000 -8.000000 111.382943 29.735664 360.204371 455.667280 20.655276 0.000000 0.040801
415.000000 47.430000 10.000000 9.000000 -8.000000 114.828900 34.791363 227.196596 334.624751 21.084469 0.000000 0.028510
416.000000 46.180000 11.000000 9.000000 -8.000000 117.611974 39.858536 76.400939 207.625705 21.653920 0.000000 0.109044
419.000000 83.089000 1.000000 1.000000 -7.000000 86.511620 -52.117520 2358.433376 1047.848857 12.041079 0.000000 0.332338
421.000000 65.796000 0.000000 2.000000 -7.000000 68.946847 -42.852917 1973.507417 1506.128233 15.210813 0.000000 0.231831
422.000000 79.519000 1.000000 2.000000 -7.000000 85.057730 -41.291789 1920.274371 1064.870112 12.582461 0.000000 0.140624
423.000000 90.122000 2.000000 2.000000 -7.000000 101.171426 -39.257405 1854.601279 666.492355 11.099022 0.000000 0.074085
424.000000 47.638000 -1.000000 3.000000 -7.000000 52.368734 -36.172499 1761.935289 1968.935211 21.014411 0.000000 0.266390
425.000000 61.224000 0.000000 3.000000 -7.000000 66.910087 -34.142929 1704.882677 1495.413099 16.348040 0.000000 0.157074
426.000000 73.623000 1.000000 3.000000 -7.000000 81.952937 -31.633795 1638.016074 1119.719490 13.591502 0.000000 0.114999
427.000000 83.384000 2.000000 3.000000 -7.000000 96.907744 -28.466474 1558.564941 792.673207 11.997170 0.000000 0.097709
428.000000 89.596000 3.000000 3.000000 -7.000000 111.152944 -24.372569 1462.607555 483.804944 11.162598 0.000000 0.074868
431.000000 55.601000 0.000000 4.000000 -7.000000 64.057048 -26.511038 1511.879447 1526.147016 18.002854 0.000000 0.121588
432.000000 66.514000 1.000000 4.000000 -7.000000 77.851622 -23.411889 1441.019298 1193.473825 15.045791 0.000000 0.121149
433.000000 75.303000 2.000000 4.000000 -7.000000 91.486597 -19.635177 1358.995895 911.343710 13.286361 0.000000 0.138606
434.000000 81.224000 3.000000 4.000000 -7.000000 104.421283 -14.977822 1262.945701 654.494643 12.314967 0.000000 0.137840
435.000000 84.111000 4.000000 4.000000 -7.000000 116.165992 -9.179902 1148.934224 405.330144 11.889675 0.000000 0.115519
436.000000 84.319000 5.000000 4.000000 -7.000000 126.328422 -1.937188 1011.403706 149.108375 11.858393 0.000000 0.074988
437.000000 82.484000 6.000000 4.000000 -7.000000 134.621229 7.031882 842.239701 -129.207083 12.120708 0.000000 0.025425
440.000000 49.689000 0.000000 5.000000 -7.000000 60.798104 -19.989003 1366.505150 1581.129810 20.146689 0.000000 0.094872
441.000000 59.137000 1.000000 5.000000 -7.000000 73.332571 -16.593334 1295.720923 1277.239367 16.924327 0.000000 0.113739
442.000000 66.930000 2.000000 5.000000 -7.000000 85.671497 -12.588210 1215.347743 1024.471969 14.950494 0.000000 0.149208
443.000000 72.476000 3.000000 5.000000 -7.000000 97.367486 -7.845016 1123.295561 800.520039 13.803387 0.000000 0.162468
444.000000 75.590000 4.000000 5.000000 -7.000000 108.016149 -2.225103 1016.819324 590.691251 13.231973 0.000000 0.151571
445.000000 76.470000 5.000000 5.000000 -7.000000 117.299249 4.396988 892.240587 383.861181 13.077512 0.000000 0.118748
446.000000 75.552000 6.000000 5.000000 -7.000000 125.003242 12.087203 744.513920 170.191046 13.234713 0.000000 0.067012
447.000000 73.348000 7.000000 5.000000 -7.000000 131.022994 20.782658 566.526881 -60.533624 13.630982 0.000000 0.032674
450.000000 52.113000 1.000000 6.000000 -7.000000 68.797567 -10.995903 1184.130553 1366.328289 19.207409 0.000000 0.093100
451.000000 58.957000 2.000000 6.000000 -7.000000 79.953204 -6.992253 1107.004611 1133.115066 16.974336 0.000000 0.140728
452.000000 64.073000 3.000000 6.000000 -7.000000 90.547115 -2.401362 1020.135723 930.713164 15.615724 0.000000 0.165177
453.000000 67.279000 4.000000 6.000000 -7.000000 100.255503 2.842865 921.553250 746.027579 14.868923 0.000000 0.165196
454.000000 68.662000 5.000000 6.000000 -7.000000 108.825012 8.782539 808.716681 569.721912 14.566893 0.000000 0.142887
455.000000 68.505000 6.000000 6.000000 -7.000000 116.090493 15.412151 678.293585 394.290105 14.598331 0.000000 0.099931
456.000000 67.172000 7.000000 6.000000 -7.000000 121.978374 22.652475 525.824965 212.850403 14.886214 0.000000 0.038829
457.000000 65.030000 8.000000 6.000000 -7.000000 126.501700 30.334083 345.205244 18.198860 15.375541 0.000000 0.057928
460.000000 45.759000 1.000000 7.000000 -7.000000 64.479256 -6.400614 1095.737432 1458.067463 21.876539 0.000000 0.063865
461.000000 51.742000 2.000000 7.000000 -7.000000 74.591779 -2.520365 1022.375309 1237.914217 19.343470 0.000000 0.120942
462.000000 56.407000 3.000000 7.000000 -7.000000 84.227504 1.819119 940.816582 1049.858891 17.740424 0.000000 0.154842
463.000000 59.585000 4.000000 7.000000 -7.000000 93.129685 6.645289 849.606288 881.752649 16.791054 0.000000 0.164728
464.000000 61.300000 5.000000 7.000000 -7.000000 101.096031 11.964502 746.923445 725.229542 16.318632 0.000000 0.152902
465.000000 61.722000 6.000000 7.000000 -7.000000 107.993148 17.750833 630.458242 573.958754 16.204868 0.000000 0.121000
466.000000 59.708000 8.000000 7.000000 -7.000000 118.400061 30.407181 343.360561 266.234552 16.747997 0.000000 0.004915
467.000000 57.790000 9.000000 7.000000 -7.000000 121.975888 37.011179 163.624812 99.549207 17.302790 0.000000 0.097094
470.000000 49.626000 3.000000 8.000000 -7.000000 78.503775 5.153529 877.929667 1160.789177 20.166474 0.000000 0.136845
471.000000 52.694000 4.000000 8.000000 -7.000000 86.709181 9.579733 793.350037 1003.760907 18.989299 0.000000 0.155399
472.000000 54.595000 5.000000 8.000000 -7.000000 94.148997 14.364940 699.356496 860.405296 18.325131 0.000000 0.153173
473.000000 55.427000 6.000000 8.000000 -7.000000 100.712311 19.480105 594.284737 725.029857 18.047865 0.000000 0.132030
474.000000 55.353000 7.000000 8.000000 -7.000000 106.343078 24.871405 476.053572 593.127126 18.069599 0.000000 0.093021
475.000000 54.570000 8.000000 8.000000 -7.000000 111.036291 30.460009 342.025681 460.789904 18.327184 0.000000 0.037164
476.000000 53.267000 9.000000 8.000000 -7.000000 114.829883 36.146687 188.808558 324.290055 18.774084 0.000000 0.044108
477.000000 51.611000 10.000000 8.000000 -7.000000 117.794378 41.821249 11.963358 179.716131 19.375249 0.000000 0.141616
480.000000 46.643000 4.000000 9.000000 -7.000000 80.977901 11.901680 748.156262 1115.648264 21.454969 0.000000 0.140783
481.000000 48.621000 5.000000 9.000000 -7.000000 87.948832 16.234234 661.610133 981.148256 20.579082 0.000000 0.146987
482.000000 49.722000 6.000000 9.000000 -7.000000 94.198938 20.808481 565.971844 856.468196 20.121089 0.000000 0.135548
483.000000 50.050000 7.000000 9.000000 -7.000000 99.675978 25.582549 459.729187 737.544060 19.986818 0.000000 0.107953
484.000000 49.742000 8.000000 9.000000 -7.000000 104.366954 30.499972 341.014927 621.043639 20.108415 0.000000 0.066219
485.000000 48.941000 9.000000 9.000000 -7.000000 108.292463 35.492613 207.496108 504.009783 20.435751 0.000000 0.031630
486.000000 47.780000 10.000000 9.000000 -7.000000 111.499237 40.485796 56.219209 383.590759 20.930988 0.000000 0.089323
487.000000 46.373000 11.000000 9.000000 -7.000000 114.052136 45.404798 -116.610899 256.801800 21.565034 0.000000 0.187486
492.000000 50.871000 -1.000000 3.000000 -6.000000 49.294523 -32.867248 1670.413574 2043.398865 19.680010 0.000000 0.260867
493.000000 83.879000 1.000000 3.000000 -6.000000 82.395296 -26.804775 1518.787952 1101.997753 11.929713 0.000000 0.119704
494.000000 45.566000 -1.000000 4.000000 -6.000000 47.170601 -25.280524 1483.314445 2044.356669 21.972749 0.000000 0.219666
495.000000 60.264000 0.000000 2.000000 -3.000000 61.908155 -22.043692 1410.806139 1560.799401 8.305465 0.000000 0.103375
496.000000 73.596000 1.000000 4.000000 -6.000000 77.009605 -18.107773 1326.948817 1202.229851 13.598446 0.000000 0.123818
497.000000 90.101000 3.000000 4.000000 -6.000000 105.372375 -7.282966 1112.551256 642.690677 11.101458 0.000000 0.152776
499.000000 52.405000 0.000000 5.000000 -6.000000 57.996794 -15.338061 1270.209413 1638.469592 19.103656 0.000000 0.076333
500.000000 63.603000 1.000000 5.000000 -6.000000 71.457698 -11.223220 1188.565324 1309.045216 15.736741 0.000000 0.105919
501.000000 72.550000 2.000000 5.000000 -6.000000 84.557125 -6.368593 1095.128375 1044.189211 13.792777 0.000000 0.153480
502.000000 78.491000 3.000000 5.000000 -6.000000 96.713662 -0.646481 987.144587 814.296223 12.745861 0.000000 0.167876
503.000000 81.313000 4.000000 5.000000 -6.000000 107.438258 6.049848 860.930085 601.026939 12.300821 0.000000 0.150379
504.000000 81.443000 5.000000 5.000000 -6.000000 116.396449 13.759545 711.442425 391.023025 12.279187 0.000000 0.104098
505.000000 79.569000 6.000000 5.000000 -6.000000 123.428489 22.390571 531.590715 172.617237 12.566700 0.000000 0.033990
506.000000 76.400000 7.000000 5.000000 -6.000000 128.543692 31.668748 311.077819 -66.480227 13.086822 0.000000 0.085384
508.000000 54.640000 1.000000 6.000000 -6.000000 66.185817 -5.784232 1084.026739 1418.451579 18.320120 0.000000 0.074295
509.000000 62.365000 1.000000 3.000000 -3.000000 77.870220 -1.126570 996.165201 1172.367405 8.023770 0.000000 0.135042
510.000000 72.020000 5.000000 6.000000 -6.000000 106.921360 16.756322 650.942675 599.038635 13.888071 0.000000 0.127671
511.000000 69.322000 7.000000 6.000000 -6.000000 119.067622 31.503136 315.364976 239.319011 14.425150 0.000000 0.016863
512.000000 66.582000 4.000000 3.000000 -3.000000 122.948180 39.212428 96.806992 40.685223 7.508835 0.000000 0.134747
513.000000 46.943000 1.000000 7.000000 -6.000000 61.388122 -1.451369 1002.269630 1528.292586 21.325779 0.000000 0.035368
514.000000 53.592000 2.000000 7.000000 -6.000000 71.874479 2.927055 919.967738 1293.778143 18.676696 0.000000 0.107373
515.000000 58.623000 3.000000 7.000000 -6.000000 81.741855 7.778695 827.973732 1098.662235 17.070600 0.000000 0.146040
516.000000 61.868000 4.000000 7.000000 -6.000000 90.702634 13.103537 724.468439 927.447558 16.172250 0.000000 0.154915
517.000000 63.410000 5.000000 7.000000 -6.000000 98.552096 18.869264 607.147031 769.953949 15.776177 0.000000 0.137555
518.000000 63.509000 6.000000 7.000000 -6.000000 105.181555 25.003077 473.045370 618.749691 15.749428 0.000000 0.096055
519.000000 62.499000 7.000000 7.000000 -6.000000 110.574055 31.389957 318.286099 467.738092 16.002167 0.000000 0.032866
520.000000 60.713000 8.000000 7.000000 -6.000000 114.788682 37.881107 137.697607 311.241674 16.471512 0.000000 0.065891
521.000000 58.437000 9.000000 7.000000 -6.000000 117.939326 44.312638 -75.775169 143.258822 17.112126 0.000000 0.187975
523.000000 46.206000 1.000000 4.000000 -3.000000 66.591101 6.125610 859.490727 1409.628309 10.831959 0.000000 0.076656
524.000000 50.741000 3.000000 8.000000 -6.000000 75.571856 10.562285 774.310200 1222.681755 19.724387 0.000000 0.123799
525.000000 53.929000 2.000000 4.000000 -3.000000 83.833542 15.342927 679.692290 1061.583149 9.277563 0.000000 0.143038
526.000000 55.786000 5.000000 8.000000 -6.000000 91.211219 20.435212 573.976629 916.715747 17.934827 0.000000 0.138001
527.000000 56.456000 3.000000 4.000000 -3.000000 97.608797 25.783166 455.089094 781.327558 8.859778 0.000000 0.111354
528.000000 56.157000 7.000000 8.000000 -6.000000 102.997493 31.307713 320.404362 650.227824 17.811647 0.000000 0.066656
529.000000 55.128000 4.000000 4.000000 -3.000000 107.405838 36.911764 166.549782 519.005333 9.071252 0.000000 0.040862
530.000000 53.588000 9.000000 8.000000 -6.000000 110.905324 42.489550 -10.880925 383.485597 18.662528 0.000000 0.118983
531.000000 51.722000 5.000000 4.000000 -3.000000 113.595014 47.938208 -217.756495 239.271915 9.667483 0.000000 0.241415
533.000000 47.156000 4.000000 9.000000 -6.000000 77.842607 17.088623 644.122569 1183.574758 21.222602 0.000000 0.127464
534.000000 49.157000 5.000000 9.000000 -6.000000 84.784753 21.640572 547.983096 1046.688640 20.355699 0.000000 0.132611
535.000000 50.194000 2.000000 3.000000 -2.000000 90.933529 26.378238 441.232310 921.423983 6.644244 0.000000 0.118490
536.000000 50.403000 7.000000 9.000000 -6.000000 96.253416 31.245246 322.010769 803.053148 19.847580 0.000000 0.088781
537.000000 49.951000 8.000000 9.000000 -6.000000 100.752574 36.174826 187.997642 687.796389 20.025448 0.000000 0.058354
538.000000 49.001000 3.000000 3.000000 -2.000000 104.473455 41.094877 36.258124 572.358123 6.804035 0.000000 0.085032
539.000000 47.700000 10.000000 9.000000 -6.000000 107.482273 45.934124 -136.973966 453.587304 20.967271 0.000000 0.171484
543.000000 87.150000 0.000000 2.000000 -5.000000 67.397114 -35.802818 1751.328380 1493.481278 11.484454 0.000000 0.167199
544.000000 53.507000 -1.000000 3.000000 -5.000000 45.114324 -28.716315 1564.652305 2163.344602 18.711863 0.000000 0.270535
545.000000 76.190000 0.000000 3.000000 -5.000000 63.426216 -25.119518 1479.620244 1535.585591 13.138125 0.000000 0.115922
546.000000 46.408000 -1.000000 4.000000 -5.000000 42.612258 -20.665316 1380.953315 2191.413050 21.575430 0.000000 0.250272
547.000000 64.717000 0.000000 4.000000 -5.000000 58.780253 -16.573420 1295.313667 1621.610023 15.469011 0.000000 0.080949
548.000000 81.123000 1.000000 4.000000 -5.000000 75.286989 -11.564312 1195.232933 1229.477769 12.337340 0.000000 0.121968
550.000000 54.334000 0.000000 2.000000 -2.000000 54.174922 -9.860529 1162.079464 1729.614041 7.370657 0.000000 0.067017
551.000000 67.608000 1.000000 5.000000 -5.000000 68.563502 -4.901295 1067.295473 1365.137137 14.805635 0.000000 0.088705
552.000000 77.826000 2.000000 5.000000 -5.000000 82.351476 0.912930 957.849264 1085.554518 12.858347 0.000000 0.150057
553.000000 84.058000 3.000000 5.000000 -5.000000 94.803131 7.669981 830.053471 849.745375 11.902044 0.000000 0.164034
554.000000 86.371000 4.000000 5.000000 -5.000000 105.368124 15.383572 678.871155 634.190771 11.580873 0.000000 0.136105
555.000000 82.588000 6.000000 5.000000 -5.000000 119.953153 33.042265 274.917017 201.110647 12.107862 0.000000 0.037353
556.000000 78.422000 7.000000 5.000000 -5.000000 124.138447 42.274570 -3.479561 -45.255512 12.750054 0.000000 0.193604
558.000000 45.583000 0.000000 6.000000 -5.000000 49.949104 -4.582850 1061.272336 1848.650491 21.965447 0.000000 0.093469
559.000000 56.341000 1.000000 6.000000 -5.000000 62.577896 0.136153 972.442374 1499.426421 17.768089 0.000000 0.044494
560.000000 65.013000 2.000000 6.000000 -5.000000 74.720958 5.478808 871.766417 1236.367047 15.394802 0.000000 0.121358
561.000000 70.905000 3.000000 6.000000 -5.000000 85.846263 11.465229 756.705579 1020.755923 14.112304 0.000000 0.151835
562.000000 73.920000 4.000000 6.000000 -5.000000 95.545935 18.065036 623.939624 831.074948 13.533911 0.000000 0.143165
563.000000 74.444000 5.000000 6.000000 -5.000000 103.589875 25.177900 469.041341 653.503661 13.436397 0.000000 0.099919
564.000000 73.099000 6.000000 6.000000 -5.000000 109.928634 32.626736 285.973249 477.664500 13.681876 0.000000 0.028515
565.000000 70.521000 7.000000 6.000000 -5.000000 114.660789 40.174479 66.282265 294.280146 14.180580 0.000000 0.097916
567.000000 47.233000 1.000000 7.000000 -5.000000 57.397720 4.022700 899.309665 1631.079371 21.195920 0.000000 0.016370
568.000000 54.579000 2.000000 7.000000 -5.000000 68.199050 8.895121 806.550717 1376.748438 18.339834 0.000000 0.088160
569.000000 59.975000 3.000000 7.000000 -5.000000 78.225058 14.220571 702.244479 1172.450676 16.686495 0.000000 0.130951
570.000000 63.269000 4.000000 7.000000 -5.000000 87.167750 19.960943 584.091597 997.650081 15.814910 0.000000 0.138239
571.000000 64.627000 5.000000 7.000000 -5.000000 94.837259 26.039437 449.138840 839.625890 15.480037 0.000000 0.115015
572.000000 64.412000 6.000000 7.000000 -5.000000 101.167655 32.340531 293.528874 689.508954 15.529556 0.000000 0.067935
573.000000 63.048000 7.000000 7.000000 -5.000000 106.198916 38.719451 112.125614 540.252690 15.863805 0.000000 0.057415
574.000000 60.927000 8.000000 7.000000 -5.000000 110.046787 45.020469 -102.063569 385.390737 16.414834 0.000000 0.161789
576.000000 46.188000 2.000000 8.000000 -5.000000 62.659143 11.530187 755.434854 1508.950720 21.673591 0.000000 0.062015
577.000000 51.042000 3.000000 8.000000 -5.000000 71.762088 16.303050 660.207337 1310.514959 19.609236 0.000000 0.108288
578.000000 54.353000 4.000000 8.000000 -5.000000 80.032576 21.369557 553.864448 1144.112932 18.411608 0.000000 0.127334
579.000000 56.173000 5.000000 8.000000 -5.000000 87.312896 26.671993 434.339410 997.529193 17.812065 0.000000 0.120089
580.000000 56.705000 6.000000 8.000000 -5.000000 93.530854 32.131417 299.019205 862.577279 17.642589 0.000000 0.092408
581.000000 56.221000 7.000000 8.000000 -5.000000 98.690947 37.653111 144.551331 733.197539 17.792708 0.000000 0.067909
582.000000 54.997000 8.000000 8.000000 -5.000000 102.856440 43.135720 -33.437695 604.380741 18.186802 0.000000 0.113524
583.000000 53.281000 9.000000 8.000000 -5.000000 106.128669 48.482082 -240.763040 471.455018 18.771364 0.000000 0.223703
585.000000 46.960000 4.000000 9.000000 -5.000000 73.938360 22.456143 530.149204 1276.301065 21.312346 0.000000 0.115450
586.000000 48.998000 5.000000 9.000000 -5.000000 80.830343 27.156038 422.903409 1136.260974 20.422918 0.000000 0.119833
587.000000 49.995000 6.000000 9.000000 -5.000000 86.871285 31.971946 303.189229 1010.351058 20.012991 0.000000 0.106961
588.000000 50.121000 7.000000 9.000000 -5.000000 92.045512 36.838581 168.698106 892.968393 19.960525 0.000000 0.089316
589.000000 49.567000 8.000000 9.000000 -5.000000 96.382929 41.686426 16.514085 779.776482 20.181656 0.000000 0.101957
590.000000 48.517000 9.000000 9.000000 -5.000000 99.945848 46.447547 -157.100027 667.087069 20.616850 0.000000 0.169941
591.000000 47.129000 10.000000 9.000000 -5.000000 102.816007 51.061080 -357.013656 551.425504 21.222680 0.000000 0.282024
597.000000 84.404000 0.000000 3.000000 -4.000000 59.958455 -18.522800 1335.599330 1597.445414 11.860519 0.000000 0.088797
598.000000 88.128000 1.000000 4.000000 -4.000000 72.097455 -3.532093 1041.434114 1289.348077 11.357518 0.000000 0.108529
599.000000 54.568000 0.000000 5.000000 -4.000000 48.967724 -3.444943 1039.790938 1879.368945 18.348827 0.000000 0.104102
600.000000 70.206000 1.000000 5.000000 -4.000000 64.217406 2.451214 928.926125 1461.373815 14.258817 0.000000 0.057907
601.000000 81.773000 2.000000 5.000000 -4.000000 78.552084 9.255837 799.601788 1161.831064 12.238575 0.000000 0.135332
602.000000 88.182000 3.000000 5.000000 -4.000000 91.087630 16.958852 646.788844 919.637597 11.346118 0.000000 0.147175
603.000000 89.828000 4.000000 5.000000 -4.000000 101.276024 25.421237 463.448924 703.397990 11.135785 0.000000 0.104922
604.000000 87.968000 5.000000 5.000000 -4.000000 108.968855 34.350187 239.419539 492.911832 11.369396 0.000000 0.027672
605.000000 83.979000 6.000000 5.000000 -4.000000 114.346118 43.336273 -40.535642 271.423367 11.908099 0.000000 0.148957
607.000000 56.515000 1.000000 6.000000 -4.000000 57.694155 6.767317 847.282320 1626.333470 17.714540 0.000000 0.029008
608.000000 66.172000 1.000000 3.000000 -2.000000 70.192163 12.765266 731.158003 1338.480413 7.563069 0.000000 0.100497
609.000000 72.426000 3.000000 6.000000 -4.000000 81.408729 19.338366 597.277840 1113.329405 13.816917 0.000000 0.132610
610.000000 75.374000 5.000000 6.000000 -4.000000 98.603614 33.706666 257.020025 745.248474 13.271610 0.000000 0.071291
611.000000 70.436000 7.000000 6.000000 -4.000000 108.744355 48.302895 -233.129096 391.934366 14.198801 0.000000 0.228079
613.000000 46.166000 1.000000 7.000000 -4.000000 52.341606 9.994118 785.334214 1784.405193 21.687270 0.000000 0.077053
614.000000 54.219000 2.000000 7.000000 -4.000000 63.382873 15.315411 680.248018 1500.230776 18.462856 0.000000 0.075431
615.000000 59.988000 3.000000 7.000000 -4.000000 73.494121 21.026052 561.287753 1282.683190 16.684140 0.000000 0.114362
616.000000 63.350000 4.000000 7.000000 -4.000000 82.362861 27.046007 425.511626 1103.038734 15.795658 0.000000 0.120173
617.000000 64.572000 5.000000 7.000000 -4.000000 89.831782 33.259964 269.082903 944.779000 15.494200 0.000000 0.098343
618.000000 64.125000 6.000000 7.000000 -4.000000 95.889559 39.527561 86.901582 797.056917 15.600212 0.000000 0.085411
619.000000 62.514000 7.000000 7.000000 -4.000000 100.634320 45.701102 -127.962174 651.638722 16.000594 0.000000 0.156019
622.000000 50.225000 3.000000 8.000000 -4.000000 66.976558 22.283328 533.945371 1435.293392 19.929185 0.000000 0.102383
623.000000 53.682000 2.000000 4.000000 -2.000000 75.222334 27.538328 413.801237 1261.198347 9.321381 0.000000 0.118096
624.000000 55.512000 5.000000 8.000000 -4.000000 82.395561 32.931799 277.866360 1112.202254 18.025503 0.000000 0.113688
625.000000 55.972000 3.000000 4.000000 -2.000000 88.453566 38.371577 122.808665 978.061954 8.937482 0.000000 0.104946
626.000000 55.384000 7.000000 8.000000 -4.000000 93.434636 43.760685 -55.712343 851.560107 18.062881 0.000000 0.133460
627.000000 54.059000 4.000000 4.000000 -2.000000 97.432151 49.007408 -263.458287 726.962408 9.252023 0.000000 0.223889
629.000000 45.878000 4.000000 9.000000 -4.000000 69.226492 27.916267 404.740209 1403.043183 21.816055 0.000000 0.118415
630.000000 47.987000 5.000000 9.000000 -4.000000 76.062321 32.680531 284.547685 1258.344628 20.854421 0.000000 0.123588
631.000000 48.994000 6.000000 9.000000 -4.000000 82.008845 37.484446 149.594472 1131.409986 20.423178 0.000000 0.122564
632.000000 49.097000 7.000000 9.000000 -4.000000 87.070484 42.261069 -3.016430 1015.421679 20.377994 0.000000 0.135863
633.000000 48.511000 8.000000 9.000000 -4.000000 91.296432 46.945692 -176.993194 905.321379 20.622551 0.000000 0.188349
634.000000 47.432000 9.000000 9.000000 -4.000000 94.764429 51.480870 -377.160453 796.957688 21.090110 0.000000 0.286835
639.000000 67.763000 0.000000 4.000000 -3.000000 47.401521 -1.685722 1006.675220 1931.079062 14.776191 0.000000 0.123385
640.000000 51.735000 0.000000 5.000000 -3.000000 41.970440 3.966627 900.368121 2140.460092 19.354854 0.000000 0.205419
641.000000 69.883000 1.000000 5.000000 -3.000000 57.927356 10.806141 769.566323 1627.617938 14.325935 0.000000 0.048094
642.000000 82.836000 2.000000 5.000000 -3.000000 72.613352 18.485273 615.184566 1296.348917 12.082558 0.000000 0.111636
643.000000 89.411000 3.000000 5.000000 -3.000000 85.045025 26.847045 430.214959 1045.583882 11.191097 0.000000 0.120389
644.000000 90.471000 4.000000 5.000000 -3.000000 94.767460 35.595836 204.567297 830.609329 11.057654 0.000000 0.080147
645.000000 87.804000 5.000000 5.000000 -3.000000 101.839173 44.341508 -76.834941 625.533111 11.391762 0.000000 0.132515
647.000000 54.269000 1.000000 6.000000 -3.000000 51.280700 14.037136 705.908618 1830.429225 18.449176 0.000000 0.103717
648.000000 64.918000 2.000000 6.000000 -3.000000 64.011138 20.576520 570.950892 1501.438762 15.419553 0.000000 0.093403
649.000000 74.403000 4.000000 6.000000 -3.000000 84.538350 34.744700 228.495563 1066.238368 13.448206 0.000000 0.109708
650.000000 74.235000 5.000000 6.000000 -3.000000 91.889014 41.975822 6.722354 893.251181 13.476419 0.000000 0.117139
652.000000 51.993000 2.000000 7.000000 -3.000000 57.302826 22.064840 538.731403 1686.494180 19.254331 0.000000 0.108597
653.000000 58.166000 3.000000 7.000000 -3.000000 67.441318 28.023456 402.158861 1447.491080 17.208027 0.000000 0.119790
654.000000 61.681000 4.000000 7.000000 -3.000000 76.218748 34.149309 244.942353 1259.991047 16.224295 0.000000 0.126979
655.000000 62.902000 5.000000 7.000000 -3.000000 83.521317 40.306738 62.018457 1101.272567 15.906917 0.000000 0.132516
656.000000 62.392000 6.000000 7.000000 -3.000000 89.391936 46.355894 -153.479589 957.550607 16.034889 0.000000 0.182702
657.000000 60.719000 7.000000 7.000000 -3.000000 93.975531 52.171043 -411.103171 819.038186 16.475209 0.000000 0.306659
659.000000 48.019000 3.000000 8.000000 -3.000000 61.180267 28.382635 393.471357 1614.091055 20.846025 0.000000 0.133173
660.000000 51.674000 4.000000 8.000000 -3.000000 69.388966 33.709538 256.942064 1427.606092 19.368431 0.000000 0.140975
661.000000 53.601000 5.000000 8.000000 -3.000000 76.474954 39.067990 101.317348 1274.453762 18.669492 0.000000 0.149797
662.000000 54.103000 6.000000 8.000000 -3.000000 82.424970 44.365329 -77.710132 1141.212262 18.494010 0.000000 0.177169
663.000000 53.538000 7.000000 8.000000 -3.000000 87.305556 49.515035 -285.848511 1019.016570 18.687321 0.000000 0.250050
666.000000 46.012000 5.000000 9.000000 -3.000000 70.510452 38.112977 130.683772 1425.134649 21.751102 0.000000 0.165430
667.000000 47.103000 2.000000 3.000000 -1.000000 76.394199 42.819409 -22.336865 1296.144453 7.081602 0.000000 0.184111
668.000000 47.269000 7.000000 9.000000 -3.000000 81.393238 47.429160 -196.657489 1181.803888 21.167892 0.000000 0.228655
669.000000 46.739000 8.000000 9.000000 -3.000000 85.571153 51.888021 -397.058120 1076.063826 21.405977 0.000000 0.313466
671.000000 88.536000 0.000000 3.000000 -2.000000 44.525202 1.385769 948.963422 2035.601943 11.309660 0.000000 0.164404
673.000000 90.093000 1.000000 4.000000 -2.000000 57.799992 17.245268 640.899197 1650.683101 11.112046 0.000000 0.080478
674.000000 64.740000 1.000000 5.000000 -2.000000 49.302426 19.963006 584.047714 1925.856689 15.465131 0.000000 0.152049
675.000000 79.120000 2.000000 5.000000 -2.000000 64.147256 28.215513 397.520822 1532.850180 12.651260 0.000000 0.124901
676.000000 86.135000 3.000000 5.000000 -2.000000 76.407062 36.782457 170.342857 1265.931679 11.618048 0.000000 0.136601
677.000000 87.116000 4.000000 5.000000 -2.000000 85.782556 45.294094 -112.400406 1053.823285 11.484893 0.000000 0.177351
679.000000 48.746000 1.000000 6.000000 -2.000000 43.215263 21.779827 544.952514 2174.582730 20.540125 0.000000 0.233502
680.000000 60.367000 1.000000 3.000000 -1.000000 56.062454 28.659257 386.740471 1766.383876 8.291571 0.000000 0.157553
681.000000 67.575000 3.000000 6.000000 -2.000000 67.227875 35.742586 200.390409 1497.664415 14.811420 0.000000 0.160444
682.000000 70.616000 5.000000 6.000000 -2.000000 83.579740 49.680451 -293.245197 1128.174325 14.168698 0.000000 0.265472
683.000000 47.512000 2.000000 7.000000 -2.000000 49.957904 28.972487 379.075791 1974.850383 21.071408 0.000000 0.205197
684.000000 54.148000 3.000000 7.000000 -2.000000 60.092670 35.009611 221.101536 1696.845780 18.486099 0.000000 0.186424
685.000000 57.972000 4.000000 7.000000 -2.000000 68.805118 41.058235 37.469374 1494.492013 17.263947 0.000000 0.200437
686.000000 59.410000 5.000000 7.000000 -2.000000 76.023858 46.986127 -178.624170 1333.676598 16.843415 0.000000 0.245048
689.000000 48.201000 2.000000 4.000000 -1.000000 62.611259 39.743154 80.073048 1666.213226 10.382837 0.000000 0.219204
690.000000 50.348000 5.000000 8.000000 -2.000000 69.654229 44.950500 -99.436189 1504.941318 19.877330 0.000000 0.245919
691.000000 51.041000 3.000000 4.000000 -1.000000 75.569546 50.005767 -307.939820 1371.917612 9.802585 0.000000 0.307591
695.000000 76.794000 1.000000 4.000000 -1.000000 45.210694 29.205388 373.346617 2165.008107 13.037471 0.000000 0.256282
697.000000 69.294000 2.000000 5.000000 -1.000000 53.219999 37.913202 136.729408 1960.827421 14.446650 0.000000 0.263418
698.000000 77.367000 3.000000 5.000000 -1.000000 65.396370 46.197571 -147.254068 1653.029972 12.936400 0.000000 0.292124
701.000000 60.120000 3.000000 6.000000 -1.000000 57.651752 43.627619 -50.930973 1882.747944 16.649453 0.000000 0.305332
#UB matrix in q= (UB) B0 G* 
#[[-0.718625428 -0.079686171  0.690065842]
# [ 0.565802269  0.510447553  0.648157823]
# [-0.404283671  0.856966426 -0.321969855]]
#B0 matrix in q= UB (B0) G*
#[[ 0.19670273 -0.          0.03056101]
# [ 0.          0.19187965 -0.        ]
# [ 0.          0.          0.18806537]]
#UBB0 matrix in q= (UB B0) G* i.e. recip. basis vectors are columns in LT frame: astar = UBB0[:,0], bstar = UBB0[:,1], cstar = UBB0[:,2]. (abcstar as columns on xyzlab1, xlab1 = ui, ui = unit vector along incident beam)
#[[-0.14135559 -0.01529015  0.10781557]
# [ 0.11129485  0.0979445   0.13918753]
# [-0.0795237   0.16443442 -0.0729067 ]]
#Euler angles phi theta psi (deg)
#[205.274 108.755  46.847]
#deviatoric strain in direct crystal frame (10-3 unit)
#[[  5.73   0.18  -0.9 ]
# [  0.18   4.92   0.11]
# [ -0.9    0.11 -10.65]]
#deviatoric strain in sample2 frame (10-3 unit)
#[[ 4.19 -3.28  2.71]
# [-3.29 -1.84  7.4 ]
# [ 2.71  7.39 -2.36]]
#new lattice parameters
#[ 5.1505     5.2073936  5.3165533 89.9968446 99.285838  89.9789998]
#CCDLabel
#sCMOS
#DetectorParameters
#[79.0, 975.0, 941.0, 0.0, 0.0]
#pixelsize
#0.0734
#Frame dimensions
#[2018, 2016]
#
