#Strain and Orientation Refinement from experimental file: /home/micha/LaueProjects/DepthEffects/testZrO2_66.cor
#File created at Wed Jun 28 14:22:30 2023 with indexingSpotsSet.py
#Number of indexed spots: 518
#Element
#ZrO2
#grainIndex
#G_0
#Mean Deviation(pixel): 0.117
##spot_index intensity h k l 2theta Chi Xexp Yexp Energy GrainIndex PixDev
0.000000 45.608000 3.000000 -2.000000 -4.000000 109.934739 -26.209605 1504.826578 505.915123 7.311699 0.000000 0.072515
1.000000 45.743000 5.000000 -3.000000 -6.000000 116.353561 -24.878579 1474.110172 353.269142 10.934075 0.000000 0.052932
2.000000 45.493000 11.000000 -6.000000 -12.000000 122.308861 -23.401782 1440.793877 199.356068 21.986138 0.000000 0.034195
3.000000 46.157000 8.000000 -5.000000 -12.000000 102.888148 -21.518755 1399.370619 676.278261 21.676987 0.000000 0.120998
4.000000 46.716000 9.000000 -5.000000 -12.000000 109.812557 -19.989097 1366.507154 528.386971 21.415315 0.000000 0.108083
5.000000 46.780000 10.000000 -5.000000 -12.000000 116.234402 -18.304230 1331.038459 382.327036 21.383331 0.000000 0.090312
6.000000 46.444000 11.000000 -5.000000 -12.000000 122.155114 -16.442677 1292.641958 235.547704 21.535842 0.000000 0.069623
7.000000 45.796000 12.000000 -5.000000 -12.000000 127.585834 -14.379728 1250.939525 85.772307 21.838782 0.000000 0.048450
8.000000 45.805000 7.000000 -4.000000 -12.000000 94.627764 -17.076057 1305.619094 849.860683 21.847379 0.000000 0.148768
9.000000 46.951000 2.000000 -1.000000 -3.000000 102.083367 -15.390855 1271.276020 702.018887 5.327772 0.000000 0.145994
10.000000 47.480000 9.000000 -4.000000 -12.000000 109.009367 -13.549184 1234.372770 559.590385 21.070930 0.000000 0.135214
11.000000 47.493000 5.000000 -2.000000 -6.000000 115.395192 -11.532581 1194.611980 419.520523 10.531507 0.000000 0.118179
12.000000 47.091000 11.000000 -4.000000 -12.000000 121.244606 -9.320655 1151.648380 279.290950 21.240596 0.000000 0.096614
13.000000 46.371000 3.000000 -1.000000 -3.000000 126.571428 -6.891229 1105.078738 136.695251 5.392172 0.000000 0.072226
14.000000 46.143000 7.000000 -3.000000 -12.000000 93.124324 -11.112225 1186.399041 881.129236 21.688332 0.000000 0.163021
15.000000 47.310000 8.000000 -3.000000 -12.000000 100.578121 -9.161883 1148.586915 737.404977 21.150043 0.000000 0.163107
16.000000 47.833000 3.000000 -1.000000 -4.000000 107.467971 -7.045377 1108.017648 599.730248 6.972088 0.000000 0.153870
17.000000 47.820000 10.000000 -3.000000 -12.000000 113.785201 -4.747098 1064.378268 464.996862 20.919642 0.000000 0.137224
18.000000 47.381000 11.000000 -3.000000 -12.000000 119.536277 -2.251002 1017.306570 330.691139 21.111323 0.000000 0.114898
19.000000 46.618000 4.000000 -1.000000 -4.000000 124.738172 0.458815 966.381039 194.653226 7.151669 0.000000 0.088530
20.000000 45.619000 13.000000 -3.000000 -12.000000 129.414400 3.397249 911.108196 54.911659 21.923165 0.000000 0.059929
21.000000 45.962000 7.000000 -2.000000 -12.000000 90.936829 -5.146749 1071.941946 923.328974 21.774875 0.000000 0.169671
22.000000 47.173000 4.000000 -1.000000 -6.000000 98.350692 -2.976748 1030.968213 782.799547 10.606290 0.000000 0.172342
23.000000 47.719000 9.000000 -2.000000 -12.000000 105.174211 -0.642551 987.070744 649.079095 20.967242 0.000000 0.164469
24.000000 47.714000 5.000000 -1.000000 -6.000000 111.400912 1.866532 939.925020 518.961183 10.483472 0.000000 0.148124
25.000000 47.274000 11.000000 -2.000000 -12.000000 117.040224 4.560158 889.156652 389.904009 21.159993 0.000000 0.125076
26.000000 46.504000 6.000000 -1.000000 -6.000000 122.112578 7.446188 834.331414 259.767756 10.754140 0.000000 0.096964
27.000000 45.496000 13.000000 -2.000000 -12.000000 126.645295 10.529737 774.942796 126.638724 21.983098 0.000000 0.065783
28.000000 46.502000 8.000000 -1.000000 -12.000000 95.424427 3.025580 918.111959 838.654600 21.519777 0.000000 0.174058
29.000000 47.105000 9.000000 -1.000000 -12.000000 102.161271 5.509100 871.192110 707.982030 21.241621 0.000000 0.167574
30.000000 47.147000 10.000000 -1.000000 -12.000000 108.287613 8.149296 820.875741 581.679415 21.220105 0.000000 0.151584
31.000000 46.747000 11.000000 -1.000000 -12.000000 113.815693 10.949177 766.780188 457.137268 21.399757 0.000000 0.127891
32.000000 46.011000 12.000000 -1.000000 -12.000000 118.769171 13.909080 708.463067 332.205310 21.740017 0.000000 0.098100
33.000000 45.987000 3.000000 0.000000 -4.000000 98.505500 11.293113 760.069708 776.863134 7.253088 0.000000 0.163921
34.000000 46.116000 5.000000 0.000000 -6.000000 104.532075 13.988159 706.885935 653.482324 10.847985 0.000000 0.148446
35.000000 45.797000 11.000000 0.000000 -12.000000 109.960227 16.812293 649.795612 532.653026 21.845098 0.000000 0.124273
36.000000 45.543000 9.000000 -8.000000 -11.000000 112.683110 -40.831447 1905.063638 346.459533 21.964678 0.000000 0.101003
37.000000 45.618000 10.000000 -8.000000 -11.000000 119.120984 -40.290717 1887.464182 154.954844 21.926201 0.000000 0.126694
38.000000 46.038000 7.000000 -7.000000 -11.000000 99.634465 -36.544922 1772.722530 713.579316 21.733410 0.000000 0.060598
39.000000 47.027000 8.000000 -7.000000 -11.000000 107.109630 -35.802969 1751.332700 532.497300 21.273869 0.000000 0.034937
40.000000 47.450000 9.000000 -7.000000 -11.000000 114.113177 -34.976955 1727.984410 353.061300 21.081695 0.000000 0.028555
41.000000 47.398000 10.000000 -7.000000 -11.000000 120.637004 -34.052147 1702.395781 171.614969 21.102394 0.000000 0.053238
42.000000 46.965000 11.000000 -7.000000 -11.000000 126.686091 -33.010274 1674.228110 -15.194371 21.295340 0.000000 0.085435
43.000000 46.235000 12.000000 -7.000000 -11.000000 132.274829 -31.828449 1643.070800 -210.662924 21.629628 0.000000 0.116880
44.000000 46.247000 6.000000 -6.000000 -11.000000 92.197277 -31.826549 1643.021356 892.396570 21.638622 0.000000 0.093948
45.000000 47.894000 7.000000 -6.000000 -11.000000 100.309025 -30.844172 1617.725309 712.978846 20.891699 0.000000 0.077289
46.000000 48.832000 8.000000 -6.000000 -11.000000 107.922841 -29.754748 1590.271204 540.027383 20.487565 0.000000 0.056247
47.000000 49.157000 9.000000 -6.000000 -11.000000 115.014712 -28.540706 1560.370575 369.305737 20.349348 0.000000 0.032247
48.000000 48.978000 10.000000 -6.000000 -11.000000 121.579037 -27.180668 1527.681144 197.272632 20.421561 0.000000 0.015860
49.000000 48.401000 11.000000 -6.000000 -11.000000 127.624078 -25.648465 1491.793664 20.745327 20.663152 0.000000 0.033629
50.000000 47.524000 12.000000 -6.000000 -11.000000 133.167512 -23.911867 1452.214694 -163.345722 21.043094 0.000000 0.058895
51.000000 46.430000 13.000000 -6.000000 -11.000000 138.232500 -21.930985 1408.343774 -358.159139 21.537503 0.000000 0.080090
52.000000 47.787000 6.000000 -5.000000 -11.000000 92.151328 -26.025329 1500.532900 896.006202 20.941978 0.000000 0.117726
53.000000 49.448000 7.000000 -5.000000 -11.000000 100.406701 -24.704964 1470.153030 723.418061 20.235149 0.000000 0.111096
54.000000 50.339000 8.000000 -5.000000 -11.000000 108.110968 -23.242519 1437.246051 557.892811 19.874186 0.000000 0.097297
55.000000 50.574000 9.000000 -5.000000 -11.000000 115.241155 -21.616009 1401.482959 395.206037 19.779491 0.000000 0.078093
56.000000 50.277000 10.000000 -5.000000 -11.000000 121.794283 -19.799305 1362.475045 231.899381 19.894151 0.000000 0.056244
57.000000 49.569000 11.000000 -5.000000 -11.000000 127.781859 -17.761356 1319.759717 64.928631 20.176395 0.000000 0.036487
58.000000 48.558000 12.000000 -5.000000 -11.000000 133.224678 -15.465354 1272.782059 -108.583781 20.594869 0.000000 0.028289
59.000000 47.336000 13.000000 -5.000000 -11.000000 138.148400 -12.867943 1220.870599 -291.544198 21.125585 0.000000 0.034355
61.000000 46.286000 5.000000 -4.000000 -11.000000 82.561924 -21.405091 1396.905439 1091.923816 21.624964 0.000000 0.130169
62.000000 48.899000 6.000000 -4.000000 -11.000000 91.460975 -19.892809 1364.460307 911.807940 20.466362 0.000000 0.140692
63.000000 50.583000 7.000000 -4.000000 -11.000000 99.805598 -18.229641 1329.484650 745.153956 19.781523 0.000000 0.140194
64.000000 51.441000 8.000000 -4.000000 -11.000000 107.546734 -16.395090 1291.670409 586.255751 19.448901 0.000000 0.130115
65.000000 51.604000 9.000000 -4.000000 -11.000000 114.662828 -14.365635 1250.657401 430.854528 19.385255 0.000000 0.112589
66.000000 51.211000 10.000000 -4.000000 -11.000000 121.153820 -12.114470 1206.021818 275.538442 19.531657 0.000000 0.089883
67.000000 50.397000 11.000000 -4.000000 -11.000000 127.034747 -9.611384 1157.261525 117.368858 19.845222 0.000000 0.064347
68.000000 49.279000 12.000000 -4.000000 -11.000000 132.329947 -6.822924 1103.777088 -46.373773 20.293995 0.000000 0.038462
69.000000 47.953000 13.000000 -4.000000 -11.000000 137.068360 -3.713050 1044.847008 -218.382354 20.853677 0.000000 0.014863
70.000000 46.498000 14.000000 -4.000000 -11.000000 141.280049 -0.244609 979.594980 -401.488838 21.505464 0.000000 0.005913
71.000000 46.744000 5.000000 -3.000000 -11.000000 81.057527 -15.364407 1270.741622 1116.637969 21.414330 0.000000 0.138750
72.000000 49.457000 6.000000 -3.000000 -11.000000 90.035085 -13.549537 1234.379784 940.322056 20.236020 0.000000 0.156673
73.000000 51.182000 7.000000 -3.000000 -11.000000 98.411222 -11.565019 1195.246765 778.553253 19.550929 0.000000 0.160608
74.000000 52.032000 8.000000 -3.000000 -11.000000 106.136471 -9.391391 1153.013222 625.370820 19.228709 0.000000 0.153008
75.000000 52.154000 9.000000 -3.000000 -11.000000 113.191258 -7.007507 1107.295473 476.423749 19.181227 0.000000 0.136358
76.000000 51.702000 10.000000 -3.000000 -11.000000 119.578964 -4.390870 1057.643804 328.304035 19.346750 0.000000 0.112935
77.000000 50.820000 11.000000 -3.000000 -11.000000 125.318812 -1.518293 1003.527628 178.142687 19.680755 0.000000 0.084878
78.000000 49.632000 12.000000 -3.000000 -11.000000 130.439659 1.632975 944.316450 23.343734 20.150316 0.000000 0.054462
79.000000 48.240000 13.000000 -3.000000 -11.000000 134.975195 5.083527 879.255188 -138.609316 20.730563 0.000000 0.026100
80.000000 46.723000 14.000000 -3.000000 -11.000000 138.960610 8.849333 807.431802 -310.312434 21.402359 0.000000 0.025288
81.000000 46.533000 5.000000 -2.000000 -11.000000 78.831666 -9.226129 1149.825373 1156.278924 21.512687 0.000000 0.139637
82.000000 49.355000 6.000000 -2.000000 -11.000000 87.823717 -7.144266 1109.904060 982.220926 20.278877 0.000000 0.163974
83.000000 51.145000 7.000000 -2.000000 -11.000000 96.176314 -4.886118 1067.008282 824.102389 19.566223 0.000000 0.171747
84.000000 52.024000 8.000000 -2.000000 -11.000000 103.840466 -2.436275 1020.792741 675.590721 19.232717 0.000000 0.166233
85.000000 52.150000 9.000000 -2.000000 -11.000000 110.799160 0.220573 970.856542 532.169185 19.183651 0.000000 0.150233
86.000000 51.687000 10.000000 -2.000000 -11.000000 117.059703 3.098856 916.731536 390.382114 19.353432 0.000000 0.126106
87.000000 50.785000 11.000000 -2.000000 -11.000000 122.646077 6.211019 857.867593 247.389547 19.695199 0.000000 0.095995
88.000000 49.574000 12.000000 -2.000000 -11.000000 127.592449 9.566078 793.613840 100.682835 20.174575 0.000000 0.062457
89.000000 48.160000 13.000000 -2.000000 -11.000000 131.938282 13.167852 723.194492 -52.114561 20.765776 0.000000 0.032986
90.000000 46.623000 14.000000 -2.000000 -11.000000 135.725051 17.012970 645.677378 -213.403237 21.449078 0.000000 0.040962
91.000000 45.585000 5.000000 -1.000000 -11.000000 75.886215 -3.128978 1033.835965 1212.025778 21.961370 0.000000 0.131855
92.000000 48.525000 6.000000 -1.000000 -11.000000 84.832195 -0.834577 990.678533 1038.351025 20.627264 0.000000 0.162343
93.000000 50.408000 7.000000 -1.000000 -11.000000 93.114091 1.629818 944.375802 882.420816 19.853495 0.000000 0.173855
94.000000 51.360000 8.000000 -1.000000 -11.000000 100.684154 4.273643 894.570927 737.374184 19.482485 0.000000 0.170404
95.000000 51.543000 9.000000 -1.000000 -11.000000 107.528162 7.104692 840.850962 598.433738 19.410679 0.000000 0.155086
96.000000 51.125000 10.000000 -1.000000 -11.000000 113.657289 10.128242 782.735378 462.032524 19.567218 0.000000 0.130338
97.000000 50.260000 11.000000 -1.000000 -11.000000 119.100108 13.346030 719.661657 325.312218 19.901982 0.000000 0.098275
98.000000 49.081000 12.000000 -1.000000 -11.000000 123.895864 16.755133 650.967021 185.811918 20.378519 0.000000 0.061516
99.000000 47.694000 13.000000 -1.000000 -11.000000 128.089447 20.346888 575.865053 41.257884 20.969683 0.000000 0.030637
100.000000 46.182000 14.000000 -1.000000 -11.000000 131.727971 24.105981 493.415457 -110.594043 21.654843 0.000000 0.050935
101.000000 46.841000 7.000000 1.000000 -11.000000 84.859596 13.604877 714.520025 1040.616943 21.368193 0.000000 0.154472
102.000000 48.067000 8.000000 1.000000 -11.000000 92.191810 16.383739 658.561264 898.063535 20.820302 0.000000 0.155602
103.000000 48.522000 9.000000 1.000000 -11.000000 98.805212 19.285079 598.401737 764.369319 20.622449 0.000000 0.142332
104.000000 48.364000 10.000000 1.000000 -11.000000 104.715166 22.301347 533.549977 635.482503 20.687008 0.000000 0.117171
105.000000 47.745000 11.000000 1.000000 -11.000000 109.954895 25.421853 463.434738 508.324953 20.953348 0.000000 0.081947
106.000000 46.792000 12.000000 1.000000 -11.000000 114.568602 28.632703 387.388129 380.390068 21.378180 0.000000 0.037998
107.000000 45.612000 13.000000 1.000000 -11.000000 118.606198 31.916939 304.624266 249.488367 21.929772 0.000000 0.014805
108.000000 45.560000 8.000000 2.000000 -11.000000 87.155620 21.636329 548.075333 998.528559 21.967805 0.000000 0.140499
109.000000 46.210000 9.000000 2.000000 -11.000000 93.666167 24.470007 485.184715 865.231707 21.655883 0.000000 0.128823
110.000000 46.252000 10.000000 2.000000 -11.000000 99.497709 27.383258 417.500970 738.211910 21.633675 0.000000 0.104612
111.000000 45.826000 11.000000 2.000000 -11.000000 104.682461 30.363848 344.454438 614.159846 21.832433 0.000000 0.070011
112.000000 45.701000 8.000000 -9.000000 -10.000000 107.726996 -50.281129 2270.534262 402.601306 21.889825 0.000000 0.278724
116.000000 45.879000 3.000000 -4.000000 -5.000000 94.417344 -45.638822 2075.566310 822.083283 10.905082 0.000000 0.162045
117.000000 47.384000 7.000000 -8.000000 -10.000000 102.409643 -45.396754 2066.304416 603.730318 21.114554 0.000000 0.154289
118.000000 48.231000 4.000000 -4.000000 -5.000000 109.937896 -45.126849 2056.070554 387.638478 10.370572 0.000000 0.166299
119.000000 48.509000 9.000000 -8.000000 -10.000000 116.981700 -44.824027 2044.703250 168.427656 20.620144 0.000000 0.194635
123.000000 46.149000 5.000000 -7.000000 -10.000000 87.095056 -40.937126 1908.536752 1013.297747 21.686016 0.000000 0.122973
124.000000 48.452000 6.000000 -7.000000 -10.000000 95.829135 -40.438526 1892.246826 796.631822 20.651888 0.000000 0.091369
125.000000 49.933000 7.000000 -7.000000 -10.000000 104.081790 -39.883017 1874.379784 589.164521 20.036365 0.000000 0.071280
126.000000 50.679000 8.000000 -7.000000 -10.000000 111.811425 -39.260394 1854.694940 384.693278 19.739045 0.000000 0.074264
127.000000 50.801000 9.000000 -7.000000 -10.000000 119.000160 -38.557888 1832.900010 178.059135 19.689257 0.000000 0.099878
128.000000 50.421000 10.000000 -7.000000 -10.000000 125.649186 -37.759332 1808.636498 -35.422104 19.835817 0.000000 0.135452
132.000000 48.490000 5.000000 -6.000000 -10.000000 87.799217 -35.479596 1742.135100 991.792904 20.639127 0.000000 0.097939
133.000000 50.862000 3.000000 -3.000000 -5.000000 96.818076 -34.647668 1718.808035 784.575533 9.836658 0.000000 0.072138
134.000000 52.308000 7.000000 -6.000000 -10.000000 105.291154 -33.717948 1693.286275 587.226053 19.126691 0.000000 0.043367
135.000000 52.940000 4.000000 -3.000000 -5.000000 113.176508 -32.672705 1665.244804 393.606875 9.447943 0.000000 0.012019
136.000000 52.897000 9.000000 -6.000000 -10.000000 120.459221 -31.489825 1634.291097 198.734338 18.908938 0.000000 0.026067
137.000000 52.324000 5.000000 -3.000000 -5.000000 127.145209 -30.141448 1599.946631 -1.809556 9.557103 0.000000 0.061274
138.000000 51.354000 11.000000 -6.000000 -10.000000 133.254797 -28.592091 1561.621971 -212.291425 19.473665 0.000000 0.094029
142.000000 46.978000 4.000000 -5.000000 -10.000000 78.180929 -30.593181 1611.345766 1202.643603 21.307761 0.000000 0.114098
143.000000 50.526000 2.000000 -2.000000 -4.000000 87.970159 -29.506567 1584.100859 984.831224 7.923161 0.000000 0.108584
144.000000 52.963000 6.000000 -5.000000 -10.000000 97.222871 -28.297825 1554.472063 786.082554 18.893210 0.000000 0.099303
145.000000 54.370000 7.000000 -5.000000 -10.000000 105.860734 -26.946422 1522.132181 597.963581 18.401501 0.000000 0.083007
146.000000 54.887000 8.000000 -5.000000 -10.000000 113.841865 -25.427325 1486.691270 414.340809 18.225456 0.000000 0.060949
147.000000 54.683000 9.000000 -5.000000 -10.000000 121.154571 -23.709849 1447.680838 230.355846 18.291230 0.000000 0.037531
148.000000 53.926000 4.000000 -2.000000 -4.000000 127.809416 -21.756206 1404.533019 41.807197 7.418539 0.000000 0.026610
149.000000 52.766000 11.000000 -5.000000 -10.000000 133.831363 -19.519721 1356.552746 -155.266885 18.952486 0.000000 0.040431
150.000000 51.331000 12.000000 -5.000000 -10.000000 139.252959 -16.942723 1302.880024 -364.912579 19.481019 0.000000 0.057533
153.000000 48.340000 2.000000 -2.000000 -5.000000 77.436130 -24.536535 1466.324645 1204.678841 10.353939 0.000000 0.117310
154.000000 52.077000 5.000000 -4.000000 -10.000000 87.458587 -23.088287 1433.818384 992.931052 19.218424 0.000000 0.129836
155.000000 54.583000 3.000000 -2.000000 -5.000000 96.878348 -21.480504 1398.540602 801.475710 9.166521 0.000000 0.131702
156.000000 55.960000 7.000000 -4.000000 -10.000000 105.612825 -19.688293 1360.121062 621.558795 17.878850 0.000000 0.122373
157.000000 56.380000 4.000000 -2.000000 -5.000000 113.620735 -17.682180 1318.120507 446.974953 8.871594 0.000000 0.104160
158.000000 56.037000 9.000000 -4.000000 -10.000000 120.893962 -15.427357 1272.013794 272.933765 17.849498 0.000000 0.080082
159.000000 55.122000 5.000000 -2.000000 -5.000000 127.447895 -12.882980 1221.167822 95.398435 9.071969 0.000000 0.053676
160.000000 53.802000 11.000000 -4.000000 -10.000000 133.312289 -10.001681 1164.812286 -89.342821 18.587538 0.000000 0.029711
161.000000 52.215000 6.000000 -2.000000 -5.000000 138.523762 -6.729659 1102.000381 -284.993420 9.575697 0.000000 0.016495
165.000000 49.031000 4.000000 -3.000000 -10.000000 75.957788 -18.157362 1327.980236 1224.299824 20.417332 0.000000 0.120920
166.000000 52.954000 5.000000 -3.000000 -10.000000 86.132781 -16.349053 1290.730976 1016.821641 18.901155 0.000000 0.146564
167.000000 55.541000 6.000000 -3.000000 -10.000000 95.642099 -14.352025 1250.384990 831.244581 18.017497 0.000000 0.155827
168.000000 56.916000 7.000000 -3.000000 -10.000000 104.400027 -12.140804 1206.539358 658.331813 17.579227 0.000000 0.150670
169.000000 57.275000 8.000000 -3.000000 -10.000000 112.366740 -9.686745 1158.718092 491.708445 17.466405 0.000000 0.134257
170.000000 56.838000 9.000000 -3.000000 -10.000000 119.538423 -6.958171 1106.354786 326.583557 17.598609 0.000000 0.109640
171.000000 55.813000 10.000000 -3.000000 -10.000000 125.936105 -3.920967 1048.770079 159.028428 17.919897 0.000000 0.079707
172.000000 54.381000 11.000000 -3.000000 -10.000000 131.595611 -0.539887 985.142010 -14.473759 18.390154 0.000000 0.047406
173.000000 52.688000 12.000000 -3.000000 -10.000000 136.559746 3.219065 914.466543 -197.344875 18.979862 0.000000 0.018038
174.000000 50.845000 13.000000 -3.000000 -10.000000 140.872973 7.384796 835.504189 -393.170652 19.666819 0.000000 0.026101
177.000000 48.877000 2.000000 -1.000000 -5.000000 73.669310 -11.596441 1195.861824 1262.927642 10.241399 0.000000 0.117509
178.000000 52.983000 5.000000 -2.000000 -10.000000 83.906964 -9.459816 1154.334001 1057.474297 18.891902 0.000000 0.153892
179.000000 55.675000 3.000000 -1.000000 -5.000000 93.426134 -7.119825 1109.437738 876.062947 8.987546 0.000000 0.169169
180.000000 57.092000 7.000000 -2.000000 -10.000000 102.139619 -4.555002 1060.745877 708.750390 17.525981 0.000000 0.167299
181.000000 57.448000 4.000000 -1.000000 -5.000000 110.010144 -1.743197 1007.755843 548.863626 8.707315 0.000000 0.152133
182.000000 56.981000 9.000000 -2.000000 -10.000000 117.039059 1.337416 949.872242 391.526461 17.555157 0.000000 0.126911
183.000000 55.913000 5.000000 -1.000000 -5.000000 123.254056 4.706775 886.384382 232.853522 8.944260 0.000000 0.094507
184.000000 54.435000 11.000000 -2.000000 -10.000000 128.698496 8.380709 816.436959 69.465361 18.372792 0.000000 0.058272
185.000000 52.697000 6.000000 -1.000000 -5.000000 133.423443 12.368008 738.991290 -101.837562 9.488691 0.000000 0.029256
186.000000 50.814000 13.000000 -2.000000 -10.000000 137.482480 16.666923 652.773393 -284.326416 19.679440 0.000000 0.048282
189.000000 47.765000 4.000000 -1.000000 -10.000000 70.556805 -5.020858 1069.558370 1322.398794 20.960840 0.000000 0.104195
190.000000 52.046000 5.000000 -1.000000 -10.000000 80.766797 -2.615655 1024.168933 1116.144256 19.233041 0.000000 0.150587
191.000000 54.873000 6.000000 -1.000000 -10.000000 90.222908 -0.009863 975.185267 936.812681 18.238964 0.000000 0.171555
192.000000 56.388000 7.000000 -1.000000 -10.000000 98.838253 2.810493 922.162850 773.443425 17.745837 0.000000 0.172827
193.000000 56.815000 8.000000 -1.000000 -10.000000 106.578865 5.857601 864.580707 618.893144 17.609935 0.000000 0.158873
194.000000 56.398000 9.000000 -1.000000 -10.000000 113.451466 9.140550 801.824231 468.092458 17.737715 0.000000 0.133114
195.000000 55.368000 10.000000 -1.000000 -10.000000 119.490438 12.663693 733.163166 317.122426 18.065671 0.000000 0.098416
196.000000 53.920000 11.000000 -1.000000 -10.000000 124.746699 16.424802 657.723050 162.677900 18.549175 0.000000 0.058301
197.000000 52.209000 12.000000 -1.000000 -10.000000 129.279475 20.413185 574.447785 1.721988 19.155948 0.000000 0.029778
198.000000 50.350000 13.000000 -1.000000 -10.000000 133.150927 24.608103 482.049883 -168.766295 19.862064 0.000000 0.063577
201.000000 45.677000 4.000000 0.000000 -10.000000 66.681848 1.400090 948.694238 1405.068373 21.920674 0.000000 0.081259
202.000000 50.117000 2.000000 0.000000 -4.000000 76.781433 3.995760 899.818213 1194.426559 7.990037 0.000000 0.137087
203.000000 53.104000 6.000000 0.000000 -10.000000 86.114445 6.773651 847.161653 1014.615623 18.847828 0.000000 0.163725
204.000000 54.776000 7.000000 0.000000 -10.000000 94.595707 9.739169 790.268278 853.219496 18.269533 0.000000 0.168295
205.000000 55.350000 8.000000 0.000000 -10.000000 102.194373 12.894456 728.605305 702.390521 18.077381 0.000000 0.155772
206.000000 55.069000 9.000000 0.000000 -10.000000 108.921352 16.237346 661.546710 556.725866 18.167144 0.000000 0.129729
207.000000 54.163000 4.000000 0.000000 -4.000000 114.815966 19.760325 588.351903 412.178640 7.387604 0.000000 0.092898
208.000000 52.827000 11.000000 0.000000 -10.000000 119.934529 23.449645 508.138257 265.446053 18.934457 0.000000 0.048283
209.000000 51.215000 12.000000 0.000000 -10.000000 124.341848 27.284770 419.845348 113.591073 19.528719 0.000000 0.023456
210.000000 49.446000 13.000000 0.000000 -10.000000 128.105520 31.238357 322.187805 -46.219804 20.226226 0.000000 0.077280
211.000000 47.605000 14.000000 0.000000 -10.000000 131.292447 35.276904 213.592329 -216.925644 21.007759 0.000000 0.147626
213.000000 47.272000 5.000000 1.000000 -10.000000 72.095767 10.222858 780.900770 1294.330550 21.178780 0.000000 0.115968
214.000000 50.435000 6.000000 1.000000 -10.000000 81.259833 13.079558 724.943229 1110.875572 19.847217 0.000000 0.147528
215.000000 52.310000 7.000000 1.000000 -10.000000 89.586134 16.087923 664.589362 949.091438 19.132597 0.000000 0.155476
216.000000 53.098000 8.000000 1.000000 -10.000000 97.045699 19.242471 599.299887 800.104702 18.845531 0.000000 0.144752
217.000000 53.031000 9.000000 1.000000 -10.000000 103.651136 22.533651 528.443556 657.993765 18.866950 0.000000 0.118972
218.000000 52.328000 10.000000 1.000000 -10.000000 109.443486 25.947491 451.276685 518.465056 19.118242 0.000000 0.080685
219.000000 51.180000 11.000000 1.000000 -10.000000 114.480848 29.465511 366.916949 378.133130 19.545416 0.000000 0.031644
220.000000 49.739000 12.000000 1.000000 -10.000000 118.829756 33.064985 274.309495 234.091971 20.110159 0.000000 0.027307
221.000000 48.122000 13.000000 1.000000 -10.000000 122.559280 36.719582 172.182606 83.631976 20.784535 0.000000 0.095524
222.000000 46.415000 14.000000 1.000000 -10.000000 125.737294 40.400396 58.988952 -75.972149 21.547690 0.000000 0.173839
223.000000 47.018000 3.000000 1.000000 -5.000000 75.866163 18.821734 608.143897 1227.333375 10.645521 0.000000 0.127435
224.000000 49.121000 7.000000 2.000000 -10.000000 84.025449 21.791563 544.696839 1062.308415 20.376323 0.000000 0.137928
225.000000 50.171000 4.000000 1.000000 -5.000000 91.354096 24.865627 476.185428 912.959257 9.973548 0.000000 0.129373
226.000000 50.375000 9.000000 2.000000 -10.000000 97.863416 28.030954 401.978103 772.597576 19.863724 0.000000 0.105099
227.000000 49.937000 5.000000 1.000000 -5.000000 103.592546 31.271584 321.333733 636.530856 10.017719 0.000000 0.068284
228.000000 49.038000 11.000000 2.000000 -10.000000 108.597520 34.568880 233.376781 501.187605 20.400675 0.000000 0.027933
229.000000 47.826000 6.000000 1.000000 -5.000000 112.942831 37.902068 137.065388 363.614454 10.458103 0.000000 0.054045
230.000000 46.415000 13.000000 2.000000 -10.000000 116.695516 41.248957 31.149908 221.158557 21.550789 0.000000 0.122724
231.000000 46.726000 8.000000 3.000000 -10.000000 85.340621 29.790890 358.827703 1042.077233 21.419705 0.000000 0.117048
232.000000 47.232000 9.000000 3.000000 -10.000000 91.772156 32.789082 281.665908 901.388295 21.187662 0.000000 0.097087
233.000000 47.098000 10.000000 3.000000 -10.000000 97.465832 35.827011 197.980503 767.040941 21.245385 0.000000 0.070218
234.000000 46.490000 11.000000 3.000000 -10.000000 102.472469 38.888144 106.907669 635.149014 21.520964 0.000000 0.059099
235.000000 45.548000 12.000000 3.000000 -10.000000 106.851558 41.955171 7.424036 502.619682 21.964465 0.000000 0.094526
239.000000 47.415000 5.000000 -8.000000 -9.000000 89.358028 -49.781874 2247.805290 959.677234 21.105184 0.000000 0.255802
240.000000 49.585000 6.000000 -8.000000 -9.000000 98.126447 -49.765058 2247.047901 703.067338 20.178565 0.000000 0.246532
241.000000 50.919000 7.000000 -8.000000 -9.000000 106.394736 -49.746235 2246.200733 450.941417 19.647382 0.000000 0.259956
245.000000 47.371000 4.000000 -7.000000 -9.000000 81.390328 -44.951757 2049.483317 1171.266525 21.128274 0.000000 0.190907
246.000000 50.617000 5.000000 -7.000000 -9.000000 91.037881 -44.660202 2038.603271 913.586917 19.769843 0.000000 0.153555
247.000000 52.820000 6.000000 -7.000000 -9.000000 100.179925 -44.333619 2026.545234 670.803903 18.942259 0.000000 0.134613
248.000000 54.062000 7.000000 -7.000000 -9.000000 108.747879 -43.965317 2013.106941 433.458381 18.504547 0.000000 0.140085
249.000000 54.476000 8.000000 -7.000000 -9.000000 116.706699 -43.546793 1998.037015 193.940977 18.361588 0.000000 0.168088
253.000000 45.644000 1.000000 -2.000000 -3.000000 71.744630 -40.055962 1879.911009 1404.826673 7.310596 0.000000 0.175833
254.000000 50.301000 4.000000 -6.000000 -9.000000 82.279865 -39.486723 1861.809725 1130.053071 19.897742 0.000000 0.129262
255.000000 53.729000 5.000000 -6.000000 -9.000000 92.345898 -38.849822 1841.904808 884.384114 18.624994 0.000000 0.091554
256.000000 55.945000 2.000000 -2.000000 -3.000000 101.826599 -38.132623 1819.912549 654.481046 5.961371 0.000000 0.059280
257.000000 57.068000 7.000000 -6.000000 -9.000000 110.649853 -37.319193 1795.486443 430.957704 17.529443 0.000000 0.045970
258.000000 57.275000 8.000000 -6.000000 -9.000000 118.783423 -36.389177 1768.198801 206.480703 17.464065 0.000000 0.069250
259.000000 56.758000 3.000000 -2.000000 -3.000000 126.226906 -35.316189 1737.515488 -25.335314 5.873662 0.000000 0.108089
263.000000 47.924000 3.000000 -5.000000 -9.000000 71.674688 -34.327919 1709.966923 1372.663441 20.888960 0.000000 0.134119
264.000000 52.955000 4.000000 -5.000000 -9.000000 82.655206 -33.394049 1684.524947 1107.164796 18.900698 0.000000 0.109043
265.000000 56.558000 5.000000 -5.000000 -9.000000 93.089705 -32.346244 1656.621462 872.233460 17.693326 0.000000 0.090076
266.000000 58.775000 6.000000 -5.000000 -9.000000 102.850032 -31.163144 1625.881083 654.080057 17.023139 0.000000 0.066862
267.000000 59.766000 7.000000 -5.000000 -9.000000 111.861105 -29.817974 1591.848006 443.288721 16.738284 0.000000 0.037785
268.000000 59.754000 8.000000 -5.000000 -9.000000 120.094171 -28.276822 1553.963258 232.720674 16.739214 0.000000 0.012486
269.000000 58.977000 9.000000 -5.000000 -9.000000 127.555677 -26.496300 1511.533755 16.344558 16.957956 0.000000 0.037639
270.000000 57.650000 10.000000 -5.000000 -9.000000 134.275270 -24.420340 1463.689510 -211.512313 17.346505 0.000000 0.069728
274.000000 49.683000 3.000000 -4.000000 -9.000000 70.973361 -28.062534 1548.783501 1361.606393 20.150055 0.000000 0.113502
275.000000 55.086000 4.000000 -4.000000 -9.000000 82.327731 -26.719964 1516.789593 1103.324094 18.170082 0.000000 0.117984
276.000000 58.862000 5.000000 -4.000000 -9.000000 93.053304 -25.214029 1481.787564 877.543769 17.001279 0.000000 0.120255
277.000000 61.079000 6.000000 -4.000000 -9.000000 103.010309 -23.515496 1443.332242 669.790553 16.381153 0.000000 0.111030
278.000000 61.945000 7.000000 -4.000000 -9.000000 112.121444 -21.588540 1400.886056 470.486407 16.149440 0.000000 0.091450
279.000000 61.733000 8.000000 -4.000000 -9.000000 120.362001 -19.389140 1353.793754 272.592713 16.202752 0.000000 0.065480
280.000000 60.719000 9.000000 -4.000000 -9.000000 127.745314 -16.863203 1301.248328 70.346714 16.471407 0.000000 0.039602
281.000000 59.150000 10.000000 -4.000000 -9.000000 134.308040 -13.944560 1242.244390 -141.508703 16.906723 0.000000 0.027296
282.000000 57.227000 11.000000 -4.000000 -9.000000 140.097756 -10.553200 1175.513218 -368.277121 17.473665 0.000000 0.033141
285.000000 50.647000 1.000000 -1.000000 -3.000000 69.487533 -21.349462 1395.700344 1373.345615 6.589219 0.000000 0.101771
286.000000 56.408000 4.000000 -3.000000 -9.000000 81.114080 -19.581156 1357.852332 1119.601125 17.745340 0.000000 0.131531
287.000000 60.361000 5.000000 -3.000000 -9.000000 92.029306 -17.605936 1316.543378 900.989669 16.579855 0.000000 0.147620
288.000000 63.382000 7.000000 -3.000000 -9.000000 111.198061 -12.897388 1221.452656 512.771234 15.783814 0.000000 0.130145
289.000000 63.020000 8.000000 -3.000000 -9.000000 119.353712 -10.081001 1166.349020 326.192564 15.872362 0.000000 0.104201
290.000000 60.077000 10.000000 -3.000000 -9.000000 132.896197 -3.272757 1036.545293 -60.654867 16.646248 0.000000 0.038289
291.000000 57.984000 11.000000 -3.000000 -9.000000 138.383580 0.831684 959.375816 -270.687549 17.245896 0.000000 0.007824
295.000000 50.549000 3.000000 -2.000000 -9.000000 67.103229 -14.338874 1250.121800 1410.189250 19.807227 0.000000 0.086674
296.000000 56.639000 4.000000 -2.000000 -9.000000 78.876729 -12.166205 1207.038633 1157.476532 17.674105 0.000000 0.136831
297.000000 60.783000 5.000000 -2.000000 -9.000000 89.866518 -9.759296 1160.120967 943.544272 16.465644 0.000000 0.163224
298.000000 63.096000 6.000000 -2.000000 -9.000000 99.915681 -7.088126 1108.833041 751.404043 15.858793 0.000000 0.167048
299.000000 63.865000 7.000000 -2.000000 -9.000000 108.947148 -4.120373 1052.534412 570.554842 15.665291 0.000000 0.153532
300.000000 63.440000 8.000000 -2.000000 -9.000000 116.947796 -0.822577 990.453065 393.778946 15.768009 0.000000 0.127249
301.000000 62.162000 9.000000 -2.000000 -9.000000 123.948202 2.837738 921.649810 215.555610 16.090251 0.000000 0.092196
302.000000 60.321000 10.000000 -2.000000 -9.000000 130.004264 6.888649 844.970428 31.177465 16.579694 0.000000 0.052868
303.000000 58.143000 11.000000 -2.000000 -9.000000 135.183521 11.348867 758.980405 -163.813520 17.199420 0.000000 0.026253
304.000000 55.794000 12.000000 -2.000000 -9.000000 139.556579 16.221267 661.874344 -374.053663 17.922636 0.000000 0.057295
307.000000 49.201000 3.000000 -1.000000 -9.000000 63.783259 -7.228379 1111.509225 1475.238992 20.351290 0.000000 0.060810
308.000000 55.573000 4.000000 -1.000000 -9.000000 75.567852 -4.713415 1063.741202 1218.929107 18.014447 0.000000 0.129766
309.000000 59.926000 5.000000 -1.000000 -9.000000 86.518126 -1.959975 1011.832253 1006.525556 16.702142 0.000000 0.165482
310.000000 62.382000 6.000000 -1.000000 -9.000000 96.474196 1.052881 955.219525 818.842123 16.041588 0.000000 0.174288
311.000000 63.239000 7.000000 -1.000000 -9.000000 105.362154 4.344447 893.233322 644.451823 15.821289 0.000000 0.162881
312.000000 62.868000 8.000000 -1.000000 -9.000000 113.176296 7.930361 825.070478 475.777503 15.912327 0.000000 0.136268
313.000000 61.624000 9.000000 -1.000000 -9.000000 119.957233 11.819944 749.759376 307.233628 16.231641 0.000000 0.098481
314.000000 59.806000 10.000000 -1.000000 -9.000000 125.772493 16.012998 666.113332 134.234084 16.723305 0.000000 0.054417
315.000000 57.648000 11.000000 -1.000000 -9.000000 130.702375 20.496378 572.667604 -47.408623 17.348280 0.000000 0.032040
316.000000 55.316000 12.000000 -1.000000 -9.000000 134.831088 25.241019 467.592891 -241.908673 18.078490 0.000000 0.079940
319.000000 49.486000 4.000000 1.000000 -9.000000 66.127873 9.361983 797.554265 1423.751811 20.233534 0.000000 0.083713
320.000000 54.269000 5.000000 1.000000 -9.000000 76.719064 12.456741 737.243720 1201.171763 18.446599 0.000000 0.134407
321.000000 57.207000 6.000000 1.000000 -9.000000 86.317460 15.735393 671.749815 1012.968546 17.495907 0.000000 0.153201
322.000000 58.561000 7.000000 1.000000 -9.000000 94.856128 19.191470 600.374325 844.178326 17.088419 0.000000 0.146922
323.000000 58.671000 8.000000 1.000000 -9.000000 102.337855 22.812658 522.287723 685.607443 17.053694 0.000000 0.120991
324.000000 57.876000 9.000000 1.000000 -9.000000 108.813095 26.580213 436.496791 530.990658 17.285843 0.000000 0.079131
325.000000 56.466000 10.000000 1.000000 -9.000000 114.360173 30.468850 341.802153 375.593190 17.715614 0.000000 0.023775
326.000000 54.671000 11.000000 1.000000 -9.000000 119.070434 34.447236 236.741854 215.440892 18.295810 0.000000 0.043746
327.000000 52.660000 12.000000 1.000000 -9.000000 123.038399 38.479177 119.515346 46.839391 18.993153 0.000000 0.123173
330.000000 49.823000 5.000000 2.000000 -9.000000 70.749946 18.738738 609.883244 1337.898193 20.094368 0.000000 0.112048
331.000000 53.045000 6.000000 2.000000 -9.000000 80.121286 21.974790 540.699655 1143.115374 18.870565 0.000000 0.132705
332.000000 54.752000 7.000000 2.000000 -9.000000 88.486661 25.333579 465.466082 972.459944 18.279023 0.000000 0.129244
333.000000 55.243000 8.000000 2.000000 -9.000000 95.846714 28.797938 383.352648 815.233021 18.113997 0.000000 0.105660
334.000000 54.823000 9.000000 2.000000 -9.000000 102.248269 32.346552 293.370425 664.431848 18.250276 0.000000 0.066824
335.000000 53.765000 10.000000 2.000000 -9.000000 107.765638 35.954505 194.331413 514.989565 18.607292 0.000000 0.031495
336.000000 52.289000 11.000000 2.000000 -9.000000 112.486214 39.594189 84.795791 362.846469 19.130849 0.000000 0.075599
337.000000 50.562000 12.000000 2.000000 -9.000000 116.500686 43.236497 -36.998537 204.400502 19.783153 0.000000 0.156295
340.000000 48.215000 2.000000 1.000000 -3.000000 73.580671 27.443111 416.074205 1298.381785 6.920913 0.000000 0.120646
341.000000 50.283000 7.000000 3.000000 -9.000000 81.774051 30.640522 337.453485 1121.842934 19.905465 0.000000 0.118229
342.000000 51.188000 8.000000 3.000000 -9.000000 89.032084 33.897256 251.835080 962.907300 19.551004 0.000000 0.100487
343.000000 51.193000 3.000000 1.000000 -3.000000 95.393255 37.193479 158.241229 813.442778 6.515546 0.000000 0.076646
344.000000 50.543000 10.000000 3.000000 -9.000000 100.922911 40.507840 55.503111 667.813991 19.795807 0.000000 0.075747
345.000000 49.443000 11.000000 3.000000 -9.000000 105.699904 43.818273 -57.788217 521.714914 20.234473 0.000000 0.122820
346.000000 48.052000 4.000000 1.000000 -3.000000 109.807192 47.102867 -183.346819 371.510659 6.939496 0.000000 0.201140
348.000000 46.748000 8.000000 4.000000 -9.000000 82.140005 38.229033 127.156452 1130.145866 21.409990 0.000000 0.122668
349.000000 47.182000 9.000000 4.000000 -9.000000 88.473355 41.269797 30.457158 979.164149 21.210636 0.000000 0.117514
350.000000 46.956000 10.000000 4.000000 -9.000000 94.033068 44.302979 -75.420854 834.962994 21.310062 0.000000 0.134050
351.000000 46.256000 11.000000 4.000000 -9.000000 98.886728 47.311764 -191.849566 692.791147 21.630565 0.000000 0.182050
357.000000 47.639000 3.000000 -7.000000 -8.000000 74.350442 -49.250492 2224.122706 1402.905817 21.011387 0.000000 0.303381
358.000000 52.187000 4.000000 -7.000000 -8.000000 85.002868 -49.201607 2221.969646 1085.030222 19.176939 0.000000 0.254757
359.000000 55.439000 5.000000 -7.000000 -8.000000 95.149649 -49.146604 2219.552188 792.715276 18.048914 0.000000 0.232199
360.000000 57.440000 6.000000 -7.000000 -8.000000 104.679720 -49.084257 2216.818444 510.502952 17.417175 0.000000 0.238358
364.000000 51.191000 3.000000 -6.000000 -8.000000 75.333868 -43.856921 2009.183601 1331.641344 19.553582 0.000000 0.202850
365.000000 56.140000 2.000000 -3.000000 -4.000000 86.588701 -43.464145 1995.085813 1029.393810 8.913277 0.000000 0.151008
366.000000 59.527000 5.000000 -6.000000 -8.000000 97.242659 -43.018720 1979.318298 753.917495 16.809004 0.000000 0.117191
367.000000 61.442000 3.000000 -3.000000 -4.000000 107.173284 -42.509367 1961.565745 489.787555 8.141239 0.000000 0.110822
368.000000 62.091000 7.000000 -6.000000 -8.000000 116.316458 -41.921359 1941.428114 225.572904 16.109861 0.000000 0.136714
369.000000 61.735000 4.000000 -3.000000 -4.000000 124.657122 -41.235113 1918.390135 -48.440811 8.100369 0.000000 0.181226
372.000000 47.425000 2.000000 -5.000000 -8.000000 63.522715 -38.451344 1829.631826 1625.539472 21.110779 0.000000 0.201395
373.000000 54.552000 3.000000 -5.000000 -8.000000 75.846495 -37.720737 1807.477164 1284.128260 18.349172 0.000000 0.140367
374.000000 59.909000 4.000000 -5.000000 -8.000000 87.667309 -36.893906 1782.925615 995.821661 16.705252 0.000000 0.100111
375.000000 63.409000 5.000000 -5.000000 -8.000000 98.776462 -35.950925 1755.565957 735.734647 15.779901 0.000000 0.063430
376.000000 65.200000 6.000000 -5.000000 -8.000000 109.040349 -34.866108 1724.887197 488.287865 15.343820 0.000000 0.026973
377.000000 65.565000 7.000000 -5.000000 -8.000000 118.396833 -33.605840 1690.246356 242.359303 15.255890 0.000000 0.034129
378.000000 64.840000 8.000000 -5.000000 -8.000000 126.840771 -32.125389 1650.822911 -11.153864 15.424501 0.000000 0.077510
379.000000 63.343000 9.000000 -5.000000 -8.000000 134.405794 -30.364141 1605.552973 -280.791340 15.787594 0.000000 0.119163
382.000000 49.543000 1.000000 -2.000000 -4.000000 62.756963 -32.030372 1648.336874 1594.673059 10.104785 0.000000 0.148908
383.000000 57.395000 3.000000 -4.000000 -8.000000 75.662683 -30.847805 1617.817890 1261.419650 17.441056 0.000000 0.116162
384.000000 66.758000 5.000000 -4.000000 -8.000000 99.442200 -27.974242 1546.655309 738.325296 14.988439 0.000000 0.095887
385.000000 68.491000 7.000000 -4.000000 -8.000000 119.388785 -24.159746 1457.797213 276.622657 14.604217 0.000000 0.043052
386.000000 65.536000 9.000000 -4.000000 -8.000000 135.241690 -18.909921 1343.706119 -206.335587 15.259277 0.000000 0.045132
389.000000 50.742000 2.000000 -3.000000 -8.000000 61.171950 -25.008172 1477.071164 1594.667046 19.732893 0.000000 0.110652
390.000000 59.297000 3.000000 -3.000000 -8.000000 74.539523 -23.328385 1439.157777 1265.185505 16.882392 0.000000 0.113470
391.000000 65.459000 4.000000 -3.000000 -8.000000 87.207830 -21.427564 1397.392548 997.389790 15.289830 0.000000 0.134735
392.000000 69.170000 5.000000 -3.000000 -8.000000 98.912417 -19.264151 1351.157065 762.206758 14.466204 0.000000 0.137693
393.000000 70.718000 6.000000 -3.000000 -8.000000 109.500565 -16.787346 1299.693053 542.885964 14.146892 0.000000 0.122725
394.000000 70.560000 7.000000 -3.000000 -8.000000 118.917900 -13.935336 1242.060458 328.384438 14.176198 0.000000 0.095176
395.000000 69.183000 8.000000 -3.000000 -8.000000 127.180512 -10.633762 1177.079506 110.360261 14.456538 0.000000 0.061142
396.000000 67.011000 9.000000 -3.000000 -8.000000 134.345473 -6.795211 1103.249087 -118.422588 14.923639 0.000000 0.027544
397.000000 64.375000 10.000000 -3.000000 -8.000000 140.486951 -2.321308 1018.629357 -365.115468 15.533445 0.000000 0.006662
400.000000 50.624000 1.000000 -1.000000 -4.000000 58.610954 -17.532464 1315.024869 1629.682186 9.890140 0.000000 0.077379
401.000000 59.806000 3.000000 -2.000000 -8.000000 72.269793 -15.355761 1270.566956 1297.854293 16.739868 0.000000 0.109784
402.000000 66.354000 2.000000 -1.000000 -4.000000 85.135174 -12.911206 1221.725859 1034.981489 7.542219 0.000000 0.151527
403.000000 70.221000 5.000000 -2.000000 -8.000000 96.920449 -10.156878 1167.819750 808.284470 14.250642 0.000000 0.164358
404.000000 71.470000 7.000000 -2.000000 -8.000000 116.730643 -3.524783 1041.296279 397.931621 13.996304 0.000000 0.126668
405.000000 67.582000 9.000000 -2.000000 -8.000000 131.563748 4.956289 881.663780 -16.943511 14.798055 0.000000 0.045671
406.000000 64.788000 5.000000 -1.000000 -4.000000 137.299031 10.006929 785.086073 -243.347123 7.717478 0.000000 0.024942
409.000000 48.886000 2.000000 -1.000000 -8.000000 55.007612 -9.829191 1161.473065 1705.640407 20.485007 0.000000 0.053090
410.000000 58.557000 3.000000 -1.000000 -8.000000 68.752978 -7.213095 1111.217499 1362.821837 17.098290 0.000000 0.093227
411.000000 65.468000 4.000000 -1.000000 -8.000000 81.635204 -4.311777 1056.149450 1099.706846 15.289841 0.000000 0.152411
412.000000 69.563000 5.000000 -1.000000 -8.000000 93.354627 -1.093454 995.542889 877.900139 14.386479 0.000000 0.173678
413.000000 71.213000 6.000000 -1.000000 -8.000000 103.753776 2.472900 928.518015 677.311733 14.050212 0.000000 0.166917
414.000000 70.986000 7.000000 -1.000000 -8.000000 112.795326 6.414509 853.998260 485.821284 14.092709 0.000000 0.139843
415.000000 69.458000 8.000000 -1.000000 -8.000000 120.524437 10.750366 770.652029 295.058963 14.400721 0.000000 0.098394
416.000000 67.114000 9.000000 -1.000000 -8.000000 127.032931 15.485404 676.812430 98.396012 14.902053 0.000000 0.049671
417.000000 64.319000 10.000000 -1.000000 -8.000000 132.433299 20.603868 570.364649 -110.177139 15.548511 0.000000 0.038868
418.000000 61.325000 11.000000 -1.000000 -8.000000 136.843287 26.063249 448.584654 -336.815189 16.306689 0.000000 0.101129
420.000000 45.462000 1.000000 0.000000 -4.000000 50.432689 -2.169054 1015.764887 1830.991911 11.014869 0.000000 0.080494
421.000000 55.422000 3.000000 0.000000 -8.000000 64.053015 0.778779 960.369823 1464.759951 18.067190 0.000000 0.061625
422.000000 67.048000 5.000000 0.000000 -8.000000 88.316659 7.497293 833.354900 972.903199 14.927583 0.000000 0.166712
423.000000 69.008000 7.000000 0.000000 -8.000000 107.319546 15.384346 678.855509 592.895525 14.498024 0.000000 0.137349
424.000000 65.556000 9.000000 0.000000 -8.000000 121.100412 24.395711 486.868407 228.073265 15.257661 0.000000 0.036887
425.000000 62.931000 5.000000 0.000000 -4.000000 126.299914 29.248718 372.277867 34.859062 7.946357 0.000000 0.046706
426.000000 60.085000 11.000000 0.000000 -8.000000 130.546215 34.261331 241.865737 -173.057622 16.644294 0.000000 0.129015
428.000000 50.600000 3.000000 1.000000 -8.000000 58.404851 8.332546 817.361214 1610.078076 19.790540 0.000000 0.042017
429.000000 58.046000 4.000000 1.000000 -8.000000 70.837182 11.706703 751.978856 1322.967610 17.248105 0.000000 0.110247
430.000000 62.798000 5.000000 1.000000 -8.000000 82.104505 15.308144 680.394758 1095.752547 15.939428 0.000000 0.146795
431.000000 65.150000 6.000000 1.000000 -8.000000 92.059272 19.129328 601.682605 900.038310 15.360907 0.000000 0.148337
432.000000 65.612000 7.000000 1.000000 -8.000000 100.676767 23.154011 514.721937 720.307552 15.250201 0.000000 0.123227
433.000000 64.724000 8.000000 1.000000 -8.000000 108.017272 27.356242 418.144475 546.853277 15.457201 0.000000 0.077192
434.000000 62.954000 9.000000 1.000000 -8.000000 114.189569 31.700212 310.261597 372.752322 15.889816 0.000000 0.014209
435.000000 60.663000 10.000000 1.000000 -8.000000 119.323637 36.141264 188.964763 192.364397 16.488410 0.000000 0.065516
436.000000 58.106000 11.000000 1.000000 -8.000000 123.553287 40.628158 51.586328 0.460114 17.212663 0.000000 0.160089
439.000000 52.116000 2.000000 1.000000 -4.000000 64.187028 18.639642 611.957757 1490.420103 9.606147 0.000000 0.092152
440.000000 57.196000 5.000000 2.000000 -8.000000 75.129324 22.194329 535.896706 1249.659182 17.502389 0.000000 0.123375
441.000000 60.031000 3.000000 1.000000 -4.000000 84.842626 25.895612 452.481431 1048.985884 8.336390 0.000000 0.127949
442.000000 61.042000 7.000000 2.000000 -8.000000 93.299115 29.720137 360.591146 869.560608 16.393671 0.000000 0.106415
443.000000 60.707000 4.000000 1.000000 -4.000000 100.552050 33.638638 258.865134 700.183972 8.240860 0.000000 0.066325
444.000000 59.455000 9.000000 2.000000 -8.000000 106.702136 37.616935 145.634908 533.294267 16.826866 0.000000 0.042450
445.000000 57.627000 5.000000 1.000000 -4.000000 111.871477 41.617536 18.831984 363.086349 8.679519 0.000000 0.104233
446.000000 55.473000 11.000000 2.000000 -8.000000 116.186448 45.601670 -124.139627 184.490397 18.031510 0.000000 0.201271
449.000000 50.779000 5.000000 3.000000 -8.000000 67.814139 28.146993 399.177432 1438.785781 19.716248 0.000000 0.121369
450.000000 54.072000 6.000000 3.000000 -8.000000 77.276966 31.645152 311.689575 1226.450697 18.512141 0.000000 0.121608
451.000000 55.661000 7.000000 3.000000 -8.000000 85.591095 35.206473 215.575778 1042.562421 17.980797 0.000000 0.107271
452.000000 55.938000 8.000000 3.000000 -8.000000 92.795441 38.804624 109.494168 873.561820 17.889313 0.000000 0.088802
453.000000 55.276000 9.000000 3.000000 -8.000000 98.974654 42.411579 -8.190679 710.774006 18.101167 0.000000 0.100058
454.000000 53.989000 10.000000 3.000000 -8.000000 104.235620 45.998903 -139.492652 547.927676 18.531038 0.000000 0.160719
455.000000 52.313000 11.000000 3.000000 -8.000000 108.691292 49.539074 -286.920303 379.886189 19.122861 0.000000 0.255853
457.000000 47.752000 3.000000 2.000000 -4.000000 69.713529 36.498918 178.615572 1435.912609 10.482279 0.000000 0.154215
458.000000 49.863000 7.000000 4.000000 -8.000000 77.882153 39.780356 78.890417 1241.699163 20.073719 0.000000 0.145995
459.000000 50.732000 4.000000 2.000000 -4.000000 85.045347 43.062705 -30.865097 1068.709248 9.863593 0.000000 0.146438
460.000000 50.668000 9.000000 4.000000 -8.000000 91.267928 46.324554 -152.244386 906.504339 19.749824 0.000000 0.171919
461.000000 49.943000 5.000000 2.000000 -4.000000 96.637857 49.545281 -287.197237 747.961833 10.017178 0.000000 0.231974
464.000000 45.875000 9.000000 5.000000 -8.000000 83.771051 49.550468 -287.428694 1122.068437 21.815591 0.000000 0.256866
465.000000 45.688000 10.000000 5.000000 -8.000000 89.239185 52.453820 -425.315650 964.453641 21.903041 0.000000 0.316281
474.000000 57.466000 3.000000 -6.000000 -7.000000 79.169100 -48.485635 2190.914980 1251.671882 17.417032 0.000000 0.262704
475.000000 62.612000 4.000000 -6.000000 -7.000000 91.164072 -48.373349 2186.124275 908.076895 15.982174 0.000000 0.220352
476.000000 65.796000 5.000000 -6.000000 -7.000000 102.391750 -48.244060 2180.634233 585.908811 15.205888 0.000000 0.213784
477.000000 67.222000 6.000000 -6.000000 -7.000000 112.730412 -48.093591 2174.279663 265.922328 14.880896 0.000000 0.243803
480.000000 54.401000 2.000000 -5.000000 -7.000000 67.095138 -42.507344 1961.495810 1557.871754 18.402404 0.000000 0.228945
481.000000 62.348000 3.000000 -5.000000 -7.000000 80.499206 -41.970623 1943.100945 1183.270592 16.053351 0.000000 0.157323
482.000000 67.888000 4.000000 -5.000000 -7.000000 93.212635 -41.352656 1922.301603 860.520806 14.740093 0.000000 0.106930
483.000000 71.040000 5.000000 -5.000000 -7.000000 104.999929 -40.633668 1898.593367 560.982849 14.083208 0.000000 0.080410
484.000000 72.127000 6.000000 -5.000000 -7.000000 115.733762 -39.786974 1871.320121 265.899536 13.868422 0.000000 0.099196
485.000000 71.615000 7.000000 -5.000000 -7.000000 125.380237 -38.775728 1839.612387 -39.401038 13.965577 0.000000 0.147948
488.000000 46.641000 1.000000 -4.000000 -7.000000 52.282604 -36.482776 1770.915278 1976.248731 21.469506 0.000000 0.263374
489.000000 57.968000 2.000000 -4.000000 -7.000000 66.917846 -35.528373 1743.517689 1504.610899 17.270728 0.000000 0.157771
490.000000 66.826000 3.000000 -4.000000 -7.000000 81.109160 -34.433467 1712.877850 1145.134703 14.978051 0.000000 0.112927
491.000000 72.743000 4.000000 -4.000000 -7.000000 94.458114 -33.165575 1678.384026 840.754820 13.756424 0.000000 0.083716
492.000000 75.813000 5.000000 -4.000000 -7.000000 106.696274 -31.681784 1639.260267 561.639538 13.196416 0.000000 0.048329
493.000000 76.510000 6.000000 -4.000000 -7.000000 117.692961 -29.924425 1594.507331 289.207231 13.073694 0.000000 0.007279
494.000000 75.452000 7.000000 -4.000000 -7.000000 127.429159 -27.814600 1542.816142 9.634631 13.255046 0.000000 0.045126
495.000000 73.227000 8.000000 -4.000000 -7.000000 135.958276 -25.242347 1482.437612 -289.400676 13.656380 0.000000 0.087401
498.000000 47.799000 1.000000 -3.000000 -7.000000 50.394881 -29.206581 1576.682795 1961.259721 20.950472 0.000000 0.209720
499.000000 60.502000 2.000000 -3.000000 -7.000000 65.779268 -27.683615 1539.674567 1487.764001 16.548528 0.000000 0.115541
500.000000 70.268000 3.000000 -3.000000 -7.000000 80.619041 -25.935160 1498.436869 1138.724853 14.244859 0.000000 0.118631
501.000000 76.554000 4.000000 -3.000000 -7.000000 94.447531 -23.911245 1452.200716 849.426073 13.071910 0.000000 0.124352
502.000000 79.543000 5.000000 -3.000000 -7.000000 106.964320 -21.547685 1399.998677 588.006653 12.577750 0.000000 0.109879
503.000000 79.876000 6.000000 -3.000000 -7.000000 118.037804 -18.761635 1340.596445 335.647446 12.522972 0.000000 0.079869
504.000000 78.326000 7.000000 -3.000000 -7.000000 127.664869 -15.446163 1272.393998 79.066834 12.768910 0.000000 0.044649
505.000000 75.589000 8.000000 -3.000000 -7.000000 135.918109 -11.464457 1193.279316 -192.977078 13.229695 0.000000 0.024660
508.000000 47.359000 1.000000 -2.000000 -7.000000 47.477674 -21.272888 1394.043008 2000.183391 21.147002 0.000000 0.185467
509.000000 61.291000 2.000000 -2.000000 -7.000000 63.390091 -19.144405 1348.634724 1511.767115 16.336680 0.000000 0.083903
510.000000 71.904000 3.000000 -2.000000 -7.000000 78.654577 -16.714904 1298.208954 1166.479305 13.921734 0.000000 0.130453
511.000000 78.575000 4.000000 -2.000000 -7.000000 92.742663 -13.926559 1241.885435 887.878510 12.736337 0.000000 0.157158
512.000000 81.572000 5.000000 -2.000000 -7.000000 105.328060 -10.710140 1178.565211 640.762408 12.265603 0.000000 0.152069
513.000000 81.680000 6.000000 -2.000000 -7.000000 116.282904 -6.984575 1106.858206 405.487680 12.246914 0.000000 0.124271
514.000000 79.808000 7.000000 -2.000000 -7.000000 125.623644 -2.658741 1024.980001 168.945887 12.532287 0.000000 0.082523
515.000000 76.739000 8.000000 -2.000000 -7.000000 133.447335 2.362194 930.601316 -79.353605 13.031973 0.000000 0.035740
516.000000 73.052000 9.000000 -2.000000 -7.000000 139.882303 8.162487 820.622859 -349.412252 13.688383 0.000000 0.025704
519.000000 59.704000 2.000000 -1.000000 -7.000000 59.577072 -10.229530 1169.228640 1583.246198 16.772156 0.000000 0.044602
520.000000 71.022000 3.000000 -1.000000 -7.000000 74.981295 -7.192601 1110.826376 1232.059192 14.095908 0.000000 0.125884
521.000000 78.123000 4.000000 -1.000000 -7.000000 89.083327 -3.764888 1045.824926 958.258305 12.811186 0.000000 0.168659
522.000000 81.310000 5.000000 -1.000000 -7.000000 101.543488 0.104403 973.038797 721.174219 12.306064 0.000000 0.170488
523.000000 81.456000 6.000000 -1.000000 -7.000000 112.244250 4.463670 890.980455 499.463234 12.281542 0.000000 0.143840
524.000000 79.547000 7.000000 -1.000000 -7.000000 121.226325 9.351446 797.757590 279.708530 12.574188 0.000000 0.097998
525.000000 76.420000 8.000000 -1.000000 -7.000000 128.617976 14.785339 690.925389 51.810363 13.087128 0.000000 0.043846
526.000000 72.680000 9.000000 -1.000000 -7.000000 134.583256 20.748118 567.269007 -193.313944 13.759294 0.000000 0.051114
529.000000 49.019000 2.000000 1.000000 -7.000000 48.144221 7.080576 841.310979 1912.614981 20.431458 0.000000 0.117480
530.000000 60.947000 3.000000 1.000000 -7.000000 62.972451 10.786389 769.950867 1499.926596 16.429253 0.000000 0.068351
531.000000 68.945000 4.000000 1.000000 -7.000000 76.488529 14.779674 691.039221 1208.472921 14.519896 0.000000 0.132204
532.000000 73.158000 5.000000 1.000000 -7.000000 88.367104 19.051943 603.310387 973.460119 13.680521 0.000000 0.147884
533.000000 74.333000 6.000000 1.000000 -7.000000 98.509977 23.581198 505.199135 765.281600 13.461441 0.000000 0.125611
534.000000 73.380000 7.000000 1.000000 -7.000000 106.982139 28.330068 394.746458 567.586314 13.633995 0.000000 0.074755
535.000000 71.099000 8.000000 1.000000 -7.000000 113.939972 33.245649 269.467422 369.637221 14.069613 0.000000 0.008533
536.000000 68.087000 9.000000 1.000000 -7.000000 119.576867 38.261687 126.161979 163.041666 14.690450 0.000000 0.095339
539.000000 52.855000 3.000000 2.000000 -7.000000 55.531267 18.519259 614.474646 1720.201545 18.946004 0.000000 0.097324
540.000000 61.137000 4.000000 2.000000 -7.000000 68.551685 22.462152 530.017037 1398.556269 16.376047 0.000000 0.109614
541.000000 65.996000 5.000000 2.000000 -7.000000 80.070254 26.583119 436.428546 1151.692385 15.167133 0.000000 0.124896
542.000000 67.994000 6.000000 2.000000 -7.000000 89.986314 30.849307 332.143820 941.299467 14.718470 0.000000 0.107750
543.000000 67.895000 7.000000 2.000000 -7.000000 98.351028 35.219187 215.218008 747.606171 14.737513 0.000000 0.068414
544.000000 66.411000 8.000000 2.000000 -7.000000 105.303717 39.644458 83.204345 558.521030 15.064749 0.000000 0.062338
545.000000 64.102000 9.000000 2.000000 -7.000000 111.021293 44.073007 -67.018937 365.306046 15.605798 0.000000 0.143741
548.000000 52.409000 4.000000 3.000000 -7.000000 60.330576 28.991632 378.605807 1641.986722 19.105135 0.000000 0.139447
549.000000 57.798000 5.000000 3.000000 -7.000000 71.458230 32.850626 280.028932 1370.711993 17.320303 0.000000 0.131815
550.000000 60.607000 6.000000 3.000000 -7.000000 81.158897 36.775073 170.559080 1150.003181 16.514458 0.000000 0.120869
551.000000 61.419000 7.000000 3.000000 -7.000000 89.458746 40.729231 48.285110 954.417366 16.293606 0.000000 0.110148
552.000000 60.826000 8.000000 3.000000 -7.000000 96.466924 44.675703 -89.178962 769.435812 16.450163 0.000000 0.135390
553.000000 59.326000 9.000000 3.000000 -7.000000 102.331821 48.577523 -244.851206 585.355836 16.864370 0.000000 0.213366
556.000000 49.384000 5.000000 4.000000 -7.000000 63.010643 38.031481 133.153998 1636.908026 20.273776 0.000000 0.196189
557.000000 52.853000 6.000000 4.000000 -7.000000 72.477126 41.602387 19.341049 1395.453290 18.939856 0.000000 0.184445
558.000000 54.491000 7.000000 4.000000 -7.000000 80.706047 45.160280 -107.332851 1190.789864 18.367547 0.000000 0.189774
559.000000 54.759000 8.000000 4.000000 -7.000000 87.772272 48.678149 -249.178192 1004.409744 18.275202 0.000000 0.225482
560.000000 54.074000 9.000000 4.000000 -7.000000 93.791092 52.130779 -409.094161 824.818504 18.504804 0.000000 0.301462
562.000000 47.581000 7.000000 5.000000 -7.000000 72.359368 48.760879 -252.748578 1460.204098 21.037796 0.000000 0.293676
572.000000 62.630000 2.000000 -5.000000 -6.000000 71.008052 -47.580376 2152.882185 1490.145004 15.983042 0.000000 0.287967
573.000000 71.345000 3.000000 -5.000000 -6.000000 85.573294 -47.379284 2144.612212 1064.048005 14.027382 0.000000 0.215546
574.000000 76.811000 4.000000 -5.000000 -6.000000 99.192062 -47.143045 2134.976978 684.933827 13.026155 0.000000 0.187030
575.000000 79.263000 5.000000 -5.000000 -6.000000 111.612166 -46.861570 2123.607985 317.393275 12.620477 0.000000 0.209792
578.000000 54.963000 1.000000 -4.000000 -6.000000 55.415502 -40.804605 1904.183257 1921.333290 18.217481 0.000000 0.290280
579.000000 78.255000 3.000000 -4.000000 -6.000000 87.379830 -39.177453 1852.099160 1004.537610 12.788726 0.000000 0.109762
580.000000 85.911000 5.000000 -4.000000 -6.000000 114.803512 -36.870243 1782.230848 319.249900 11.643552 0.000000 0.053991
582.000000 57.790000 1.000000 -3.000000 -6.000000 53.974555 -32.743532 1667.123975 1871.571874 17.327417 0.000000 0.208865
583.000000 73.328000 2.000000 -3.000000 -6.000000 71.412990 -31.258233 1628.323020 1364.403847 13.652328 0.000000 0.121827
584.000000 90.013000 4.000000 -3.000000 -6.000000 103.053041 -27.414182 1533.235997 659.901200 11.115524 0.000000 0.089198
585.000000 86.388000 7.000000 -3.000000 -6.000000 137.510318 -17.843638 1321.464746 -293.371682 11.575623 0.000000 0.052512
587.000000 58.501000 1.000000 -2.000000 -6.000000 51.217580 -23.674024 1446.878290 1885.285861 17.118223 0.000000 0.160275
588.000000 87.913000 3.000000 -2.000000 -6.000000 86.671743 -18.621345 1337.659480 1007.049013 11.384746 0.000000 0.141904
589.000000 88.594000 7.000000 -2.000000 -6.000000 135.740951 -1.284806 999.138965 -163.775672 11.287764 0.000000 0.021934
591.000000 56.084000 1.000000 -1.000000 -6.000000 46.898183 -13.918197 1241.718690 1978.709396 17.857438 0.000000 0.157219
592.000000 75.057000 2.000000 -1.000000 -6.000000 65.558665 -10.782652 1179.976394 1438.957267 13.340150 0.000000 0.075361
593.000000 87.969000 3.000000 -1.000000 -6.000000 82.960153 -7.163687 1110.274628 1074.957876 11.378624 0.000000 0.153980
594.000000 88.651000 7.000000 -1.000000 -6.000000 130.669457 13.812072 710.396307 -11.298005 11.281201 0.000000 0.036821
595.000000 83.440000 8.000000 -1.000000 -6.000000 137.323048 20.951870 562.886333 -308.956455 11.984620 0.000000 0.069451
597.000000 50.145000 1.000000 0.000000 -6.000000 41.067585 -3.993890 1050.146485 2179.196225 19.973892 0.000000 0.225184
598.000000 69.846000 2.000000 0.000000 -6.000000 59.592887 -0.232862 979.374316 1572.642939 14.336930 0.000000 0.022935
599.000000 90.588000 4.000000 0.000000 -6.000000 91.866154 8.729605 809.734641 905.521129 11.047727 0.000000 0.168882
600.000000 86.292000 7.000000 0.000000 -6.000000 122.947608 25.991746 450.248118 164.953172 11.590830 0.000000 0.021922
601.000000 81.395000 8.000000 0.000000 -6.000000 129.228672 32.576908 287.292120 -101.759301 12.286924 0.000000 0.099511
602.000000 60.838000 2.000000 1.000000 -6.000000 52.059065 9.631077 792.357925 1792.103841 16.461466 0.000000 0.078902
603.000000 74.918000 3.000000 1.000000 -6.000000 68.678317 14.109310 704.467637 1374.166480 13.364061 0.000000 0.101336
604.000000 82.845000 4.000000 1.000000 -6.000000 83.280986 18.952927 605.390991 1075.065919 12.082024 0.000000 0.142986
605.000000 85.554000 5.000000 1.000000 -6.000000 95.568277 24.131181 492.847203 826.022353 11.696450 0.000000 0.127903
606.000000 84.650000 6.000000 1.000000 -6.000000 105.582987 29.587503 363.890239 595.828228 11.819078 0.000000 0.071722
607.000000 81.609000 7.000000 1.000000 -6.000000 113.558689 35.239462 214.647189 366.406940 12.257570 0.000000 0.024326
608.000000 77.502000 8.000000 1.000000 -6.000000 119.799918 40.983896 39.922636 124.464777 12.905774 0.000000 0.138340
610.000000 49.676000 1.000000 1.000000 -3.000000 43.758587 18.369906 617.592298 2125.325668 10.080657 0.000000 0.213025
611.000000 63.630000 3.000000 2.000000 -6.000000 59.564398 22.796139 522.652877 1626.936401 15.736715 0.000000 0.107208
612.000000 76.297000 5.000000 2.000000 -6.000000 85.518394 32.262669 295.576113 1040.760591 13.117758 0.000000 0.110960
613.000000 75.057000 7.000000 2.000000 -6.000000 103.400318 42.164931 0.275681 595.060479 13.329717 0.000000 0.094072
615.000000 51.573000 1.000000 1.000000 -2.000000 50.340709 30.023431 353.014199 1971.543065 6.472444 0.000000 0.210542
616.000000 60.670000 4.000000 3.000000 -6.000000 63.696095 34.322384 240.185518 1585.198043 16.502538 0.000000 0.161887
617.000000 65.751000 5.000000 3.000000 -6.000000 75.273165 38.685377 113.176586 1303.417378 15.223989 0.000000 0.148364
618.000000 67.317000 7.000000 3.000000 -6.000000 93.147944 47.403679 -195.612099 853.543125 14.864690 0.000000 0.188073
619.000000 65.605000 8.000000 3.000000 -6.000000 99.791712 51.660083 -385.874578 641.563767 15.250680 0.000000 0.290202
620.000000 49.322000 2.000000 2.000000 -3.000000 54.283675 39.860284 76.345193 1949.143985 10.150533 0.000000 0.277771
621.000000 55.132000 5.000000 4.000000 -6.000000 65.452693 43.767893 -55.971964 1621.704229 18.158500 0.000000 0.249534
622.000000 58.168000 3.000000 2.000000 -3.000000 75.084966 47.640028 -205.347635 1366.479387 8.603988 0.000000 0.256675
623.000000 59.110000 7.000000 4.000000 -6.000000 83.255209 51.442589 -375.307930 1145.217712 16.931285 0.000000 0.304471
637.000000 81.360000 2.000000 -4.000000 -5.000000 77.226276 -46.055038 2091.680032 1292.614749 12.302438 0.000000 0.226777
639.000000 71.287000 1.000000 -3.000000 -5.000000 58.362261 -37.519628 1801.455616 1777.062133 14.045583 0.000000 0.224539
640.000000 90.265000 2.000000 -3.000000 -5.000000 78.308059 -36.228088 1763.538893 1217.112611 11.089061 0.000000 0.124835
642.000000 74.669000 1.000000 -2.000000 -5.000000 56.134541 -27.035259 1524.233876 1751.908729 13.410636 0.000000 0.145817
643.000000 73.173000 1.000000 -1.000000 -5.000000 51.665000 -15.338717 1270.222671 1823.510036 13.686326 0.000000 0.107703
646.000000 78.082000 2.000000 1.000000 -5.000000 57.222652 13.231329 721.936486 1652.920961 12.824874 0.000000 0.064602
647.000000 89.781000 7.000000 1.000000 -5.000000 119.921340 44.586807 -85.881612 71.243054 11.140638 0.000000 0.205086
649.000000 61.327000 2.000000 2.000000 -5.000000 46.751970 23.224231 513.160794 2042.677190 16.330153 0.000000 0.199249
650.000000 77.667000 3.000000 2.000000 -5.000000 64.328056 28.549225 389.422041 1529.948622 12.891150 0.000000 0.126644
651.000000 85.893000 4.000000 2.000000 -5.000000 79.203204 34.080351 246.832164 1188.812978 11.653438 0.000000 0.120665
652.000000 87.874000 5.000000 2.000000 -5.000000 91.236831 39.722530 80.728121 910.788221 11.388014 0.000000 0.098042
653.000000 85.976000 6.000000 2.000000 -5.000000 100.695702 45.368519 -115.229278 651.645532 11.637213 0.000000 0.144850
655.000000 60.660000 3.000000 3.000000 -5.000000 52.971992 36.156832 188.516268 1946.531354 16.507317 0.000000 0.245136
656.000000 70.165000 4.000000 3.000000 -5.000000 67.166863 41.056646 37.521860 1541.966421 14.267934 0.000000 0.205085
657.000000 74.333000 5.000000 3.000000 -5.000000 78.997856 45.939923 -137.199206 1241.903826 13.465081 0.000000 0.208809
658.000000 74.768000 6.000000 3.000000 -5.000000 88.607582 50.737164 -341.716249 982.337395 13.384235 0.000000 0.270896
673.000000 89.546000 1.000000 -3.000000 -4.000000 63.659538 -44.205830 2021.863554 1684.379374 11.180347 0.000000 0.276469
676.000000 69.590000 1.000000 1.000000 -4.000000 39.318146 12.032304 745.592264 2284.644876 14.392580 0.000000 0.263886
680.000000 80.323000 4.000000 3.000000 -4.000000 70.356255 49.554867 -287.625027 1533.208638 12.462431 0.000000 0.322906
#UB matrix in q= (UB) B0 G* 
#[[-0.887120589  0.310960116  0.340351092]
# [ 0.353847748  0.933437808  0.069457997]
# [-0.296325549  0.182168864 -0.938629577]]
#B0 matrix in q= UB (B0) G*
#[[ 0.19670273 -0.          0.03056101]
# [ 0.          0.19187965 -0.        ]
# [ 0.          0.          0.18806537]]
#UBB0 matrix in q= (UB B0) G* i.e. recip. basis vectors are columns in LT frame: astar = UBB0[:,0], bstar = UBB0[:,1], cstar = UBB0[:,2]. (abcstar as columns on xyzlab1, xlab1 = ui, ui = unit vector along incident beam)
#[[-0.17449904  0.05966692  0.03689696]
# [ 0.06960282  0.17910772  0.02387659]
# [-0.05828805  0.0349545  -0.18557973]]
#Euler angles phi theta psi (deg)
#[238.415 159.644  78.489]
#deviatoric strain in direct crystal frame (10-3 unit)
#[[ 3.26 -0.25 -0.45]
# [-0.25  2.56  0.23]
# [-0.45  0.23 -5.83]]
#deviatoric strain in sample2 frame (10-3 unit)
#[[ 1.94  0.17 -3.33]
# [ 0.17  2.45  0.49]
# [-3.32  0.49 -4.4 ]]
#new lattice parameters
#[ 5.1505     5.2079728  5.3122716 89.9817429 99.266141  90.0286232]
#CCDLabel
#sCMOS
#DetectorParameters
#[79.0, 975.0, 941.0, 0.0, 0.0]
#pixelsize
#0.0734
#Frame dimensions
#[2018, 2016]
#
