#Strain and Orientation Refinement from experimental file: /home/micha/LaueProjects/DepthEffects/testZrO2_85.cor
#File created at Wed Jun 28 14:23:36 2023 with indexingSpotsSet.py
#Number of indexed spots: 537
#Element
#ZrO2
#grainIndex
#G_0
#Mean Deviation(pixel): 0.115
##spot_index intensity h k l 2theta Chi Xexp Yexp Energy GrainIndex PixDev
1.000000 49.553000 2.000000 -8.000000 -1.000000 58.408034 -36.060612 1758.714525 1759.823541 20.191306 0.000000 0.225234
2.000000 49.335000 3.000000 -8.000000 -1.000000 60.388375 -28.445818 1558.062941 1636.702760 20.280824 0.000000 0.146629
3.000000 47.861000 4.000000 -8.000000 -1.000000 61.423074 -21.314519 1394.943842 1570.296963 20.905749 0.000000 0.100554
4.000000 45.530000 5.000000 -8.000000 -1.000000 61.682993 -14.817805 1259.727057 1540.886786 21.976257 0.000000 0.070734
7.000000 54.953000 2.000000 -7.000000 -1.000000 57.139591 -33.876069 1697.587391 1778.380950 18.207681 0.000000 0.212767
8.000000 54.224000 3.000000 -7.000000 -1.000000 59.091801 -25.434280 1486.851454 1654.512772 18.452858 0.000000 0.132919
9.000000 51.888000 4.000000 -7.000000 -1.000000 59.925578 -17.701695 1318.524404 1595.240873 19.284087 0.000000 0.085711
10.000000 48.596000 5.000000 -7.000000 -1.000000 59.907153 -10.833939 1180.974929 1576.045469 20.590733 0.000000 0.053188
14.000000 61.372000 2.000000 -6.000000 -1.000000 55.387090 -31.075399 1623.632081 1808.312781 16.303965 0.000000 0.200864
15.000000 59.738000 3.000000 -6.000000 -1.000000 57.250537 -21.663774 1402.521450 1685.896369 16.750143 0.000000 0.119060
16.000000 56.085000 4.000000 -6.000000 -1.000000 57.802803 -13.306789 1229.559847 1637.402428 17.841613 0.000000 0.070101
17.000000 51.477000 5.000000 -6.000000 -1.000000 57.453262 -6.128497 1090.564140 1631.858298 19.439116 0.000000 0.036991
18.000000 46.672000 6.000000 -6.000000 -1.000000 56.565494 -0.075787 976.423654 1651.616307 21.440777 0.000000 0.023736
21.000000 68.851000 2.000000 -5.000000 -1.000000 52.853054 -27.376457 1532.337000 1859.218542 14.533695 0.000000 0.192528
22.000000 65.627000 3.000000 -5.000000 -1.000000 54.545913 -16.855003 1301.080130 1741.814412 15.248126 0.000000 0.109473
23.000000 60.008000 4.000000 -5.000000 -1.000000 54.741101 -7.917581 1124.684804 1709.223584 16.676368 0.000000 0.065201
24.000000 53.691000 5.000000 -5.000000 -1.000000 54.047772 -0.569523 985.698766 1721.641855 18.638642 0.000000 0.053119
25.000000 47.629000 6.000000 -5.000000 -1.000000 52.916698 5.394605 873.362493 1758.121167 21.010864 0.000000 0.069556
28.000000 76.909000 2.000000 -4.000000 -1.000000 48.979523 -22.317020 1416.793998 1953.092696 13.011975 0.000000 0.198564
29.000000 70.986000 3.000000 -4.000000 -1.000000 50.433436 -10.615861 1176.731393 1845.817138 14.098066 0.000000 0.122977
30.000000 62.651000 4.000000 -4.000000 -1.000000 50.271100 -1.288690 999.211971 1835.700492 15.973876 0.000000 0.102788
31.000000 54.388000 5.000000 -4.000000 -1.000000 49.335247 5.961335 862.611200 1870.635062 18.400613 0.000000 0.116985
32.000000 47.147000 6.000000 -4.000000 -1.000000 48.119508 11.591068 754.243356 1926.132577 21.226940 0.000000 0.144826
35.000000 83.127000 2.000000 -3.000000 -1.000000 42.662592 -15.122669 1265.863375 2150.793751 12.039718 0.000000 0.255868
36.000000 73.299000 3.000000 -3.000000 -1.000000 44.000918 -2.432846 1020.728209 2056.505055 13.654228 0.000000 0.201487
37.000000 62.038000 4.000000 -3.000000 -1.000000 43.746996 6.812982 846.412340 2073.426123 16.132722 0.000000 0.204405
38.000000 52.267000 5.000000 -3.000000 -1.000000 42.913762 13.525402 716.099876 2131.695169 19.148399 0.000000 0.228755
43.000000 47.204000 1.000000 -10.000000 0.000000 68.719126 -46.248411 2099.249269 1547.212162 21.191405 0.000000 0.291576
44.000000 47.966000 1.000000 -5.000000 0.000000 71.233986 -39.418742 1859.667840 1414.366904 10.427423 0.000000 0.182296
45.000000 47.748000 3.000000 -10.000000 0.000000 72.904313 -32.684353 1665.553648 1334.298167 20.950186 0.000000 0.130347
46.000000 46.694000 2.000000 -5.000000 0.000000 73.775116 -26.220694 1505.085394 1290.124685 10.711605 0.000000 0.114001
48.000000 52.599000 1.000000 -9.000000 0.000000 69.039894 -45.490805 2069.893498 1529.127125 19.017687 0.000000 0.275932
49.000000 53.331000 2.000000 -9.000000 0.000000 71.677740 -37.907353 1813.094095 1392.726092 18.756694 0.000000 0.166515
50.000000 52.756000 1.000000 -3.000000 0.000000 73.279190 -30.492035 1608.784272 1316.223411 6.320491 0.000000 0.122113
51.000000 51.121000 4.000000 -9.000000 0.000000 73.931575 -23.472100 1442.363009 1278.980423 19.568251 0.000000 0.112213
52.000000 48.741000 5.000000 -9.000000 0.000000 73.799618 -17.006280 1304.185177 1267.998949 20.524389 0.000000 0.111358
53.000000 45.919000 2.000000 -3.000000 0.000000 73.076685 -11.174965 1187.623340 1274.810734 7.262017 0.000000 0.109106
56.000000 59.363000 1.000000 -8.000000 0.000000 69.426536 -44.542518 2034.242596 1507.811493 16.850740 0.000000 0.257718
57.000000 59.965000 1.000000 -4.000000 0.000000 72.173628 -36.027969 1757.776569 1368.963399 8.340858 0.000000 0.150433
58.000000 58.782000 3.000000 -8.000000 0.000000 73.627376 -27.802980 1542.537141 1298.480640 17.017732 0.000000 0.116041
59.000000 56.254000 2.000000 -4.000000 0.000000 73.951694 -20.163126 1370.212937 1270.817541 8.891366 0.000000 0.111614
60.000000 52.888000 5.000000 -8.000000 0.000000 73.404851 -13.285248 1229.132605 1270.578183 18.915197 0.000000 0.110330
61.000000 49.125000 3.000000 -4.000000 0.000000 72.258218 -7.228170 1111.505245 1288.112845 10.182419 0.000000 0.105211
62.000000 68.080000 1.000000 -7.000000 0.000000 69.900018 -43.321986 1990.028454 1482.391362 14.693269 0.000000 0.236376
63.000000 68.334000 2.000000 -7.000000 0.000000 72.716475 -33.633581 1690.997831 1343.222169 14.638597 0.000000 0.135043
64.000000 66.095000 3.000000 -7.000000 0.000000 73.890767 -24.443863 1464.222584 1282.449362 15.134822 0.000000 0.112649
65.000000 62.175000 4.000000 -7.000000 0.000000 73.727999 -16.133434 1286.336863 1268.039347 16.089771 0.000000 0.111220
66.000000 57.394000 5.000000 -7.000000 0.000000 72.632425 -8.875370 1143.069199 1281.700838 17.430747 0.000000 0.107107
67.000000 52.381000 6.000000 -7.000000 0.000000 70.976251 -2.670971 1025.210251 1312.500526 19.099646 0.000000 0.097838
68.000000 47.530000 2.000000 -2.000000 0.000000 69.041425 2.577399 926.551186 1353.675556 6.014132 0.000000 0.085711
69.000000 79.709000 1.000000 -6.000000 0.000000 70.489543 -41.694107 1933.744662 1451.718492 12.549646 0.000000 0.211333
70.000000 62.082000 5.000000 -6.000000 0.000000 71.278013 -3.635280 1043.380075 1306.501360 16.115002 0.000000 0.099660
71.000000 49.401000 7.000000 -6.000000 0.000000 66.678700 7.672804 829.999485 1409.191826 20.252931 0.000000 0.072155
72.000000 85.769000 3.000000 -5.000000 0.000000 73.570553 -14.595558 1255.264558 1268.955340 11.663663 0.000000 0.110835
73.000000 76.137000 4.000000 -5.000000 0.000000 71.685713 -5.031155 1069.753295 1298.625931 13.139971 0.000000 0.102050
74.000000 57.931000 6.000000 -5.000000 0.000000 66.208251 8.577100 812.665776 1420.884197 17.270924 0.000000 0.069975
75.000000 50.568000 7.000000 -5.000000 0.000000 63.474299 13.332488 719.930338 1493.103605 19.786535 0.000000 0.064213
76.000000 69.965000 5.000000 -4.000000 0.000000 65.508675 9.869522 787.746480 1438.663883 14.300481 0.000000 0.067254
77.000000 59.180000 3.000000 -2.000000 0.000000 62.186120 15.340844 679.734382 1529.777549 8.453721 0.000000 0.067006
78.000000 50.582000 7.000000 -4.000000 0.000000 59.240049 19.527092 593.291366 1620.673313 19.782022 0.000000 0.087065
79.000000 88.139000 4.000000 -3.000000 0.000000 64.364796 11.865425 748.867457 1468.763773 11.352004 0.000000 0.064520
80.000000 70.974000 5.000000 -3.000000 0.000000 60.177604 18.248545 620.121682 1590.630172 14.098111 0.000000 0.078858
81.000000 58.327000 2.000000 -1.000000 0.000000 56.685787 22.801101 522.543210 1708.338572 5.718479 0.000000 0.115835
82.000000 48.927000 7.000000 -3.000000 0.000000 53.822236 26.172615 446.036378 1818.007238 20.451995 0.000000 0.156383
83.000000 67.693000 5.000000 -2.000000 0.000000 52.589037 27.544193 413.661115 1869.451329 14.782225 0.000000 0.176027
84.000000 54.442000 3.000000 -1.000000 0.000000 49.517879 30.784895 333.784358 2010.336479 9.190348 0.000000 0.230148
90.000000 47.971000 1.000000 -11.000000 1.000000 78.650490 -47.533332 2150.941801 1260.971229 20.849151 0.000000 0.257075
91.000000 48.454000 2.000000 -11.000000 1.000000 80.942175 -40.929848 1908.297192 1168.106739 20.641096 0.000000 0.153199
92.000000 48.135000 3.000000 -11.000000 1.000000 82.419992 -34.376287 1711.299961 1114.534356 20.777970 0.000000 0.113842
93.000000 47.124000 4.000000 -11.000000 1.000000 83.123719 -28.037366 1548.176483 1088.051663 21.224002 0.000000 0.115215
94.000000 45.570000 5.000000 -11.000000 1.000000 83.146038 -22.047140 1410.881537 1080.574887 21.948204 0.000000 0.127018
97.000000 53.375000 1.000000 -10.000000 1.000000 79.927473 -46.942837 2126.878146 1221.030831 18.737788 0.000000 0.239775
98.000000 53.776000 2.000000 -10.000000 1.000000 82.300225 -39.630039 1866.338946 1129.938409 18.597814 0.000000 0.136930
99.000000 53.131000 3.000000 -10.000000 1.000000 83.679577 -32.419626 1658.554371 1082.222677 18.823981 0.000000 0.109918
100.000000 51.619000 4.000000 -10.000000 1.000000 84.140687 -25.526388 1488.974630 1063.399586 19.375517 0.000000 0.120238
101.000000 49.471000 5.000000 -10.000000 1.000000 83.827354 -19.111864 1347.949922 1064.193375 20.217483 0.000000 0.133791
102.000000 46.915000 6.000000 -10.000000 1.000000 82.914057 -13.269882 1228.827887 1078.461660 21.319773 0.000000 0.141520
104.000000 60.092000 1.000000 -9.000000 1.000000 81.472672 -46.209486 2097.721310 1174.197393 16.642950 0.000000 0.219752
105.000000 60.312000 2.000000 -9.000000 1.000000 83.901631 -38.023132 1816.593248 1086.972595 16.582144 0.000000 0.121134
106.000000 59.139000 3.000000 -9.000000 1.000000 85.098111 -30.027677 1597.092201 1047.616351 16.911293 0.000000 0.110460
107.000000 56.879000 4.000000 -9.000000 1.000000 85.200063 -22.506360 1420.955667 1038.828681 17.583506 0.000000 0.127907
108.000000 53.891000 5.000000 -9.000000 1.000000 84.431795 -15.648462 1276.488304 1049.967508 18.559123 0.000000 0.141114
109.000000 50.505000 6.000000 -9.000000 1.000000 83.040166 -9.538502 1155.853492 1074.228447 19.804368 0.000000 0.146012
110.000000 46.982000 7.000000 -9.000000 1.000000 81.248444 -4.176970 1053.603181 1107.128716 21.290301 0.000000 0.144265
112.000000 68.642000 1.000000 -8.000000 1.000000 83.378522 -45.274659 2061.662925 1118.545514 14.569581 0.000000 0.196389
113.000000 68.489000 2.000000 -8.000000 1.000000 85.809785 -35.989432 1756.670297 1038.454995 14.601952 0.000000 0.107801
114.000000 66.446000 3.000000 -8.000000 1.000000 86.685007 -27.048952 1524.558119 1010.997794 15.051131 0.000000 0.116280
115.000000 63.049000 4.000000 -8.000000 1.000000 86.255987 -18.828185 1341.991377 1015.412890 15.862656 0.000000 0.137527
116.000000 58.864000 5.000000 -8.000000 1.000000 84.874087 -11.533825 1194.636317 1039.537153 16.991155 0.000000 0.148062
117.000000 54.364000 6.000000 -8.000000 1.000000 82.884329 -5.213280 1073.201986 1075.916588 18.398530 0.000000 0.148747
118.000000 49.882000 7.000000 -8.000000 1.000000 80.566513 0.191544 971.401863 1119.826723 20.052552 0.000000 0.142838
119.000000 45.623000 8.000000 -8.000000 1.000000 78.120739 4.788940 884.830258 1168.197072 21.925776 0.000000 0.133104
121.000000 79.845000 1.000000 -7.000000 1.000000 85.783909 -44.042894 2015.923605 1051.378221 12.524813 0.000000 0.168965
122.000000 78.940000 2.000000 -7.000000 1.000000 88.105123 -33.340807 1683.091031 983.623101 12.668404 0.000000 0.100521
123.000000 75.425000 3.000000 -7.000000 1.000000 88.427710 -23.261310 1437.664206 973.156593 13.259202 0.000000 0.127187
124.000000 70.267000 4.000000 -7.000000 1.000000 87.214605 -14.293237 1249.208683 995.037302 14.233225 0.000000 0.147874
125.000000 64.369000 5.000000 -7.000000 1.000000 85.014824 -6.621994 1099.950195 1035.513504 15.538142 0.000000 0.153292
126.000000 58.388000 6.000000 -7.000000 1.000000 82.296305 -0.202915 978.811757 1086.592280 17.130736 0.000000 0.148444
127.000000 52.716000 7.000000 -7.000000 1.000000 79.388722 5.121783 878.530838 1143.450635 18.975000 0.000000 0.137862
128.000000 47.543000 8.000000 -7.000000 1.000000 76.495815 9.538447 794.147584 1203.102200 21.040698 0.000000 0.124877
130.000000 95.062000 1.000000 -6.000000 1.000000 88.905691 -42.347948 1956.000145 968.817442 10.519332 0.000000 0.136805
131.000000 92.611000 2.000000 -6.000000 1.000000 90.881482 -29.767406 1590.586716 921.922897 10.797901 0.000000 0.103706
132.000000 86.524000 3.000000 -6.000000 1.000000 90.257157 -18.334897 1331.677678 935.910949 11.558160 0.000000 0.141722
133.000000 78.601000 4.000000 -6.000000 1.000000 87.893813 -8.644666 1138.632536 981.037137 12.723971 0.000000 0.156987
134.000000 70.266000 5.000000 -6.000000 1.000000 84.632149 -0.753469 989.154631 1042.139230 14.234436 0.000000 0.154856
135.000000 62.359000 6.000000 -6.000000 1.000000 81.066237 5.572454 869.990820 1110.996407 16.040271 0.000000 0.143490
136.000000 55.263000 7.000000 -6.000000 1.000000 77.540584 10.641576 772.768540 1182.970484 18.101159 0.000000 0.128466
137.000000 49.077000 8.000000 -6.000000 1.000000 74.225367 14.734905 691.938565 1255.385168 20.383804 0.000000 0.113775
139.000000 116.679000 1.000000 -5.000000 1.000000 93.096493 -39.873739 1874.083844 865.134134 8.569905 0.000000 0.100152
140.000000 110.915000 2.000000 -5.000000 1.000000 94.217279 -24.732430 1470.778319 853.620336 9.015553 0.000000 0.119029
141.000000 100.184000 3.000000 -5.000000 1.000000 91.968086 -11.783659 1199.529256 903.218988 9.981944 0.000000 0.156899
142.000000 87.907000 4.000000 -5.000000 1.000000 87.955434 -1.575421 1004.601556 979.437759 11.377125 0.000000 0.161729
143.000000 76.180000 5.000000 -5.000000 1.000000 83.388098 6.216879 857.756206 1066.496109 13.129588 0.000000 0.150050
144.000000 65.883000 6.000000 -5.000000 1.000000 78.917450 12.156307 743.155938 1156.655844 15.182886 0.000000 0.132358
145.000000 57.190000 7.000000 -5.000000 1.000000 74.817793 16.742264 651.230660 1245.992345 17.491871 0.000000 0.115356
146.000000 49.970000 8.000000 -5.000000 1.000000 71.167327 20.347290 575.856451 1332.515139 20.019997 0.000000 0.103985
148.000000 149.131000 1.000000 -4.000000 1.000000 98.947926 -35.943249 1755.345937 731.679441 6.704422 0.000000 0.065260
149.000000 135.823000 2.000000 -4.000000 1.000000 98.052802 -17.263873 1309.484011 781.541191 7.361847 0.000000 0.142436
150.000000 116.502000 3.000000 -4.000000 1.000000 93.043854 -2.934278 1030.168289 883.692592 8.583787 0.000000 0.167224
151.000000 97.505000 4.000000 -4.000000 1.000000 86.808290 7.213870 838.767695 1001.496860 10.257333 0.000000 0.157154
152.000000 81.336000 5.000000 -4.000000 1.000000 80.806038 14.361815 699.419058 1120.825005 12.297803 0.000000 0.135989
153.000000 68.327000 6.000000 -4.000000 1.000000 75.519117 19.520512 593.430509 1235.916774 14.640442 0.000000 0.116400
154.000000 58.045000 7.000000 -4.000000 1.000000 71.007977 23.361553 510.103096 1344.509582 17.234887 0.000000 0.106519
155.000000 49.919000 8.000000 -4.000000 1.000000 67.192092 26.308179 442.871047 1445.903583 20.041377 0.000000 0.109885
156.000000 169.278000 2.000000 -3.000000 1.000000 101.735114 -5.605930 1080.644039 716.347746 5.906546 0.000000 0.162545
157.000000 134.193000 3.000000 -3.000000 1.000000 92.325666 8.960067 805.300601 896.748642 7.452209 0.000000 0.162254
158.000000 105.630000 4.000000 -3.000000 1.000000 83.527433 17.855565 628.287977 1069.285447 9.468793 0.000000 0.137157
159.000000 84.375000 5.000000 -3.000000 1.000000 76.302259 23.594005 504.912707 1227.257075 11.855450 0.000000 0.116184
160.000000 68.811000 6.000000 -3.000000 1.000000 70.539246 27.529878 414.003122 1369.866955 14.538212 0.000000 0.113263
161.000000 57.294000 7.000000 -3.000000 1.000000 65.934563 30.372566 344.234444 1498.134119 17.461589 0.000000 0.128763
162.000000 48.608000 8.000000 -3.000000 1.000000 62.212738 32.512288 289.000378 1613.567109 20.583143 0.000000 0.154309
163.000000 148.248000 3.000000 -2.000000 1.000000 87.653959 24.155869 492.290271 989.326413 6.746061 0.000000 0.126606
164.000000 108.831000 4.000000 -2.000000 1.000000 76.956835 30.050784 352.328599 1229.056323 9.190981 0.000000 0.116150
165.000000 83.393000 5.000000 -2.000000 1.000000 69.338875 33.587661 260.245840 1428.207349 11.995974 0.000000 0.137129
166.000000 66.352000 6.000000 -2.000000 1.000000 63.752369 35.929000 195.062362 1596.409333 15.078067 0.000000 0.173840
167.000000 54.440000 7.000000 -2.000000 1.000000 59.520549 37.588244 146.493579 1740.412028 18.377961 0.000000 0.213228
168.000000 45.787000 8.000000 -2.000000 1.000000 56.220532 38.823661 108.905154 1865.113854 21.852153 0.000000 0.250561
169.000000 147.488000 3.000000 -1.000000 1.000000 76.386551 41.383197 26.679770 1288.392645 6.781684 0.000000 0.165766
170.000000 102.480000 4.000000 -1.000000 1.000000 66.262344 42.904008 -25.294659 1587.153059 9.761604 0.000000 0.233374
171.000000 76.568000 5.000000 -1.000000 1.000000 59.722653 43.792465 -56.857425 1811.490836 13.066354 0.000000 0.290126
174.000000 47.215000 1.000000 -12.000000 2.000000 86.784385 -48.732829 2201.536702 1032.678429 21.179712 0.000000 0.247774
175.000000 47.201000 3.000000 -12.000000 2.000000 90.260918 -35.974993 1756.256064 934.943525 21.185849 0.000000 0.094390
177.000000 52.204000 1.000000 -11.000000 2.000000 88.656222 -48.288975 2182.538339 978.944586 19.155274 0.000000 0.232578
178.000000 52.430000 2.000000 -11.000000 2.000000 90.837692 -41.237945 1918.484226 920.072450 19.072433 0.000000 0.118921
179.000000 51.832000 3.000000 -11.000000 2.000000 92.091796 -34.234614 1707.399748 893.449902 19.292586 0.000000 0.089213
180.000000 50.537000 4.000000 -11.000000 2.000000 92.477238 -27.479717 1534.799158 888.514668 19.787299 0.000000 0.109960
181.000000 48.706000 5.000000 -11.000000 2.000000 92.112914 -21.133817 1391.037387 898.427806 20.531589 0.000000 0.133643
182.000000 46.506000 6.000000 -11.000000 2.000000 91.149412 -15.300156 1269.443938 918.612030 21.503413 0.000000 0.149495
183.000000 58.281000 1.000000 -10.000000 2.000000 90.879418 -47.741886 2159.570499 916.432348 17.157106 0.000000 0.215457
184.000000 57.330000 3.000000 -10.000000 2.000000 94.173745 -32.114995 1650.550722 848.268168 17.441794 0.000000 0.088714
185.000000 52.966000 5.000000 -10.000000 2.000000 93.410908 -17.920645 1323.061895 873.579708 18.879918 0.000000 0.143218
186.000000 47.037000 7.000000 -10.000000 2.000000 90.092463 -6.345584 1094.690806 939.252392 21.261624 0.000000 0.162273
188.000000 65.819000 1.000000 -9.000000 2.000000 93.560030 -47.050950 2131.243992 842.722821 15.191482 0.000000 0.196122
189.000000 65.573000 2.000000 -9.000000 2.000000 95.764364 -38.158962 1820.712529 802.821488 15.248520 0.000000 0.081426
190.000000 63.921000 3.000000 -9.000000 2.000000 96.544212 -29.485274 1583.572893 799.159524 15.642871 0.000000 0.093843
191.000000 61.201000 4.000000 -9.000000 2.000000 96.089772 -21.388981 1396.556353 817.677960 16.338378 0.000000 0.130217
192.000000 57.789000 5.000000 -9.000000 2.000000 94.687248 -14.097194 1245.290406 850.013512 17.303876 0.000000 0.152847
193.000000 54.019000 6.000000 -9.000000 2.000000 92.637716 -7.694638 1120.418129 890.965270 18.512354 0.000000 0.163165
194.000000 50.154000 7.000000 -9.000000 2.000000 90.202692 -2.159538 1015.585872 937.189741 19.940289 0.000000 0.164901
195.000000 46.373000 8.000000 -9.000000 2.000000 87.582610 2.589265 926.327824 986.483782 21.567100 0.000000 0.160999
196.000000 75.364000 1.000000 -8.000000 2.000000 96.849621 -46.151158 2095.435795 754.375292 13.266853 0.000000 0.174338
197.000000 71.890000 3.000000 -8.000000 2.000000 99.234629 -26.152499 1503.494548 746.052839 13.908203 0.000000 0.104307
198.000000 63.208000 5.000000 -8.000000 2.000000 95.849966 -9.517142 1155.440928 829.186664 15.820187 0.000000 0.161445
199.000000 53.367000 7.000000 -8.000000 2.000000 89.956907 2.591043 926.294366 941.810330 18.739898 0.000000 0.164670
201.000000 87.739000 1.000000 -7.000000 2.000000 100.970741 -44.931685 2048.730768 646.289540 11.394867 0.000000 0.150129
202.000000 85.930000 2.000000 -7.000000 2.000000 102.781423 -32.980319 1673.428161 649.936172 11.634782 0.000000 0.057259
203.000000 81.588000 3.000000 -7.000000 2.000000 102.250377 -21.826083 1406.055459 689.260669 12.254463 0.000000 0.118502
204.000000 75.711000 4.000000 -7.000000 2.000000 100.005348 -12.108665 1205.907754 746.795948 13.206457 0.000000 0.154059
205.000000 69.196000 5.000000 -7.000000 2.000000 96.742256 -4.010657 1050.463008 813.447319 14.450898 0.000000 0.167420
206.000000 62.682000 6.000000 -7.000000 2.000000 93.018420 2.593447 926.249117 884.188654 15.954053 0.000000 0.167592
207.000000 56.544000 7.000000 -7.000000 2.000000 89.202054 7.949015 824.713248 956.135719 17.687185 0.000000 0.160330
208.000000 50.962000 8.000000 -7.000000 2.000000 85.505110 12.308413 740.164344 1027.600179 19.625660 0.000000 0.149340
209.000000 45.991000 9.000000 -7.000000 2.000000 82.034113 15.887242 668.668588 1097.591310 21.748242 0.000000 0.137165
211.000000 104.220000 1.000000 -6.000000 2.000000 106.259108 -43.187398 1985.262220 510.484908 9.592050 0.000000 0.124444
212.000000 100.514000 2.000000 -6.000000 2.000000 107.418126 -28.843474 1567.761700 555.512636 9.945904 0.000000 0.063167
213.000000 93.396000 3.000000 -6.000000 2.000000 105.521670 -16.063985 1284.923609 629.932606 10.704640 0.000000 0.133639
214.000000 75.606000 5.000000 -6.000000 2.000000 97.108909 2.596879 926.184515 806.632520 13.225680 0.000000 0.168389
215.000000 59.469000 7.000000 -6.000000 2.000000 87.746218 13.926397 708.117793 984.641687 16.817389 0.000000 0.150508
216.000000 47.088000 9.000000 -6.000000 2.000000 79.715435 21.014153 561.544268 1150.210522 21.241998 0.000000 0.125013
217.000000 126.807000 1.000000 -5.000000 2.000000 113.230855 -40.493500 1894.031002 333.506353 7.882655 0.000000 0.101121
218.000000 119.423000 2.000000 -5.000000 2.000000 112.974254 -22.747315 1426.268334 446.226950 8.370419 0.000000 0.079325
219.000000 107.596000 3.000000 -5.000000 2.000000 108.788881 -8.208610 1130.261473 571.042311 9.291336 0.000000 0.145127
220.000000 94.497000 4.000000 -5.000000 2.000000 102.833501 2.602178 926.084761 695.556962 10.580523 0.000000 0.163682
221.000000 82.061000 5.000000 -5.000000 2.000000 96.559994 10.437031 776.743895 815.147732 12.185439 0.000000 0.160794
222.000000 71.112000 6.000000 -5.000000 2.000000 90.657450 16.177631 662.763228 928.140119 14.063087 0.000000 0.148823
223.000000 61.822000 7.000000 -5.000000 2.000000 85.367399 20.484890 572.913539 1034.100224 16.177934 0.000000 0.134613
224.000000 54.065000 8.000000 -5.000000 2.000000 80.723366 23.801448 500.265174 1133.140974 18.500367 0.000000 0.122554
225.000000 47.620000 9.000000 -5.000000 2.000000 76.676415 26.417632 440.309989 1225.613868 21.005502 0.000000 0.115618
226.000000 158.546000 1.000000 -4.000000 2.000000 122.664973 -35.816586 1751.721649 90.038651 6.303769 0.000000 0.089875
227.000000 143.805000 2.000000 -4.000000 2.000000 119.300417 -13.178046 1227.007498 320.665836 6.950539 0.000000 0.093627
228.000000 123.992000 3.000000 -4.000000 2.000000 111.358906 2.611438 925.910448 519.657580 8.062390 0.000000 0.144375
229.000000 104.563000 4.000000 -4.000000 2.000000 102.587441 12.793925 730.591951 694.548733 9.561970 0.000000 0.150296
230.000000 87.808000 5.000000 -4.000000 2.000000 94.556359 19.510665 593.638724 850.003390 11.388181 0.000000 0.140018
231.000000 63.166000 7.000000 -4.000000 2.000000 81.839882 27.519159 414.259156 1115.021092 15.834187 0.000000 0.117356
232.000000 47.389000 9.000000 -4.000000 2.000000 72.838106 32.018191 301.981458 1333.018410 21.108659 0.000000 0.123437
233.000000 173.742000 2.000000 -3.000000 2.000000 125.182824 2.631750 925.528099 181.439884 5.752394 0.000000 0.083658
234.000000 140.976000 3.000000 -3.000000 2.000000 111.710472 17.126569 643.342234 492.578040 7.090944 0.000000 0.113322
235.000000 113.144000 4.000000 -3.000000 2.000000 99.931965 24.899058 475.422344 733.225307 8.837053 0.000000 0.111879
236.000000 91.585000 5.000000 -3.000000 2.000000 90.469047 29.581085 364.049650 930.868211 10.918999 0.000000 0.107110
237.000000 75.307000 6.000000 -3.000000 2.000000 82.969249 32.671883 284.776970 1098.688919 13.280958 0.000000 0.110611
238.000000 62.992000 7.000000 -3.000000 2.000000 76.982476 34.853145 225.474469 1244.220764 15.878830 0.000000 0.124352
239.000000 53.558000 8.000000 -3.000000 2.000000 72.138955 36.470545 179.440073 1372.287992 18.677311 0.000000 0.144988
240.000000 46.211000 9.000000 -3.000000 2.000000 68.162504 37.715870 142.668965 1486.227219 21.647809 0.000000 0.168816
241.000000 153.924000 3.000000 -2.000000 2.000000 107.333664 34.797670 227.020890 531.923694 6.494730 0.000000 0.033192
242.000000 117.219000 4.000000 -2.000000 2.000000 93.673747 38.190521 128.328203 853.074803 8.530472 0.000000 0.084516
243.000000 91.685000 5.000000 -2.000000 2.000000 83.769392 40.130317 67.702280 1094.685279 10.907968 0.000000 0.127331
244.000000 60.817000 7.000000 -2.000000 2.000000 70.722338 42.258379 -2.924193 1449.622926 16.447798 0.000000 0.201007
246.000000 113.012000 4.000000 -1.000000 2.000000 83.146220 51.359074 -371.277160 1148.170470 8.849189 0.000000 0.300660
247.000000 86.490000 5.000000 -1.000000 2.000000 74.325169 50.474672 -329.474064 1415.565453 11.564400 0.000000 0.319221
254.000000 45.655000 1.000000 -13.000000 3.000000 93.496861 -49.854193 2251.068564 838.989425 21.901026 0.000000 0.258255
255.000000 45.869000 2.000000 -13.000000 3.000000 95.485328 -43.679786 2002.802923 798.085662 21.798201 0.000000 0.135207
256.000000 45.566000 3.000000 -13.000000 3.000000 96.762195 -37.485677 1800.442256 780.169216 21.943438 0.000000 0.075551
257.000000 50.091000 1.000000 -12.000000 3.000000 95.723119 -49.539061 2236.919722 774.776889 19.960671 0.000000 0.248295
258.000000 50.224000 2.000000 -12.000000 3.000000 97.762308 -42.739878 1969.563649 741.239319 19.907458 0.000000 0.117952
259.000000 48.638000 4.000000 -12.000000 3.000000 99.322896 -29.335136 1579.856364 738.318323 20.557088 0.000000 0.087550
260.000000 47.119000 5.000000 -12.000000 3.000000 98.982364 -23.072284 1433.463172 756.079768 21.220134 0.000000 0.119372
262.000000 55.382000 1.000000 -11.000000 3.000000 98.320868 -49.153435 2219.852114 700.317821 18.052913 0.000000 0.238153
263.000000 55.377000 2.000000 -11.000000 3.000000 100.390596 -41.591483 1930.292704 677.120848 18.054308 0.000000 0.099222
264.000000 54.554000 3.000000 -11.000000 3.000000 101.422036 -34.072229 1702.945436 678.484715 18.326668 0.000000 0.058556
265.000000 53.050000 4.000000 -11.000000 3.000000 101.492341 -26.843682 1519.705691 695.747282 18.846772 0.000000 0.095185
266.000000 51.028000 5.000000 -11.000000 3.000000 100.747226 -20.100226 1368.872594 723.463614 19.593979 0.000000 0.128739
267.000000 48.657000 6.000000 -11.000000 3.000000 99.365700 -13.959769 1242.547719 758.080079 20.549878 0.000000 0.150383
268.000000 46.084000 7.000000 -11.000000 3.000000 97.527588 -8.466322 1135.206542 797.208975 21.697998 0.000000 0.162517
270.000000 61.773000 1.000000 -10.000000 3.000000 101.387602 -48.670733 2198.858699 612.742183 16.184235 0.000000 0.228296
271.000000 61.538000 2.000000 -10.000000 3.000000 103.450294 -40.157902 1883.184486 604.197523 16.245985 0.000000 0.078972
272.000000 60.256000 3.000000 -10.000000 3.000000 104.230216 -31.760727 1641.309805 619.980119 16.591771 0.000000 0.057612
273.000000 58.141000 4.000000 -10.000000 3.000000 103.864019 -23.816092 1450.063473 650.635678 17.195786 0.000000 0.104977
274.000000 55.437000 5.000000 -10.000000 3.000000 102.576766 -16.560794 1295.055501 690.486086 18.035257 0.000000 0.138218
275.000000 52.377000 6.000000 -10.000000 3.000000 100.621822 -10.108261 1166.877329 735.970187 19.090011 0.000000 0.157400
276.000000 49.155000 7.000000 -10.000000 3.000000 98.233755 -4.468877 1059.117967 784.781376 20.342116 0.000000 0.166589
277.000000 45.922000 8.000000 -10.000000 3.000000 95.604000 0.412118 967.258284 835.389820 21.775579 0.000000 0.168900
278.000000 69.602000 1.000000 -9.000000 3.000000 105.056169 -48.049126 2172.408966 507.901541 14.362963 0.000000 0.219606
279.000000 68.983000 2.000000 -9.000000 3.000000 107.043098 -38.320545 1825.632819 520.453272 14.491710 0.000000 0.057303
280.000000 64.022000 4.000000 -9.000000 3.000000 106.423916 -20.082295 1368.490683 603.203225 15.615548 0.000000 0.115798
281.000000 60.387000 5.000000 -9.000000 3.000000 104.410931 -12.310812 1209.882876 657.926546 16.556539 0.000000 0.146830
282.000000 52.392000 7.000000 -9.000000 3.000000 98.694418 0.090065 973.308146 776.410938 19.085261 0.000000 0.168190
283.000000 48.458000 8.000000 -9.000000 3.000000 95.508646 4.899309 882.742115 836.820096 20.636064 0.000000 0.167294
284.000000 79.335000 1.000000 -8.000000 3.000000 109.510864 -47.218815 2138.057992 379.508111 12.599967 0.000000 0.213650
285.000000 78.074000 2.000000 -8.000000 3.000000 111.295602 -35.886893 1753.731946 423.168633 12.803418 0.000000 0.034716
286.000000 75.042000 3.000000 -8.000000 3.000000 111.018967 -25.069655 1478.478152 484.428394 13.321119 0.000000 0.073434
287.000000 70.797000 4.000000 -8.000000 3.000000 109.117877 -15.408584 1271.634334 554.013574 14.120603 0.000000 0.126103
288.000000 65.888000 5.000000 -8.000000 3.000000 106.139924 -7.176341 1110.516091 627.071813 15.173727 0.000000 0.153169
289.000000 60.758000 6.000000 -8.000000 3.000000 102.574146 -0.344431 981.470171 700.925270 16.455973 0.000000 0.164484
290.000000 55.718000 7.000000 -8.000000 3.000000 98.780454 5.266655 875.786935 774.051987 17.945887 0.000000 0.166116
291.000000 50.955000 8.000000 -8.000000 3.000000 94.991682 9.874581 787.648586 845.580308 19.624611 0.000000 0.161889
292.000000 46.567000 9.000000 -8.000000 3.000000 91.343545 13.680240 713.020947 915.020010 21.475504 0.000000 0.154333
293.000000 91.619000 1.000000 -7.000000 3.000000 115.011537 -46.054105 2091.643639 217.421474 10.909714 0.000000 0.212947
294.000000 89.270000 2.000000 -7.000000 3.000000 116.355913 -32.525591 1661.351111 308.556886 11.196835 0.000000 0.013771
295.000000 84.598000 3.000000 -7.000000 3.000000 115.022362 -20.050062 1367.804408 406.191315 11.815792 0.000000 0.085072
296.000000 78.529000 4.000000 -7.000000 3.000000 111.813224 -9.481628 1154.755133 504.258254 12.729778 0.000000 0.133621
297.000000 71.886000 5.000000 -7.000000 3.000000 107.575260 -0.962619 993.084392 600.042656 13.907234 0.000000 0.155121
298.000000 65.259000 6.000000 -7.000000 3.000000 102.946650 5.771939 866.206547 692.312431 15.320951 0.000000 0.161304
299.000000 59.001000 7.000000 -7.000000 3.000000 98.322783 11.092736 763.981168 780.550880 16.947338 0.000000 0.158773
300.000000 53.288000 8.000000 -7.000000 3.000000 93.915925 15.334650 679.859481 864.605241 18.765846 0.000000 0.151545
301.000000 48.176000 9.000000 -7.000000 3.000000 89.822938 18.760681 609.423551 944.512736 20.758490 0.000000 0.142254
303.000000 103.110000 2.000000 -6.000000 3.000000 122.364811 -27.625663 1538.287036 171.120386 9.693120 0.000000 0.015377
304.000000 87.167000 4.000000 -6.000000 3.000000 114.232362 -1.911914 1010.928417 456.293450 11.467880 0.000000 0.134709
305.000000 78.203000 5.000000 -6.000000 3.000000 108.413143 6.510661 852.168888 580.364494 12.783713 0.000000 0.149395
306.000000 62.032000 7.000000 -6.000000 3.000000 97.113549 17.555251 634.504298 800.120756 16.119578 0.000000 0.144271
307.000000 55.276000 8.000000 -6.000000 3.000000 92.127631 21.240821 556.650540 898.099961 18.091140 0.000000 0.135457
309.000000 120.095000 2.000000 -5.000000 3.000000 129.338104 -19.975074 1366.208901 2.402622 8.321424 0.000000 0.028053
310.000000 108.845000 3.000000 -5.000000 3.000000 123.442687 -3.554238 1041.851704 228.793714 9.182376 0.000000 0.092037
311.000000 96.408000 4.000000 -5.000000 3.000000 115.854509 7.692625 829.620380 414.698727 10.368280 0.000000 0.123039
312.000000 84.446000 5.000000 -5.000000 3.000000 108.203373 15.330535 679.942585 574.003270 11.838631 0.000000 0.130814
313.000000 73.738000 6.000000 -5.000000 3.000000 101.161305 20.680784 568.714743 714.017057 13.559385 0.000000 0.128004
314.000000 64.506000 7.000000 -5.000000 3.000000 94.920045 24.574759 482.807417 839.121493 15.501725 0.000000 0.121464
315.000000 56.688000 8.000000 -5.000000 3.000000 89.471228 27.510832 414.458014 952.199621 17.641091 0.000000 0.115383
316.000000 50.115000 9.000000 -5.000000 3.000000 84.735170 29.792689 358.782818 1055.283458 19.956422 0.000000 0.112411
318.000000 140.286000 2.000000 -4.000000 3.000000 136.746435 -7.073468 1108.553443 -211.765513 7.123063 0.000000 0.019596
319.000000 122.943000 3.000000 -4.000000 3.000000 126.442288 9.884636 787.453964 134.285233 8.129071 0.000000 0.066956
320.000000 105.475000 4.000000 -4.000000 3.000000 115.823421 19.494313 593.984425 388.482871 9.476948 0.000000 0.086914
321.000000 89.902000 5.000000 -4.000000 3.000000 106.359723 25.368384 464.665518 591.333646 11.120240 0.000000 0.092126
322.000000 76.792000 6.000000 -4.000000 3.000000 98.298180 29.254785 372.128163 761.071637 13.020541 0.000000 0.093603
323.000000 66.024000 7.000000 -4.000000 3.000000 91.517363 31.993220 302.633763 907.383943 15.145827 0.000000 0.097046
324.000000 57.249000 8.000000 -4.000000 3.000000 85.813612 34.018364 248.528314 1036.047649 17.469184 0.000000 0.104831
325.000000 50.089000 9.000000 -4.000000 3.000000 80.990240 35.573216 205.209732 1150.813023 19.967825 0.000000 0.116927
327.000000 136.369000 3.000000 -3.000000 3.000000 126.358931 27.444539 416.040143 48.199507 7.328652 0.000000 0.034170
328.000000 112.834000 4.000000 -3.000000 3.000000 113.002444 33.027980 275.298827 396.019618 8.859030 0.000000 0.012754
329.000000 93.473000 5.000000 -3.000000 3.000000 102.266243 36.178552 187.890206 651.094974 10.695918 0.000000 0.051719
330.000000 66.129000 7.000000 -3.000000 3.000000 86.739942 39.583490 85.134193 1020.546144 15.122692 0.000000 0.113660
331.000000 56.674000 8.000000 -3.000000 3.000000 81.075396 40.603929 52.376214 1163.616969 17.647347 0.000000 0.140538
333.000000 116.107000 4.000000 -2.000000 3.000000 106.373705 47.013634 -179.735081 477.194347 8.610001 0.000000 0.185180
334.000000 93.773000 5.000000 -2.000000 3.000000 95.499310 47.048057 -181.126942 788.923977 10.662680 0.000000 0.178118
335.000000 77.024000 6.000000 -2.000000 3.000000 87.124110 47.069994 -182.014871 1020.383793 12.983058 0.000000 0.196732
336.000000 64.395000 7.000000 -2.000000 3.000000 80.540457 47.085195 -182.630596 1204.366210 15.531175 0.000000 0.221397
337.000000 54.732000 8.000000 -2.000000 3.000000 75.261378 47.096351 -183.082651 1356.907167 18.274645 0.000000 0.246215
338.000000 47.212000 9.000000 -2.000000 3.000000 70.951091 47.104885 -183.428640 1486.979928 21.186945 0.000000 0.269740
344.000000 47.598000 1.000000 -13.000000 4.000000 101.512738 -50.701948 2290.065865 594.868843 21.004019 0.000000 0.280702
345.000000 47.681000 2.000000 -13.000000 4.000000 103.441975 -44.144108 2019.609563 582.518507 20.967046 0.000000 0.137337
346.000000 47.254000 3.000000 -13.000000 4.000000 104.591197 -37.551828 1802.417541 587.599069 21.156550 0.000000 0.052998
347.000000 46.378000 4.000000 -13.000000 4.000000 104.989936 -31.096219 1624.165360 604.448363 21.556364 0.000000 0.058421
348.000000 52.136000 1.000000 -12.000000 4.000000 104.297750 -50.456358 2278.625004 510.163347 19.174905 0.000000 0.279159
349.000000 51.454000 3.000000 -12.000000 4.000000 107.281387 -35.907009 1754.307783 527.595993 19.428955 0.000000 0.037764
350.000000 48.633000 5.000000 -12.000000 4.000000 106.782453 -22.186830 1413.938994 590.451733 20.556722 0.000000 0.104844
352.000000 57.490000 1.000000 -11.000000 4.000000 107.526400 -50.151543 2264.589240 410.536177 17.388195 0.000000 0.280069
353.000000 57.294000 2.000000 -11.000000 4.000000 109.492853 -42.001279 1944.143221 428.324200 17.447482 0.000000 0.112034
354.000000 56.310000 3.000000 -11.000000 4.000000 110.312328 -33.884234 1697.809916 461.099885 17.752381 0.000000 0.023534
355.000000 54.676000 4.000000 -11.000000 4.000000 110.079392 -26.111680 1502.543206 502.852911 18.283526 0.000000 0.070593
356.000000 52.551000 5.000000 -11.000000 4.000000 108.967388 -18.921768 1343.954803 549.956134 19.023534 0.000000 0.113173
357.000000 50.095000 6.000000 -11.000000 4.000000 107.184887 -12.448689 1212.597645 600.128255 19.956757 0.000000 0.140241
358.000000 47.453000 7.000000 -11.000000 4.000000 104.936654 -6.730294 1102.012471 651.890525 21.069074 0.000000 0.156217
360.000000 61.950000 3.000000 -10.000000 4.000000 113.731167 -31.343646 1630.520687 386.990857 16.135519 0.000000 0.015333
361.000000 56.921000 5.000000 -10.000000 4.000000 111.228511 -14.995694 1263.305494 508.177029 17.562234 0.000000 0.120696
362.000000 50.527000 7.000000 -10.000000 4.000000 105.920608 -2.372345 1019.589696 633.727571 19.786863 0.000000 0.158230
364.000000 70.648000 2.000000 -9.000000 4.000000 117.580021 -38.515966 1831.612916 222.479598 14.147721 0.000000 0.093219
365.000000 68.512000 3.000000 -9.000000 4.000000 117.579014 -28.072413 1549.021843 303.873099 14.589149 0.000000 0.021192
366.000000 65.437000 4.000000 -9.000000 4.000000 116.075511 -18.535521 1335.865140 385.482702 15.275240 0.000000 0.087711
367.000000 61.762000 5.000000 -9.000000 4.000000 113.488880 -10.235892 1169.352044 465.697609 16.185063 0.000000 0.126133
368.000000 57.786000 6.000000 -9.000000 4.000000 110.231618 -3.226969 1035.682404 543.696362 17.300007 0.000000 0.147088
369.000000 53.740000 7.000000 -9.000000 4.000000 106.635982 2.606079 926.011327 619.073662 18.603471 0.000000 0.156870
370.000000 49.791000 8.000000 -9.000000 4.000000 102.937469 7.442166 834.408265 691.654362 20.080597 0.000000 0.159412
371.000000 46.040000 9.000000 -9.000000 4.000000 99.288231 11.463058 756.748039 761.394468 21.718049 0.000000 0.157305
373.000000 76.139000 3.000000 -8.000000 4.000000 121.870952 -23.736628 1448.281022 209.982562 13.126814 0.000000 0.032305
374.000000 67.054000 5.000000 -8.000000 4.000000 115.609900 -4.436522 1058.506480 423.547039 14.907205 0.000000 0.127605
375.000000 57.012000 7.000000 -8.000000 4.000000 106.938136 8.255036 818.848175 609.782305 17.535718 0.000000 0.150579
376.000000 47.899000 9.000000 -8.000000 4.000000 98.439040 16.480439 656.586761 774.475889 20.875101 0.000000 0.146170
378.000000 89.538000 2.000000 -7.000000 4.000000 128.612831 -31.934205 1645.825989 -71.882815 11.161210 0.000000 0.090941
379.000000 84.941000 3.000000 -7.000000 4.000000 126.548657 -17.800541 1320.571500 103.053328 11.765762 0.000000 0.040444
380.000000 79.094000 4.000000 -7.000000 4.000000 122.460860 -6.277820 1093.402290 252.227804 12.636499 0.000000 0.093958
381.000000 72.707000 5.000000 -7.000000 4.000000 117.358687 2.619260 925.763206 383.503818 13.747735 0.000000 0.122220
382.000000 66.304000 6.000000 -7.000000 4.000000 111.949846 9.392515 796.965090 501.350252 15.076981 0.000000 0.134403
383.000000 60.210000 7.000000 -7.000000 4.000000 106.641922 14.586827 694.910559 608.569888 16.604471 0.000000 0.137238
384.000000 54.598000 8.000000 -7.000000 4.000000 101.638097 18.635065 612.053508 707.057723 18.312756 0.000000 0.134816
385.000000 49.534000 9.000000 -7.000000 4.000000 97.021809 21.849099 543.442763 798.172078 20.186378 0.000000 0.129791
386.000000 101.653000 2.000000 -6.000000 4.000000 135.493130 -25.949129 1498.761388 -276.752632 9.830214 0.000000 0.091313
387.000000 94.919000 3.000000 -6.000000 4.000000 131.372100 -9.410929 1153.390290 -19.882530 10.528310 0.000000 0.039522
388.000000 78.513000 5.000000 -6.000000 4.000000 118.372818 11.095762 763.922140 348.636457 12.730943 0.000000 0.105302
389.000000 63.132000 7.000000 -6.000000 4.000000 105.527656 21.551180 549.925435 619.480129 15.835937 0.000000 0.114204
390.000000 50.811000 9.000000 -6.000000 4.000000 94.926301 27.504177 414.616925 836.410301 19.679702 0.000000 0.108930
392.000000 105.813000 3.000000 -5.000000 4.000000 135.692327 2.654861 925.093034 -162.809019 9.443850 0.000000 0.022478
393.000000 94.853000 4.000000 -5.000000 4.000000 126.807192 13.919237 708.260567 111.253398 10.536328 0.000000 0.054583
394.000000 84.078000 5.000000 -5.000000 4.000000 118.146113 20.981961 562.238082 324.307824 11.888255 0.000000 0.068964
395.000000 74.203000 6.000000 -5.000000 4.000000 110.289826 25.691633 457.208120 499.430511 13.471940 0.000000 0.075894
396.000000 65.502000 7.000000 -5.000000 4.000000 103.362098 29.014926 378.033763 648.651098 15.263493 0.000000 0.080332
397.000000 57.991000 8.000000 -5.000000 4.000000 97.317270 31.470271 316.213931 778.959418 17.242201 0.000000 0.085119
398.000000 51.572000 9.000000 -5.000000 4.000000 92.055248 33.352054 266.606211 894.760588 19.390014 0.000000 0.091749
399.000000 46.104000 10.000000 -5.000000 4.000000 87.466916 34.837269 225.917257 999.011683 21.691130 0.000000 0.100674
401.000000 116.845000 3.000000 -4.000000 4.000000 138.100314 19.461832 594.670903 -331.254783 8.551897 0.000000 0.062927
402.000000 88.762000 5.000000 -4.000000 4.000000 116.081661 31.943462 303.932543 320.139424 11.261058 0.000000 0.002142
403.000000 66.966000 7.000000 -4.000000 4.000000 99.937413 36.760714 170.979417 705.626325 14.930311 0.000000 0.060380
404.000000 51.649000 9.000000 -4.000000 4.000000 88.340955 39.277137 94.780300 981.271222 19.361805 0.000000 0.106624
406.000000 107.868000 4.000000 -3.000000 4.000000 122.771867 42.114568 1.996296 6.959014 9.265369 0.000000 0.175600
407.000000 91.665000 5.000000 -3.000000 4.000000 111.650039 43.285443 -38.732242 354.112811 10.904983 0.000000 0.130695
408.000000 78.162000 6.000000 -3.000000 4.000000 102.575880 44.016320 -64.957915 607.123487 12.790738 0.000000 0.122734
409.000000 67.137000 7.000000 -3.000000 4.000000 95.122577 44.515837 -83.256375 805.689292 14.893245 0.000000 0.136186
410.000000 58.181000 8.000000 -3.000000 4.000000 88.941742 44.878787 -96.749958 969.057395 17.187614 0.000000 0.156775
411.000000 50.888000 9.000000 -3.000000 4.000000 83.761976 45.154422 -107.111551 1107.826417 19.652627 0.000000 0.178504
413.000000 65.663000 7.000000 -2.000000 4.000000 88.911219 52.005655 -402.874130 974.228749 15.228706 0.000000 0.301299
414.000000 49.175000 9.000000 -2.000000 4.000000 78.355415 50.864772 -347.717314 1292.427452 20.338255 0.000000 0.308159
419.000000 48.871000 2.000000 -13.000000 5.000000 111.048802 -44.671772 2039.032934 358.555797 20.453767 0.000000 0.165475
420.000000 48.350000 3.000000 -13.000000 5.000000 112.078595 -37.627051 1804.667978 389.776948 20.674218 0.000000 0.056312
421.000000 47.399000 4.000000 -13.000000 5.000000 112.296546 -30.735907 1614.969419 427.529208 21.089425 0.000000 0.027251
422.000000 46.094000 5.000000 -13.000000 5.000000 111.789153 -24.181097 1458.279087 469.365966 21.686703 0.000000 0.075775
424.000000 53.230000 2.000000 -12.000000 5.000000 114.329028 -43.703169 2003.643058 267.874213 18.778070 0.000000 0.161472
425.000000 52.473000 3.000000 -12.000000 5.000000 115.200242 -35.865243 1753.112544 316.033368 19.048789 0.000000 0.045819
426.000000 51.205000 4.000000 -12.000000 5.000000 115.111011 -28.279366 1554.024862 368.211205 19.520926 0.000000 0.031941
427.000000 49.532000 5.000000 -12.000000 5.000000 114.192970 -21.178881 1392.010709 422.426927 20.180772 0.000000 0.082826
428.000000 47.566000 6.000000 -12.000000 5.000000 112.615438 -14.711756 1257.596564 477.444277 21.015834 0.000000 0.116755
430.000000 58.259000 2.000000 -11.000000 5.000000 118.068404 -42.481869 1960.615605 162.787057 17.156019 0.000000 0.159856
431.000000 57.178000 3.000000 -11.000000 5.000000 118.694055 -33.664057 1691.823981 233.193535 17.480657 0.000000 0.038515
432.000000 55.486000 4.000000 -11.000000 5.000000 118.175262 -25.260522 1482.854968 303.538075 18.013845 0.000000 0.039459
433.000000 53.336000 5.000000 -11.000000 5.000000 116.714691 -17.566934 1315.737143 372.838346 18.740718 0.000000 0.089173
434.000000 50.876000 6.000000 -11.000000 5.000000 114.552550 -10.734659 1179.042298 440.554124 19.647787 0.000000 0.120953
435.000000 48.240000 7.000000 -11.000000 5.000000 111.919320 -4.788213 1065.155989 506.394089 20.722792 0.000000 0.140539
436.000000 45.536000 8.000000 -11.000000 5.000000 109.008711 0.329562 968.809150 570.212974 21.954558 0.000000 0.151688
438.000000 64.082000 2.000000 -10.000000 5.000000 122.353923 -40.895856 1907.179089 38.998615 15.596247 0.000000 0.161168
439.000000 62.548000 3.000000 -10.000000 5.000000 122.601046 -30.845483 1617.758722 139.248117 15.978803 0.000000 0.036257
440.000000 60.291000 4.000000 -10.000000 5.000000 121.477874 -21.485577 1398.650659 232.804984 16.577563 0.000000 0.047062
441.000000 54.442000 6.000000 -10.000000 5.000000 116.408394 -6.041599 1088.913211 403.541136 18.360558 0.000000 0.122463
442.000000 51.219000 7.000000 -10.000000 5.000000 113.097755 -0.021689 975.407434 481.971387 19.516977 0.000000 0.139233
443.000000 47.985000 8.000000 -10.000000 5.000000 109.594608 5.019896 880.459839 556.387752 20.833617 0.000000 0.147854
445.000000 70.830000 2.000000 -9.000000 5.000000 127.286225 -38.757093 1839.036568 -109.910903 14.109345 0.000000 0.165320
446.000000 68.667000 3.000000 -9.000000 5.000000 126.946646 -27.129058 1526.456567 31.458064 14.554186 0.000000 0.038532
447.000000 65.650000 4.000000 -9.000000 5.000000 124.968098 -16.678823 1297.470194 155.203867 15.223469 0.000000 0.052415
448.000000 62.082000 5.000000 -9.000000 5.000000 121.848394 -7.803409 1122.499210 266.160903 16.099523 0.000000 0.094542
449.000000 58.227000 6.000000 -9.000000 5.000000 118.060163 -0.502920 984.447543 367.251614 17.166486 0.000000 0.119729
450.000000 54.298000 7.000000 -9.000000 5.000000 113.967296 5.427172 872.745233 460.384346 18.410076 0.000000 0.133358
451.000000 50.445000 8.000000 -9.000000 5.000000 109.816250 10.243226 780.505697 546.883822 19.817402 0.000000 0.139407
452.000000 46.769000 9.000000 -9.000000 5.000000 105.759451 14.180278 703.049843 627.716100 21.376799 0.000000 0.140516
454.000000 75.590000 3.000000 -8.000000 5.000000 131.710572 -22.057493 1411.107926 -94.058022 13.220323 0.000000 0.041238
455.000000 71.560000 4.000000 -8.000000 5.000000 128.519261 -10.454957 1173.604298 69.822583 13.965538 0.000000 0.052807
456.000000 66.966000 5.000000 -8.000000 5.000000 124.181399 -1.202530 997.592699 209.900823 14.924713 0.000000 0.089498
457.000000 62.158000 6.000000 -8.000000 5.000000 119.326549 5.997257 861.929003 333.028376 16.080554 0.000000 0.110453
458.000000 57.391000 7.000000 -8.000000 5.000000 114.366957 11.595012 754.166166 443.364122 17.417581 0.000000 0.120863
459.000000 52.833000 8.000000 -8.000000 5.000000 109.540984 15.994001 666.499533 543.615020 18.921897 0.000000 0.124656
460.000000 48.578000 9.000000 -8.000000 5.000000 104.972311 19.503648 593.787083 635.643975 20.580992 0.000000 0.124422
462.000000 83.313000 3.000000 -7.000000 5.000000 136.757378 -14.869796 1260.772310 -243.082951 11.994080 0.000000 0.037690
463.000000 77.944000 4.000000 -7.000000 5.000000 131.865882 -2.312325 1018.460335 -24.333399 12.821102 0.000000 0.044512
464.000000 72.057000 5.000000 -7.000000 5.000000 126.012552 6.851939 845.670037 153.038317 13.869767 0.000000 0.074831
465.000000 66.100000 6.000000 -7.000000 5.000000 119.956714 13.518583 716.235386 303.008820 15.121144 0.000000 0.091145
466.000000 60.369000 7.000000 -7.000000 5.000000 114.097724 18.462624 615.657512 433.479768 16.558400 0.000000 0.098812
467.000000 55.030000 8.000000 -7.000000 5.000000 108.618385 22.223652 535.254056 549.305199 18.166513 0.000000 0.101526
468.000000 50.160000 9.000000 -7.000000 5.000000 103.584673 25.157538 469.508277 653.665921 19.932038 0.000000 0.101691
469.000000 45.775000 10.000000 -7.000000 5.000000 99.002869 27.498737 414.746827 748.757082 21.842907 0.000000 0.100971
471.000000 91.697000 3.000000 -6.000000 5.000000 141.681230 -4.340174 1056.685938 -424.824147 10.896778 0.000000 0.017349
472.000000 84.600000 4.000000 -6.000000 5.000000 134.512462 8.274280 818.479045 -128.262191 11.811924 0.000000 0.026824
473.000000 77.132000 5.000000 -6.000000 5.000000 126.918840 16.464940 656.903360 97.763537 12.956953 0.000000 0.045852
474.000000 69.842000 6.000000 -6.000000 5.000000 119.634228 22.002041 540.104285 280.634959 14.311053 0.000000 0.056342
475.000000 63.044000 7.000000 -6.000000 5.000000 112.935249 25.927805 451.733961 434.604072 15.855850 0.000000 0.063259
476.000000 56.883000 8.000000 -6.000000 5.000000 106.893051 28.831182 382.539210 567.890329 17.575059 0.000000 0.068866
477.000000 51.393000 9.000000 -6.000000 5.000000 101.490171 31.055025 326.889525 685.613816 19.454202 0.000000 0.074521
478.000000 46.549000 10.000000 -6.000000 5.000000 96.673833 32.808027 281.162251 791.162268 21.480357 0.000000 0.081034
480.000000 91.127000 4.000000 -5.000000 5.000000 135.658932 21.504444 550.939974 -242.740526 10.965709 0.000000 0.059457
481.000000 73.070000 6.000000 -5.000000 5.000000 118.011219 31.211220 322.884906 271.561105 13.678904 0.000000 0.005465
482.000000 65.170000 7.000000 -5.000000 5.000000 110.658658 33.792276 254.693876 452.695027 15.339021 0.000000 0.021173
483.000000 58.203000 8.000000 -5.000000 5.000000 104.225256 35.664398 202.617744 605.163286 17.177065 0.000000 0.044515
484.000000 52.137000 9.000000 -5.000000 5.000000 98.600943 37.081617 161.547753 736.942672 19.177403 0.000000 0.065413
486.000000 85.580000 5.000000 -4.000000 5.000000 123.781617 39.172322 98.061249 12.246035 11.678278 0.000000 0.136139
487.000000 75.375000 6.000000 -4.000000 5.000000 114.779791 40.728745 48.301018 285.348724 13.261134 0.000000 0.102583
488.000000 66.448000 7.000000 -4.000000 5.000000 107.093566 41.779513 13.374131 497.158337 15.044685 0.000000 0.092840
489.000000 58.778000 8.000000 -4.000000 5.000000 100.516692 42.536142 -12.491712 669.841121 17.009603 0.000000 0.101323
490.000000 52.244000 9.000000 -4.000000 5.000000 94.863236 43.106791 -32.417692 815.568320 19.138968 0.000000 0.117831
491.000000 46.689000 10.000000 -4.000000 5.000000 89.975376 43.552445 -48.239133 941.638241 21.417899 0.000000 0.136456
494.000000 66.561000 7.000000 -3.000000 5.000000 102.157781 49.586563 -289.040760 583.335993 15.020002 0.000000 0.235094
495.000000 58.403000 8.000000 -3.000000 5.000000 95.734943 49.252944 -274.230791 775.398679 17.119863 0.000000 0.223863
496.000000 51.581000 9.000000 -3.000000 5.000000 90.271015 49.000210 -263.144083 933.239957 19.386073 0.000000 0.225754
497.000000 45.867000 10.000000 -3.000000 5.000000 85.586506 48.802132 -254.533364 1067.121432 21.802619 0.000000 0.234292
504.000000 49.491000 2.000000 -13.000000 6.000000 118.264244 -45.276578 2061.735749 118.673997 20.195507 0.000000 0.215579
505.000000 48.905000 3.000000 -13.000000 6.000000 119.186745 -37.713349 1807.255361 181.035116 20.437499 0.000000 0.091545
506.000000 47.912000 4.000000 -13.000000 6.000000 119.235321 -30.323846 1604.536643 243.129631 20.861047 0.000000 0.009789
507.000000 46.587000 5.000000 -13.000000 6.000000 118.508767 -23.332293 1439.244854 304.342921 21.455060 0.000000 0.050561
509.000000 49.883000 5.000000 -12.000000 6.000000 121.178825 -20.021905 1367.205143 247.822115 20.036659 0.000000 0.056294
510.000000 45.807000 7.000000 -12.000000 6.000000 116.926645 -7.150525 1110.023479 390.050276 21.821068 0.000000 0.118626
512.000000 57.279000 3.000000 -11.000000 6.000000 126.527607 -33.402672 1684.757327 -13.956302 17.447531 0.000000 0.090261
513.000000 55.593000 4.000000 -11.000000 6.000000 125.742341 -24.259023 1460.039128 91.373110 17.977074 0.000000 0.022824
514.000000 53.482000 5.000000 -11.000000 6.000000 123.952219 -15.994845 1283.517628 187.151410 18.687419 0.000000 0.060292
515.000000 51.081000 6.000000 -11.000000 6.000000 121.432706 -8.777636 1141.189005 275.387938 19.566805 0.000000 0.094726
516.000000 48.511000 7.000000 -11.000000 6.000000 118.441363 -2.606446 1023.995578 357.441583 20.604472 0.000000 0.117202
517.000000 45.873000 8.000000 -11.000000 6.000000 115.188108 2.616282 925.819271 434.279003 21.790552 0.000000 0.131028
518.000000 62.243000 3.000000 -10.000000 6.000000 130.803435 -30.240150 1602.428341 -134.496153 16.055236 0.000000 0.091629
519.000000 57.381000 5.000000 -10.000000 6.000000 126.754525 -11.046083 1185.108920 121.987007 17.416911 0.000000 0.061105
520.000000 51.324000 7.000000 -10.000000 6.000000 119.729466 2.622733 925.697839 325.714244 19.474817 0.000000 0.111613
522.000000 64.912000 4.000000 -9.000000 6.000000 133.068058 -14.414065 1251.627039 -97.751233 15.394709 0.000000 0.028321
523.000000 61.550000 5.000000 -9.000000 6.000000 129.451760 -4.923734 1067.720097 52.011837 16.236562 0.000000 0.056778
524.000000 54.191000 7.000000 -9.000000 6.000000 120.652792 8.595946 812.303688 295.895595 18.444135 0.000000 0.100030
525.000000 50.519000 8.000000 -9.000000 6.000000 116.112744 13.328312 720.013194 398.828651 19.786119 0.000000 0.109096
527.000000 65.918000 5.000000 -8.000000 6.000000 131.819520 2.645245 925.274065 -23.005365 15.160117 0.000000 0.044952
528.000000 57.027000 7.000000 -8.000000 6.000000 121.034889 15.325408 680.046135 269.527475 17.526782 0.000000 0.079819
529.000000 48.696000 9.000000 -8.000000 6.000000 110.917305 22.758683 523.480553 494.898239 20.528469 0.000000 0.090503
531.000000 75.621000 4.000000 -7.000000 6.000000 140.008632 2.667654 924.852206 -343.462068 13.213534 0.000000 0.006669
532.000000 70.353000 5.000000 -7.000000 6.000000 133.511302 11.869406 748.789383 -103.092505 14.204269 0.000000 0.028603
533.000000 64.961000 6.000000 -7.000000 6.000000 126.942993 18.211182 620.899671 88.953700 15.384611 0.000000 0.039675
534.000000 59.707000 7.000000 -7.000000 6.000000 120.667710 22.744619 523.791196 248.947460 16.740036 0.000000 0.047178
535.000000 54.749000 8.000000 -7.000000 6.000000 114.835462 26.107904 447.544752 386.273096 18.257465 0.000000 0.053419
536.000000 50.172000 9.000000 -7.000000 6.000000 109.491021 28.685926 386.089674 506.756786 19.925092 0.000000 0.059291
537.000000 46.003000 10.000000 -7.000000 6.000000 104.628370 30.717348 335.502377 614.230669 21.732231 0.000000 0.065317
538.000000 74.633000 5.000000 -6.000000 6.000000 134.052346 22.716605 524.409798 -187.835330 13.389487 0.000000 0.056174
539.000000 62.062000 7.000000 -6.000000 6.000000 119.332381 30.683754 336.355930 237.755370 16.104871 0.000000 0.010074
542.000000 70.872000 6.000000 -5.000000 6.000000 124.370646 37.203524 157.943823 16.767547 14.101760 0.000000 0.113182
543.000000 63.880000 7.000000 -5.000000 6.000000 116.834817 38.873132 107.373004 241.616216 15.647010 0.000000 0.085932
544.000000 57.577000 8.000000 -5.000000 6.000000 110.204913 40.066035 69.765968 423.422086 17.361593 0.000000 0.074949
545.000000 51.983000 9.000000 -5.000000 6.000000 104.371623 40.960178 40.704179 575.812086 19.231847 0.000000 0.079349
546.000000 47.060000 10.000000 -5.000000 6.000000 99.228581 41.654995 17.572241 706.950343 21.245540 0.000000 0.092252
548.000000 64.914000 7.000000 -4.000000 6.000000 113.048066 46.987856 -178.693946 269.705500 15.398343 0.000000 0.210381
549.000000 52.072000 9.000000 -4.000000 6.000000 100.569102 47.032990 -180.517484 646.356447 19.200052 0.000000 0.176324
552.000000 46.142000 10.000000 -3.000000 6.000000 91.096484 52.267807 -415.946157 907.338586 21.670763 0.000000 0.304766
556.000000 45.653000 3.000000 -14.000000 7.000000 122.482438 -39.438009 1860.274473 53.779467 21.891801 0.000000 0.138796
558.000000 48.985000 3.000000 -13.000000 7.000000 125.893267 -37.813361 1810.261488 -44.952531 20.401736 0.000000 0.140481
559.000000 47.982000 4.000000 -13.000000 7.000000 125.785406 -29.848079 1592.599516 46.513436 20.828706 0.000000 0.050297
560.000000 46.667000 5.000000 -13.000000 7.000000 124.851084 -22.359915 1417.735819 130.599924 21.416073 0.000000 0.028424
562.000000 52.678000 3.000000 -12.000000 7.000000 129.655719 -35.759177 1750.082773 -158.413479 18.970559 0.000000 0.143072
563.000000 51.397000 4.000000 -12.000000 7.000000 129.160374 -26.859401 1520.076665 -41.566756 19.443943 0.000000 0.051851
564.000000 49.764000 5.000000 -12.000000 7.000000 127.720165 -18.681405 1338.916227 62.242007 20.082240 0.000000 0.032837
565.000000 47.875000 6.000000 -12.000000 7.000000 125.555979 -11.426407 1192.535256 156.143175 20.875777 0.000000 0.066672
566.000000 45.814000 7.000000 -12.000000 7.000000 122.888402 -5.139012 1071.795422 242.214111 21.815624 0.000000 0.093290
569.000000 55.124000 4.000000 -11.000000 7.000000 132.764928 -23.064306 1433.286125 -140.918755 18.128191 0.000000 0.052734
570.000000 53.100000 5.000000 -11.000000 7.000000 130.661560 -14.151742 1246.379965 -12.438864 18.820192 0.000000 0.033937
571.000000 50.804000 6.000000 -11.000000 7.000000 127.805051 -6.527707 1098.155507 100.539885 19.671533 0.000000 0.064265
572.000000 48.346000 7.000000 -11.000000 7.000000 124.482046 -0.145361 977.730601 201.777529 20.672684 0.000000 0.088097
573.000000 45.817000 8.000000 -11.000000 7.000000 120.917582 5.152189 877.955035 293.787568 21.814860 0.000000 0.103878
576.000000 59.161000 4.000000 -10.000000 7.000000 136.544743 -18.137072 1327.558146 -254.344037 16.890568 0.000000 0.050289
577.000000 56.652000 5.000000 -10.000000 7.000000 133.574792 -8.518325 1136.205192 -94.461281 17.639211 0.000000 0.029991
578.000000 53.869000 6.000000 -10.000000 7.000000 129.872693 -0.681630 987.804940 41.885886 18.551515 0.000000 0.057033
579.000000 50.946000 7.000000 -10.000000 7.000000 125.796193 5.606008 869.354472 161.130811 19.617286 0.000000 0.077697
580.000000 47.990000 8.000000 -10.000000 7.000000 121.594535 10.649304 772.618237 267.399214 20.827161 0.000000 0.090968
582.000000 63.475000 4.000000 -9.000000 7.000000 140.372193 -11.600209 1195.935570 -385.832664 15.741877 0.000000 0.040341
583.000000 60.378000 5.000000 -9.000000 7.000000 136.286334 -1.480514 1002.817468 -185.115886 16.550252 0.000000 0.019189
584.000000 57.017000 6.000000 -9.000000 7.000000 131.583652 6.253766 857.055018 -19.746969 17.526852 0.000000 0.043641
585.000000 53.557000 7.000000 -9.000000 7.000000 126.676450 12.157521 743.132077 121.053412 18.660747 0.000000 0.060237
586.000000 50.119000 8.000000 -9.000000 7.000000 121.811870 16.722105 651.643580 243.880431 19.941938 0.000000 0.070657
587.000000 46.793000 9.000000 -9.000000 7.000000 117.127233 20.314516 576.556642 353.014595 21.361253 0.000000 0.077111
590.000000 64.192000 5.000000 -8.000000 7.000000 138.517184 7.253211 838.016774 -286.084114 15.566335 0.000000 0.018169
591.000000 60.161000 6.000000 -8.000000 7.000000 132.697611 14.349121 699.673138 -84.071195 16.610724 0.000000 0.029303
592.000000 56.094000 7.000000 -8.000000 7.000000 126.933834 19.481285 594.259800 82.767700 17.816424 0.000000 0.035280
593.000000 52.130000 8.000000 -8.000000 7.000000 121.426768 23.309200 511.269560 224.889927 19.172727 0.000000 0.040370
594.000000 48.358000 9.000000 -8.000000 7.000000 116.265714 26.249778 444.235591 348.791556 20.669853 0.000000 0.045675
596.000000 67.960000 5.000000 -7.000000 7.000000 139.861237 17.810343 629.225389 -399.638076 14.703060 0.000000 0.063905
597.000000 63.172000 6.000000 -7.000000 7.000000 132.916979 23.518537 506.599812 -150.411311 15.818857 0.000000 0.053487
598.000000 53.923000 8.000000 -7.000000 7.000000 120.293237 30.285762 346.423131 212.858753 18.535560 0.000000 0.013446
599.000000 49.694000 9.000000 -7.000000 7.000000 114.741298 32.427539 291.236988 353.394575 20.114516 0.000000 0.006576
600.000000 45.798000 10.000000 -7.000000 7.000000 109.685741 34.095544 246.416051 476.001626 21.827528 0.000000 0.024681
603.000000 65.874000 6.000000 -6.000000 7.000000 131.926072 33.443527 264.140961 -217.382008 15.170172 0.000000 0.127597
604.000000 60.457000 7.000000 -6.000000 7.000000 124.750912 35.796700 198.846305 20.423524 16.531060 0.000000 0.098282
605.000000 55.376000 8.000000 -6.000000 7.000000 118.281334 37.467715 150.093496 211.410373 18.049566 0.000000 0.075145
606.000000 50.704000 9.000000 -6.000000 7.000000 112.468937 38.713697 112.303171 370.523135 19.714486 0.000000 0.063506
607.000000 46.463000 10.000000 -6.000000 7.000000 107.251598 39.677674 82.151513 506.735261 21.515657 0.000000 0.064682
610.000000 61.954000 7.000000 -5.000000 7.000000 121.956547 44.200697 -71.675923 4.458112 16.132015 0.000000 0.207936
611.000000 56.351000 8.000000 -5.000000 7.000000 115.299080 44.635616 -87.690775 226.064098 17.737754 0.000000 0.173278
612.000000 51.282000 9.000000 -5.000000 7.000000 109.393226 44.959428 -99.771073 405.561755 19.492815 0.000000 0.152924
613.000000 46.746000 10.000000 -5.000000 7.000000 104.145582 45.209872 -109.208158 555.971894 21.386331 0.000000 0.144851
617.000000 46.572000 10.000000 -4.000000 7.000000 100.364172 50.592866 -334.969501 630.929029 21.467327 0.000000 0.258109
623.000000 47.678000 4.000000 -13.000000 8.000000 131.938112 -29.292680 1578.807377 -167.773576 20.959415 0.000000 0.091860
624.000000 46.399000 5.000000 -13.000000 8.000000 130.806336 -21.235563 1393.235770 -55.932568 21.537915 0.000000 0.033632
626.000000 49.263000 5.000000 -12.000000 8.000000 133.809572 -17.111840 1306.354824 -139.296640 20.285004 0.000000 0.033457
627.000000 45.494000 7.000000 -12.000000 8.000000 128.427742 -2.865197 1028.867282 86.022046 21.967285 0.000000 0.064627
630.000000 52.301000 5.000000 -11.000000 8.000000 136.838245 -11.965952 1203.105008 -232.162905 19.105908 0.000000 0.028767
631.000000 50.142000 6.000000 -11.000000 8.000000 133.661161 -3.922570 1048.800339 -88.546010 19.929538 0.000000 0.033099
632.000000 47.827000 7.000000 -11.000000 8.000000 130.031171 2.641279 925.348709 35.922051 20.895463 0.000000 0.055637
634.000000 55.483000 5.000000 -10.000000 8.000000 139.759815 -5.486491 1078.379235 -336.665155 18.009581 0.000000 0.016667
635.000000 50.189000 7.000000 -10.000000 8.000000 131.290455 8.978045 804.954473 -15.954398 19.911516 0.000000 0.041760
637.000000 58.754000 5.000000 -9.000000 8.000000 142.353419 2.675777 924.699275 -455.771556 17.006490 0.000000 0.011105
638.000000 55.695000 6.000000 -9.000000 8.000000 137.260835 10.449606 776.499647 -243.414129 17.941662 0.000000 0.024503
639.000000 52.524000 7.000000 -9.000000 8.000000 132.036350 16.156588 663.191738 -69.236330 19.026102 0.000000 0.029580
640.000000 49.351000 8.000000 -9.000000 8.000000 126.911837 20.445753 573.751113 78.193728 20.250894 0.000000 0.032148
641.000000 46.255000 9.000000 -9.000000 8.000000 122.007661 23.752854 501.355189 205.995381 21.607818 0.000000 0.035243
643.000000 54.752000 7.000000 -8.000000 8.000000 132.072708 24.088146 493.817509 -123.252191 18.251677 0.000000 0.051326
644.000000 47.664000 9.000000 -8.000000 8.000000 121.023296 29.974813 354.231904 193.753548 20.969236 0.000000 0.016002
647.000000 56.770000 7.000000 -7.000000 8.000000 131.199267 32.554133 287.894471 -176.829655 17.602887 0.000000 0.112242
648.000000 52.701000 8.000000 -7.000000 8.000000 125.014328 34.742455 228.558019 23.377544 18.963902 0.000000 0.087885
649.000000 48.845000 9.000000 -7.000000 8.000000 119.352069 36.367604 182.426369 189.319639 20.462415 0.000000 0.067701
651.000000 49.716000 9.000000 -6.000000 8.000000 116.925856 42.776547 -20.841395 196.258584 20.104737 0.000000 0.148100
655.000000 46.060000 10.000000 -5.000000 8.000000 108.454411 48.830488 -255.761873 395.387030 21.702944 0.000000 0.233266
659.000000 45.847000 5.000000 -13.000000 9.000000 136.373255 -19.921700 1365.074198 -260.035415 21.795402 0.000000 0.058270
661.000000 48.460000 5.000000 -12.000000 9.000000 139.448732 -15.252104 1268.473957 -362.821373 20.619466 0.000000 0.052217
664.000000 49.186000 6.000000 -11.000000 9.000000 139.000285 -0.884688 991.620081 -297.294998 20.315524 0.000000 0.005903
665.000000 47.030000 7.000000 -11.000000 9.000000 135.085873 5.806486 865.550908 -144.092683 21.247754 0.000000 0.025100
668.000000 51.645000 6.000000 -10.000000 9.000000 140.902765 6.548410 851.450496 -392.208464 19.347727 0.000000 0.020412
669.000000 49.148000 7.000000 -10.000000 9.000000 136.212758 12.791658 730.636731 -210.426233 20.332004 0.000000 0.028216
670.000000 46.594000 8.000000 -10.000000 9.000000 131.493195 17.530029 635.025444 -57.361572 21.447484 0.000000 0.029695
672.000000 51.207000 7.000000 -9.000000 9.000000 136.739835 20.632267 569.755666 -281.112640 19.514252 0.000000 0.061251
673.000000 48.308000 8.000000 -9.000000 9.000000 131.420571 24.513538 484.197276 -102.638192 20.686775 0.000000 0.049572
677.000000 49.872000 8.000000 -8.000000 9.000000 130.639422 31.893945 305.223607 -147.046098 20.037993 0.000000 0.101116
678.000000 46.703000 9.000000 -8.000000 9.000000 125.206471 33.923514 251.118935 25.792220 21.399061 0.000000 0.080250
682.000000 47.728000 9.000000 -7.000000 9.000000 123.351685 40.482317 56.332180 9.659067 20.940053 0.000000 0.152893
690.000000 46.027000 7.000000 -11.000000 10.000000 139.647545 9.409236 796.642379 -343.045533 21.709640 0.000000 0.026863
694.000000 47.071000 8.000000 -9.000000 10.000000 135.352958 28.928643 380.151425 -303.982611 21.229028 0.000000 0.110129
696.000000 45.554000 9.000000 -8.000000 10.000000 128.839548 38.075923 131.807614 -159.854889 21.937827 0.000000 0.160177
#UB matrix in q= (UB) B0 G* 
#[[-0.264573777  0.539750234 -0.797936777]
# [ 0.707141207  0.671857021  0.220009106]
# [ 0.655707274 -0.50667516  -0.560231416]]
#B0 matrix in q= UB (B0) G*
#[[ 0.19670273 -0.          0.03056101]
# [ 0.          0.19187965 -0.        ]
# [ 0.          0.          0.18806537]]
#UBB0 matrix in q= (UB B0) G* i.e. recip. basis vectors are columns in LT frame: astar = UBB0[:,0], bstar = UBB0[:,1], cstar = UBB0[:,2]. (abcstar as columns on xyzlab1, xlab1 = ui, ui = unit vector along incident beam)
#[[-0.05204238  0.10356709 -0.15814992]
# [ 0.13909661  0.12891569  0.06298704]
# [ 0.12897941 -0.09722065 -0.08532106]]
#Euler angles phi theta psi (deg)
#[ 52.296 124.028  74.611]
#deviatoric strain in direct crystal frame (10-3 unit)
#[[-2.9   0.05  0.43]
# [ 0.05 -2.53 -0.93]
# [ 0.43 -0.93  5.42]]
#deviatoric strain in sample2 frame (10-3 unit)
#[[ 4.94 -1.44 -1.66]
# [-1.44 -2.42  0.16]
# [-1.65  0.16 -2.52]]
#new lattice parameters
#[ 5.1505     5.2135299  5.3205361 90.0563944 99.1979888 89.9945746]
#CCDLabel
#sCMOS
#DetectorParameters
#[79.0, 975.0, 941.0, 0.0, 0.0]
#pixelsize
#0.0734
#Frame dimensions
#[2018, 2016]
#
