#Strain and Orientation Refinement from experimental file: /home/micha/LaueProjects/DepthEffects/testZrO2_110.cor
#File created at Wed Jun 28 14:25:03 2023 with indexingSpotsSet.py
#Number of indexed spots: 511
#Element
#ZrO2
#grainIndex
#G_0
#Mean Deviation(pixel): 0.113
##spot_index intensity h k l 2theta Chi Xexp Yexp Energy GrainIndex PixDev
24.000000 46.151000 -10.000000 -1.000000 -1.000000 70.424310 -48.572839 2194.650195 1519.442691 21.682303 0.000000 0.319009
25.000000 50.307000 -9.000000 -1.000000 -1.000000 69.193405 -49.242892 2223.787699 1567.461319 19.891424 0.000000 0.340814
31.000000 47.640000 -12.000000 1.000000 -1.000000 90.555813 -48.002788 2170.462863 925.395012 20.997423 0.000000 0.222555
32.000000 52.196000 -11.000000 1.000000 -1.000000 91.329887 -48.598203 2195.739020 903.218473 19.164444 0.000000 0.233236
33.000000 57.694000 -10.000000 1.000000 -1.000000 92.245702 -49.319793 2227.182257 876.249305 17.337960 0.000000 0.247523
34.000000 64.451000 -9.000000 1.000000 -1.000000 93.345185 -50.212096 2267.363220 842.694444 15.519860 0.000000 0.267256
35.000000 72.942000 -8.000000 1.000000 -1.000000 94.687983 -51.343182 2320.511803 799.705480 13.712840 0.000000 0.295611
37.000000 46.511000 -13.000000 2.000000 -1.000000 98.255806 -47.729299 2159.047766 708.828332 21.504279 0.000000 0.207161
38.000000 50.723000 -12.000000 2.000000 -1.000000 99.580799 -48.290084 2182.585367 667.958803 19.718333 0.000000 0.219561
39.000000 55.734000 -11.000000 2.000000 -1.000000 101.128215 -48.967854 2211.732852 618.506917 17.944844 0.000000 0.236419
40.000000 61.785000 -10.000000 2.000000 -1.000000 102.957519 -49.803212 2248.767120 557.306143 16.186815 0.000000 0.259863
41.000000 69.217000 -9.000000 2.000000 -1.000000 105.150469 -50.857830 2297.390032 479.336185 14.448294 0.000000 0.293408
44.000000 48.619000 -13.000000 3.000000 -1.000000 106.441007 -47.990922 2169.965098 466.426030 20.569291 0.000000 0.223461
45.000000 53.042000 -12.000000 3.000000 -1.000000 108.382729 -48.627147 2196.982889 399.852101 18.853358 0.000000 0.244845
46.000000 58.279000 -11.000000 3.000000 -1.000000 110.640820 -49.408787 2231.123906 317.895494 17.158517 0.000000 0.273790
50.000000 46.260000 -14.000000 4.000000 -1.000000 112.195680 -47.700348 2157.846413 288.507176 21.615793 0.000000 0.238222
64.000000 47.004000 -10.000000 -1.000000 0.000000 70.315584 -42.020325 1944.791291 1459.286530 21.289772 0.000000 0.216199
65.000000 51.372000 -9.000000 -1.000000 0.000000 69.087136 -42.040683 1945.484395 1494.777569 19.479945 0.000000 0.222716
66.000000 56.579000 -8.000000 -1.000000 0.000000 67.555611 -42.065646 1946.334921 1539.876167 17.687565 0.000000 0.231142
67.000000 62.856000 -7.000000 -1.000000 0.000000 65.593886 -42.096977 1947.403373 1599.166916 15.921553 0.000000 0.242479
68.000000 70.489000 -6.000000 -1.000000 0.000000 62.992922 -42.137470 1948.785815 1680.769761 14.198158 0.000000 0.258574
69.000000 79.747000 -5.000000 -1.000000 0.000000 59.384111 -42.191832 1950.644498 1800.658920 12.550438 0.000000 0.283258
71.000000 48.646000 -3.000000 0.000000 0.000000 81.453532 -41.820017 1937.994962 1158.037569 5.609220 0.000000 0.164430
72.000000 48.480000 -12.000000 1.000000 0.000000 90.743770 -41.625467 1931.434625 922.307871 20.634199 0.000000 0.128413
73.000000 53.235000 -11.000000 1.000000 0.000000 91.584101 -41.606320 1930.791098 901.192948 18.790696 0.000000 0.125499
74.000000 59.009000 -10.000000 1.000000 0.000000 92.591042 -41.582992 1930.007589 875.885114 16.951906 0.000000 0.122111
75.000000 66.160000 -9.000000 1.000000 0.000000 93.819383 -41.553947 1929.032848 844.982242 15.119226 0.000000 0.118149
76.000000 75.238000 -8.000000 1.000000 0.000000 95.350757 -41.516789 1927.787133 806.368944 13.294662 0.000000 0.113516
77.000000 87.119000 -7.000000 1.000000 0.000000 97.312256 -41.467569 1926.139208 756.688191 11.481208 0.000000 0.108183
78.000000 103.287000 -6.000000 1.000000 0.000000 99.912861 -41.399273 1923.856777 690.250097 9.683538 0.000000 0.102442
79.000000 126.447000 -5.000000 1.000000 0.000000 103.521045 -41.298149 1920.486010 596.505705 7.909374 0.000000 0.097829
80.000000 162.014000 -4.000000 1.000000 0.000000 108.849019 -41.133038 1915.004791 453.166768 6.172454 0.000000 0.100488
81.000000 47.269000 -13.000000 2.000000 0.000000 98.514754 -41.436437 1925.098198 726.062446 21.160025 0.000000 0.105316
82.000000 56.873000 -11.000000 2.000000 0.000000 101.557989 -41.354135 1922.350905 647.771376 17.585706 0.000000 0.099789
83.000000 71.079000 -9.000000 2.000000 0.000000 105.902466 -41.226869 1918.116320 533.290720 14.070037 0.000000 0.097484
84.000000 93.885000 -7.000000 2.000000 0.000000 112.583171 -41.003944 1910.738430 347.826146 10.650999 0.000000 0.109889
85.000000 111.103000 -6.000000 2.000000 0.000000 117.456989 -40.815113 1904.527824 202.046423 8.999641 0.000000 0.130559
86.000000 134.953000 -5.000000 2.000000 0.000000 124.056533 -40.512605 1894.651745 -15.926416 7.408407 0.000000 0.169819
88.000000 45.509000 -14.000000 3.000000 0.000000 105.054318 -41.252698 1918.974411 555.947198 21.975932 0.000000 0.097334
89.000000 49.415000 -13.000000 3.000000 0.000000 106.812808 -41.198575 1917.177147 508.781213 20.238081 0.000000 0.097994
90.000000 59.462000 -11.000000 3.000000 0.000000 111.232720 -41.052048 1912.326240 386.475491 16.817347 0.000000 0.105787
91.000000 66.035000 -10.000000 3.000000 0.000000 114.058430 -40.949412 1908.941232 304.802258 15.142669 0.000000 0.115224
92.000000 84.047000 -8.000000 3.000000 0.000000 121.613868 -40.631830 1898.533417 68.037303 11.896009 0.000000 0.154080
93.000000 96.652000 -7.000000 3.000000 0.000000 126.798844 -40.366792 1889.923113 -115.729913 10.343782 0.000000 0.188813
94.000000 50.917000 -13.000000 4.000000 0.000000 114.848232 -40.919318 1907.950727 281.396857 19.638182 0.000000 0.118426
95.000000 61.002000 -11.000000 4.000000 0.000000 120.490615 -40.683644 1900.224705 105.273704 16.390114 0.000000 0.147282
98.000000 47.870000 -14.000000 5.000000 0.000000 119.845196 -40.712619 1901.171635 126.309895 20.886621 0.000000 0.143515
99.000000 51.799000 -13.000000 5.000000 0.000000 122.558036 -40.586847 1897.067279 36.088214 19.301711 0.000000 0.160017
100.000000 56.327000 -12.000000 5.000000 0.000000 125.662709 -40.428853 1891.933201 -73.611355 17.749055 0.000000 0.180790
107.000000 47.182000 -7.000000 -2.000000 1.000000 48.802446 -33.925295 1698.929654 2076.432489 21.216393 0.000000 0.268897
110.000000 47.017000 -10.000000 -1.000000 1.000000 69.468292 -35.303368 1737.153813 1434.918857 21.284794 0.000000 0.160513
111.000000 51.307000 -9.000000 -1.000000 1.000000 68.092171 -34.638817 1718.562364 1467.086395 19.505554 0.000000 0.160822
112.000000 56.373000 -8.000000 -1.000000 1.000000 66.364642 -33.824315 1696.177856 1507.973877 17.753410 0.000000 0.161300
113.000000 62.387000 -7.000000 -1.000000 1.000000 64.134329 -32.803133 1668.707623 1561.821867 16.042675 0.000000 0.162194
114.000000 69.508000 -6.000000 -1.000000 1.000000 61.150817 -31.486157 1634.196339 1636.268357 14.399892 0.000000 0.164336
115.000000 77.712000 -5.000000 -1.000000 1.000000 56.971106 -29.725361 1589.538971 1746.752918 12.880460 0.000000 0.170798
116.000000 86.132000 -4.000000 -1.000000 1.000000 50.742267 -27.256823 1529.490147 1930.480943 11.622465 0.000000 0.193854
118.000000 48.724000 -12.000000 1.000000 1.000000 90.199732 -35.102763 1731.509831 936.413937 20.531703 0.000000 0.100585
119.000000 53.498000 -11.000000 1.000000 1.000000 90.956713 -34.440055 1713.059796 919.206610 18.699172 0.000000 0.098294
120.000000 59.286000 -10.000000 1.000000 1.000000 91.854560 -33.633259 1690.989121 899.143332 16.873441 0.000000 0.096306
121.000000 66.439000 -9.000000 1.000000 1.000000 92.935460 -32.630108 1664.116079 875.466178 15.056562 0.000000 0.094935
122.000000 75.487000 -8.000000 1.000000 1.000000 94.259486 -31.349906 1630.681905 847.134543 13.251502 0.000000 0.094684
123.000000 87.265000 -7.000000 1.000000 1.000000 95.914299 -29.661513 1587.949593 812.691279 11.462725 0.000000 0.096303
124.000000 103.149000 -6.000000 1.000000 1.000000 98.030460 -27.337695 1531.413929 770.062008 9.697267 0.000000 0.100812
125.000000 125.547000 -5.000000 1.000000 1.000000 100.802584 -23.951176 1453.098533 716.285829 7.966895 0.000000 0.109308
126.000000 158.935000 -4.000000 1.000000 1.000000 104.497428 -18.609667 1337.415223 647.349269 6.292899 0.000000 0.122115
127.000000 47.540000 -13.000000 2.000000 1.000000 98.071473 -35.006833 1728.820683 754.654359 21.040096 0.000000 0.074020
128.000000 51.943000 -12.000000 2.000000 1.000000 99.404497 -34.345431 1710.449402 725.090229 19.255895 0.000000 0.069809
129.000000 57.203000 -11.000000 2.000000 1.000000 100.964658 -33.542799 1688.540399 690.816210 17.484776 0.000000 0.065540
130.000000 63.583000 -10.000000 2.000000 1.000000 102.813282 -32.548739 1661.962922 650.597157 15.729991 0.000000 0.061422
131.000000 71.458000 -9.000000 2.000000 1.000000 105.034644 -31.286383 1629.046865 602.718008 13.995961 0.000000 0.057817
132.000000 81.381000 -8.000000 2.000000 1.000000 107.746567 -29.632082 1587.217638 544.720441 12.288868 0.000000 0.055268
133.000000 94.185000 -7.000000 2.000000 1.000000 111.115773 -27.374400 1532.287995 472.939141 10.617614 0.000000 0.054406
134.000000 111.161000 -6.000000 2.000000 1.000000 115.376692 -24.122673 1456.960926 381.625610 8.995511 0.000000 0.055452
135.000000 134.329000 -5.000000 2.000000 1.000000 120.836166 -19.080233 1347.284507 261.127691 7.443397 0.000000 0.056885
136.000000 166.743000 -4.000000 2.000000 1.000000 127.754322 -10.414813 1172.824621 93.552169 5.995826 0.000000 0.051812
137.000000 45.780000 -14.000000 3.000000 1.000000 104.687543 -34.913653 1726.214625 596.969421 21.846059 0.000000 0.048860
138.000000 49.716000 -13.000000 3.000000 1.000000 106.393302 -34.253780 1707.926629 557.922239 20.115830 0.000000 0.042306
139.000000 54.339000 -12.000000 3.000000 1.000000 108.360617 -33.455482 1686.181641 512.847304 18.403948 0.000000 0.035042
140.000000 59.830000 -11.000000 3.000000 1.000000 110.651575 -32.470532 1659.897127 460.172629 16.714285 0.000000 0.027015
141.000000 66.435000 -10.000000 3.000000 1.000000 113.347929 -31.225657 1627.485895 397.700085 15.051889 0.000000 0.018323
142.000000 74.491000 -9.000000 3.000000 1.000000 116.558144 -29.604144 1586.523217 322.241856 13.423459 0.000000 0.010055
143.000000 84.461000 -8.000000 3.000000 1.000000 120.425918 -27.408914 1533.110429 228.955897 11.838088 0.000000 0.009707
144.000000 96.987000 -7.000000 3.000000 1.000000 125.136589 -24.281813 1460.554275 110.027493 10.308427 0.000000 0.019229
145.000000 112.928000 -6.000000 3.000000 1.000000 130.904259 -19.508535 1356.316232 -48.246287 8.852626 0.000000 0.029030
146.000000 133.323000 -5.000000 3.000000 1.000000 137.862842 -11.493602 1193.849397 -272.950046 7.497680 0.000000 0.029262
148.000000 47.229000 -14.000000 4.000000 1.000000 112.230333 -34.164965 1705.487139 409.359242 21.173228 0.000000 0.026071
149.000000 51.234000 -13.000000 4.000000 1.000000 114.437345 -33.371149 1683.907977 355.369244 19.517402 0.000000 0.021276
150.000000 55.899000 -12.000000 4.000000 1.000000 116.967916 -32.395308 1657.913481 292.422714 17.887757 0.000000 0.019795
151.000000 61.381000 -11.000000 4.000000 1.000000 119.892732 -31.167548 1625.994075 217.912823 16.289413 0.000000 0.023858
152.000000 67.881000 -10.000000 4.000000 1.000000 123.301222 -29.577589 1585.863515 128.034884 14.728919 0.000000 0.032764
153.000000 75.654000 -9.000000 4.000000 1.000000 127.305026 -27.441429 1533.885675 16.963931 13.214785 0.000000 0.044540
154.000000 85.020000 -8.000000 4.000000 1.000000 132.037180 -24.429883 1463.905747 -124.787076 11.758281 0.000000 0.057059
155.000000 96.352000 -7.000000 4.000000 1.000000 137.633195 -19.899981 1364.612679 -314.003391 10.374653 0.000000 0.065765
158.000000 48.160000 -14.000000 5.000000 1.000000 119.492289 -33.289649 1681.714885 212.752558 20.761320 0.000000 0.042733
159.000000 52.115000 -13.000000 5.000000 1.000000 122.137055 -32.322898 1656.007181 140.893591 19.184901 0.000000 0.049741
160.000000 56.670000 -12.000000 5.000000 1.000000 125.147270 -31.111891 1624.566909 55.932100 17.642055 0.000000 0.059148
161.000000 61.945000 -11.000000 5.000000 1.000000 128.593745 -29.552316 1585.235991 -46.465735 16.138897 0.000000 0.070444
162.000000 68.083000 -10.000000 5.000000 1.000000 132.560386 -27.472112 1534.617680 -172.944235 14.683123 0.000000 0.082599
163.000000 75.247000 -9.000000 5.000000 1.000000 137.140297 -24.567996 1467.038967 -334.322262 13.284553 0.000000 0.093183
166.000000 48.609000 -14.000000 6.000000 1.000000 126.429169 -32.253148 1654.173790 1.707017 20.567324 0.000000 0.079700
167.000000 52.417000 -13.000000 6.000000 1.000000 129.442029 -31.058533 1623.200283 -92.573451 19.072254 0.000000 0.090658
168.000000 56.743000 -12.000000 6.000000 1.000000 132.841500 -29.528234 1584.638347 -206.102204 17.617460 0.000000 0.102395
169.000000 61.668000 -11.000000 6.000000 1.000000 136.690149 -27.501115 1535.309964 -346.192774 16.209805 0.000000 0.113547
172.000000 48.629000 -14.000000 7.000000 1.000000 133.008598 -31.007336 1621.890424 -230.346486 20.557189 0.000000 0.117900
181.000000 46.135000 -10.000000 -1.000000 2.000000 67.869540 -28.602253 1561.869593 1439.544802 21.693097 0.000000 0.129902
182.000000 50.039000 -9.000000 -1.000000 2.000000 66.197633 -27.278051 1529.994857 1475.157575 20.001143 0.000000 0.126376
183.000000 54.503000 -8.000000 -1.000000 2.000000 64.081013 -25.666795 1492.217452 1521.322749 18.363959 0.000000 0.121647
184.000000 59.539000 -7.000000 -1.000000 2.000000 61.326777 -23.667423 1446.730459 1583.653224 16.811466 0.000000 0.115792
185.000000 65.000000 -6.000000 -1.000000 2.000000 57.620676 -21.127715 1390.905641 1672.676215 15.400224 0.000000 0.111156
186.000000 70.244000 -5.000000 -1.000000 2.000000 52.424774 -17.809974 1320.766968 1810.801263 14.251584 0.000000 0.120130
187.000000 73.177000 -4.000000 -1.000000 2.000000 44.770589 -13.328957 1229.999605 2055.982754 13.681690 0.000000 0.181115
189.000000 48.211000 -11.000000 0.000000 2.000000 79.333574 -28.601187 1561.843625 1171.889537 20.754740 0.000000 0.122134
190.000000 52.798000 -10.000000 0.000000 2.000000 78.955648 -27.298584 1530.483210 1177.403793 18.952003 0.000000 0.122326
191.000000 58.296000 -9.000000 0.000000 2.000000 78.455257 -25.718694 1493.418030 1185.024105 17.164805 0.000000 0.122586
192.000000 64.981000 -8.000000 0.000000 2.000000 77.772289 -23.765826 1448.935706 1195.860082 15.399260 0.000000 0.122687
193.000000 73.229000 -7.000000 0.000000 2.000000 76.805170 -21.296892 1394.562337 1211.835160 13.665174 0.000000 0.122075
194.000000 83.538000 -6.000000 0.000000 2.000000 75.372361 -18.090333 1326.586210 1236.516063 11.979328 0.000000 0.119459
195.000000 96.479000 -5.000000 0.000000 2.000000 73.127461 -13.790447 1239.172958 1277.129052 10.373018 0.000000 0.111797
196.000000 112.304000 -4.000000 0.000000 2.000000 69.359275 -7.808416 1122.595041 1350.220079 8.912083 0.000000 0.091529
197.000000 128.948000 -3.000000 0.000000 2.000000 62.502978 0.833896 959.334259 1501.271585 7.762718 0.000000 0.039501
198.000000 133.479000 -2.000000 0.000000 2.000000 49.069294 13.614437 714.329931 1901.308438 7.500430 0.000000 0.130829
199.000000 48.327000 -12.000000 1.000000 2.000000 88.901987 -28.600153 1561.818423 964.495431 20.701456 0.000000 0.113564
200.000000 52.923000 -11.000000 1.000000 2.000000 89.422618 -27.318454 1530.955990 953.207990 18.903406 0.000000 0.116332
201.000000 58.440000 -10.000000 1.000000 2.000000 90.008011 -25.768747 1494.576899 940.832898 17.118687 0.000000 0.120172
202.000000 65.168000 -9.000000 1.000000 2.000000 90.663837 -23.860335 1451.056823 927.363933 15.351396 0.000000 0.125279
203.000000 73.519000 -8.000000 1.000000 2.000000 91.389383 -21.458548 1398.064347 912.951228 13.607505 0.000000 0.131809
204.000000 84.095000 -7.000000 1.000000 2.000000 92.165915 -18.356553 1332.129225 898.111803 11.896064 0.000000 0.139771
205.000000 97.776000 -6.000000 1.000000 2.000000 92.926783 -14.225312 1247.850298 884.232192 10.231483 0.000000 0.148783
206.000000 115.811000 -5.000000 1.000000 2.000000 93.477842 -8.525109 1136.335493 874.857996 8.638183 0.000000 0.157456
207.000000 139.699000 -4.000000 1.000000 2.000000 93.277830 -0.364008 981.837936 879.357849 7.161123 0.000000 0.161727
208.000000 169.764000 -3.000000 1.000000 2.000000 90.835849 11.625274 753.573691 924.968708 5.893136 0.000000 0.150440
209.000000 197.668000 -2.000000 1.000000 2.000000 82.348719 28.847327 382.143952 1106.073062 5.061780 0.000000 0.112792
211.000000 47.288000 -13.000000 2.000000 2.000000 96.904316 -28.599149 1561.793953 792.560756 21.152988 0.000000 0.098124
212.000000 56.660000 -11.000000 2.000000 2.000000 99.319292 -25.817051 1495.696195 744.794491 17.653349 0.000000 0.104505
213.000000 70.229000 -9.000000 2.000000 2.000000 102.516557 -21.613171 1401.421283 683.995450 14.241817 0.000000 0.115240
214.000000 91.104000 -7.000000 2.000000 2.000000 106.766456 -14.635745 1256.070796 605.860342 10.977868 0.000000 0.129308
215.000000 105.982000 -6.000000 2.000000 2.000000 109.285535 -9.195724 1149.239211 559.489008 9.436314 0.000000 0.135160
216.000000 125.161000 -5.000000 2.000000 2.000000 111.830473 -1.475152 1002.716671 509.705920 7.990045 0.000000 0.135472
217.000000 149.530000 -4.000000 2.000000 2.000000 113.644615 9.787307 789.337247 462.820573 6.687604 0.000000 0.119092
218.000000 178.022000 -3.000000 2.000000 2.000000 112.629531 26.010324 449.816116 441.766051 5.617255 0.000000 0.053577
219.000000 45.628000 -14.000000 3.000000 2.000000 103.634336 -28.598174 1561.770184 643.657901 21.919621 0.000000 0.077681
220.000000 49.487000 -13.000000 3.000000 2.000000 105.158829 -27.356334 1531.857715 612.691546 20.209891 0.000000 0.079064
221.000000 53.997000 -12.000000 3.000000 2.000000 106.890529 -25.863696 1496.777912 577.812184 18.521467 0.000000 0.081140
222.000000 59.320000 -11.000000 3.000000 2.000000 108.867855 -24.038557 1455.065214 538.246396 16.858906 0.000000 0.083882
223.000000 65.670000 -10.000000 3.000000 2.000000 111.135011 -21.761209 1404.641976 493.011870 15.228168 0.000000 0.087127
224.000000 73.328000 -9.000000 3.000000 2.000000 113.738605 -18.850611 1342.461676 440.848642 13.637194 0.000000 0.090447
225.000000 82.661000 -8.000000 3.000000 2.000000 116.716163 -15.023710 1263.869604 380.128542 12.096810 0.000000 0.092908
226.000000 94.132000 -7.000000 3.000000 2.000000 120.063180 -9.824400 1161.380369 308.745961 10.622161 0.000000 0.092537
227.000000 108.264000 -6.000000 3.000000 2.000000 123.644300 -2.507880 1022.140331 224.024961 9.235107 0.000000 0.085084
228.000000 125.467000 -5.000000 3.000000 2.000000 126.966269 8.087308 822.063889 122.810060 7.968413 0.000000 0.061300
229.000000 145.448000 -4.000000 3.000000 2.000000 128.677530 23.360098 510.135525 2.489711 6.873507 0.000000 0.036502
231.000000 51.023000 -13.000000 4.000000 2.000000 113.117036 -25.908765 1497.823911 430.203628 19.598688 0.000000 0.054720
232.000000 60.903000 -11.000000 4.000000 2.000000 117.935787 -21.903072 1407.734556 325.867989 16.417947 0.000000 0.056350
233.000000 74.573000 -9.000000 4.000000 2.000000 124.110238 -15.390971 1271.278357 184.897551 13.407127 0.000000 0.056024
234.000000 93.801000 -7.000000 4.000000 2.000000 131.662236 -3.469606 1040.255905 -18.430025 10.657639 0.000000 0.040694
235.000000 106.017000 -6.000000 4.000000 2.000000 135.466905 6.512984 852.124686 -160.086505 9.429156 0.000000 0.023666
236.000000 119.845000 -5.000000 4.000000 2.000000 138.208969 20.889053 564.238777 -347.862526 8.340793 0.000000 0.079750
238.000000 48.036000 -14.000000 5.000000 2.000000 118.299215 -25.952338 1498.835932 296.502053 20.815657 0.000000 0.028851
239.000000 51.920000 -13.000000 5.000000 2.000000 120.707888 -24.203703 1458.789443 240.132037 19.257727 0.000000 0.029121
240.000000 56.373000 -12.000000 5.000000 2.000000 123.403202 -22.039136 1410.706518 175.275143 17.735875 0.000000 0.029897
241.000000 61.499000 -11.000000 5.000000 2.000000 126.418571 -19.299306 1351.898256 99.670243 16.256747 0.000000 0.030538
242.000000 67.418000 -10.000000 5.000000 2.000000 129.777099 -15.739113 1278.325606 10.091238 14.828730 0.000000 0.029846
243.000000 74.256000 -9.000000 5.000000 2.000000 133.469752 -10.970239 1183.630298 -98.277371 13.462556 0.000000 0.025575
244.000000 82.123000 -8.000000 5.000000 2.000000 137.404566 -4.366917 1057.191227 -233.056889 12.172190 0.000000 0.013336
245.000000 91.068000 -7.000000 5.000000 2.000000 141.292045 5.053028 879.832624 -407.292661 10.976146 0.000000 0.020213
247.000000 52.234000 -13.000000 6.000000 2.000000 127.875341 -22.169748 1413.564784 37.041790 19.139735 0.000000 0.024511
248.000000 61.251000 -11.000000 6.000000 2.000000 134.238024 -16.069567 1285.037178 -149.657081 16.320749 0.000000 0.031475
249.000000 72.746000 -9.000000 6.000000 2.000000 141.697042 -5.205678 1073.058002 -427.324058 13.740584 0.000000 0.016828
251.000000 48.519000 -14.000000 7.000000 2.000000 131.590668 -22.295229 1416.315755 -91.449933 20.604019 0.000000 0.042243
252.000000 52.044000 -13.000000 7.000000 2.000000 134.576896 -19.708563 1360.550637 -185.505083 19.207858 0.000000 0.046927
253.000000 55.969000 -12.000000 7.000000 2.000000 137.830503 -16.383629 1291.436499 -297.549663 17.860145 0.000000 0.048598
254.000000 60.329000 -11.000000 7.000000 2.000000 141.334694 -11.987521 1203.528418 -434.090025 16.568716 0.000000 0.043875
263.000000 47.656000 -9.000000 -1.000000 3.000000 63.496531 -20.191390 1370.815557 1512.844676 21.002987 0.000000 0.098168
264.000000 51.154000 -8.000000 -1.000000 3.000000 60.856547 -17.905066 1322.738671 1571.672514 19.567924 0.000000 0.087817
265.000000 54.711000 -7.000000 -1.000000 3.000000 57.427312 -15.117365 1265.756466 1653.244424 18.296766 0.000000 0.078529
266.000000 57.855000 -6.000000 -1.000000 3.000000 52.851114 -11.661826 1197.142083 1773.626813 17.303758 0.000000 0.085937
267.000000 59.448000 -5.000000 -1.000000 3.000000 46.562643 -7.302741 1112.928809 1968.465458 16.841455 0.000000 0.141401
268.000000 56.887000 -4.000000 -1.000000 3.000000 37.671770 -1.709114 1007.115023 2335.601444 17.600871 0.000000 0.273050
269.000000 47.292000 -12.000000 1.000000 3.000000 86.886035 -22.280130 1415.984486 1004.277331 21.155670 0.000000 0.130406
270.000000 51.525000 -11.000000 1.000000 3.000000 87.038693 -20.452647 1376.396395 1000.423352 19.417812 0.000000 0.134404
271.000000 56.510000 -10.000000 1.000000 3.000000 87.144443 -18.269318 1330.311021 997.535502 17.704911 0.000000 0.138837
272.000000 62.435000 -9.000000 1.000000 3.000000 87.161142 -15.623657 1275.985853 996.418931 16.024792 0.000000 0.143503
273.000000 69.534000 -8.000000 1.000000 3.000000 87.014068 -12.367266 1210.994100 998.474912 14.388934 0.000000 0.147969
274.000000 78.076000 -7.000000 1.000000 3.000000 86.567914 -8.291550 1131.852246 1006.230381 12.814880 0.000000 0.151365
275.000000 88.304000 -6.000000 1.000000 3.000000 85.572111 -3.104490 1033.374602 1024.465839 11.330859 0.000000 0.151987
276.000000 100.206000 -5.000000 1.000000 3.000000 83.554749 3.589202 907.488946 1062.825513 9.985375 0.000000 0.146599
277.000000 112.822000 -4.000000 1.000000 3.000000 79.630511 12.270851 740.903425 1142.549201 8.869404 0.000000 0.130072
278.000000 122.404000 -3.000000 1.000000 3.000000 72.236007 23.362850 510.074179 1316.609847 8.175896 0.000000 0.109343
279.000000 119.179000 -2.000000 1.000000 3.000000 59.135158 36.829654 168.959886 1744.642061 8.398299 0.000000 0.219194
281.000000 46.511000 -13.000000 2.000000 3.000000 95.041312 -22.368877 1417.932684 838.328711 21.507630 0.000000 0.125918
282.000000 50.539000 -12.000000 2.000000 3.000000 95.835687 -20.577271 1379.065219 823.500076 19.793274 0.000000 0.130951
283.000000 55.256000 -11.000000 2.000000 3.000000 96.695058 -18.442333 1333.918885 807.818752 18.103388 0.000000 0.136596
284.000000 60.830000 -10.000000 2.000000 3.000000 97.610868 -15.862966 1280.838501 791.490290 16.444244 0.000000 0.142721
285.000000 67.475000 -9.000000 2.000000 3.000000 98.557780 -12.698870 1217.531079 774.975803 14.824461 0.000000 0.149013
286.000000 75.457000 -8.000000 2.000000 3.000000 99.476388 -8.753553 1140.725850 759.228780 13.256212 0.000000 0.154838
287.000000 85.076000 -7.000000 2.000000 3.000000 100.238531 -3.752483 1045.590896 746.179084 11.757267 0.000000 0.158927
288.000000 96.600000 -6.000000 2.000000 3.000000 100.578328 2.677039 924.675514 739.778736 10.354624 0.000000 0.158759
289.000000 110.023000 -5.000000 2.000000 3.000000 99.961546 10.996490 765.858008 748.429190 9.091399 0.000000 0.149325
290.000000 124.399000 -4.000000 2.000000 3.000000 97.373130 21.639567 548.004943 791.167091 8.040962 0.000000 0.121678
291.000000 136.306000 -3.000000 2.000000 3.000000 91.114682 34.665940 230.684711 915.538294 7.339118 0.000000 0.089920
292.000000 137.652000 -2.000000 2.000000 3.000000 79.076923 49.256252 -274.376673 1259.244994 7.268457 0.000000 0.288130
293.000000 48.723000 -13.000000 3.000000 3.000000 103.145595 -20.698132 1381.657623 672.291813 20.527967 0.000000 0.117444
294.000000 57.941000 -11.000000 3.000000 3.000000 105.978381 -16.093700 1285.528187 620.246603 17.261304 0.000000 0.126946
295.000000 63.769000 -10.000000 3.000000 3.000000 107.583639 -13.017469 1223.827771 590.921056 15.683238 0.000000 0.131539
296.000000 78.815000 -8.000000 3.000000 3.000000 111.008712 -4.370208 1057.253406 526.456271 12.688657 0.000000 0.136441
297.000000 88.459000 -7.000000 3.000000 3.000000 112.581410 1.810421 940.980133 493.168062 11.305000 0.000000 0.132794
298.000000 112.232000 -5.000000 3.000000 3.000000 113.503603 19.998589 583.290935 442.898451 8.910029 0.000000 0.084681
299.000000 124.881000 -4.000000 3.000000 3.000000 110.962650 32.581717 287.164910 451.640887 8.007700 0.000000 0.018312
300.000000 134.473000 -3.000000 3.000000 3.000000 104.364193 46.887178 -174.637377 537.702415 7.437082 0.000000 0.195494
301.000000 46.528000 -14.000000 4.000000 3.000000 109.269305 -20.815397 1384.176842 538.460637 21.493984 0.000000 0.098635
302.000000 50.282000 -13.000000 4.000000 3.000000 110.935401 -18.771595 1340.805129 506.108691 19.888756 0.000000 0.101658
303.000000 54.596000 -12.000000 4.000000 3.000000 112.761985 -16.316305 1290.062982 470.456639 18.316664 0.000000 0.104470
304.000000 59.578000 -11.000000 4.000000 3.000000 114.751281 -13.323795 1229.897187 431.066610 16.784352 0.000000 0.106594
305.000000 65.354000 -10.000000 4.000000 3.000000 116.887664 -9.619266 1157.413831 387.473455 15.300364 0.000000 0.107221
306.000000 72.061000 -9.000000 4.000000 3.000000 119.118478 -4.959604 1068.398953 339.234506 13.875883 0.000000 0.104944
307.000000 79.824000 -8.000000 4.000000 3.000000 121.317527 0.986388 956.468994 286.054715 12.525828 0.000000 0.097261
308.000000 88.712000 -7.000000 4.000000 3.000000 123.219056 8.639423 811.468222 228.092227 11.270563 0.000000 0.079588
309.000000 98.614000 -6.000000 4.000000 3.000000 124.312366 18.436663 616.199452 166.720579 10.138623 0.000000 0.044172
310.000000 109.014000 -5.000000 4.000000 3.000000 123.722540 30.577895 339.041680 106.548913 9.171277 0.000000 0.048516
311.000000 118.597000 -4.000000 4.000000 3.000000 120.209824 44.567969 -85.184167 61.369086 8.430520 0.000000 0.219874
312.000000 47.492000 -14.000000 5.000000 3.000000 116.306229 -18.928370 1344.093389 378.499342 21.054934 0.000000 0.079055
313.000000 51.209000 -13.000000 5.000000 3.000000 118.335849 -16.531197 1294.450437 335.581264 19.526097 0.000000 0.080003
314.000000 55.434000 -12.000000 5.000000 3.000000 120.538438 -13.618527 1235.751413 287.672889 18.037138 0.000000 0.079968
315.000000 60.248000 -11.000000 5.000000 3.000000 122.902357 -10.025287 1165.269532 233.853809 16.595488 0.000000 0.078141
316.000000 65.731000 -10.000000 5.000000 3.000000 125.385437 -5.522459 1079.061166 172.964326 15.210550 0.000000 0.073211
317.000000 71.954000 -9.000000 5.000000 3.000000 127.886703 0.202193 971.201823 103.523647 13.894391 0.000000 0.063104
318.000000 78.950000 -8.000000 5.000000 3.000000 130.196768 7.549148 832.363825 23.613451 12.662766 0.000000 0.045340
319.000000 86.654000 -7.000000 5.000000 3.000000 131.920538 16.950372 646.962943 -69.289603 11.536638 0.000000 0.032739
320.000000 94.805000 -6.000000 5.000000 3.000000 132.389763 28.654530 386.855788 -178.554340 10.544527 0.000000 0.095590
322.000000 47.975000 -14.000000 6.000000 3.000000 122.976366 -16.738763 1298.697617 211.778691 20.840883 0.000000 0.056561
323.000000 51.559000 -13.000000 6.000000 3.000000 125.285977 -13.902297 1241.401694 156.351768 19.391141 0.000000 0.055128
324.000000 60.087000 -11.000000 6.000000 3.000000 130.344853 -6.060424 1089.270817 21.648432 16.637918 0.000000 0.045456
325.000000 65.116000 -10.000000 6.000000 3.000000 132.972788 -0.544712 985.232655 -61.750719 15.352461 0.000000 0.034744
326.000000 76.729000 -8.000000 6.000000 3.000000 137.511043 15.536211 675.784515 -278.585661 13.027914 0.000000 0.048125
328.000000 48.027000 -14.000000 7.000000 3.000000 129.237994 -14.175692 1246.858505 34.400149 20.816054 0.000000 0.035316
329.000000 51.409000 -13.000000 7.000000 3.000000 131.737184 -10.788798 1180.096028 -36.474913 19.445905 0.000000 0.031607
330.000000 55.147000 -12.000000 7.000000 3.000000 134.352365 -6.575027 1099.056120 -118.200333 18.127362 0.000000 0.024724
331.000000 59.259000 -11.000000 7.000000 3.000000 137.010485 -1.256687 998.610498 -213.885614 16.868856 0.000000 0.013918
332.000000 63.747000 -10.000000 7.000000 3.000000 139.568287 5.527629 870.840797 -328.125826 15.680763 0.000000 0.019168
335.000000 47.712000 -14.000000 8.000000 3.000000 135.057372 -11.148121 1187.099438 -158.192981 20.951875 0.000000 0.023534
336.000000 50.844000 -13.000000 8.000000 3.000000 137.649784 -7.067678 1108.442995 -248.791985 19.660407 0.000000 0.016980
337.000000 54.251000 -12.000000 8.000000 3.000000 140.284714 -1.935922 1011.379898 -355.439175 18.425373 0.000000 0.003876
341.000000 47.094000 -14.000000 9.000000 3.000000 140.405646 -7.539684 1117.455288 -371.626042 21.225249 0.000000 0.022667
348.000000 46.735000 -8.000000 -1.000000 4.000000 56.954752 -10.767365 1179.678839 1653.710839 21.420005 0.000000 0.057357
349.000000 48.651000 -7.000000 -1.000000 4.000000 52.838922 -7.431354 1115.385187 1763.710368 20.577531 0.000000 0.069042
350.000000 49.480000 -6.000000 -1.000000 4.000000 47.465608 -3.412501 1039.179317 1930.185117 20.234202 0.000000 0.123457
351.000000 47.974000 -5.000000 -1.000000 4.000000 40.340093 1.468274 947.412610 2208.740036 20.870566 0.000000 0.229078
352.000000 52.030000 -9.000000 0.000000 4.000000 71.502578 -11.059552 1185.371588 1307.882812 19.235539 0.000000 0.104042
353.000000 60.444000 -7.000000 0.000000 4.000000 66.472719 -3.900990 1048.393073 1410.683764 16.559510 0.000000 0.071346
354.000000 67.254000 -5.000000 0.000000 4.000000 56.941982 6.600435 850.460215 1646.178189 14.884774 0.000000 0.032470
356.000000 45.673000 -12.000000 1.000000 4.000000 84.239039 -16.279239 1289.307174 1054.120471 21.907300 0.000000 0.139007
357.000000 49.392000 -11.000000 1.000000 4.000000 83.932590 -14.011065 1243.571081 1058.911503 20.257754 0.000000 0.141349
358.000000 53.649000 -10.000000 1.000000 4.000000 83.455165 -11.342567 1190.896487 1066.941253 18.650632 0.000000 0.143083
359.000000 58.517000 -9.000000 1.000000 4.000000 82.721496 -8.172801 1129.574864 1079.876516 17.099502 0.000000 0.143622
360.000000 64.043000 -8.000000 1.000000 4.000000 81.598173 -4.371964 1057.286578 1100.432292 15.624408 0.000000 0.142010
361.000000 70.192000 -7.000000 1.000000 4.000000 79.873992 0.223538 970.800845 1133.222773 14.256257 0.000000 0.136728
362.000000 76.711000 -6.000000 1.000000 4.000000 77.213685 5.810242 865.479633 1186.519049 13.045331 0.000000 0.125596
363.000000 82.851000 -5.000000 1.000000 4.000000 73.093901 12.600096 734.417832 1276.201212 12.079294 0.000000 0.107265
364.000000 86.837000 -4.000000 1.000000 4.000000 66.743723 20.766912 566.865234 1435.692045 11.525857 0.000000 0.096626
365.000000 85.180000 -3.000000 1.000000 4.000000 57.186479 30.337572 345.117252 1745.092694 11.751179 0.000000 0.171948
368.000000 53.078000 -11.000000 2.000000 4.000000 93.249958 -11.616824 1196.260853 878.606313 18.847573 0.000000 0.153322
369.000000 63.469000 -9.000000 2.000000 4.000000 93.531146 -4.826286 1065.876244 874.347418 15.761952 0.000000 0.160592
370.000000 77.053000 -7.000000 2.000000 4.000000 92.498821 5.050711 879.876488 893.847073 12.983570 0.000000 0.159208
371.000000 92.676000 -5.000000 2.000000 4.000000 87.724704 19.539379 593.031512 986.376806 10.795477 0.000000 0.132497
372.000000 100.241000 -3.000000 2.000000 4.000000 73.722558 39.339453 92.825023 1347.347235 9.982505 0.000000 0.168795
374.000000 47.454000 -13.000000 3.000000 4.000000 100.442951 -14.433454 1252.015367 736.163827 21.078130 0.000000 0.142815
375.000000 51.334000 -12.000000 3.000000 4.000000 101.312223 -11.882710 1201.471580 720.981664 19.484867 0.000000 0.147279
376.000000 55.778000 -11.000000 3.000000 4.000000 102.179017 -8.865906 1142.887093 705.900464 17.932129 0.000000 0.151307
377.000000 60.879000 -10.000000 3.000000 4.000000 102.993469 -5.264771 1074.177380 691.594947 16.429529 0.000000 0.154322
378.000000 66.724000 -9.000000 3.000000 4.000000 103.667550 -0.929880 992.469219 679.238964 14.989986 0.000000 0.155374
379.000000 73.374000 -8.000000 3.000000 4.000000 104.049580 4.320344 893.688705 670.892714 13.631269 0.000000 0.152862
380.000000 80.800000 -7.000000 3.000000 4.000000 103.884846 10.688238 771.860905 670.248884 12.378519 0.000000 0.144090
381.000000 88.760000 -6.000000 3.000000 4.000000 102.762080 18.357331 617.854548 684.150033 11.268509 0.000000 0.124661
382.000000 96.572000 -5.000000 3.000000 4.000000 100.061461 27.405092 416.980670 725.888642 10.357253 0.000000 0.090145
383.000000 102.757000 -4.000000 3.000000 4.000000 94.958722 37.671322 144.005440 823.023019 9.734483 0.000000 0.081606
384.000000 104.714000 -3.000000 3.000000 4.000000 86.590508 48.659661 -248.381878 1038.077428 9.553514 0.000000 0.246378
386.000000 49.038000 -13.000000 4.000000 4.000000 108.001916 -12.140592 1206.535177 583.249726 20.394620 0.000000 0.132575
387.000000 57.482000 -11.000000 4.000000 4.000000 110.583004 -5.688184 1082.204284 534.811852 17.397702 0.000000 0.136452
388.000000 68.339000 -9.000000 4.000000 4.000000 112.914997 3.617716 906.951185 485.115023 14.633250 0.000000 0.130599
389.000000 81.761000 -7.000000 4.000000 4.000000 113.707507 17.219239 641.435184 446.193940 12.230684 0.000000 0.096169
390.000000 95.812000 -5.000000 4.000000 4.000000 109.762506 36.044943 191.735803 462.746784 10.437390 0.000000 0.037479
392.000000 46.545000 -14.000000 5.000000 4.000000 113.605939 -12.390816 1211.457789 459.428331 21.484666 0.000000 0.113668
393.000000 50.008000 -13.000000 5.000000 4.000000 115.156247 -9.515065 1155.400822 428.486806 19.996166 0.000000 0.114513
394.000000 53.897000 -12.000000 5.000000 4.000000 116.754330 -6.097244 1089.970324 395.314095 18.552759 0.000000 0.113807
395.000000 58.260000 -11.000000 5.000000 4.000000 118.350158 -2.000834 1012.600710 359.905013 17.162947 0.000000 0.110577
396.000000 63.134000 -10.000000 5.000000 4.000000 119.854265 2.941477 919.696110 322.431039 15.837514 0.000000 0.103264
397.000000 68.529000 -9.000000 5.000000 4.000000 121.114553 8.920852 806.055481 283.410326 14.590346 0.000000 0.089331
398.000000 74.396000 -8.000000 5.000000 4.000000 121.884953 16.123545 663.864419 244.043191 13.439631 0.000000 0.064574
399.000000 80.570000 -7.000000 5.000000 4.000000 121.792411 24.662290 480.817927 206.904662 12.409666 0.000000 0.024254
400.000000 86.690000 -6.000000 5.000000 4.000000 120.324055 34.461290 236.353586 177.464185 11.533656 0.000000 0.063985
401.000000 92.086000 -5.000000 5.000000 4.000000 116.874554 45.142764 -106.671304 167.710126 10.858210 0.000000 0.209810
403.000000 50.417000 -13.000000 6.000000 4.000000 121.842729 -6.492631 1097.488013 268.242735 19.831919 0.000000 0.090113
404.000000 58.236000 -11.000000 6.000000 4.000000 125.393805 2.290346 931.953194 175.681224 17.168133 0.000000 0.076104
405.000000 67.594000 -9.000000 6.000000 4.000000 128.161351 15.068681 685.224573 65.096858 14.790406 0.000000 0.039757
406.000000 77.919000 -7.000000 6.000000 4.000000 128.100788 32.921024 278.153641 -64.391720 12.830345 0.000000 0.103448
407.000000 47.165000 -14.000000 7.000000 4.000000 126.093999 -6.874981 1104.769077 150.642458 21.197692 0.000000 0.067518
408.000000 50.334000 -13.000000 7.000000 4.000000 128.010433 -2.997188 1031.353228 98.638844 19.862447 0.000000 0.061349
409.000000 53.798000 -12.000000 7.000000 4.000000 129.897148 1.663109 943.749921 40.790126 18.582954 0.000000 0.051731
410.000000 57.559000 -11.000000 7.000000 4.000000 131.648843 7.285166 837.406737 -24.011014 17.368418 0.000000 0.038478
411.000000 61.594000 -10.000000 7.000000 4.000000 133.098623 14.053083 705.590303 -97.202030 16.230184 0.000000 0.030935
412.000000 65.843000 -9.000000 7.000000 4.000000 133.997416 22.102728 537.902526 -180.704758 15.182406 0.000000 0.060824
413.000000 70.186000 -8.000000 7.000000 4.000000 134.004207 31.424522 317.394718 -277.193207 14.242969 0.000000 0.134444
415.000000 49.842000 -13.000000 8.000000 4.000000 133.618204 1.058617 955.111749 -84.768540 20.056697 0.000000 0.031425
416.000000 56.382000 -11.000000 8.000000 4.000000 137.066926 13.075202 725.029472 -246.682510 17.729475 0.000000 0.036995
418.000000 46.337000 -14.000000 9.000000 4.000000 136.737397 0.475782 966.062291 -202.669801 21.573281 0.000000 0.015745
419.000000 49.025000 -13.000000 9.000000 4.000000 138.631475 5.769378 866.255153 -287.391331 20.389886 0.000000 0.019016
420.000000 51.871000 -12.000000 9.000000 4.000000 140.316131 12.133515 743.603907 -385.785402 19.270522 0.000000 0.045317
428.000000 46.673000 -11.000000 1.000000 5.000000 80.276149 -8.100909 1128.196771 1127.294457 21.439629 0.000000 0.137034
429.000000 50.095000 -10.000000 1.000000 5.000000 79.182885 -5.101777 1071.090353 1147.465297 19.975734 0.000000 0.134332
430.000000 53.801000 -9.000000 1.000000 5.000000 77.691729 -1.613566 1005.318652 1175.926012 18.600138 0.000000 0.129042
431.000000 57.696000 -8.000000 1.000000 5.000000 75.640420 2.460708 928.747454 1216.790515 17.345172 0.000000 0.120008
432.000000 61.546000 -7.000000 1.000000 5.000000 72.797022 7.228996 838.478993 1276.900064 16.261154 0.000000 0.106122
433.000000 64.861000 -6.000000 1.000000 5.000000 68.837424 12.799746 730.476951 1368.276148 15.430897 0.000000 0.089054
434.000000 66.724000 -5.000000 1.000000 5.000000 63.332370 19.259245 598.946361 1513.603251 15.001011 0.000000 0.087984
435.000000 65.605000 -4.000000 1.000000 5.000000 55.775983 26.632902 435.258710 1760.007749 15.257981 0.000000 0.152303
438.000000 46.718000 -12.000000 2.000000 5.000000 89.451174 -8.385598 1133.656879 951.421364 21.415074 0.000000 0.155112
439.000000 50.277000 -11.000000 2.000000 5.000000 89.190711 -5.450787 1077.702398 956.272475 19.899361 0.000000 0.156954
440.000000 54.239000 -10.000000 2.000000 5.000000 88.696918 -2.042310 1013.380807 965.498028 18.446170 0.000000 0.157481
441.000000 58.600000 -9.000000 2.000000 5.000000 87.856641 1.933604 938.663693 981.304484 17.073668 0.000000 0.155904
442.000000 63.294000 -8.000000 2.000000 5.000000 86.502989 6.582094 850.809347 1007.209019 15.807814 0.000000 0.151101
443.000000 68.126000 -7.000000 2.000000 5.000000 84.393298 12.010573 746.019003 1049.023393 14.687042 0.000000 0.141692
444.000000 72.662000 -6.000000 2.000000 5.000000 81.186010 18.308476 618.873061 1116.786766 13.770772 0.000000 0.127137
445.000000 76.062000 -5.000000 2.000000 5.000000 76.430765 25.511732 461.363419 1228.836190 13.156003 0.000000 0.114631
446.000000 76.907000 -4.000000 2.000000 5.000000 69.605524 33.554671 261.138511 1421.167894 13.012602 0.000000 0.143332
447.000000 73.228000 -3.000000 2.000000 5.000000 60.254631 42.228598 -1.903390 1771.605020 13.667545 0.000000 0.278164
450.000000 45.742000 -13.000000 3.000000 5.000000 97.176794 -8.662779 1138.980668 803.911350 21.868845 0.000000 0.156698
451.000000 49.156000 -12.000000 3.000000 5.000000 97.509775 -5.790097 1084.138034 798.388779 20.349684 0.000000 0.159549
452.000000 52.975000 -11.000000 3.000000 5.000000 97.715438 -2.458554 1021.212010 795.049647 18.882627 0.000000 0.161348
453.000000 57.226000 -10.000000 3.000000 5.000000 97.712546 1.422487 948.273268 795.194388 17.480222 0.000000 0.161398
454.000000 61.903000 -9.000000 3.000000 5.000000 97.378475 5.955320 862.725420 800.868650 16.159397 0.000000 0.158653
455.000000 66.941000 -8.000000 3.000000 5.000000 96.530950 11.246021 760.989460 815.370541 14.943557 0.000000 0.151576
456.000000 72.144000 -7.000000 3.000000 5.000000 94.906411 17.386402 637.990328 844.184339 13.866007 0.000000 0.138145
457.000000 77.096000 -6.000000 3.000000 5.000000 92.141957 24.421509 486.283995 896.789249 12.975801 0.000000 0.117301
458.000000 81.018000 -5.000000 3.000000 5.000000 87.778920 32.303895 294.492587 990.387568 12.348310 0.000000 0.100720
459.000000 82.649000 -4.000000 3.000000 5.000000 81.320748 40.850523 44.310239 1158.204222 12.105595 0.000000 0.150763
460.000000 80.312000 -3.000000 3.000000 5.000000 72.380850 49.735476 -295.716805 1469.868016 12.459185 0.000000 0.334153
462.000000 47.349000 -13.000000 4.000000 5.000000 104.464853 -6.120081 1090.404227 661.764192 21.123616 0.000000 0.150970
463.000000 50.854000 -12.000000 4.000000 5.000000 105.153466 -2.862795 1028.822047 649.151550 19.667244 0.000000 0.152154
464.000000 54.750000 -11.000000 4.000000 5.000000 105.719706 0.926718 957.590189 638.028239 18.267540 0.000000 0.151511
465.000000 59.051000 -10.000000 4.000000 5.000000 106.069723 5.347892 874.247748 629.604197 16.937014 0.000000 0.147988
466.000000 63.735000 -9.000000 4.000000 5.000000 106.062329 10.505217 775.419286 625.827255 15.692151 0.000000 0.139974
467.000000 68.714000 -8.000000 4.000000 5.000000 105.491093 16.492199 656.346498 629.898124 14.555126 0.000000 0.125048
468.000000 73.777000 -7.000000 4.000000 5.000000 104.067210 23.361727 510.099222 647.224497 13.556489 0.000000 0.100052
469.000000 78.510000 -6.000000 4.000000 5.000000 101.413860 31.082866 326.176689 687.281535 12.739536 0.000000 0.066646
470.000000 82.204000 -5.000000 4.000000 5.000000 97.091749 39.496942 87.867939 767.474876 12.167724 0.000000 0.085541
471.000000 83.793000 -4.000000 4.000000 5.000000 90.679172 48.303049 -233.135630 921.819378 11.937958 0.000000 0.228190
473.000000 48.371000 -13.000000 5.000000 5.000000 111.343320 -3.255505 1036.220156 519.752860 20.674351 0.000000 0.136222
474.000000 51.842000 -12.000000 5.000000 5.000000 112.292422 0.445689 966.627625 499.732487 19.289966 0.000000 0.134111
475.000000 55.657000 -11.000000 5.000000 5.000000 113.097276 4.759057 885.395527 480.394069 17.967325 0.000000 0.128943
476.000000 64.262000 -9.000000 5.000000 5.000000 113.768420 15.625040 673.986137 448.817485 15.561273 0.000000 0.102002
477.000000 68.891000 -8.000000 5.000000 5.000000 113.235542 22.331823 532.881046 441.441706 14.515474 0.000000 0.073657
478.000000 73.474000 -7.000000 5.000000 5.000000 111.738554 29.891605 356.313172 446.001586 13.610261 0.000000 0.029647
479.000000 77.612000 -6.000000 5.000000 5.000000 108.908736 38.168677 128.992271 472.056140 12.884974 0.000000 0.059741
481.000000 45.802000 -14.000000 6.000000 5.000000 116.545712 -3.637135 1043.415069 402.221702 21.832265 0.000000 0.117210
482.000000 48.854000 -13.000000 6.000000 5.000000 117.749820 -0.021185 975.397965 374.738474 20.467731 0.000000 0.113563
483.000000 52.188000 -12.000000 6.000000 5.000000 118.855044 4.188095 896.186730 346.367149 19.159792 0.000000 0.106770
484.000000 55.802000 -11.000000 6.000000 5.000000 119.767709 9.091461 802.770105 317.573866 17.918521 0.000000 0.095291
485.000000 59.671000 -10.000000 6.000000 5.000000 120.350863 14.784095 690.950394 289.203824 16.756534 0.000000 0.076757
486.000000 63.727000 -9.000000 6.000000 5.000000 120.412541 21.331189 554.695302 262.761324 15.689844 0.000000 0.047552
487.000000 67.838000 -8.000000 6.000000 5.000000 119.699148 28.730029 385.012723 240.931398 14.739088 0.000000 0.011467
488.000000 71.772000 -7.000000 6.000000 5.000000 117.903174 36.866412 167.881607 228.601469 13.931324 0.000000 0.078243
489.000000 75.166000 -6.000000 6.000000 5.000000 114.695593 45.489278 -119.835103 234.994872 13.302741 0.000000 0.204451
491.000000 45.963000 -14.000000 7.000000 5.000000 122.333247 -0.474460 983.912878 259.697189 21.753488 0.000000 0.092389
492.000000 48.861000 -13.000000 7.000000 5.000000 123.634783 3.634311 906.638195 223.526707 20.462518 0.000000 0.084390
493.000000 51.985000 -12.000000 7.000000 5.000000 124.787098 8.416874 815.742787 185.174571 19.232516 0.000000 0.072046
494.000000 55.318000 -11.000000 7.000000 5.000000 125.674826 13.968540 707.277331 144.775312 18.073652 0.000000 0.053839
495.000000 58.816000 -10.000000 7.000000 5.000000 126.136978 20.359181 575.602348 102.721003 16.998490 0.000000 0.031186
496.000000 62.397000 -9.000000 7.000000 5.000000 125.961227 27.597961 412.375721 59.885557 16.022738 0.000000 0.041601
497.000000 65.921000 -8.000000 7.000000 5.000000 124.889036 35.590695 204.713324 18.064092 15.166298 0.000000 0.109565
500.000000 45.769000 -14.000000 8.000000 5.000000 127.652036 3.097042 916.765718 109.368912 21.843614 0.000000 0.063470
501.000000 48.469000 -13.000000 8.000000 5.000000 128.959955 7.762765 828.278541 62.629352 20.626317 0.000000 0.051393
502.000000 51.337000 -12.000000 8.000000 5.000000 130.049663 13.177557 723.002199 11.824141 19.473880 0.000000 0.036891
503.000000 54.342000 -11.000000 8.000000 5.000000 130.784043 19.415122 595.657625 -43.492554 18.396484 0.000000 0.034059
504.000000 57.432000 -10.000000 8.000000 5.000000 130.982767 26.495142 438.493407 -103.770043 17.406552 0.000000 0.068390
505.000000 60.517000 -9.000000 8.000000 5.000000 130.425899 34.341950 239.646517 -169.395518 16.519413 0.000000 0.137898
508.000000 47.755000 -13.000000 9.000000 5.000000 133.696529 12.410341 738.157698 -112.009558 20.933327 0.000000 0.029696
509.000000 50.343000 -12.000000 9.000000 5.000000 134.617071 18.498316 614.912146 -178.863015 19.856931 0.000000 0.046827
510.000000 53.006000 -11.000000 9.000000 5.000000 135.080314 25.421238 463.448902 -254.022463 18.858888 0.000000 0.089579
513.000000 46.792000 -13.000000 10.000000 5.000000 137.823713 17.608049 633.412930 -305.369565 21.362746 0.000000 0.059235
519.000000 46.115000 -10.000000 1.000000 6.000000 74.572925 0.424398 967.027593 1238.016238 21.701597 0.000000 0.115550
520.000000 48.693000 -9.000000 1.000000 6.000000 72.395252 4.063349 898.542263 1283.379449 20.553365 0.000000 0.104366
521.000000 51.102000 -8.000000 1.000000 6.000000 69.558884 8.212557 819.662841 1346.306111 19.585405 0.000000 0.089744
522.000000 53.029000 -7.000000 1.000000 6.000000 65.852883 12.933732 727.828731 1436.072473 18.874925 0.000000 0.076002
523.000000 53.959000 -6.000000 1.000000 6.000000 61.016385 18.275364 619.563019 1568.866715 18.550564 0.000000 0.083637
524.000000 53.123000 -5.000000 1.000000 6.000000 54.755760 24.256305 490.022311 1775.126691 18.843777 0.000000 0.142085
525.000000 49.516000 -4.000000 1.000000 6.000000 46.799784 30.845051 332.252285 2118.225533 20.217204 0.000000 0.263588
526.000000 47.035000 -11.000000 2.000000 6.000000 84.733799 0.025212 974.526390 1040.204480 21.273039 0.000000 0.150330
527.000000 53.280000 -9.000000 2.000000 6.000000 81.909805 7.650553 830.425034 1095.365543 18.780420 0.000000 0.140052
528.000000 59.211000 -7.000000 2.000000 6.000000 76.496745 17.500387 635.637734 1212.003489 16.900744 0.000000 0.117410
529.000000 61.653000 -5.000000 2.000000 6.000000 66.542670 29.835465 357.715432 1479.393174 16.233282 0.000000 0.131383
531.000000 49.711000 -11.000000 3.000000 6.000000 92.835452 3.127234 916.196886 887.613356 20.124681 0.000000 0.160593
532.000000 53.075000 -10.000000 3.000000 6.000000 92.065676 7.103229 840.878869 901.879446 18.849303 0.000000 0.157137
533.000000 60.103000 -8.000000 3.000000 6.000000 88.967857 16.745116 651.172235 961.249433 16.645818 0.000000 0.139566
534.000000 63.353000 -7.000000 3.000000 6.000000 86.231643 22.490726 529.388400 1017.726042 15.792643 0.000000 0.124728
535.000000 67.041000 -5.000000 3.000000 6.000000 77.017567 35.737954 200.522497 1246.698572 14.925378 0.000000 0.132660
536.000000 65.927000 -4.000000 3.000000 6.000000 69.974805 43.012678 -29.106007 1477.479301 15.178978 0.000000 0.227742
538.000000 51.549000 -11.000000 4.000000 6.000000 100.438702 6.570113 851.037409 741.400584 19.403908 0.000000 0.155662
539.000000 58.611000 -9.000000 4.000000 6.000000 99.002882 16.009064 666.193304 763.596166 17.066296 0.000000 0.138439
540.000000 65.518000 -7.000000 4.000000 6.000000 94.835067 27.880532 405.599649 838.002105 15.267796 0.000000 0.099982
541.000000 69.506000 -5.000000 4.000000 6.000000 85.934579 41.858777 10.693267 1043.709052 14.393431 0.000000 0.142555
543.000000 46.372000 -13.000000 5.000000 6.000000 107.079540 2.238227 932.933769 610.056829 21.567344 0.000000 0.148117
544.000000 49.373000 -12.000000 5.000000 6.000000 107.389319 6.050748 860.912994 602.041792 20.256314 0.000000 0.144200
545.000000 52.590000 -11.000000 5.000000 6.000000 107.446233 10.383998 777.773746 597.123758 19.017221 0.000000 0.136916
546.000000 55.982000 -10.000000 5.000000 6.000000 107.132181 15.291740 680.725981 597.049394 17.864912 0.000000 0.124797
547.000000 59.465000 -9.000000 5.000000 6.000000 106.290428 20.808988 565.960941 604.515819 16.818627 0.000000 0.105895
548.000000 62.887000 -8.000000 5.000000 6.000000 104.722076 26.934928 428.139499 623.785245 15.903742 0.000000 0.078653
549.000000 65.998000 -7.000000 5.000000 6.000000 102.190792 33.613813 259.537705 661.790812 15.154436 0.000000 0.053109
550.000000 68.424000 -6.000000 5.000000 6.000000 98.442269 40.721198 48.547858 730.225227 14.617868 0.000000 0.093695
551.000000 69.652000 -5.000000 5.000000 6.000000 93.243611 48.065881 -223.113477 849.726265 14.360981 0.000000 0.218568
553.000000 46.939000 -13.000000 6.000000 6.000000 113.210131 5.544691 870.517282 477.304835 21.304468 0.000000 0.127682
554.000000 52.919000 -11.000000 6.000000 6.000000 113.786178 14.592653 694.793705 450.794478 18.896531 0.000000 0.105501
555.000000 65.182000 -7.000000 6.000000 6.000000 108.280176 39.600475 84.596898 479.567730 15.342212 0.000000 0.077076
557.000000 47.052000 -13.000000 7.000000 6.000000 118.832044 9.205937 800.563904 340.787169 21.251345 0.000000 0.099289
558.000000 49.791000 -12.000000 7.000000 6.000000 119.296068 13.911319 708.418438 318.860978 20.081864 0.000000 0.084604
559.000000 52.650000 -11.000000 7.000000 6.000000 119.411614 19.207956 600.027103 298.483418 18.991073 0.000000 0.062860
560.000000 55.571000 -10.000000 7.000000 6.000000 119.036453 25.106494 470.678157 281.164038 17.993026 0.000000 0.031033
561.000000 58.455000 -9.000000 7.000000 6.000000 117.998649 31.569734 313.642817 269.355821 17.105335 0.000000 0.019355
562.000000 61.155000 -8.000000 7.000000 6.000000 116.105328 38.497076 118.966559 267.132982 16.350371 0.000000 0.090337
563.000000 63.460000 -7.000000 7.000000 6.000000 113.161636 45.720957 -128.727094 281.478087 15.756993 0.000000 0.201335
565.000000 46.777000 -13.000000 8.000000 6.000000 123.911761 13.247254 721.620780 197.659426 21.373934 0.000000 0.064634
566.000000 51.905000 -11.000000 8.000000 6.000000 124.298629 24.223180 490.770692 135.959093 19.262230 0.000000 0.023663
567.000000 57.018000 -9.000000 8.000000 6.000000 122.416902 37.411400 151.771521 80.509064 17.535112 0.000000 0.115086
569.000000 46.188000 -13.000000 9.000000 6.000000 128.427029 17.684281 631.836001 44.760732 21.645185 0.000000 0.032965
570.000000 50.799000 -11.000000 9.000000 6.000000 128.444126 29.606182 363.426143 -41.712041 19.680099 0.000000 0.074233
571.000000 53.073000 -10.000000 9.000000 6.000000 127.580978 36.343784 183.116259 -87.322923 18.837182 0.000000 0.139953
577.000000 45.760000 -10.000000 2.000000 7.000000 78.293026 8.437930 815.338571 1166.467056 21.868375 0.000000 0.128415
578.000000 47.871000 -9.000000 2.000000 7.000000 75.978141 12.458457 737.209904 1216.268325 20.904594 0.000000 0.118249
579.000000 49.683000 -8.000000 2.000000 7.000000 72.982305 16.929398 647.393488 1285.341979 20.143285 0.000000 0.107244
580.000000 50.904000 -7.000000 2.000000 7.000000 69.129100 21.866897 543.054632 1383.185094 19.660862 0.000000 0.102696
581.000000 51.123000 -6.000000 2.000000 7.000000 64.225565 27.263071 420.361328 1525.656590 19.577728 0.000000 0.123146
582.000000 49.810000 -5.000000 2.000000 7.000000 58.089379 33.076429 274.003364 1740.828622 20.095238 0.000000 0.189568
584.000000 46.168000 -11.000000 3.000000 7.000000 87.756980 7.952876 824.639296 983.565792 21.670856 0.000000 0.151910
585.000000 48.684000 -10.000000 3.000000 7.000000 86.316412 11.899864 748.191888 1011.813050 20.551630 0.000000 0.145141
586.000000 51.133000 -9.000000 3.000000 7.000000 84.345552 16.290065 660.472110 1052.021369 19.567860 0.000000 0.135495
587.000000 53.337000 -8.000000 3.000000 7.000000 81.689993 21.141889 558.788307 1109.551519 18.759858 0.000000 0.123783
588.000000 55.024000 -7.000000 3.000000 7.000000 78.169118 26.451448 439.517750 1192.817298 18.185689 0.000000 0.115299
589.000000 55.805000 -6.000000 3.000000 7.000000 73.589043 32.183049 297.665944 1315.542462 17.932160 0.000000 0.127096
590.000000 55.184000 -5.000000 3.000000 7.000000 67.771319 38.262098 126.149450 1501.193491 18.135112 0.000000 0.185787
591.000000 52.621000 -4.000000 3.000000 7.000000 60.600617 44.574442 -85.423767 1792.343572 19.019740 0.000000 0.312430
593.000000 48.054000 -11.000000 4.000000 7.000000 94.974111 11.353769 758.884620 845.456723 20.817376 0.000000 0.151873
594.000000 50.704000 -10.000000 4.000000 7.000000 93.781684 15.664773 673.181219 867.113909 19.729766 0.000000 0.143051
595.000000 53.297000 -9.000000 4.000000 7.000000 92.044286 20.432128 574.042614 900.002744 18.770235 0.000000 0.130499
596.000000 55.663000 -8.000000 4.000000 7.000000 89.603458 25.655622 458.040883 949.263822 17.973046 0.000000 0.115225
597.000000 57.545000 -7.000000 4.000000 7.000000 86.279053 31.305024 320.473552 1022.922856 17.385887 0.000000 0.104970
598.000000 58.588000 -6.000000 4.000000 7.000000 81.885239 37.312561 154.710517 1133.951623 17.077144 0.000000 0.124525
599.000000 58.349000 -5.000000 4.000000 7.000000 76.260604 43.571099 -48.906455 1304.215030 17.148513 0.000000 0.202959
602.000000 46.609000 -12.000000 5.000000 7.000000 102.250360 10.819852 769.299381 703.076782 21.459708 0.000000 0.146614
603.000000 49.220000 -11.000000 5.000000 7.000000 101.640090 15.053209 685.536259 711.405044 20.321655 0.000000 0.137389
604.000000 51.864000 -10.000000 5.000000 7.000000 100.592153 19.737349 588.839132 727.167004 19.285611 0.000000 0.123757
605.000000 54.437000 -9.000000 5.000000 7.000000 98.970461 24.875434 475.961620 753.726059 18.374507 0.000000 0.105166
606.000000 56.774000 -8.000000 5.000000 7.000000 96.615930 30.442364 342.471704 796.203485 17.618703 0.000000 0.084816
607.000000 58.638000 -7.000000 5.000000 7.000000 93.355647 36.376932 182.156084 862.618379 17.059263 0.000000 0.083632
608.000000 59.713000 -6.000000 5.000000 7.000000 89.021803 42.578976 -13.974701 965.957174 16.753130 0.000000 0.139450
609.000000 59.615000 -5.000000 5.000000 7.000000 83.481617 48.915005 -259.431747 1128.130561 16.781616 0.000000 0.262387
612.000000 47.205000 -12.000000 6.000000 7.000000 108.225744 14.455061 697.551822 575.010630 21.186159 0.000000 0.124399
613.000000 49.732000 -11.000000 6.000000 7.000000 107.691516 19.057280 603.198165 577.779094 20.109949 0.000000 0.109384
614.000000 52.262000 -10.000000 6.000000 7.000000 106.683958 24.110708 493.308876 587.592660 19.136276 0.000000 0.088192
615.000000 54.692000 -9.000000 6.000000 7.000000 105.064901 29.595050 363.702741 607.835264 18.286388 0.000000 0.061356
616.000000 56.866000 -8.000000 6.000000 7.000000 102.680211 35.455395 208.550250 643.709909 17.587839 0.000000 0.049354
617.000000 58.569000 -7.000000 6.000000 7.000000 99.372292 41.598472 19.472566 703.448666 17.077013 0.000000 0.102329
618.000000 59.528000 -6.000000 6.000000 7.000000 95.000540 47.896761 -216.023109 800.540366 16.802978 0.000000 0.212832
621.000000 47.310000 -12.000000 7.000000 7.000000 113.636690 18.391646 617.138832 444.602622 21.137051 0.000000 0.091533
622.000000 49.683000 -11.000000 7.000000 7.000000 113.088782 23.361255 510.109746 441.198377 20.127475 0.000000 0.068373
623.000000 52.025000 -10.000000 7.000000 7.000000 112.024953 28.763037 384.206100 444.322075 19.221472 0.000000 0.036657
624.000000 54.234000 -9.000000 7.000000 7.000000 110.309777 34.548101 233.952298 457.369862 18.438945 0.000000 0.025183
625.000000 56.166000 -8.000000 7.000000 7.000000 107.801007 40.629946 51.528005 485.647503 17.805249 0.000000 0.090633
628.000000 47.002000 -12.000000 8.000000 7.000000 118.457928 22.626868 526.389644 308.997485 21.273769 0.000000 0.049058
629.000000 49.177000 -11.000000 8.000000 7.000000 117.814421 27.946255 404.018563 298.233608 20.332692 0.000000 0.015837
630.000000 51.287000 -10.000000 8.000000 7.000000 116.611407 33.655165 258.417132 293.181883 19.496300 0.000000 0.032653
631.000000 53.235000 -9.000000 8.000000 7.000000 114.722287 39.673725 82.276722 297.174795 18.783349 0.000000 0.100436
632.000000 54.891000 -8.000000 8.000000 7.000000 112.023637 45.886767 -135.136365 315.542353 18.217366 0.000000 0.199399
634.000000 46.361000 -12.000000 9.000000 7.000000 122.679660 27.144613 423.174473 165.112913 21.566075 0.000000 0.020519
635.000000 48.316000 -11.000000 9.000000 7.000000 121.870692 32.776673 281.995683 145.114098 20.693521 0.000000 0.056236
636.000000 50.176000 -10.000000 9.000000 7.000000 120.463707 38.730098 111.797024 129.480575 19.926633 0.000000 0.120178
637.000000 51.852000 -9.000000 9.000000 7.000000 118.347159 44.896003 -97.394192 121.297955 19.283145 0.000000 0.213997
639.000000 45.464000 -12.000000 10.000000 7.000000 126.306041 31.912682 304.735253 9.401858 21.989955 0.000000 0.079483
640.000000 47.193000 -11.000000 10.000000 7.000000 125.276968 37.799319 140.161081 -22.611470 21.184802 0.000000 0.141666
645.000000 45.810000 -9.000000 3.000000 8.000000 78.107232 20.147366 580.123002 1182.442829 21.843817 0.000000 0.119285
646.000000 46.961000 -8.000000 3.000000 8.000000 74.879926 24.698605 479.991689 1261.093776 21.309144 0.000000 0.113249
647.000000 47.486000 -7.000000 3.000000 8.000000 70.844406 29.586423 363.917057 1370.927681 21.074714 0.000000 0.122702
648.000000 47.087000 -6.000000 3.000000 8.000000 65.876834 34.771062 227.761894 1527.742282 21.254640 0.000000 0.164791
649.000000 48.057000 -9.000000 4.000000 8.000000 85.380124 24.024407 495.253435 1036.221183 20.819429 0.000000 0.120873
650.000000 50.197000 -7.000000 4.000000 8.000000 78.502009 33.972181 249.790416 1204.997191 19.933635 0.000000 0.122099
651.000000 48.887000 -5.000000 4.000000 8.000000 67.927363 44.867320 -96.321020 1556.793803 20.470158 0.000000 0.266950
652.000000 45.698000 -11.000000 5.000000 8.000000 95.859389 18.942764 605.604387 824.222478 21.890095 0.000000 0.132830
653.000000 47.654000 -10.000000 5.000000 8.000000 94.211455 23.362144 510.089912 854.667755 20.992049 0.000000 0.119092
654.000000 49.421000 -9.000000 5.000000 8.000000 91.984343 28.120238 399.823733 898.718559 20.241704 0.000000 0.104071
655.000000 50.845000 -8.000000 5.000000 8.000000 89.056848 33.184730 271.102377 962.171446 19.675505 0.000000 0.096695
656.000000 51.722000 -7.000000 5.000000 8.000000 85.308104 38.500242 118.869452 1053.871977 19.342965 0.000000 0.118757
657.000000 51.805000 -6.000000 5.000000 8.000000 80.633585 43.988950 -63.964225 1187.751525 19.313093 0.000000 0.188693
658.000000 50.830000 -5.000000 5.000000 8.000000 74.966665 49.555568 -287.656327 1386.597140 19.685041 0.000000 0.315368
660.000000 46.377000 -11.000000 6.000000 8.000000 101.656569 22.711675 524.518650 700.296586 21.566923 0.000000 0.109248
661.000000 50.001000 -9.000000 6.000000 8.000000 97.866980 32.408754 291.732179 764.847553 20.004473 0.000000 0.073119
662.000000 52.235000 -7.000000 6.000000 8.000000 91.228631 43.118979 -32.847310 909.376358 19.150585 0.000000 0.139099
664.000000 46.538000 -11.000000 7.000000 8.000000 106.863448 26.701817 433.637616 575.800764 21.489944 0.000000 0.072512
665.000000 48.334000 -10.000000 7.000000 8.000000 105.246324 31.644285 311.712059 596.409558 20.691856 0.000000 0.048662
666.000000 49.925000 -9.000000 7.000000 8.000000 103.009931 36.852845 168.279701 630.221076 20.032745 0.000000 0.052563
667.000000 51.182000 -8.000000 7.000000 8.000000 100.051049 42.257684 -2.900349 683.249119 19.541519 0.000000 0.110270
668.000000 51.944000 -7.000000 7.000000 8.000000 96.278907 47.770079 -210.742226 764.803529 19.255703 0.000000 0.209120
671.000000 46.266000 -11.000000 8.000000 8.000000 111.465708 30.891334 331.072253 447.818969 21.614090 0.000000 0.023929
672.000000 49.331000 -9.000000 8.000000 8.000000 107.424704 41.405317 25.941423 490.629983 20.272043 0.000000 0.101463
674.000000 45.649000 -11.000000 9.000000 8.000000 115.466805 35.247727 214.414422 313.323824 21.904659 0.000000 0.044940
675.000000 47.110000 -10.000000 9.000000 8.000000 113.627327 40.562113 53.738079 321.239659 21.225910 0.000000 0.108894
676.000000 48.350000 -9.000000 9.000000 8.000000 111.145991 46.011300 -139.975334 341.589793 20.681840 0.000000 0.198133
680.000000 46.161000 -8.000000 6.000000 9.000000 87.839033 39.427274 90.063551 993.577825 21.672064 0.000000 0.115294
681.000000 46.363000 -7.000000 6.000000 9.000000 83.842524 44.313343 -75.801048 1103.278036 21.578710 0.000000 0.179969
682.000000 45.681000 -9.000000 7.000000 9.000000 96.159702 38.683797 113.225316 792.196463 21.896363 0.000000 0.082642
683.000000 46.374000 -8.000000 7.000000 9.000000 92.883126 43.538826 -47.752171 866.225052 21.570325 0.000000 0.140187
684.000000 46.577000 -7.000000 7.000000 9.000000 88.898839 48.461416 -239.879885 972.197354 21.477576 0.000000 0.235695
686.000000 46.061000 -8.000000 8.000000 9.000000 97.250568 47.671642 -206.656532 737.648139 21.715084 0.000000 0.206567
#UB matrix in q= (UB) B0 G* 
#[[ 0.652154951 -0.756934656  0.022206457]
# [ 0.505445231  0.45696031   0.732332639]
# [-0.564994724 -0.4668758    0.681271852]]
#B0 matrix in q= UB (B0) G*
#[[ 0.19670273 -0.          0.03056101]
# [ 0.          0.19187965 -0.        ]
# [ 0.          0.          0.18806537]]
#UBB0 matrix in q= (UB B0) G* i.e. recip. basis vectors are columns in LT frame: astar = UBB0[:,0], bstar = UBB0[:,1], cstar = UBB0[:,2]. (abcstar as columns on xyzlab1, xlab1 = ui, ui = unit vector along incident beam)
#[[ 0.12828066 -0.14524036  0.02410678]
# [ 0.09942246  0.08768139  0.15317332]
# [-0.11113601 -0.08958397  0.11085684]]
#Euler angles phi theta psi (deg)
#[309.534  47.103   1.737]
#deviatoric strain in direct crystal frame (10-3 unit)
#[[-2.22 -0.57  0.39]
# [-0.57 -2.03  0.05]
# [ 0.39  0.05  4.25]]
#deviatoric strain in sample2 frame (10-3 unit)
#[[-0.59  2.4   0.89]
# [ 2.4   1.35  2.47]
# [ 0.89  2.47 -0.76]]
#new lattice parameters
#[ 5.1505     5.212581   5.3151095 89.9867738 99.2102058 90.0650218]
#CCDLabel
#sCMOS
#DetectorParameters
#[79.0, 975.0, 941.0, 0.0, 0.0]
#pixelsize
#0.0734
#Frame dimensions
#[2018, 2016]
#
