#Strain and Orientation Refinement from experimental file: /home/micha/LaueProjects/DepthEffects/testZrO2_75.cor
#File created at Wed Jun 28 14:22:59 2023 with indexingSpotsSet.py
#Number of indexed spots: 506
#Element
#ZrO2
#grainIndex
#G_0
#Mean Deviation(pixel): 0.117
##spot_index intensity h k l 2theta Chi Xexp Yexp Energy GrainIndex PixDev
0.000000 45.783000 8.000000 1.000000 -11.000000 86.672135 51.146453 -361.081203 1040.762087 21.860153 0.000000 0.303710
1.000000 46.525000 9.000000 1.000000 -11.000000 93.447688 48.591832 -245.465439 842.964268 21.509354 0.000000 0.226959
2.000000 46.630000 10.000000 1.000000 -11.000000 99.538310 45.957801 -137.893851 680.854873 21.458550 0.000000 0.167936
3.000000 46.247000 11.000000 1.000000 -11.000000 104.977484 43.252219 -37.555131 545.666572 21.634577 0.000000 0.122512
4.000000 45.504000 12.000000 1.000000 -11.000000 109.809227 40.484648 56.256477 431.276341 21.986272 0.000000 0.087824
8.000000 47.002000 11.000000 2.000000 -11.000000 108.579410 49.129102 -268.784101 388.117391 21.285577 0.000000 0.250778
9.000000 46.201000 12.000000 2.000000 -11.000000 113.476508 46.331980 -152.536937 263.989406 21.652860 0.000000 0.205133
12.000000 46.970000 8.000000 -1.000000 -10.000000 83.020113 37.970092 135.011132 1108.148893 21.310043 0.000000 0.126873
13.000000 47.589000 9.000000 -1.000000 -10.000000 89.732445 35.199075 215.783933 947.150634 21.030692 0.000000 0.098292
14.000000 47.514000 10.000000 -1.000000 -10.000000 95.674196 32.402994 291.883982 814.340135 21.061931 0.000000 0.085646
15.000000 46.929000 11.000000 -1.000000 -10.000000 100.904725 29.594944 363.705362 702.535977 21.322420 0.000000 0.082611
16.000000 45.988000 12.000000 -1.000000 -10.000000 105.490688 26.788360 431.599055 606.842943 21.756940 0.000000 0.083690
17.000000 45.743000 6.000000 0.000000 -10.000000 72.043658 49.091901 -267.153240 1473.647154 21.884877 0.000000 0.325838
18.000000 48.150000 7.000000 0.000000 -10.000000 80.481234 46.380321 -154.443316 1202.604021 20.788035 0.000000 0.227812
19.000000 49.439000 8.000000 0.000000 -10.000000 88.071048 43.590689 -49.607726 991.047825 20.243724 0.000000 0.156585
20.000000 49.828000 9.000000 0.000000 -10.000000 94.828996 40.733334 48.150873 821.004054 20.083424 0.000000 0.104620
21.000000 49.534000 4.000000 0.000000 -4.000000 100.798963 37.820431 139.525688 681.113361 8.080329 0.000000 0.067428
22.000000 48.746000 11.000000 0.000000 -10.000000 106.041066 34.865770 225.122254 563.839899 20.525532 0.000000 0.043003
23.000000 47.620000 12.000000 0.000000 -10.000000 110.622810 31.884418 305.471869 463.984117 21.009102 0.000000 0.031573
24.000000 46.278000 13.000000 0.000000 -10.000000 114.613075 28.892288 381.042633 377.840130 21.617088 0.000000 0.031483
27.000000 51.205000 8.000000 1.000000 -10.000000 92.524133 49.680266 -293.236897 867.673290 19.543618 0.000000 0.253149
28.000000 51.425000 9.000000 1.000000 -10.000000 99.341058 46.796008 -170.976986 682.392722 19.457648 0.000000 0.184021
29.000000 50.978000 10.000000 1.000000 -10.000000 105.365378 43.820848 -57.881130 531.079260 19.626691 0.000000 0.132286
30.000000 50.052000 11.000000 1.000000 -10.000000 110.654601 40.767157 47.043795 405.299210 19.988127 0.000000 0.093954
31.000000 48.803000 12.000000 1.000000 -10.000000 115.274003 37.649737 144.652417 299.183233 20.498287 0.000000 0.066353
32.000000 47.350000 13.000000 1.000000 -10.000000 119.290710 34.485508 235.684190 208.522598 21.125789 0.000000 0.047720
33.000000 45.784000 14.000000 1.000000 -10.000000 122.770021 31.293029 320.782171 130.222128 21.847499 0.000000 0.036690
38.000000 50.814000 11.000000 2.000000 -10.000000 114.594820 47.271847 -190.219629 214.937716 19.686665 0.000000 0.231548
39.000000 49.508000 6.000000 1.000000 -5.000000 119.297092 44.084995 -67.455300 100.252142 10.102287 0.000000 0.190998
40.000000 48.006000 13.000000 2.000000 -10.000000 123.391328 40.806048 45.769423 3.720085 20.835701 0.000000 0.160090
41.000000 46.395000 7.000000 1.000000 -5.000000 126.939161 37.453245 150.524891 -78.406299 10.779135 0.000000 0.136161
46.000000 45.621000 3.000000 -1.000000 -3.000000 82.461054 21.979112 540.605239 1094.605146 7.313942 0.000000 0.123919
47.000000 45.652000 10.000000 -3.000000 -9.000000 88.302304 19.318874 597.689022 974.803775 21.924922 0.000000 0.135307
48.000000 47.611000 7.000000 -2.000000 -9.000000 74.703564 32.376561 292.580346 1289.552314 21.026946 0.000000 0.126823
49.000000 48.953000 8.000000 -2.000000 -9.000000 82.254878 29.473775 366.712158 1109.145063 20.447959 0.000000 0.113957
50.000000 49.312000 9.000000 -2.000000 -9.000000 88.892398 26.573175 436.662087 964.266558 20.296812 0.000000 0.115878
51.000000 48.950000 10.000000 -2.000000 -9.000000 94.689417 23.689535 502.774285 844.588632 20.445033 0.000000 0.121311
52.000000 48.085000 11.000000 -2.000000 -9.000000 99.731017 20.837115 565.356149 743.509120 20.810907 0.000000 0.125757
53.000000 46.889000 12.000000 -2.000000 -9.000000 104.104367 18.029256 624.683100 656.602008 21.339978 0.000000 0.128023
54.000000 45.491000 13.000000 -2.000000 -9.000000 107.892909 15.278036 681.002637 580.782895 21.994559 0.000000 0.128066
55.000000 49.288000 6.000000 -1.000000 -9.000000 72.220254 40.999459 39.409512 1398.312088 20.311593 0.000000 0.195755
56.000000 51.554000 7.000000 -1.000000 -9.000000 80.829720 37.985590 134.542572 1161.447010 19.416069 0.000000 0.134441
57.000000 52.523000 8.000000 -1.000000 -9.000000 88.430985 34.926040 223.439263 976.957342 19.055644 0.000000 0.101746
58.000000 52.508000 9.000000 -1.000000 -9.000000 95.077450 31.837511 306.693353 828.434497 19.059024 0.000000 0.089056
59.000000 51.791000 10.000000 -1.000000 -9.000000 100.848923 28.737690 384.825552 705.758617 19.320977 0.000000 0.087168
60.000000 50.602000 11.000000 -1.000000 -9.000000 105.836515 25.644655 458.294411 602.338775 19.773289 0.000000 0.088990
61.000000 49.116000 12.000000 -1.000000 -9.000000 110.132691 22.576248 527.505332 513.690804 20.369798 0.000000 0.090961
62.000000 47.463000 13.000000 -1.000000 -9.000000 113.825435 19.549471 592.818047 436.652664 21.078154 0.000000 0.091776
63.000000 45.732000 14.000000 -1.000000 -9.000000 116.995283 16.579947 654.552877 368.926907 21.875009 0.000000 0.091124
67.000000 56.885000 7.000000 1.000000 -9.000000 91.346575 51.009074 -354.543224 900.790191 17.592363 0.000000 0.288261
68.000000 57.305000 8.000000 1.000000 -9.000000 99.081247 47.824772 -213.019031 684.769635 17.461297 0.000000 0.205217
69.000000 56.778000 9.000000 1.000000 -9.000000 105.831461 44.521845 -83.478371 512.940826 17.621413 0.000000 0.145147
70.000000 55.597000 10.000000 1.000000 -9.000000 111.674172 41.116612 35.538987 373.223172 17.994252 0.000000 0.102216
71.000000 53.993000 11.000000 1.000000 -9.000000 116.698418 37.629279 145.265292 257.543440 18.527217 0.000000 0.072564
72.000000 52.142000 12.000000 1.000000 -9.000000 120.995523 34.083438 246.747627 160.305813 19.183733 0.000000 0.053461
73.000000 50.168000 13.000000 1.000000 -9.000000 124.653360 30.505248 340.881436 77.512322 19.937574 0.000000 0.042466
74.000000 48.157000 14.000000 1.000000 -9.000000 127.753402 26.922339 428.437009 6.232613 20.769447 0.000000 0.036776
75.000000 46.165000 15.000000 1.000000 -9.000000 130.369501 23.362561 510.080616 -55.728647 21.664843 0.000000 0.033572
81.000000 52.850000 12.000000 2.000000 -9.000000 125.458489 41.190046 33.105806 -77.614550 18.925321 0.000000 0.181544
82.000000 50.829000 13.000000 2.000000 -9.000000 129.207385 37.405479 151.947797 -164.341457 19.677060 0.000000 0.153043
83.000000 48.774000 14.000000 2.000000 -9.000000 132.381378 33.553979 261.157246 -237.535060 20.505185 0.000000 0.130117
84.000000 46.742000 15.000000 2.000000 -9.000000 135.051369 29.669180 361.859664 -299.912119 21.395822 0.000000 0.110877
89.000000 45.830000 6.000000 -3.000000 -8.000000 63.905486 26.343084 442.054847 1529.229182 21.848907 0.000000 0.120700
90.000000 48.446000 7.000000 -3.000000 -8.000000 72.499364 23.361411 510.106260 1310.672455 20.666461 0.000000 0.108189
91.000000 49.667000 8.000000 -3.000000 -8.000000 80.025709 20.414860 574.411973 1142.967047 20.155481 0.000000 0.122187
92.000000 49.849000 9.000000 -3.000000 -8.000000 86.565683 17.518047 635.272959 1008.731854 20.079702 0.000000 0.137453
93.000000 49.298000 10.000000 -3.000000 -8.000000 92.221602 14.684095 692.958790 897.836758 20.302068 0.000000 0.147927
94.000000 48.258000 11.000000 -3.000000 -8.000000 97.101038 11.924341 747.711623 803.963597 20.737606 0.000000 0.153418
95.000000 46.912000 12.000000 -3.000000 -8.000000 101.307383 9.248172 799.749602 722.956716 21.330831 0.000000 0.154835
96.000000 47.764000 5.000000 -2.000000 -8.000000 61.209822 34.990797 221.628229 1662.955148 20.964197 0.000000 0.195745
97.000000 51.735000 3.000000 -1.000000 -4.000000 71.091437 31.787100 308.004710 1374.732594 9.676082 0.000000 0.131955
98.000000 53.831000 7.000000 -2.000000 -8.000000 79.770301 28.571570 388.877941 1162.165350 18.596167 0.000000 0.115432
99.000000 54.482000 4.000000 -1.000000 -4.000000 87.299659 25.364381 464.757621 997.178698 9.185709 0.000000 0.119697
100.000000 54.100000 9.000000 -2.000000 -8.000000 93.778285 22.185398 536.092393 864.239499 18.498983 0.000000 0.127374
101.000000 53.025000 5.000000 -1.000000 -4.000000 99.324476 19.053449 603.278719 754.034938 9.436089 0.000000 0.132758
102.000000 51.516000 11.000000 -2.000000 -8.000000 104.059142 15.985701 666.668250 660.627470 19.423442 0.000000 0.134884
103.000000 49.759000 6.000000 -1.000000 -4.000000 108.096298 12.997165 726.573985 580.042472 10.053955 0.000000 0.134083
104.000000 47.882000 13.000000 -2.000000 -8.000000 111.538584 10.100379 783.275441 509.511720 20.894620 0.000000 0.130929
105.000000 45.973000 7.000000 -1.000000 -4.000000 114.475847 7.305264 837.023009 447.042710 10.880758 0.000000 0.125967
107.000000 53.471000 5.000000 -1.000000 -8.000000 68.001810 41.362818 27.359579 1520.331596 18.723922 0.000000 0.222917
108.000000 56.988000 6.000000 -1.000000 -8.000000 78.031866 38.004669 133.965485 1230.542198 17.565560 0.000000 0.144446
109.000000 58.552000 7.000000 -1.000000 -8.000000 86.784857 34.589583 232.803094 1014.441011 17.093988 0.000000 0.105818
110.000000 58.659000 8.000000 -1.000000 -8.000000 94.325037 31.140814 324.691662 845.895363 17.060607 0.000000 0.093231
111.000000 57.761000 9.000000 -1.000000 -8.000000 100.762875 27.683042 410.339158 709.961895 17.323884 0.000000 0.092802
112.000000 56.220000 10.000000 -1.000000 -8.000000 106.227364 24.241336 490.360537 597.457995 17.797311 0.000000 0.095319
113.000000 54.300000 11.000000 -1.000000 -8.000000 110.848536 20.840073 565.292535 502.417151 18.425038 0.000000 0.097029
114.000000 52.188000 12.000000 -1.000000 -8.000000 114.747959 17.501937 635.605716 420.785638 19.169394 0.000000 0.096908
115.000000 50.008000 13.000000 -1.000000 -8.000000 118.034485 14.247085 701.714368 349.706834 20.004047 0.000000 0.094917
116.000000 47.839000 14.000000 -1.000000 -8.000000 120.803069 11.092556 763.984672 287.105415 20.910038 0.000000 0.091307
117.000000 45.731000 15.000000 -1.000000 -8.000000 123.135217 8.051947 822.741485 231.434253 21.873368 0.000000 0.086394
119.000000 58.076000 5.000000 0.000000 -8.000000 74.231965 48.421815 -238.189474 1398.946308 17.236860 0.000000 0.298252
120.000000 61.151000 3.000000 0.000000 -4.000000 84.381929 44.994661 -101.093721 1090.714951 8.183696 0.000000 0.189405
121.000000 62.254000 7.000000 0.000000 -8.000000 93.215455 41.453386 24.335168 860.325077 16.075256 0.000000 0.116094
122.000000 60.614000 9.000000 0.000000 -8.000000 107.245708 34.122323 245.682270 537.408594 16.506457 0.000000 0.038897
123.000000 58.713000 5.000000 0.000000 -4.000000 112.687634 30.388686 343.827559 419.386693 8.519717 0.000000 0.030484
124.000000 56.481000 11.000000 0.000000 -8.000000 117.257790 26.650903 434.835458 320.569938 17.711466 0.000000 0.034820
125.000000 54.101000 6.000000 0.000000 -4.000000 121.080860 22.940566 519.457225 236.509693 9.244813 0.000000 0.040702
126.000000 51.691000 13.000000 0.000000 -8.000000 124.268938 19.287900 598.342261 164.046703 19.350619 0.000000 0.044471
127.000000 49.326000 7.000000 0.000000 -4.000000 126.920334 15.720350 672.054800 100.873500 10.138754 0.000000 0.045754
128.000000 47.051000 15.000000 0.000000 -8.000000 129.119944 12.261497 741.087436 45.264027 21.257673 0.000000 0.044894
132.000000 64.676000 7.000000 1.000000 -8.000000 98.727076 49.116446 -268.228992 688.577208 15.471334 0.000000 0.234224
133.000000 64.054000 8.000000 1.000000 -8.000000 106.401403 45.407211 -116.702880 489.759771 15.619681 0.000000 0.162620
134.000000 62.502000 9.000000 1.000000 -8.000000 112.927571 41.559970 20.765090 332.583279 16.006028 0.000000 0.113606
135.000000 60.385000 10.000000 1.000000 -8.000000 118.431310 37.603249 146.044594 205.491293 16.565760 0.000000 0.081262
136.000000 57.967000 11.000000 1.000000 -8.000000 123.041059 33.571330 260.687839 100.802704 17.255710 0.000000 0.061212
137.000000 55.425000 12.000000 1.000000 -8.000000 126.878635 29.502734 365.994196 13.219550 18.045944 0.000000 0.049531
138.000000 52.877000 13.000000 1.000000 -8.000000 130.054978 25.438138 463.059672 -61.026318 18.915047 0.000000 0.042505
139.000000 50.391000 14.000000 1.000000 -8.000000 132.668777 21.417981 552.815191 -124.685265 19.847298 0.000000 0.037235
140.000000 48.011000 15.000000 1.000000 -8.000000 134.806586 17.480105 636.056552 -179.809709 20.830895 0.000000 0.032021
141.000000 45.756000 16.000000 1.000000 -8.000000 136.543581 13.657766 713.468086 -227.960859 21.856801 0.000000 0.026103
155.000000 47.477000 7.000000 -4.000000 -7.000000 68.684650 14.050930 705.633285 1373.914488 21.090106 0.000000 0.085599
156.000000 48.730000 8.000000 -4.000000 -7.000000 76.178346 11.211871 761.656252 1210.946542 20.545038 0.000000 0.117430
157.000000 48.906000 9.000000 -4.000000 -7.000000 82.648146 8.464825 814.822195 1081.396073 20.468710 0.000000 0.141287
158.000000 48.341000 10.000000 -4.000000 -7.000000 88.217713 5.817376 865.344230 974.664216 20.705934 0.000000 0.155717
159.000000 47.292000 11.000000 -4.000000 -7.000000 93.009337 3.274875 913.414793 884.325387 21.163219 0.000000 0.162866
160.000000 45.947000 12.000000 -4.000000 -7.000000 97.135687 0.840611 959.208085 806.245123 21.780883 0.000000 0.164705
161.000000 48.128000 5.000000 -3.000000 -7.000000 58.188897 25.062618 471.682964 1678.012657 20.807395 0.000000 0.135717
162.000000 52.249000 6.000000 -3.000000 -7.000000 68.218860 21.765048 545.274424 1404.088654 19.163795 0.000000 0.099255
163.000000 54.269000 7.000000 -3.000000 -7.000000 76.897445 18.520803 614.442393 1205.195220 18.447764 0.000000 0.116523
164.000000 54.743000 8.000000 -3.000000 -7.000000 84.328353 15.348780 679.574070 1051.844114 18.285402 0.000000 0.137634
165.000000 54.161000 9.000000 -3.000000 -7.000000 90.653135 12.265294 741.012746 928.443800 18.479965 0.000000 0.151409
166.000000 52.901000 10.000000 -3.000000 -7.000000 96.022130 9.283730 799.063855 825.949620 18.918053 0.000000 0.158114
167.000000 51.240000 11.000000 -3.000000 -7.000000 100.578132 6.414415 854.000051 738.735934 19.529702 0.000000 0.159423
168.000000 49.366000 12.000000 -3.000000 -7.000000 104.448877 3.664675 906.065495 663.107483 20.269408 0.000000 0.156814
169.000000 47.406000 13.000000 -3.000000 -7.000000 107.744735 1.039048 955.479478 596.527874 21.106296 0.000000 0.151410
170.000000 49.828000 4.000000 -2.000000 -7.000000 54.645345 34.648135 231.179026 1869.211116 20.097697 0.000000 0.241816
171.000000 56.148000 5.000000 -2.000000 -7.000000 66.360316 31.055150 326.886323 1490.930299 17.832531 0.000000 0.140746
172.000000 59.565000 6.000000 -2.000000 -7.000000 76.539881 27.453071 415.836624 1231.293515 16.807007 0.000000 0.115292
173.000000 60.752000 7.000000 -2.000000 -7.000000 85.234536 23.870222 498.721103 1039.118260 16.476097 0.000000 0.122811
174.000000 60.387000 8.000000 -2.000000 -7.000000 92.579981 20.334030 576.139776 889.279508 16.573442 0.000000 0.133730
175.000000 59.027000 9.000000 -2.000000 -7.000000 98.746735 16.869816 648.616046 767.958689 16.953433 0.000000 0.140331
176.000000 57.081000 10.000000 -2.000000 -7.000000 103.908562 13.499801 716.608558 666.900228 17.529751 0.000000 0.142158
177.000000 54.830000 11.000000 -2.000000 -7.000000 108.226078 10.242442 780.520910 580.850256 18.247979 0.000000 0.140144
178.000000 52.458000 12.000000 -2.000000 -7.000000 111.840124 7.112098 840.709674 506.293749 19.072110 0.000000 0.135274
179.000000 50.078000 13.000000 -2.000000 -7.000000 114.870527 4.119025 897.491046 440.781549 19.977367 0.000000 0.128349
180.000000 47.760000 14.000000 -2.000000 -7.000000 117.417461 1.269621 951.146410 382.548732 20.946145 0.000000 0.119978
181.000000 45.541000 15.000000 -2.000000 -7.000000 119.563840 -1.433141 1001.926997 330.286860 21.965588 0.000000 0.110620
183.000000 57.679000 4.000000 -1.000000 -7.000000 62.379880 41.819808 12.012108 1696.662879 17.359148 0.000000 0.265925
184.000000 63.418000 5.000000 -1.000000 -7.000000 74.338457 38.028732 133.237229 1324.080615 15.785666 0.000000 0.158604
185.000000 66.056000 6.000000 -1.000000 -7.000000 84.637568 34.164733 244.519216 1063.098834 15.152740 0.000000 0.110619
186.000000 66.415000 7.000000 -1.000000 -7.000000 93.347736 30.261539 347.033211 868.108960 15.068708 0.000000 0.098348
187.000000 65.262000 8.000000 -1.000000 -7.000000 100.627109 26.354996 441.776192 715.624527 15.332863 0.000000 0.099801
188.000000 63.199000 9.000000 -1.000000 -7.000000 106.666462 22.481132 529.599507 592.282193 15.831719 0.000000 0.102865
189.000000 60.648000 10.000000 -1.000000 -7.000000 111.656197 18.674202 611.234528 489.894685 16.496275 0.000000 0.103842
190.000000 57.886000 11.000000 -1.000000 -7.000000 115.770077 14.964966 687.313062 403.150542 17.282166 0.000000 0.102202
191.000000 55.086000 12.000000 -1.000000 -7.000000 119.159214 11.379397 758.383742 328.443007 18.159565 0.000000 0.098271
192.000000 52.351000 13.000000 -1.000000 -7.000000 121.951452 7.937943 824.925275 263.229836 19.107682 0.000000 0.092547
193.000000 49.736000 14.000000 -1.000000 -7.000000 124.253230 4.655330 887.357236 205.662600 20.111581 0.000000 0.085494
194.000000 47.270000 15.000000 -1.000000 -7.000000 126.152328 1.540819 946.048930 154.361618 21.160256 0.000000 0.077530
197.000000 74.171000 6.000000 1.000000 -7.000000 98.222902 50.784575 -343.942037 694.992053 13.490742 0.000000 0.275968
198.000000 73.441000 7.000000 1.000000 -7.000000 107.112975 46.560043 -161.560548 459.061318 13.622940 0.000000 0.187378
199.000000 71.325000 8.000000 1.000000 -7.000000 114.504874 42.140872 1.097993 279.357591 14.025505 0.000000 0.129776
200.000000 68.433000 9.000000 1.000000 -7.000000 120.583928 37.569012 147.068766 138.457013 14.617052 0.000000 0.093499
201.000000 65.178000 10.000000 1.000000 -7.000000 125.538299 32.896977 278.794558 25.379663 15.345882 0.000000 0.071463
202.000000 61.824000 11.000000 1.000000 -7.000000 129.543050 28.184803 398.263562 -67.121871 16.177577 0.000000 0.057865
203.000000 58.527000 12.000000 1.000000 -7.000000 132.754018 23.495680 507.110429 -144.014577 17.088339 0.000000 0.048233
204.000000 55.373000 13.000000 1.000000 -7.000000 135.306654 18.890975 606.691502 -208.810249 18.061183 0.000000 0.039748
205.000000 52.405000 14.000000 1.000000 -7.000000 137.317027 14.425616 698.141631 -264.057861 19.083665 0.000000 0.031008
206.000000 49.639000 15.000000 1.000000 -7.000000 138.883584 10.144635 782.417610 -311.649544 20.146458 0.000000 0.021479
207.000000 47.077000 16.000000 1.000000 -7.000000 140.089085 6.081343 860.331779 -353.017396 21.242434 0.000000 0.011062
218.000000 46.013000 8.000000 -5.000000 -6.000000 70.813690 2.323731 931.325052 1315.825217 21.760728 0.000000 0.091345
219.000000 46.404000 9.000000 -5.000000 -6.000000 77.273836 -0.155885 977.928294 1184.070802 21.575036 0.000000 0.125152
220.000000 46.035000 10.000000 -5.000000 -6.000000 82.840060 -2.517298 1022.317588 1076.333710 21.745285 0.000000 0.145301
221.000000 45.747000 5.000000 -4.000000 -6.000000 53.305878 14.664591 693.350305 1770.081113 21.893033 0.000000 0.110319
222.000000 50.164000 3.000000 -2.000000 -3.000000 63.402551 11.481016 756.396798 1490.911432 9.981190 0.000000 0.058059
223.000000 52.346000 7.000000 -4.000000 -6.000000 72.067302 8.410949 815.856516 1293.099041 19.127424 0.000000 0.098837
224.000000 52.921000 4.000000 -2.000000 -3.000000 79.442181 5.465058 872.027078 1142.519016 9.458544 0.000000 0.132601
225.000000 52.418000 9.000000 -4.000000 -6.000000 85.696639 2.650557 925.174058 1022.077202 19.096489 0.000000 0.152357
226.000000 51.235000 5.000000 -2.000000 -3.000000 90.998897 -0.028491 975.535191 922.233931 9.767697 0.000000 0.161903
227.000000 49.653000 11.000000 -4.000000 -6.000000 95.501843 -2.570764 1023.323924 837.225258 20.155778 0.000000 0.164394
228.000000 47.863000 6.000000 -2.000000 -3.000000 99.337920 -4.977224 1068.732443 763.348678 10.454024 0.000000 0.162026
229.000000 45.988000 13.000000 -4.000000 -6.000000 102.618786 -7.250646 1111.934254 698.106883 21.759171 0.000000 0.156298
230.000000 49.101000 4.000000 -3.000000 -6.000000 50.561402 23.467290 507.744369 1906.120497 20.397297 0.000000 0.188478
231.000000 55.886000 5.000000 -3.000000 -6.000000 62.533152 19.785523 587.817387 1535.593062 17.918394 0.000000 0.090110
232.000000 59.362000 2.000000 -1.000000 -2.000000 72.757886 16.186167 662.589367 1288.823198 5.622125 0.000000 0.103589
233.000000 60.422000 7.000000 -3.000000 -6.000000 81.362234 12.693756 732.569855 1108.596240 16.568055 0.000000 0.133964
234.000000 59.878000 8.000000 -3.000000 -6.000000 88.546602 9.328249 798.205120 968.673714 16.716169 0.000000 0.152993
235.000000 58.355000 3.000000 -1.000000 -2.000000 94.527937 6.104718 859.887682 855.279628 5.716831 0.000000 0.161660
236.000000 56.286000 10.000000 -3.000000 -6.000000 99.509472 3.033426 917.964164 760.454205 17.779276 0.000000 0.162981
237.000000 53.954000 11.000000 -3.000000 -6.000000 103.668418 0.120213 972.741812 679.255590 18.546206 0.000000 0.159292
238.000000 51.537000 4.000000 -1.000000 -2.000000 107.153441 -2.632920 1024.493933 608.438360 6.471598 0.000000 0.152218
239.000000 49.140000 13.000000 -3.000000 -6.000000 110.086667 -5.227137 1073.464453 545.772596 20.360366 0.000000 0.142878
240.000000 46.826000 14.000000 -3.000000 -6.000000 112.567328 -7.666072 1119.871764 489.668001 21.365630 0.000000 0.132043
242.000000 60.313000 2.000000 -1.000000 -3.000000 59.925841 30.122299 350.534265 1661.565524 8.301457 0.000000 0.162105
243.000000 66.201000 5.000000 -2.000000 -6.000000 72.183297 26.031170 449.331203 1325.958364 15.123434 0.000000 0.112289
244.000000 68.187000 7.000000 -2.000000 -6.000000 90.947316 18.005137 625.184105 922.286744 14.678301 0.000000 0.139894
245.000000 66.437000 4.000000 -1.000000 -3.000000 97.898692 14.143815 703.778402 787.008692 7.531531 0.000000 0.148239
246.000000 63.867000 9.000000 -2.000000 -6.000000 103.575853 10.423762 777.001601 676.735836 15.667401 0.000000 0.149574
247.000000 60.921000 5.000000 -1.000000 -3.000000 108.213373 6.866838 845.386100 584.295319 8.211842 0.000000 0.145843
248.000000 57.866000 11.000000 -2.000000 -6.000000 112.009927 3.488058 909.396180 505.124485 17.289469 0.000000 0.138650
249.000000 54.857000 6.000000 -1.000000 -3.000000 115.128471 0.296056 969.438567 436.167849 9.118386 0.000000 0.129153
250.000000 51.977000 13.000000 -2.000000 -6.000000 117.700414 -2.706073 1025.871080 375.292127 19.246399 0.000000 0.118165
251.000000 49.266000 7.000000 -1.000000 -3.000000 119.830845 -5.519748 1079.009769 320.955664 10.152370 0.000000 0.106269
252.000000 46.739000 15.000000 -2.000000 -6.000000 121.603530 -8.149848 1129.134833 272.011626 21.401881 0.000000 0.093896
254.000000 70.844000 4.000000 -1.000000 -6.000000 69.250744 38.060024 132.289451 1458.873249 14.132095 0.000000 0.181000
255.000000 75.575000 5.000000 -1.000000 -6.000000 81.722268 33.611464 259.601334 1129.022568 13.244857 0.000000 0.116250
256.000000 76.475000 6.000000 -1.000000 -6.000000 92.028824 29.117736 375.505839 897.357366 13.086788 0.000000 0.104580
257.000000 74.952000 7.000000 -1.000000 -6.000000 100.405358 24.633597 481.470406 723.571202 13.350687 0.000000 0.108526
258.000000 72.082000 8.000000 -1.000000 -6.000000 107.150164 20.213112 578.721129 587.059035 13.880668 0.000000 0.111820
259.000000 68.575000 9.000000 -1.000000 -6.000000 112.556462 15.905864 668.290414 476.143361 14.589211 0.000000 0.111306
260.000000 64.862000 10.000000 -1.000000 -6.000000 116.882910 11.753913 751.053774 383.682256 15.423387 0.000000 0.107264
261.000000 61.185000 11.000000 -1.000000 -6.000000 120.345703 7.789940 827.758538 305.043367 16.349305 0.000000 0.100546
262.000000 57.672000 12.000000 -1.000000 -6.000000 123.120470 4.036641 899.046484 237.078256 17.344257 0.000000 0.091948
263.000000 54.384000 13.000000 -1.000000 -6.000000 125.347744 0.507212 965.471840 177.563971 18.392458 0.000000 0.082131
264.000000 51.339000 14.000000 -1.000000 -6.000000 127.139082 -2.793422 1027.515715 124.880598 19.482597 0.000000 0.071657
265.000000 48.538000 15.000000 -1.000000 -6.000000 128.582706 -5.867004 1085.597781 77.815826 20.606352 0.000000 0.061062
266.000000 45.969000 16.000000 -1.000000 -6.000000 129.748300 -8.720264 1140.085767 35.441559 21.757468 0.000000 0.050973
268.000000 79.137000 4.000000 0.000000 -6.000000 77.762625 47.293308 -191.095624 1285.179317 12.648808 0.000000 0.257025
269.000000 82.762000 5.000000 0.000000 -6.000000 90.414411 42.645197 -16.271397 930.416548 12.092296 0.000000 0.137397
270.000000 80.042000 7.000000 0.000000 -6.000000 109.164662 32.880197 279.241571 495.587035 12.499568 0.000000 0.033910
271.000000 76.332000 8.000000 0.000000 -6.000000 115.823336 27.895328 405.243885 351.681523 13.105707 0.000000 0.032816
272.000000 67.860000 10.000000 0.000000 -6.000000 125.207908 18.088007 623.462144 142.051991 14.739718 0.000000 0.045163
273.000000 63.730000 11.000000 0.000000 -6.000000 128.432220 13.401098 718.568741 63.048407 15.694256 0.000000 0.045390
274.000000 59.850000 4.000000 0.000000 -2.000000 130.940350 8.930377 805.872136 -4.099651 5.570382 0.000000 0.042369
275.000000 56.262000 13.000000 0.000000 -6.000000 132.882778 4.711510 886.294827 -61.940686 17.776534 0.000000 0.037279
276.000000 52.971000 14.000000 0.000000 -6.000000 134.379697 0.765495 960.619415 -112.332350 18.880387 0.000000 0.031454
277.000000 49.967000 5.000000 0.000000 -2.000000 135.526452 -2.899545 1029.514154 -156.662203 6.671754 0.000000 0.026759
278.000000 47.228000 16.000000 0.000000 -6.000000 136.398303 -6.285752 1093.553098 -195.988625 21.175516 0.000000 0.025740
281.000000 85.998000 6.000000 1.000000 -6.000000 108.023456 48.121555 -225.457832 416.402438 11.633550 0.000000 0.224529
282.000000 82.975000 7.000000 1.000000 -6.000000 116.548547 42.934871 -26.375764 206.484549 12.055858 0.000000 0.153657
283.000000 78.848000 8.000000 1.000000 -6.000000 123.327511 37.521961 148.474732 48.659311 12.685757 0.000000 0.110910
284.000000 74.306000 9.000000 1.000000 -6.000000 128.650479 31.969084 303.263935 -73.633554 13.460231 0.000000 0.084763
285.000000 69.746000 10.000000 1.000000 -6.000000 132.780456 26.377179 441.257094 -170.720241 14.339425 0.000000 0.067111
286.000000 65.378000 11.000000 1.000000 -6.000000 135.944841 20.851475 565.047309 -249.350754 15.296900 0.000000 0.052877
287.000000 61.299000 12.000000 1.000000 -6.000000 138.335646 15.489973 676.720014 -314.109502 16.314428 0.000000 0.039424
288.000000 57.543000 13.000000 1.000000 -6.000000 140.112620 10.373816 777.971420 -368.210365 17.379030 0.000000 0.025658
289.000000 54.110000 14.000000 1.000000 -6.000000 141.407009 5.561673 870.195267 -413.967464 18.481219 0.000000 0.011325
290.000000 50.985000 15.000000 1.000000 -6.000000 142.325306 1.088650 954.547374 -453.085598 19.613894 0.000000 0.004589
301.000000 48.040000 7.000000 -5.000000 -5.000000 65.530105 -1.160443 996.801759 1430.913236 20.844485 0.000000 0.055306
302.000000 49.032000 8.000000 -5.000000 -5.000000 72.923142 -3.744276 1045.436075 1272.342810 20.420055 0.000000 0.104280
303.000000 48.915000 9.000000 -5.000000 -5.000000 79.214573 -6.181885 1091.578683 1147.229621 20.466453 0.000000 0.132533
304.000000 48.085000 4.000000 -2.000000 -2.000000 84.574010 -8.477245 1135.416290 1044.361641 8.327105 0.000000 0.147361
305.000000 46.820000 11.000000 -5.000000 -5.000000 89.152952 -10.635711 1177.117402 957.191008 21.377830 0.000000 0.153265
306.000000 51.808000 5.000000 -4.000000 -5.000000 56.371804 8.342973 817.161140 1664.508642 19.331276 0.000000 0.054266
307.000000 55.703000 6.000000 -4.000000 -5.000000 66.606990 5.022954 880.401954 1408.393159 17.976593 0.000000 0.064437
308.000000 57.088000 7.000000 -4.000000 -5.000000 75.181683 1.872080 939.820678 1225.889408 17.537714 0.000000 0.115268
309.000000 56.826000 8.000000 -4.000000 -5.000000 82.330569 -1.104669 995.753642 1085.962954 17.616131 0.000000 0.143872
310.000000 55.561000 9.000000 -4.000000 -5.000000 88.290012 -3.906595 1048.498841 973.206289 18.015257 0.000000 0.157419
311.000000 53.731000 10.000000 -4.000000 -5.000000 93.272046 -6.536416 1098.321242 879.065504 18.626918 0.000000 0.161227
312.000000 51.621000 11.000000 -4.000000 -5.000000 97.456131 -8.999427 1145.457240 798.385840 19.386672 0.000000 0.158671
313.000000 49.407000 12.000000 -4.000000 -5.000000 100.989596 -11.302743 1190.118405 727.858574 20.253737 0.000000 0.151916
314.000000 47.197000 13.000000 -4.000000 -5.000000 103.991537 -13.454654 1232.494659 665.250433 21.201048 0.000000 0.142384
316.000000 58.276000 4.000000 -3.000000 -5.000000 54.698849 17.273066 640.326623 1739.084511 17.185610 0.000000 0.111361
317.000000 64.571000 5.000000 -3.000000 -5.000000 67.080178 13.248304 721.599956 1408.526074 15.507375 0.000000 0.077406
318.000000 66.855000 6.000000 -3.000000 -5.000000 77.293255 9.385603 797.098492 1186.979428 14.975082 0.000000 0.122635
319.000000 66.552000 7.000000 -3.000000 -5.000000 85.625922 5.708167 867.416599 1023.736790 15.040885 0.000000 0.150740
320.000000 64.747000 8.000000 -3.000000 -5.000000 92.402384 2.230998 933.069783 895.810796 15.458155 0.000000 0.162840
321.000000 62.161000 9.000000 -3.000000 -5.000000 97.921946 -1.038346 994.507349 791.207010 16.099473 0.000000 0.164529
322.000000 59.238000 10.000000 -3.000000 -5.000000 102.437500 -4.098568 1052.122697 703.014127 16.892373 0.000000 0.159612
323.000000 56.236000 11.000000 -3.000000 -5.000000 106.153608 -6.953291 1106.261754 626.942569 17.792598 0.000000 0.150509
324.000000 53.300000 12.000000 -3.000000 -5.000000 109.232265 -9.609749 1157.229925 560.171016 18.771591 0.000000 0.138776
325.000000 50.503000 13.000000 -3.000000 -5.000000 111.800591 -12.077623 1205.297860 500.755318 19.810103 0.000000 0.125430
326.000000 47.880000 14.000000 -3.000000 -5.000000 113.958107 -14.368075 1250.706258 447.303502 20.894683 0.000000 0.111151
327.000000 62.523000 3.000000 -2.000000 -5.000000 50.749972 28.893457 381.013994 1945.397914 16.018262 0.000000 0.226437
328.000000 73.413000 4.000000 -2.000000 -5.000000 66.024984 24.165790 492.066402 1465.609107 13.639332 0.000000 0.106801
329.000000 77.848000 5.000000 -2.000000 -5.000000 78.564550 19.515025 593.546534 1171.981026 12.859671 0.000000 0.120006
330.000000 78.008000 6.000000 -2.000000 -5.000000 88.622079 14.998357 686.640891 967.802123 12.831034 0.000000 0.144653
331.000000 75.730000 7.000000 -2.000000 -5.000000 96.603682 10.663215 772.347666 814.208963 13.214925 0.000000 0.155859
332.000000 72.251000 8.000000 -2.000000 -5.000000 102.921500 6.545143 851.512669 692.450642 13.849700 0.000000 0.156518
333.000000 68.305000 9.000000 -2.000000 -5.000000 107.933088 2.667381 924.857342 592.302092 14.648409 0.000000 0.150388
334.000000 64.298000 10.000000 -2.000000 -5.000000 111.927518 -0.958171 993.000804 507.671299 15.560120 0.000000 0.140045
335.000000 60.437000 11.000000 -2.000000 -5.000000 115.130831 -4.329134 1056.477374 434.675899 16.553019 0.000000 0.127162
336.000000 56.819000 12.000000 -2.000000 -5.000000 117.717153 -7.450481 1115.750605 370.706972 17.606212 0.000000 0.112825
337.000000 53.479000 13.000000 -2.000000 -5.000000 119.819927 -10.332401 1171.224626 313.934627 18.705406 0.000000 0.097767
338.000000 50.417000 14.000000 -2.000000 -5.000000 121.541435 -12.988439 1223.253369 263.029317 19.840495 0.000000 0.082526
339.000000 47.623000 15.000000 -2.000000 -5.000000 122.960326 -15.434002 1272.148126 216.996144 21.004133 0.000000 0.067566
341.000000 78.594000 3.000000 -1.000000 -5.000000 61.833773 38.102380 131.005280 1673.342711 12.740060 0.000000 0.223479
342.000000 87.834000 4.000000 -1.000000 -5.000000 77.545657 32.861355 279.743329 1223.991652 11.397206 0.000000 0.122874
343.000000 89.994000 5.000000 -1.000000 -5.000000 90.155762 27.570403 413.034698 937.699186 11.121288 0.000000 0.111934
344.000000 87.917000 6.000000 -1.000000 -5.000000 100.024829 22.318804 533.166851 735.331723 11.382119 0.000000 0.119397
345.000000 83.722000 7.000000 -1.000000 -5.000000 107.654469 17.191956 641.996838 582.431981 11.950877 0.000000 0.122296
346.000000 78.697000 8.000000 -1.000000 -5.000000 113.526298 12.263503 741.047982 461.484369 12.712623 0.000000 0.119040
347.000000 73.539000 9.000000 -1.000000 -5.000000 118.044608 7.590065 831.581621 362.581029 13.603292 0.000000 0.111254
348.000000 68.588000 10.000000 -1.000000 -5.000000 121.529016 3.209271 914.651110 279.658875 14.584350 0.000000 0.100519
349.000000 63.992000 11.000000 -1.000000 -5.000000 124.225204 -0.859296 991.142986 208.776484 15.631228 0.000000 0.088027
350.000000 59.796000 12.000000 -1.000000 -5.000000 126.319634 -4.611221 1061.808743 147.245999 16.727522 0.000000 0.074702
351.000000 55.997000 13.000000 -1.000000 -5.000000 127.953132 -8.053569 1127.289592 93.161868 17.861861 0.000000 0.061377
352.000000 52.569000 14.000000 -1.000000 -5.000000 129.231993 -11.201228 1188.135983 45.129154 19.026114 0.000000 0.049063
353.000000 49.478000 15.000000 -1.000000 -5.000000 130.236603 -14.073791 1244.823110 2.098909 20.214313 0.000000 0.039376
354.000000 46.688000 16.000000 -1.000000 -5.000000 131.027964 -16.693142 1297.763351 -36.735809 21.421979 0.000000 0.034859
355.000000 86.160000 8.000000 1.000000 -5.000000 132.625853 30.612493 338.164551 -210.015888 11.607691 0.000000 0.101459
356.000000 79.741000 9.000000 1.000000 -5.000000 136.775169 23.751474 501.386128 -310.109639 12.541509 0.000000 0.075806
357.000000 73.796000 10.000000 1.000000 -5.000000 139.735399 17.062245 644.664829 -388.216751 13.551347 0.000000 0.053565
370.000000 48.929000 6.000000 -5.000000 -4.000000 58.623402 -5.259826 1074.083685 1600.145091 20.468307 0.000000 0.025739
371.000000 51.062000 7.000000 -5.000000 -4.000000 67.243736 -7.921887 1124.767258 1396.815926 19.610379 0.000000 0.073117
372.000000 51.509000 8.000000 -5.000000 -4.000000 74.484689 -10.404949 1172.633060 1244.788113 19.437475 0.000000 0.112598
373.000000 50.886000 9.000000 -5.000000 -4.000000 80.573566 -12.718051 1217.909718 1124.183935 19.672988 0.000000 0.133632
374.000000 49.623000 10.000000 -5.000000 -4.000000 85.712824 -14.871262 1260.801776 1024.480925 20.171569 0.000000 0.142546
375.000000 48.005000 11.000000 -5.000000 -4.000000 90.073365 -16.875121 1301.492786 939.559839 20.849522 0.000000 0.143513
376.000000 46.216000 12.000000 -5.000000 -4.000000 93.795487 -18.740226 1340.147935 865.600443 21.655254 0.000000 0.139209
377.000000 50.662000 2.000000 -2.000000 -2.000000 46.756357 4.451809 891.204606 1956.314724 9.885604 0.000000 0.163970
378.000000 57.822000 5.000000 -4.000000 -4.000000 59.156282 0.874736 958.566917 1583.788641 17.320139 0.000000 0.004380
379.000000 60.881000 3.000000 -2.000000 -2.000000 69.375386 -2.470819 1021.442826 1346.457154 8.223494 0.000000 0.082996
380.000000 61.281000 7.000000 -4.000000 -4.000000 77.735460 -5.586001 1080.266089 1176.088800 16.337079 0.000000 0.126955
381.000000 58.076000 9.000000 -4.000000 -4.000000 90.191418 -11.154660 1187.227045 937.334979 17.234358 0.000000 0.153710
382.000000 55.637000 5.000000 -2.000000 -2.000000 94.835863 -13.630662 1235.992755 847.303616 8.993984 0.000000 0.151411
383.000000 53.055000 11.000000 -4.000000 -4.000000 98.705215 -15.918892 1281.974205 769.631754 18.861993 0.000000 0.143696
384.000000 50.479000 6.000000 -2.000000 -2.000000 101.954727 -18.033411 1325.403224 701.342399 9.911510 0.000000 0.132570
385.000000 47.993000 13.000000 -4.000000 -4.000000 104.705560 -19.988131 1366.486603 640.422064 20.848949 0.000000 0.119317
386.000000 45.636000 7.000000 -2.000000 -2.000000 107.052323 -21.796438 1405.409379 585.450119 10.962290 0.000000 0.104776
387.000000 56.508000 3.000000 -3.000000 -4.000000 43.437669 13.994027 706.768865 2112.418037 17.725836 0.000000 0.241208
388.000000 68.607000 4.000000 -3.000000 -4.000000 58.953761 9.462275 795.618525 1597.822302 14.597284 0.000000 0.045410
389.000000 73.607000 5.000000 -3.000000 -4.000000 71.481264 5.182327 877.384264 1302.994154 13.602944 0.000000 0.095347
390.000000 74.102000 6.000000 -3.000000 -4.000000 81.425352 1.177335 952.880798 1103.321370 13.509539 0.000000 0.140807
391.000000 72.110000 7.000000 -3.000000 -4.000000 89.287053 -2.543063 1022.802521 954.406513 13.880540 0.000000 0.159415
392.000000 68.915000 8.000000 -3.000000 -4.000000 95.524098 -5.980088 1087.744931 836.338209 14.522216 0.000000 0.162374
393.000000 65.254000 9.000000 -3.000000 -4.000000 100.509029 -9.142929 1148.221624 738.775953 15.335438 0.000000 0.156223
394.000000 61.522000 10.000000 -3.000000 -4.000000 104.530158 -12.046061 1204.677913 655.766084 16.264216 0.000000 0.144722
395.000000 57.920000 11.000000 -3.000000 -4.000000 107.806000 -14.707037 1257.501806 583.605929 17.274535 0.000000 0.130102
396.000000 54.539000 12.000000 -3.000000 -4.000000 110.501170 -17.144808 1307.032941 519.850275 18.344537 0.000000 0.113729
397.000000 51.412000 13.000000 -3.000000 -4.000000 112.739875 -19.378535 1353.569890 462.804790 19.459535 0.000000 0.096465
398.000000 48.542000 14.000000 -3.000000 -4.000000 114.616362 -21.426810 1397.376188 411.248375 20.609297 0.000000 0.078874
399.000000 45.918000 15.000000 -3.000000 -4.000000 116.202696 -23.307175 1438.685326 364.271801 21.786474 0.000000 0.061357
401.000000 79.439000 3.000000 -2.000000 -4.000000 56.768487 21.617799 548.478128 1699.504632 12.606768 0.000000 0.122006
402.000000 90.460000 5.000000 -2.000000 -4.000000 85.118278 10.994082 765.904947 1034.643750 11.065675 0.000000 0.144965
403.000000 82.709000 7.000000 -2.000000 -4.000000 101.681819 1.556852 945.747522 718.384148 12.098734 0.000000 0.161647
404.000000 71.956000 9.000000 -2.000000 -4.000000 111.378152 -6.465709 1096.975765 516.981255 13.904271 0.000000 0.137608
405.000000 66.939000 5.000000 -1.000000 -2.000000 114.675665 -9.955193 1163.911977 438.954503 7.472706 0.000000 0.120255
406.000000 62.353000 11.000000 -2.000000 -4.000000 117.278360 -13.122927 1225.915566 371.115371 16.043899 0.000000 0.101616
407.000000 58.211000 6.000000 -1.000000 -2.000000 119.355243 -15.994588 1283.512394 311.268197 8.592434 0.000000 0.082623
408.000000 54.489000 13.000000 -2.000000 -4.000000 121.029966 -18.597279 1337.156140 257.859625 18.358180 0.000000 0.063999
409.000000 51.148000 7.000000 -1.000000 -2.000000 122.393778 -20.957748 1387.240272 209.750623 9.778343 0.000000 0.046589
410.000000 48.147000 15.000000 -2.000000 -4.000000 123.514681 -23.101320 1434.107718 166.080821 20.775202 0.000000 0.032171
412.000000 84.506000 8.000000 -1.000000 -4.000000 119.132932 2.046836 936.534069 340.748782 11.837690 0.000000 0.112328
413.000000 77.656000 9.000000 -1.000000 -4.000000 122.555794 -2.747727 1026.655317 253.059608 12.881149 0.000000 0.095791
414.000000 71.523000 10.000000 -1.000000 -4.000000 125.091694 -7.078840 1108.655901 178.992404 13.985056 0.000000 0.078096
415.000000 66.096000 11.000000 -1.000000 -4.000000 126.985914 -10.967972 1183.586109 115.286126 15.132854 0.000000 0.060663
416.000000 61.311000 12.000000 -1.000000 -4.000000 128.411939 -14.448792 1252.322596 59.699815 16.313529 0.000000 0.045305
417.000000 57.090000 13.000000 -1.000000 -4.000000 129.493144 -17.560436 1315.602840 10.631875 17.519466 0.000000 0.035458
418.000000 53.356000 14.000000 -1.000000 -4.000000 130.317941 -20.342992 1374.051709 -33.099711 18.745234 0.000000 0.035794
419.000000 50.041000 15.000000 -1.000000 -4.000000 130.950253 -22.834813 1428.202161 -72.390885 19.986854 0.000000 0.045642
420.000000 47.085000 16.000000 -1.000000 -4.000000 131.436733 -25.071114 1478.511547 -107.936177 21.241346 0.000000 0.060057
422.000000 81.869000 9.000000 0.000000 -4.000000 133.680444 2.703615 924.175197 -87.971893 12.216112 0.000000 0.034360
423.000000 68.928000 11.000000 0.000000 -4.000000 136.750169 -7.877077 1123.909296 -214.039809 14.509175 0.000000 0.027198
424.000000 63.683000 6.000000 0.000000 -2.000000 137.541326 -12.265020 1208.981859 -262.746230 7.851903 0.000000 0.038137
425.000000 59.102000 13.000000 0.000000 -4.000000 138.031737 -16.119239 1286.047919 -304.649738 16.920883 0.000000 0.054383
426.000000 55.082000 7.000000 0.000000 -2.000000 138.312878 -19.502420 1356.186963 -341.111078 9.077855 0.000000 0.072619
427.000000 51.537000 15.000000 0.000000 -4.000000 138.448336 -22.476235 1420.292765 -373.146173 19.404815 0.000000 0.091543
439.000000 47.341000 5.000000 -5.000000 -3.000000 49.482626 -10.098071 1166.679819 1875.279595 21.156900 0.000000 0.130875
440.000000 51.610000 6.000000 -5.000000 -3.000000 59.739419 -12.789777 1219.326110 1584.919015 19.404301 0.000000 0.059532
441.000000 53.232000 7.000000 -5.000000 -3.000000 68.247957 -15.266927 1268.773138 1386.151973 18.810284 0.000000 0.088506
442.000000 53.177000 8.000000 -5.000000 -3.000000 75.309213 -17.545971 1315.303927 1236.944249 18.827142 0.000000 0.115151
443.000000 52.123000 9.000000 -5.000000 -3.000000 81.194550 -19.643355 1359.169074 1118.026337 19.205403 0.000000 0.127806
444.000000 50.514000 10.000000 -5.000000 -3.000000 86.131189 -21.574970 1400.591263 1019.269580 19.815159 0.000000 0.130431
445.000000 48.628000 11.000000 -5.000000 -3.000000 90.302660 -23.355817 1439.769047 934.807072 20.582103 0.000000 0.126442
446.000000 46.634000 12.000000 -5.000000 -3.000000 93.854749 -24.999815 1476.880029 860.982664 21.460654 0.000000 0.118154
447.000000 56.437000 4.000000 -4.000000 -3.000000 48.727898 -4.259957 1055.170562 1888.236439 17.747418 0.000000 0.131070
448.000000 62.997000 5.000000 -4.000000 -3.000000 61.266915 -7.756688 1121.605192 1536.510778 15.896684 0.000000 0.039119
449.000000 65.026000 6.000000 -4.000000 -3.000000 71.327626 -10.952720 1183.288864 1311.475669 15.397777 0.000000 0.098065
450.000000 64.410000 7.000000 -4.000000 -3.000000 79.390941 -13.867777 1240.713620 1148.651885 15.542559 0.000000 0.129330
451.000000 62.389000 8.000000 -4.000000 -3.000000 85.889034 -16.524121 1294.305822 1021.689240 16.043969 0.000000 0.140173
452.000000 59.705000 9.000000 -4.000000 -3.000000 91.171890 -18.944724 1344.436759 917.722209 16.763545 0.000000 0.138957
453.000000 56.777000 10.000000 -4.000000 -3.000000 95.510460 -21.152056 1391.431263 829.665285 17.626289 0.000000 0.130563
454.000000 53.836000 11.000000 -4.000000 -3.000000 99.110813 -23.167361 1435.574749 753.257629 18.588047 0.000000 0.117885
455.000000 50.998000 12.000000 -4.000000 -3.000000 102.129044 -25.010264 1477.119025 685.758292 19.621126 0.000000 0.102697
456.000000 48.320000 13.000000 -4.000000 -3.000000 104.683754 -26.698618 1516.287090 625.307176 20.707282 0.000000 0.086113
457.000000 45.825000 14.000000 -4.000000 -3.000000 106.865673 -28.248487 1553.277146 570.585896 21.834003 0.000000 0.068870
458.000000 78.960000 4.000000 -3.000000 -3.000000 62.790354 -0.266244 980.001407 1494.375171 12.682632 0.000000 0.032502
459.000000 81.824000 5.000000 -3.000000 -3.000000 75.134022 -4.572897 1061.084180 1227.607878 12.236037 0.000000 0.115566
460.000000 76.390000 7.000000 -3.000000 -3.000000 91.836930 -12.001716 1203.807099 905.710272 13.102083 0.000000 0.153713
461.000000 71.894000 8.000000 -3.000000 -3.000000 97.491188 -15.176146 1266.941557 794.357491 13.919718 0.000000 0.146727
462.000000 62.922000 10.000000 -3.000000 -3.000000 105.528679 -20.606527 1379.692361 621.494817 15.901933 0.000000 0.114581
463.000000 58.862000 11.000000 -3.000000 -3.000000 108.429663 -22.926908 1430.240280 551.582574 16.997864 0.000000 0.094652
464.000000 55.158000 4.000000 -1.000000 -1.000000 110.814620 -25.023457 1477.420824 489.455495 6.046171 0.000000 0.073886
465.000000 51.802000 13.000000 -3.000000 -3.000000 112.798512 -26.922197 1521.559638 433.610690 19.312799 0.000000 0.052942
466.000000 48.769000 14.000000 -3.000000 -3.000000 114.466623 -28.646227 1562.941685 382.954738 20.513025 0.000000 0.032220
467.000000 46.029000 5.000000 -1.000000 -1.000000 115.883045 -30.215871 1601.817412 336.665479 7.244558 0.000000 0.012041
468.000000 76.981000 2.000000 -2.000000 -3.000000 41.710347 17.947422 626.382399 2210.333227 13.011617 0.000000 0.285964
469.000000 88.212000 7.000000 -2.000000 -3.000000 105.437167 -9.395183 1153.086400 639.746838 11.343148 0.000000 0.148251
470.000000 80.988000 8.000000 -2.000000 -3.000000 109.978396 -13.318832 1229.798732 538.905385 12.353829 0.000000 0.127898
471.000000 74.421000 9.000000 -2.000000 -3.000000 113.423014 -16.795630 1299.862826 453.955956 13.443110 0.000000 0.104642
472.000000 68.585000 10.000000 -2.000000 -3.000000 116.082983 -19.876178 1364.107037 380.750907 14.586139 0.000000 0.080456
473.000000 63.444000 11.000000 -2.000000 -3.000000 118.171492 -22.609506 1423.227593 316.597835 15.767546 0.000000 0.056566
474.000000 58.921000 12.000000 -2.000000 -3.000000 119.836479 -25.040637 1477.813929 259.648380 16.977307 0.000000 0.034308
475.000000 54.935000 13.000000 -2.000000 -3.000000 121.182337 -27.209612 1528.368403 208.576162 18.208612 0.000000 0.018590
476.000000 51.411000 14.000000 -2.000000 -3.000000 122.283981 -29.151351 1575.321811 162.394839 19.456670 0.000000 0.024495
477.000000 48.280000 15.000000 -2.000000 -3.000000 123.196052 -30.895957 1619.045682 120.349292 20.718011 0.000000 0.042664
478.000000 45.486000 16.000000 -2.000000 -3.000000 123.959013 -32.469207 1659.862138 81.847370 21.990064 0.000000 0.062342
480.000000 88.794000 8.000000 -1.000000 -3.000000 123.085213 -10.603732 1176.495570 227.585613 11.265213 0.000000 0.081391
481.000000 80.469000 9.000000 -1.000000 -3.000000 125.378034 -15.019804 1263.790945 149.704757 12.430244 0.000000 0.057310
482.000000 73.375000 10.000000 -1.000000 -3.000000 127.020847 -18.848356 1342.414373 83.350138 13.631599 0.000000 0.037969
483.000000 67.311000 11.000000 -1.000000 -3.000000 128.216033 -22.171215 1413.596918 25.889089 14.859255 0.000000 0.032599
484.000000 62.098000 12.000000 -1.000000 -3.000000 129.097337 -25.063934 1478.347157 -24.514652 16.106562 0.000000 0.045040
485.000000 57.584000 13.000000 -1.000000 -3.000000 129.754746 -27.592734 1537.499268 -69.192251 17.368941 0.000000 0.064730
486.000000 53.648000 14.000000 -1.000000 -3.000000 130.249892 -29.814013 1591.749166 -109.139252 18.643132 0.000000 0.085986
487.000000 50.191000 15.000000 -1.000000 -3.000000 130.625720 -31.775049 1641.682009 -145.119468 19.926751 0.000000 0.107208
488.000000 47.137000 16.000000 -1.000000 -3.000000 130.912636 -33.515165 1687.793385 -177.731526 21.218017 0.000000 0.127895
494.000000 49.088000 5.000000 -5.000000 -2.000000 49.772484 -18.444424 1333.962541 1900.725710 20.403287 0.000000 0.158386
495.000000 53.009000 6.000000 -5.000000 -2.000000 59.981667 -20.837059 1384.642643 1606.376474 18.891318 0.000000 0.099323
496.000000 54.226000 7.000000 -5.000000 -2.000000 68.354821 -23.007993 1432.037035 1405.030557 18.464888 0.000000 0.104728
497.000000 53.813000 8.000000 -5.000000 -2.000000 75.249383 -24.981236 1476.455214 1253.624241 18.603969 0.000000 0.115363
498.000000 52.479000 9.000000 -5.000000 -2.000000 80.967015 -26.778520 1518.168990 1132.657881 19.074954 0.000000 0.118285
499.000000 50.661000 10.000000 -5.000000 -2.000000 85.749384 -28.419270 1557.418054 1031.955257 19.757333 0.000000 0.114391
500.000000 48.626000 11.000000 -5.000000 -2.000000 89.785671 -29.920716 1594.414582 945.645305 20.582637 0.000000 0.105908
501.000000 46.528000 12.000000 -5.000000 -2.000000 93.222762 -31.298053 1629.347078 870.075737 21.509084 0.000000 0.094674
503.000000 60.513000 2.000000 -2.000000 -1.000000 49.741260 -14.204495 1247.434173 1881.177109 8.275711 0.000000 0.140704
504.000000 66.312000 5.000000 -4.000000 -2.000000 62.246925 -17.369020 1311.651186 1534.397369 15.101373 0.000000 0.079753
505.000000 67.400000 3.000000 -2.000000 -1.000000 72.073534 -20.195825 1370.910145 1311.991953 7.427455 0.000000 0.106862
506.000000 65.980000 7.000000 -4.000000 -2.000000 79.839117 -22.724473 1425.763908 1150.131623 15.172209 0.000000 0.121929
507.000000 63.356000 4.000000 -2.000000 -1.000000 86.042903 -24.991334 1476.686082 1023.142905 7.899344 0.000000 0.122359
508.000000 60.244000 9.000000 -4.000000 -2.000000 91.062644 -27.028959 1524.084732 918.588181 16.612993 0.000000 0.113765
509.000000 57.023000 5.000000 -2.000000 -1.000000 95.177547 -28.866001 1568.313341 829.638222 8.774966 0.000000 0.100063
510.000000 53.883000 11.000000 -4.000000 -2.000000 98.593127 -30.527415 1609.679639 752.185566 18.571355 0.000000 0.083763
511.000000 50.914000 6.000000 -2.000000 -1.000000 101.461438 -32.034806 1648.452773 683.581603 9.826724 0.000000 0.066634
512.000000 48.150000 13.000000 -4.000000 -2.000000 103.896057 -33.406821 1684.869173 622.021866 20.780581 0.000000 0.050352
513.000000 45.599000 7.000000 -2.000000 -1.000000 105.982803 -34.659532 1719.137374 566.221126 10.971032 0.000000 0.037505
514.000000 77.406000 3.000000 -3.000000 -2.000000 49.196822 -7.451610 1115.772173 1878.050109 12.939732 0.000000 0.128794
515.000000 87.094000 4.000000 -3.000000 -2.000000 65.327095 -11.934846 1202.494520 1446.347426 11.497535 0.000000 0.069537
516.000000 87.511000 5.000000 -3.000000 -2.000000 77.228742 -15.868045 1280.941616 1194.624982 11.440160 0.000000 0.121560
517.000000 83.827000 6.000000 -3.000000 -2.000000 86.077900 -19.315699 1352.243988 1019.192914 11.940737 0.000000 0.135211
518.000000 78.672000 7.000000 -3.000000 -2.000000 92.771723 -22.341672 1417.335203 884.663920 12.721417 0.000000 0.128595
519.000000 73.245000 8.000000 -3.000000 -2.000000 97.936733 -25.004753 1476.992969 775.430036 13.662571 0.000000 0.111997
520.000000 68.051000 9.000000 -3.000000 -2.000000 102.000740 -27.356865 1531.870360 683.402791 14.704204 0.000000 0.090648
521.000000 63.275000 10.000000 -3.000000 -2.000000 105.256859 -29.442778 1582.519819 603.891513 15.812913 0.000000 0.067397
522.000000 58.963000 11.000000 -3.000000 -2.000000 107.908701 -31.300569 1629.411823 533.939795 16.968625 0.000000 0.044132
523.000000 55.097000 12.000000 -3.000000 -2.000000 110.100209 -32.962386 1672.949539 471.561259 18.158548 0.000000 0.023676
524.000000 51.638000 13.000000 -3.000000 -2.000000 111.935033 -34.455283 1713.480451 415.352443 19.374147 0.000000 0.018920
525.000000 48.541000 14.000000 -3.000000 -2.000000 113.489162 -35.802022 1751.305644 364.281012 20.609508 0.000000 0.035300
526.000000 45.762000 15.000000 -3.000000 -2.000000 114.819255 -37.021772 1786.687305 317.562427 21.860404 0.000000 0.055713
527.000000 75.371000 9.000000 -2.000000 -2.000000 113.667617 -27.804718 1542.578859 407.690670 13.273370 0.000000 0.042534
528.000000 63.597000 11.000000 -2.000000 -2.000000 117.639335 -32.319131 1655.908094 274.066713 15.729570 0.000000 0.017735
529.000000 58.883000 6.000000 -1.000000 -1.000000 119.056978 -34.165214 1705.493993 218.273435 8.494116 0.000000 0.045577
530.000000 54.779000 13.000000 -2.000000 -2.000000 120.219472 -35.795358 1751.115363 168.099821 18.260700 0.000000 0.071986
531.000000 51.181000 7.000000 -1.000000 -1.000000 121.186051 -37.243125 1793.229390 122.648441 9.771942 0.000000 0.096935
532.000000 48.008000 15.000000 -2.000000 -2.000000 121.999643 -38.535927 1832.225566 81.221428 20.835551 0.000000 0.120491
533.000000 90.891000 8.000000 -1.000000 -2.000000 124.443874 -25.051334 1478.058728 126.183991 11.004936 0.000000 0.025425
534.000000 81.595000 9.000000 -1.000000 -2.000000 125.873872 -28.452962 1558.236539 55.704490 12.258319 0.000000 0.043373
535.000000 73.923000 10.000000 -1.000000 -2.000000 126.900266 -31.305561 1629.540267 -4.815146 13.530282 0.000000 0.073452
536.000000 67.509000 11.000000 -1.000000 -2.000000 127.655264 -33.720882 1693.365931 -57.510805 14.815656 0.000000 0.103622
537.000000 62.081000 12.000000 -1.000000 -2.000000 128.222467 -35.785409 1750.831323 -103.909183 16.111027 0.000000 0.132368
538.000000 57.435000 13.000000 -1.000000 -2.000000 128.656412 -37.566029 1802.842030 -145.140701 17.414051 0.000000 0.159460
550.000000 49.083000 5.000000 -5.000000 -1.000000 49.085219 -27.152353 1527.009158 1989.331601 20.404865 0.000000 0.216954
551.000000 52.809000 6.000000 -5.000000 -1.000000 59.207877 -29.118132 1574.503926 1675.187506 18.962436 0.000000 0.152506
552.000000 53.841000 7.000000 -5.000000 -1.000000 67.463133 -30.882360 1618.698851 1461.409363 18.596218 0.000000 0.134418
553.000000 53.298000 8.000000 -5.000000 -1.000000 74.240306 -32.471637 1659.926287 1301.031229 18.783673 0.000000 0.127226
554.000000 51.884000 9.000000 -5.000000 -1.000000 79.854774 -33.908642 1698.475406 1173.060886 19.293423 0.000000 0.119731
555.000000 50.028000 10.000000 -5.000000 -1.000000 84.552527 -35.212684 1734.598990 1066.627188 20.007247 0.000000 0.110462
556.000000 47.983000 11.000000 -5.000000 -1.000000 88.522665 -36.400221 1768.518981 975.486269 20.858447 0.000000 0.100412
557.000000 45.894000 12.000000 -5.000000 -1.000000 91.910184 -37.485301 1800.431045 895.763150 21.806534 0.000000 0.091065
559.000000 61.579000 4.000000 -4.000000 -1.000000 49.353266 -24.961882 1476.012787 1960.226899 16.264346 0.000000 0.199295
560.000000 66.853000 5.000000 -4.000000 -1.000000 61.728364 -27.530920 1536.021778 1593.754588 14.978473 0.000000 0.131603
561.000000 67.437000 6.000000 -4.000000 -1.000000 71.344742 -29.783851 1590.996754 1359.673469 14.846247 0.000000 0.123241
562.000000 65.663000 7.000000 -4.000000 -1.000000 78.901096 -31.769802 1641.545653 1189.349257 15.245167 0.000000 0.118424
563.000000 62.824000 8.000000 -4.000000 -1.000000 84.926278 -33.529554 1688.182312 1055.634180 15.932323 0.000000 0.108609
564.000000 59.597000 9.000000 -4.000000 -1.000000 89.804630 -35.096854 1731.343991 945.485573 16.793330 0.000000 0.095754
565.000000 56.326000 10.000000 -4.000000 -1.000000 93.812887 -36.499631 1771.405131 851.767440 17.767257 0.000000 0.082941
566.000000 53.175000 11.000000 -4.000000 -1.000000 97.151251 -37.761054 1808.688242 770.190220 18.818669 0.000000 0.073278
567.000000 50.219000 12.000000 -4.000000 -1.000000 99.966161 -38.900406 1843.472602 697.984110 19.925552 0.000000 0.069542
568.000000 47.481000 13.000000 -4.000000 -1.000000 102.366194 -39.933807 1876.001269 633.257270 21.073510 0.000000 0.072940
570.000000 82.160000 3.000000 -3.000000 -1.000000 49.657025 -21.324930 1395.169185 1922.342149 12.190206 0.000000 0.174415
571.000000 90.174000 4.000000 -3.000000 -1.000000 65.575155 -24.973364 1476.275233 1480.205029 11.104225 0.000000 0.110818
572.000000 88.973000 5.000000 -3.000000 -1.000000 77.027531 -28.063100 1548.797145 1221.971222 11.251664 0.000000 0.117377
573.000000 84.228000 6.000000 -3.000000 -1.000000 85.439667 -30.698916 1614.029226 1040.837726 11.883589 0.000000 0.110316
574.000000 78.462000 7.000000 -3.000000 -1.000000 91.779575 -32.964952 1673.018027 901.143380 12.755340 0.000000 0.093246
575.000000 72.709000 8.000000 -3.000000 -1.000000 96.679260 -34.928122 1726.618918 787.267815 13.763255 0.000000 0.073702
576.000000 67.356000 9.000000 -3.000000 -1.000000 100.552949 -36.641533 1775.537840 691.109579 14.855893 0.000000 0.058623
577.000000 62.517000 10.000000 -3.000000 -1.000000 103.677349 -38.147442 1820.362569 607.946106 16.004825 0.000000 0.055315
578.000000 58.193000 11.000000 -3.000000 -1.000000 106.241712 -39.479642 1861.586446 534.778527 17.193062 0.000000 0.065551
579.000000 54.345000 12.000000 -3.000000 -1.000000 108.378623 -40.665330 1899.626610 469.574892 18.409826 0.000000 0.083606
580.000000 50.919000 13.000000 -3.000000 -1.000000 110.183106 -41.726548 1934.838165 410.887332 19.647951 0.000000 0.104547
581.000000 47.861000 14.000000 -3.000000 -1.000000 111.724706 -42.681292 1967.525298 357.642356 20.902483 0.000000 0.126120
582.000000 82.209000 8.000000 -2.000000 -1.000000 109.360339 -36.860577 1781.947156 468.325372 12.169968 0.000000 0.038743
583.000000 74.637000 9.000000 -2.000000 -1.000000 111.962827 -38.727690 1838.128659 384.631095 13.403837 0.000000 0.066474
584.000000 68.233000 10.000000 -2.000000 -1.000000 114.020331 -40.328308 1888.678512 311.819678 14.661399 0.000000 0.098134
585.000000 62.775000 11.000000 -2.000000 -1.000000 115.682349 -41.713644 1934.403078 247.642754 15.935766 0.000000 0.128900
586.000000 58.083000 12.000000 -2.000000 -1.000000 117.049536 -42.923057 1975.961788 190.494361 17.222485 0.000000 0.157897
587.000000 54.017000 13.000000 -2.000000 -1.000000 118.191791 -43.987156 2013.899148 139.180677 18.518549 0.000000 0.184997
588.000000 50.465000 14.000000 -2.000000 -1.000000 119.158975 -44.930030 2048.668734 92.786416 19.821854 0.000000 0.210269
590.000000 90.382000 8.000000 -1.000000 -1.000000 122.691953 -39.696251 1868.437770 43.263991 11.067025 0.000000 0.142739
591.000000 80.838000 9.000000 -1.000000 -1.000000 123.802399 -41.690505 1933.623302 -23.958826 12.373418 0.000000 0.183676
600.000000 50.951000 6.000000 -5.000000 0.000000 57.417736 -37.296566 1794.814576 1805.665115 19.653436 0.000000 0.234258
601.000000 52.072000 7.000000 -5.000000 0.000000 65.596373 -38.599423 1834.176686 1565.816600 19.227744 0.000000 0.197073
602.000000 51.650000 8.000000 -5.000000 0.000000 72.322114 -39.767449 1870.699161 1387.279805 19.382837 0.000000 0.175631
603.000000 50.370000 9.000000 -5.000000 0.000000 77.908021 -40.819709 1904.678585 1245.689444 19.873145 0.000000 0.160847
604.000000 48.649000 4.000000 -2.000000 0.000000 82.595875 -41.771986 1936.371631 1128.536446 8.229776 0.000000 0.150181
605.000000 46.732000 11.000000 -5.000000 0.000000 86.570515 -42.637424 1966.001554 1028.676321 21.417127 0.000000 0.143276
606.000000 64.284000 5.000000 -4.000000 0.000000 59.618739 -37.636108 1804.939256 1737.793870 15.576508 0.000000 0.222513
607.000000 65.004000 3.000000 -2.000000 0.000000 69.119461 -39.199013 1852.773320 1470.808549 7.700862 0.000000 0.185185
608.000000 63.430000 7.000000 -4.000000 0.000000 76.604096 -40.566585 1896.407487 1278.428968 15.781741 0.000000 0.164115
609.000000 57.800000 9.000000 -4.000000 0.000000 87.470087 -42.841547 1973.110088 1005.856277 17.315658 0.000000 0.142153
610.000000 54.726000 5.000000 -2.000000 0.000000 91.495170 -43.796371 2006.998249 902.079515 9.143478 0.000000 0.140201
611.000000 51.751000 11.000000 -4.000000 0.000000 94.864781 -44.653526 2038.355429 812.227940 19.336976 0.000000 0.144001
612.000000 48.948000 3.000000 -1.000000 0.000000 97.720500 -45.426938 2067.454966 733.093097 5.110794 0.000000 0.152505
613.000000 46.344000 13.000000 -4.000000 0.000000 100.167403 -46.128063 2094.532205 662.485987 21.590870 0.000000 0.164366
615.000000 86.524000 4.000000 -3.000000 0.000000 63.049347 -38.181169 1821.387439 1637.170960 11.572224 0.000000 0.206933
616.000000 85.489000 5.000000 -3.000000 0.000000 74.297459 -40.130226 1882.294769 1336.751387 11.710051 0.000000 0.170165
617.000000 75.696000 7.000000 -3.000000 0.000000 88.895281 -43.171654 1984.706026 969.457948 13.221608 0.000000 0.140826
618.000000 70.301000 8.000000 -3.000000 0.000000 93.804792 -44.377744 2028.166532 840.855380 14.234863 0.000000 0.142148
619.000000 60.695000 10.000000 -3.000000 0.000000 100.906466 -46.347397 2103.144571 640.562006 16.485625 0.000000 0.168844
620.000000 56.600000 11.000000 -3.000000 0.000000 103.543532 -47.161046 2135.708174 559.701019 17.677631 0.000000 0.188375
621.000000 52.944000 4.000000 -1.000000 0.000000 105.758804 -47.885179 2165.539244 488.097329 6.299230 0.000000 0.209214
622.000000 49.679000 13.000000 -3.000000 0.000000 107.643778 -48.533600 2192.967878 424.032365 20.138705 0.000000 0.230257
623.000000 46.759000 14.000000 -3.000000 0.000000 109.265759 -49.117451 2218.273061 366.233178 21.395784 0.000000 0.250899
624.000000 87.885000 7.000000 -2.000000 0.000000 102.284661 -46.766399 2119.790879 598.843770 11.385040 0.000000 0.178350
625.000000 72.269000 9.000000 -2.000000 0.000000 108.484160 -48.832987 2205.870185 394.416132 13.843653 0.000000 0.240653
635.000000 49.117000 7.000000 -5.000000 1.000000 62.900431 -45.901337 2085.701406 1732.436314 20.384505 0.000000 0.310804
636.000000 49.029000 8.000000 -5.000000 1.000000 69.631742 -46.655445 2115.357755 1523.169176 20.418964 0.000000 0.278630
637.000000 48.064000 9.000000 -5.000000 1.000000 75.252601 -47.334753 2142.789375 1359.041371 20.827046 0.000000 0.258641
638.000000 46.623000 10.000000 -5.000000 1.000000 79.993586 -47.949699 2168.237554 1224.530653 21.468843 0.000000 0.246800
641.000000 60.481000 6.000000 -4.000000 1.000000 65.646052 -47.975652 2169.324854 1668.744687 16.553562 0.000000 0.329560
642.000000 59.574000 7.000000 -4.000000 1.000000 73.178488 -48.744093 2202.023178 1434.451447 16.803497 0.000000 0.296896
643.000000 57.540000 8.000000 -4.000000 1.000000 79.259311 -49.421993 2231.710047 1254.858673 17.395820 0.000000 0.279682
644.000000 55.018000 9.000000 -4.000000 1.000000 84.243180 -50.024306 2258.783172 1109.891637 18.191584 0.000000 0.272719
645.000000 52.348000 10.000000 -4.000000 1.000000 88.386441 -50.562890 2283.573184 988.728343 19.118067 0.000000 0.273023
646.000000 49.705000 11.000000 -4.000000 1.000000 91.875814 -51.047272 2306.357205 884.930777 20.133516 0.000000 0.278459
647.000000 47.175000 12.000000 -4.000000 1.000000 94.848990 -51.485181 2327.369251 794.375151 21.212249 0.000000 0.287389
#UB matrix in q= (UB) B0 G* 
#[[-0.907065121 -0.354251282  0.226731445]
# [-0.364994546  0.394140953 -0.844344539]
# [ 0.209790007 -0.8490953   -0.487047915]]
#B0 matrix in q= UB (B0) G*
#[[ 0.19670273 -0.          0.03056101]
# [ 0.          0.19187965 -0.        ]
# [ 0.          0.          0.18806537]]
#UBB0 matrix in q= (UB B0) G* i.e. recip. basis vectors are columns in LT frame: astar = UBB0[:,0], bstar = UBB0[:,1], cstar = UBB0[:,2]. (abcstar as columns on xyzlab1, xlab1 = ui, ui = unit vector along incident beam)
#[[-0.17842219 -0.06797361  0.01491951]
# [-0.07179542  0.07562763 -0.16994657]
# [ 0.04126627 -0.16292411 -0.08518545]]
#Euler angles phi theta psi (deg)
#[ 13.893 119.102 164.94 ]
#deviatoric strain in direct crystal frame (10-3 unit)
#[[ 1.06  0.36 -0.08]
# [ 0.36  0.12 -0.31]
# [-0.08 -0.31 -1.18]]
#deviatoric strain in sample2 frame (10-3 unit)
#[[ 0.64 -0.17 -0.78]
# [-0.17 -0.63 -0.68]
# [-0.78 -0.68 -0.01]]
#new lattice parameters
#[ 5.1505     5.2067263  5.313025  90.0251484 99.2421783 89.9585558]
#CCDLabel
#sCMOS
#DetectorParameters
#[79.0, 975.0, 941.0, 0.0, 0.0]
#pixelsize
#0.0734
#Frame dimensions
#[2018, 2016]
#
