#Strain and Orientation Refinement from experimental file: /home/micha/LaueProjects/DepthEffects/testZrO2_131.cor
#File created at Wed Jun 28 14:26:14 2023 with indexingSpotsSet.py
#Number of indexed spots: 507
#Element
#ZrO2
#grainIndex
#G_0
#Mean Deviation(pixel): 0.119
##spot_index intensity h k l 2theta Chi Xexp Yexp Energy GrainIndex PixDev
4.000000 45.656000 9.000000 -1.000000 -3.000000 60.544986 43.583530 -49.351382 1780.105529 21.924532 0.000000 0.295813
12.000000 52.092000 3.000000 -1.000000 -1.000000 47.262597 32.595970 286.787751 2121.402290 9.610106 0.000000 0.267108
13.000000 51.612000 7.000000 -2.000000 -2.000000 54.091221 33.002843 275.970403 1870.308395 19.397467 0.000000 0.213148
14.000000 49.775000 4.000000 -1.000000 -1.000000 59.369655 33.334687 267.073677 1703.785769 10.056020 0.000000 0.184208
15.000000 47.418000 9.000000 -2.000000 -2.000000 63.555147 33.610488 259.627769 1583.789253 21.110016 0.000000 0.167510
18.000000 64.657000 6.000000 -1.000000 -2.000000 57.289904 40.624261 51.713405 1851.725214 15.482444 0.000000 0.276238
19.000000 60.998000 7.000000 -1.000000 -2.000000 62.999515 40.184323 65.965498 1658.840914 16.409973 0.000000 0.232647
20.000000 56.961000 8.000000 -1.000000 -2.000000 67.345608 39.830949 77.280019 1525.965878 17.571927 0.000000 0.205004
21.000000 53.051000 9.000000 -1.000000 -2.000000 70.755106 39.540900 86.480332 1428.247963 18.865755 0.000000 0.186002
22.000000 49.445000 10.000000 -1.000000 -2.000000 73.496625 39.298564 94.108388 1353.068666 20.241110 0.000000 0.172117
23.000000 46.182000 11.000000 -1.000000 -2.000000 75.746447 39.093070 100.535489 1293.283201 21.670381 0.000000 0.161492
28.000000 68.724000 7.000000 0.000000 -2.000000 71.320201 48.366745 -235.843156 1488.718924 14.562667 0.000000 0.311000
29.000000 62.856000 8.000000 0.000000 -2.000000 74.782379 47.150805 -185.292116 1371.511130 15.921336 0.000000 0.267811
30.000000 57.680000 9.000000 0.000000 -2.000000 77.471438 46.160458 -145.799902 1286.303883 17.349359 0.000000 0.237033
31.000000 53.166000 10.000000 0.000000 -2.000000 79.616268 45.338711 -114.095384 1221.576301 18.821868 0.000000 0.214110
32.000000 49.233000 11.000000 0.000000 -2.000000 81.364700 44.646153 -88.081753 1170.742338 20.324618 0.000000 0.196448
33.000000 45.798000 12.000000 0.000000 -2.000000 82.816065 44.054701 -66.352949 1129.765120 21.848857 0.000000 0.182465
38.000000 55.859000 10.000000 1.000000 -2.000000 85.053942 51.908203 -398.053785 1091.979222 17.912009 0.000000 0.331640
39.000000 51.497000 11.000000 1.000000 -2.000000 86.406029 50.661305 -338.164229 1047.642422 19.429083 0.000000 0.294246
40.000000 47.726000 12.000000 1.000000 -2.000000 87.513897 49.598955 -289.594777 1013.100043 20.964006 0.000000 0.265271
45.000000 49.930000 5.000000 -3.000000 -1.000000 40.907207 17.516255 635.309977 2243.591407 20.054952 0.000000 0.233009
46.000000 51.902000 6.000000 -3.000000 -1.000000 49.421422 19.560809 592.578193 1919.256389 19.291533 0.000000 0.146906
47.000000 51.212000 7.000000 -3.000000 -1.000000 55.891189 21.219238 557.117161 1722.962658 19.549591 0.000000 0.114744
48.000000 49.346000 8.000000 -3.000000 -1.000000 60.932485 22.589347 527.216711 1588.969857 20.287241 0.000000 0.109206
49.000000 47.023000 9.000000 -3.000000 -1.000000 64.950483 23.739080 501.664015 1490.512367 21.288295 0.000000 0.112070
51.000000 68.778000 4.000000 -2.000000 -1.000000 43.471583 22.776235 523.092766 2172.318213 14.558544 0.000000 0.228819
52.000000 69.563000 5.000000 -2.000000 -1.000000 53.529794 24.667481 480.699846 1816.438001 14.392653 0.000000 0.149604
53.000000 66.378000 6.000000 -2.000000 -1.000000 60.616147 26.108560 447.529472 1615.929693 15.081588 0.000000 0.128639
54.000000 62.063000 7.000000 -2.000000 -1.000000 65.832511 27.241781 420.867353 1484.224923 16.128807 0.000000 0.125257
55.000000 57.658000 8.000000 -2.000000 -1.000000 69.813301 28.155612 398.969167 1389.825365 17.359954 0.000000 0.125290
56.000000 53.528000 9.000000 -2.000000 -1.000000 72.941824 28.907785 380.662813 1318.258348 18.698013 0.000000 0.125300
57.000000 49.783000 10.000000 -2.000000 -1.000000 75.460606 29.537507 365.131553 1261.836357 20.103702 0.000000 0.124728
58.000000 46.430000 11.000000 -2.000000 -1.000000 77.529500 30.072308 351.788824 1216.050959 21.554882 0.000000 0.123651
60.000000 89.869000 5.000000 -1.000000 -1.000000 66.946689 33.843327 253.304549 1492.483571 11.137846 0.000000 0.156932
61.000000 80.407000 6.000000 -1.000000 -1.000000 72.092847 34.214840 243.143582 1361.567500 12.447442 0.000000 0.144009
62.000000 72.185000 7.000000 -1.000000 -1.000000 75.802073 34.498070 235.336813 1271.406418 13.864383 0.000000 0.135782
63.000000 65.236000 8.000000 -1.000000 -1.000000 78.596907 34.721134 229.151014 1205.108140 15.340418 0.000000 0.129635
64.000000 59.381000 9.000000 -1.000000 -1.000000 80.775886 34.901357 224.128812 1154.118360 16.852447 0.000000 0.124677
65.000000 54.420000 10.000000 -1.000000 -1.000000 82.521151 35.049997 219.970108 1113.591992 18.388021 0.000000 0.120529
66.000000 50.183000 11.000000 -1.000000 -1.000000 83.949831 35.174686 216.469833 1080.559666 19.939838 0.000000 0.116982
67.000000 46.534000 12.000000 -1.000000 -1.000000 85.140543 35.280780 213.483087 1053.091516 21.503333 0.000000 0.113908
69.000000 75.201000 8.000000 1.000000 -1.000000 93.793506 51.014942 -354.821710 827.563584 13.303165 0.000000 0.288876
70.000000 67.269000 9.000000 1.000000 -1.000000 94.454670 49.477396 -284.172438 811.950802 14.871680 0.000000 0.249014
71.000000 60.816000 10.000000 1.000000 -1.000000 94.954360 48.232082 -230.127003 800.934530 16.449610 0.000000 0.220004
72.000000 55.472000 11.000000 1.000000 -1.000000 95.343246 47.203821 -187.447597 792.831986 18.034313 0.000000 0.198088
73.000000 50.978000 12.000000 1.000000 -1.000000 95.653280 46.340936 -152.889872 786.672888 19.624052 0.000000 0.181045
74.000000 47.149000 13.000000 1.000000 -1.000000 95.905472 45.606812 -124.336967 781.864027 21.217637 0.000000 0.167480
79.000000 48.217000 13.000000 2.000000 -1.000000 99.973198 51.350484 -370.863402 637.967108 20.745666 0.000000 0.298532
81.000000 45.623000 5.000000 -4.000000 0.000000 41.317498 4.960085 881.591940 2169.968040 21.949075 0.000000 0.189589
82.000000 47.925000 3.000000 -2.000000 0.000000 49.443565 7.989056 823.946337 1871.104132 10.446676 0.000000 0.092020
83.000000 47.874000 7.000000 -4.000000 0.000000 55.781318 10.526505 775.005611 1685.491382 20.913771 0.000000 0.055903
84.000000 46.632000 2.000000 -1.000000 0.000000 60.805685 12.675182 732.936440 1557.402331 5.367206 0.000000 0.066873
86.000000 62.340000 4.000000 -3.000000 0.000000 44.260998 6.031938 861.270297 2051.571460 16.062839 0.000000 0.150304
87.000000 64.089000 5.000000 -3.000000 0.000000 53.834925 9.728384 790.476832 1739.199502 15.622836 0.000000 0.060918
88.000000 58.901000 7.000000 -3.000000 0.000000 66.032536 15.067615 685.246047 1436.500386 16.995414 0.000000 0.090912
89.000000 55.266000 8.000000 -3.000000 0.000000 70.060983 17.042248 645.075823 1349.374429 18.111834 0.000000 0.107473
90.000000 51.696000 3.000000 -1.000000 0.000000 73.242114 18.696058 610.777011 1283.143488 6.453829 0.000000 0.117580
91.000000 48.357000 10.000000 -3.000000 0.000000 75.807550 20.099165 581.150002 1230.845200 20.697194 0.000000 0.123442
92.000000 85.641000 5.000000 -2.000000 0.000000 68.171122 16.100343 664.336648 1389.716150 11.688524 0.000000 0.100154
93.000000 70.191000 7.000000 -2.000000 0.000000 76.910548 20.723396 567.799961 1208.564159 14.258883 0.000000 0.125283
94.000000 63.803000 4.000000 -1.000000 0.000000 79.671730 22.346852 532.551054 1153.071186 7.842716 0.000000 0.127981
95.000000 58.321000 9.000000 -2.000000 0.000000 81.817411 23.674202 503.117733 1109.983595 17.158991 0.000000 0.128084
96.000000 53.617000 5.000000 -1.000000 0.000000 83.528655 24.778579 478.170441 1075.462387 9.331929 0.000000 0.126838
97.000000 49.561000 11.000000 -2.000000 0.000000 84.922970 25.711165 456.756203 1047.129402 20.190623 0.000000 0.124911
98.000000 46.042000 6.000000 -1.000000 0.000000 86.079579 26.508754 438.174121 1023.425488 10.866651 0.000000 0.122669
99.000000 80.526000 7.000000 -1.000000 0.000000 87.884717 27.800536 407.521525 985.940594 12.425847 0.000000 0.117969
100.000000 71.471000 8.000000 -1.000000 0.000000 89.226480 28.800873 383.280862 957.582637 13.999714 0.000000 0.113512
101.000000 64.208000 9.000000 -1.000000 0.000000 90.261632 29.597947 363.630751 935.347691 15.583070 0.000000 0.109516
102.000000 58.262000 10.000000 -1.000000 0.000000 91.083800 30.247765 347.379987 917.429521 17.172913 0.000000 0.106010
103.000000 53.312000 11.000000 -1.000000 0.000000 91.752210 30.787553 333.716695 902.673360 18.767390 0.000000 0.102956
104.000000 49.128000 12.000000 -1.000000 0.000000 92.306088 31.243001 322.068474 890.304966 20.365290 0.000000 0.100296
105.000000 45.548000 13.000000 -1.000000 0.000000 92.772420 31.632396 312.020161 879.785076 21.965792 0.000000 0.097978
106.000000 154.940000 4.000000 0.000000 0.000000 98.169074 36.597236 175.753884 748.555411 6.456580 0.000000 0.073117
109.000000 109.182000 6.000000 1.000000 0.000000 108.047736 49.185180 -271.247071 404.445430 9.160554 0.000000 0.257601
110.000000 93.175000 7.000000 1.000000 0.000000 106.826509 47.243436 -189.061013 461.543391 10.734641 0.000000 0.206980
111.000000 81.199000 8.000000 1.000000 0.000000 105.864780 45.816174 -132.402974 502.130996 12.318143 0.000000 0.174210
112.000000 71.917000 9.000000 1.000000 0.000000 105.090643 44.724086 -90.977863 532.532146 13.908089 0.000000 0.151656
113.000000 64.521000 10.000000 1.000000 0.000000 104.455403 43.862091 -59.370419 556.185462 15.502641 0.000000 0.135445
114.000000 58.493000 11.000000 1.000000 0.000000 103.925419 43.164694 -34.460256 575.129096 17.100597 0.000000 0.123415
115.000000 53.487000 12.000000 1.000000 0.000000 103.476891 42.589018 -14.322661 590.651019 18.701142 0.000000 0.114262
116.000000 49.266000 13.000000 1.000000 0.000000 103.092587 42.105845 2.294033 603.606525 20.303700 0.000000 0.107157
117.000000 45.659000 14.000000 1.000000 0.000000 102.759759 41.694592 16.238995 614.586541 21.907856 0.000000 0.101550
120.000000 50.280000 13.000000 2.000000 0.000000 107.398988 48.134269 -225.993894 435.642286 19.892337 0.000000 0.229323
123.000000 51.528000 4.000000 -4.000000 1.000000 42.584888 -6.644966 1100.387572 2120.001258 19.433270 0.000000 0.168953
124.000000 54.806000 5.000000 -4.000000 1.000000 51.792011 -2.268404 1017.633974 1788.867519 18.269748 0.000000 0.049630
125.000000 54.803000 6.000000 -4.000000 1.000000 58.831763 1.411687 948.476255 1592.209408 18.268864 0.000000 0.022751
126.000000 53.174000 7.000000 -4.000000 1.000000 64.283834 4.525162 889.818189 1460.980405 18.826986 0.000000 0.066850
127.000000 50.822000 8.000000 -4.000000 1.000000 68.573953 7.178780 839.437365 1366.696666 19.696701 0.000000 0.094566
128.000000 48.221000 9.000000 -4.000000 1.000000 72.005452 9.458198 795.697247 1295.413968 20.757831 0.000000 0.112204
129.000000 45.610000 10.000000 -4.000000 1.000000 74.793469 11.431455 757.366046 1239.475436 21.944957 0.000000 0.123454
131.000000 72.938000 3.000000 -3.000000 1.000000 46.163985 -9.277688 1150.819616 1988.126489 13.728549 0.000000 0.127275
132.000000 76.173000 4.000000 -3.000000 1.000000 57.411389 -3.328761 1037.600829 1630.180282 13.143860 0.000000 0.016153
133.000000 73.692000 5.000000 -3.000000 1.000000 65.301446 1.440255 947.939289 1436.163573 13.584810 0.000000 0.072109
134.000000 69.179000 6.000000 -3.000000 1.000000 70.972845 5.298927 875.175531 1313.761541 14.469503 0.000000 0.106737
135.000000 64.217000 7.000000 -3.000000 1.000000 75.165942 8.458479 814.944041 1229.188474 15.586219 0.000000 0.125566
136.000000 59.434000 8.000000 -3.000000 1.000000 78.351296 11.078244 764.263838 1167.098289 16.839447 0.000000 0.135601
137.000000 55.050000 9.000000 -3.000000 1.000000 80.831092 13.277053 721.029911 1119.493275 18.179771 0.000000 0.140561
138.000000 51.113000 10.000000 -3.000000 1.000000 82.803704 15.143660 683.713486 1081.785854 19.579059 0.000000 0.142510
139.000000 47.607000 11.000000 -3.000000 1.000000 84.402700 16.744861 651.177471 1051.151082 21.020117 0.000000 0.142636
141.000000 118.905000 2.000000 -2.000000 1.000000 52.678376 -14.452338 1252.393628 1788.373267 8.420578 0.000000 0.085465
142.000000 118.107000 3.000000 -2.000000 1.000000 66.964489 -5.280189 1074.469461 1400.597556 8.475876 0.000000 0.084152
143.000000 107.024000 4.000000 -2.000000 1.000000 75.451088 1.489573 947.012248 1220.423528 9.352214 0.000000 0.127640
144.000000 94.988000 5.000000 -2.000000 1.000000 80.771146 6.560676 851.217034 1117.030671 10.536147 0.000000 0.145214
145.000000 84.318000 6.000000 -2.000000 1.000000 84.300545 10.444984 776.589423 1050.228073 11.868500 0.000000 0.150749
146.000000 75.330000 7.000000 -2.000000 1.000000 86.761274 13.489589 716.811429 1003.631818 13.283766 0.000000 0.150756
147.000000 67.839000 8.000000 -2.000000 1.000000 88.549716 15.927453 667.851889 969.337100 14.750045 0.000000 0.148199
148.000000 61.576000 9.000000 -2.000000 1.000000 89.895062 17.916810 627.017662 943.071728 16.249940 0.000000 0.144500
149.000000 56.297000 10.000000 -2.000000 1.000000 90.936453 19.567292 592.441018 922.329006 17.773159 0.000000 0.140372
150.000000 51.807000 11.000000 -2.000000 1.000000 91.762102 20.956532 562.785926 905.543298 19.313219 0.000000 0.136177
151.000000 47.951000 12.000000 -2.000000 1.000000 92.430090 22.140697 537.071418 891.687402 20.865839 0.000000 0.132099
152.000000 173.348000 3.000000 -1.000000 1.000000 93.225267 1.595146 945.027633 880.326159 5.771964 0.000000 0.166779
153.000000 139.503000 4.000000 -1.000000 1.000000 96.148961 8.980611 804.905067 823.607931 7.171828 0.000000 0.161194
154.000000 115.627000 5.000000 -1.000000 1.000000 97.510579 13.934134 707.963528 794.798761 8.652449 0.000000 0.151376
155.000000 98.319000 6.000000 -1.000000 1.000000 98.200527 17.438880 636.907559 778.420930 10.175413 0.000000 0.141413
156.000000 85.336000 7.000000 -1.000000 1.000000 98.569648 20.031517 582.590322 768.365291 11.723335 0.000000 0.132418
157.000000 75.292000 8.000000 -1.000000 1.000000 98.772693 22.019609 539.720335 761.837124 13.287202 0.000000 0.124604
158.000000 67.314000 9.000000 -1.000000 1.000000 98.884388 23.589036 505.023840 757.416941 14.861873 0.000000 0.117910
159.000000 60.836000 10.000000 -1.000000 1.000000 98.943502 24.857680 476.366766 754.324930 16.444204 0.000000 0.112198
160.000000 55.479000 11.000000 -1.000000 1.000000 98.971334 25.903493 452.298492 752.105683 18.032163 0.000000 0.107318
161.000000 50.977000 12.000000 -1.000000 1.000000 98.980131 26.779898 431.798531 750.479875 19.624377 0.000000 0.103139
162.000000 47.144000 13.000000 -1.000000 1.000000 98.977200 27.524646 414.128100 749.269142 21.219887 0.000000 0.099550
165.000000 114.212000 6.000000 1.000000 1.000000 122.819957 40.430975 57.998009 29.063395 8.755227 0.000000 0.156289
166.000000 97.242000 7.000000 1.000000 1.000000 119.478086 39.747482 79.935519 149.715702 10.283620 0.000000 0.123183
167.000000 84.532000 8.000000 1.000000 1.000000 116.925705 39.270675 94.982877 234.893375 11.830404 0.000000 0.101193
168.000000 74.687000 9.000000 1.000000 1.000000 114.914847 38.919159 105.945600 298.433266 13.390234 0.000000 0.086145
169.000000 66.854000 10.000000 1.000000 1.000000 113.290806 38.649305 114.288103 347.746836 14.959656 0.000000 0.075701
170.000000 60.481000 11.000000 1.000000 1.000000 111.952347 38.435626 120.849501 387.181204 16.536335 0.000000 0.068430
171.000000 55.200000 12.000000 1.000000 1.000000 110.830561 38.262238 126.145172 419.462955 18.118637 0.000000 0.063397
172.000000 50.756000 13.000000 1.000000 1.000000 109.876970 38.118731 130.509144 446.392892 19.705384 0.000000 0.059957
173.000000 46.966000 14.000000 1.000000 1.000000 109.056508 37.997995 134.167417 469.210222 21.295707 0.000000 0.057656
177.000000 61.590000 11.000000 2.000000 1.000000 117.187539 46.122005 -144.295317 143.388875 16.236908 0.000000 0.227693
178.000000 56.238000 12.000000 2.000000 1.000000 115.718751 45.176707 -107.953664 205.572702 17.782385 0.000000 0.198854
179.000000 51.718000 13.000000 2.000000 1.000000 114.456152 44.401043 -79.023625 255.865487 19.337119 0.000000 0.176478
180.000000 47.853000 14.000000 2.000000 1.000000 113.360086 43.753335 -55.447691 297.432292 20.899357 0.000000 0.158735
185.000000 46.839000 6.000000 -5.000000 2.000000 55.861727 -7.516190 1117.006245 1677.079432 21.375695 0.000000 0.035501
186.000000 46.614000 7.000000 -5.000000 2.000000 61.483319 -4.135253 1052.815394 1527.312315 21.477578 0.000000 0.046261
188.000000 53.868000 3.000000 -4.000000 2.000000 42.052997 -20.184877 1370.676681 2212.196312 18.588337 0.000000 0.215272
189.000000 60.466000 5.000000 -4.000000 2.000000 60.780459 -9.515983 1155.418554 1551.401776 16.557169 0.000000 0.053977
190.000000 56.501000 7.000000 -4.000000 2.000000 71.729727 -1.643260 1005.876904 1296.477109 17.716208 0.000000 0.110319
191.000000 50.450000 9.000000 -4.000000 2.000000 78.400040 4.200996 895.943082 1162.525896 19.838305 0.000000 0.138577
193.000000 74.243000 2.000000 -3.000000 2.000000 44.584667 -27.496337 1535.195881 2172.074151 13.486334 0.000000 0.231495
194.000000 82.974000 3.000000 -3.000000 2.000000 58.299409 -19.442723 1354.925359 1645.948086 12.065844 0.000000 0.092086
195.000000 82.564000 4.000000 -3.000000 2.000000 67.933237 -12.665232 1216.867212 1388.191840 12.124213 0.000000 0.094648
196.000000 78.244000 5.000000 -3.000000 2.000000 74.682353 -7.031273 1107.748669 1238.030960 12.792209 0.000000 0.123678
197.000000 72.681000 6.000000 -3.000000 2.000000 79.481230 -2.358731 1019.333528 1141.013543 13.770214 0.000000 0.142438
198.000000 67.042000 7.000000 -3.000000 2.000000 82.967678 1.530647 946.240145 1073.816080 14.927312 0.000000 0.152570
199.000000 61.783000 8.000000 -3.000000 2.000000 85.559547 4.790363 884.803356 1024.873758 16.197204 0.000000 0.157276
200.000000 57.042000 9.000000 -3.000000 2.000000 87.529557 7.545127 832.440674 987.841321 17.542724 0.000000 0.158682
201.000000 52.828000 10.000000 -3.000000 2.000000 89.057835 9.893624 787.280005 958.967249 18.941415 0.000000 0.158088
202.000000 49.100000 11.000000 -3.000000 2.000000 90.265547 11.913156 747.931101 935.901884 20.378912 0.000000 0.156295
203.000000 45.803000 12.000000 -3.000000 2.000000 91.235874 13.664209 713.339903 917.104341 21.845598 0.000000 0.153797
205.000000 126.511000 2.000000 -2.000000 2.000000 66.996530 -28.645201 1562.916673 1461.663298 7.912208 0.000000 0.125467
206.000000 121.549000 3.000000 -2.000000 2.000000 79.006274 -18.299992 1330.950127 1161.225927 8.233831 0.000000 0.130389
207.000000 109.776000 4.000000 -2.000000 2.000000 86.170106 -10.034578 1165.449524 1014.170755 9.115770 0.000000 0.153776
208.000000 97.539000 5.000000 -2.000000 2.000000 90.511351 -3.531753 1041.427704 931.375793 10.258581 0.000000 0.164336
209.000000 77.466000 7.000000 -2.000000 2.000000 94.979511 5.680252 867.946190 846.761529 12.915647 0.000000 0.165017
210.000000 63.280000 9.000000 -2.000000 2.000000 96.949738 11.685801 752.388328 807.029165 15.810387 0.000000 0.156445
211.000000 53.159000 11.000000 -2.000000 2.000000 97.910734 15.826869 669.894202 785.553346 18.820011 0.000000 0.146310
212.000000 45.695000 13.000000 -2.000000 2.000000 98.412825 18.826241 608.049404 772.823322 21.893884 0.000000 0.136770
213.000000 194.573000 2.000000 -1.000000 2.000000 96.879341 -30.774564 1615.952719 789.866252 5.141660 0.000000 0.084787
214.000000 164.126000 3.000000 -1.000000 2.000000 104.300805 -16.314931 1290.034958 655.128492 6.094847 0.000000 0.132218
215.000000 136.911000 4.000000 -1.000000 2.000000 107.010205 -5.804238 1084.406409 610.037426 7.306067 0.000000 0.149301
216.000000 115.653000 5.000000 -1.000000 2.000000 107.756656 1.711104 942.847550 596.183872 8.648896 0.000000 0.150825
217.000000 99.352000 6.000000 -1.000000 2.000000 107.705964 7.178099 839.450362 594.672908 10.067905 0.000000 0.146488
218.000000 86.716000 7.000000 -1.000000 2.000000 107.341933 11.265130 760.616277 598.304889 11.534959 0.000000 0.140161
219.000000 76.742000 8.000000 -1.000000 2.000000 106.869054 14.406635 698.521740 604.035599 13.034258 0.000000 0.133420
220.000000 68.718000 9.000000 -1.000000 2.000000 106.375141 16.882941 648.346796 610.491847 14.556248 0.000000 0.126916
221.000000 62.150000 10.000000 -1.000000 2.000000 105.897497 18.878184 606.959902 617.033754 16.094808 0.000000 0.120901
222.000000 56.687000 11.000000 -1.000000 2.000000 105.450863 20.516434 572.238153 623.363838 17.645837 0.000000 0.115452
223.000000 52.081000 12.000000 -1.000000 2.000000 105.039731 21.883547 542.691454 629.351374 19.206485 0.000000 0.110568
224.000000 48.150000 13.000000 -1.000000 2.000000 104.663962 23.040453 517.243084 634.948839 20.774710 0.000000 0.106210
225.000000 196.422000 3.000000 0.000000 2.000000 132.609231 -12.032868 1204.418812 -71.264711 5.090265 0.000000 0.036845
226.000000 156.975000 4.000000 0.000000 2.000000 129.011959 1.980972 937.772841 68.540647 6.369792 0.000000 0.059586
227.000000 129.022000 5.000000 0.000000 2.000000 125.245954 10.222507 780.907578 168.196863 7.750221 0.000000 0.068808
228.000000 108.792000 6.000000 0.000000 2.000000 122.024454 15.446454 677.600120 242.591101 9.191891 0.000000 0.069768
229.000000 93.694000 7.000000 0.000000 2.000000 119.378027 18.999096 604.421147 300.173160 10.673521 0.000000 0.067898
230.000000 82.090000 8.000000 0.000000 2.000000 117.209324 21.553824 549.868009 346.034192 12.182664 0.000000 0.065265
231.000000 72.939000 9.000000 0.000000 2.000000 115.416916 23.472304 507.632417 383.409313 13.711559 0.000000 0.062656
232.000000 65.560000 10.000000 0.000000 2.000000 113.918446 24.962819 473.965800 414.447905 15.255110 0.000000 0.060358
233.000000 59.498000 11.000000 0.000000 2.000000 112.650956 26.152709 446.500558 440.632029 16.809838 0.000000 0.058450
234.000000 54.436000 12.000000 0.000000 2.000000 111.566945 27.123815 423.667753 463.015996 18.373283 0.000000 0.056927
235.000000 50.150000 13.000000 0.000000 2.000000 110.630453 27.930966 404.386538 482.369958 19.943658 0.000000 0.055751
236.000000 46.478000 14.000000 0.000000 2.000000 109.814001 28.612197 387.888048 499.269424 21.519633 0.000000 0.054872
239.000000 113.571000 6.000000 1.000000 2.000000 134.768278 28.189909 398.140097 -270.299860 8.803244 0.000000 0.099505
240.000000 97.599000 7.000000 1.000000 2.000000 130.122560 29.897967 356.154159 -105.295269 10.244515 0.000000 0.080267
241.000000 85.318000 8.000000 1.000000 2.000000 126.492213 31.031008 327.504111 11.836417 11.719876 0.000000 0.064084
242.000000 75.639000 9.000000 1.000000 2.000000 123.585962 31.836988 306.706959 99.723784 13.220148 0.000000 0.051219
243.000000 67.846000 10.000000 1.000000 2.000000 121.211041 32.439440 290.923173 168.319600 14.739178 0.000000 0.041291
244.000000 61.454000 11.000000 1.000000 2.000000 119.236166 32.906719 278.534960 223.463211 16.272682 0.000000 0.033905
245.000000 56.127000 12.000000 1.000000 2.000000 117.569361 33.279683 268.553001 268.824085 17.817590 0.000000 0.028762
246.000000 51.626000 13.000000 1.000000 2.000000 116.144497 33.584246 260.338278 306.832556 19.371644 0.000000 0.025610
247.000000 47.775000 14.000000 1.000000 2.000000 114.912923 33.837631 253.459643 339.166546 20.933142 0.000000 0.024145
249.000000 62.491000 11.000000 2.000000 2.000000 124.908128 40.897241 42.775366 -52.617143 16.000906 0.000000 0.179347
250.000000 52.538000 13.000000 2.000000 2.000000 121.029443 40.055824 70.093431 95.114465 19.033369 0.000000 0.137966
256.000000 46.522000 4.000000 -5.000000 3.000000 48.269374 -22.096889 1411.969722 1977.076510 21.522496 0.000000 0.161221
257.000000 49.070000 5.000000 -5.000000 3.000000 56.158219 -17.473006 1313.796875 1697.562263 20.403547 0.000000 0.086083
258.000000 49.533000 6.000000 -5.000000 3.000000 62.519949 -13.332478 1230.069456 1516.312795 20.210870 0.000000 0.072351
259.000000 48.732000 7.000000 -5.000000 3.000000 67.644086 -9.640161 1157.817647 1389.988160 20.541813 0.000000 0.090719
260.000000 47.221000 8.000000 -5.000000 3.000000 71.786827 -6.353088 1094.833503 1297.330062 21.197564 0.000000 0.110733
262.000000 59.593000 3.000000 -4.000000 3.000000 51.279768 -27.815547 1542.838884 1916.628030 16.800671 0.000000 0.176843
263.000000 62.981000 4.000000 -4.000000 3.000000 60.779369 -21.848979 1406.554612 1589.620970 15.895292 0.000000 0.101479
264.000000 62.873000 5.000000 -4.000000 3.000000 68.086780 -16.557071 1294.979375 1392.684511 15.921209 0.000000 0.099381
265.000000 60.874000 6.000000 -4.000000 3.000000 73.682695 -11.907193 1201.951898 1263.012067 16.442611 0.000000 0.118776
266.000000 57.991000 7.000000 -4.000000 3.000000 77.985820 -7.840136 1123.202153 1172.213082 17.258919 0.000000 0.135767
267.000000 54.793000 8.000000 -4.000000 3.000000 81.324236 -4.286789 1055.677414 1105.691004 18.264944 0.000000 0.147478
268.000000 51.584000 9.000000 -4.000000 3.000000 83.943129 -1.178299 997.137328 1055.227468 19.400209 0.000000 0.154859
269.000000 48.513000 10.000000 -4.000000 3.000000 86.022211 1.548712 945.900544 1015.869913 20.627470 0.000000 0.159108
270.000000 45.646000 11.000000 -4.000000 3.000000 87.692567 3.950072 900.680600 984.471570 21.922541 0.000000 0.161162
272.000000 79.119000 2.000000 -3.000000 3.000000 54.949929 -36.702403 1777.315257 1882.729222 12.653183 0.000000 0.231187
273.000000 83.000000 4.000000 -3.000000 3.000000 75.668858 -21.508285 1399.143382 1236.547659 12.058590 0.000000 0.121277
274.000000 78.616000 5.000000 -3.000000 3.000000 81.812966 -15.325605 1269.957836 1101.557272 12.729878 0.000000 0.139607
275.000000 67.671000 7.000000 -3.000000 3.000000 89.290365 -5.527887 1079.164079 954.393384 14.786712 0.000000 0.161975
276.000000 62.490000 8.000000 -3.000000 3.000000 91.555738 -1.687971 1006.717498 911.755769 16.012115 0.000000 0.165813
277.000000 53.572000 10.000000 -3.000000 3.000000 94.474044 4.416898 891.864346 856.533534 18.676511 0.000000 0.165912
278.000000 49.827000 11.000000 -3.000000 3.000000 95.421244 6.856971 845.574132 838.121725 20.079667 0.000000 0.163900
280.000000 117.338000 2.000000 -2.000000 3.000000 75.023304 -40.134599 1882.435319 1317.600240 8.529082 0.000000 0.164548
281.000000 114.164000 3.000000 -2.000000 3.000000 86.094808 -29.888266 1593.603401 1025.743338 8.764862 0.000000 0.111169
282.000000 105.227000 4.000000 -2.000000 3.000000 93.029583 -21.010776 1388.382928 879.979472 9.508344 0.000000 0.133241
283.000000 95.077000 5.000000 -2.000000 3.000000 97.268088 -13.583679 1235.058482 799.782638 10.522645 0.000000 0.151134
284.000000 85.518000 6.000000 -2.000000 3.000000 99.836703 -7.471620 1116.154514 752.783515 11.698415 0.000000 0.159751
285.000000 77.083000 7.000000 -2.000000 3.000000 101.385235 -2.460570 1021.249953 724.069610 12.978191 0.000000 0.162399
286.000000 69.815000 8.000000 -2.000000 3.000000 102.308194 1.663379 943.744852 706.069661 14.328884 0.000000 0.161609
287.000000 63.596000 9.000000 -2.000000 3.000000 102.843232 5.083481 879.256074 694.648775 15.730097 0.000000 0.158914
288.000000 58.267000 10.000000 -2.000000 3.000000 103.134662 7.946644 824.758657 687.416904 17.168568 0.000000 0.155209
289.000000 53.680000 11.000000 -2.000000 3.000000 103.271414 10.367318 778.097572 682.928530 18.635306 0.000000 0.151023
290.000000 49.709000 12.000000 -2.000000 3.000000 103.309232 12.433783 737.695977 680.276564 20.123996 0.000000 0.146664
291.000000 46.248000 13.000000 -2.000000 3.000000 103.283643 14.214117 702.373498 678.874220 21.630074 0.000000 0.142316
293.000000 159.989000 2.000000 -1.000000 3.000000 99.291539 -45.898524 2085.592297 687.976832 6.252522 0.000000 0.164645
294.000000 144.449000 3.000000 -1.000000 3.000000 108.351357 -31.953399 1646.326727 520.222407 6.924337 0.000000 0.032377
295.000000 126.388000 4.000000 -1.000000 3.000000 112.541415 -20.215986 1371.340169 464.946072 7.913470 0.000000 0.090199
296.000000 110.115000 5.000000 -1.000000 3.000000 114.089919 -10.937568 1182.993582 450.874179 9.082739 0.000000 0.118053
297.000000 96.501000 6.000000 -1.000000 3.000000 114.324827 -3.769562 1045.913118 453.418068 10.364076 0.000000 0.128959
298.000000 85.338000 7.000000 -1.000000 3.000000 113.944184 1.773469 941.674955 462.829669 11.719873 0.000000 0.131802
299.000000 76.188000 8.000000 -1.000000 3.000000 113.297079 6.112545 859.738975 474.889510 13.127654 0.000000 0.130726
300.000000 68.631000 9.000000 -1.000000 3.000000 112.554844 9.564754 793.639403 487.674903 14.573164 0.000000 0.127764
301.000000 62.329000 10.000000 -1.000000 3.000000 111.800366 12.357936 739.189591 500.293719 16.046923 0.000000 0.123954
302.000000 57.016000 11.000000 -1.000000 3.000000 111.072505 14.654186 693.559134 512.341788 17.542381 0.000000 0.119842
303.000000 52.491000 12.000000 -1.000000 3.000000 110.388078 16.569533 654.765828 523.654095 19.054868 0.000000 0.115720
304.000000 48.599000 13.000000 -1.000000 3.000000 109.752849 18.188102 621.380084 534.184683 20.580964 0.000000 0.111739
307.000000 95.070000 7.000000 1.000000 3.000000 138.146913 17.294271 639.889718 -317.419760 10.516030 0.000000 0.048269
308.000000 84.002000 8.000000 1.000000 3.000000 134.148125 20.838020 565.336686 -176.876646 11.902264 0.000000 0.044693
309.000000 75.027000 9.000000 1.000000 3.000000 130.807545 23.302467 511.419517 -70.813968 13.326615 0.000000 0.038053
310.000000 67.651000 10.000000 1.000000 3.000000 127.997120 25.109382 470.611981 12.444770 14.780258 0.000000 0.030873
311.000000 61.508000 11.000000 1.000000 3.000000 125.610382 26.488420 438.651052 79.743109 16.256899 0.000000 0.024007
312.000000 56.330000 12.000000 1.000000 3.000000 123.563699 27.574309 412.941295 135.385537 17.751925 0.000000 0.017715
313.000000 51.915000 13.000000 1.000000 3.000000 121.792302 28.450961 391.812104 182.229031 19.261880 0.000000 0.012044
314.000000 48.114000 14.000000 1.000000 3.000000 120.245980 29.173220 374.139468 222.251698 20.784122 0.000000 0.006962
318.000000 62.486000 11.000000 2.000000 3.000000 131.769956 34.571039 233.316972 -226.447022 16.000926 0.000000 0.142539
319.000000 57.256000 12.000000 2.000000 3.000000 129.212917 34.810143 226.673393 -128.618515 17.463079 0.000000 0.125195
320.000000 52.783000 13.000000 2.000000 3.000000 127.009592 34.998785 221.404660 -49.434456 18.943692 0.000000 0.110559
321.000000 48.921000 14.000000 2.000000 3.000000 125.092736 35.151411 217.124018 16.100891 20.439593 0.000000 0.098192
322.000000 45.559000 15.000000 2.000000 3.000000 123.410815 35.277436 213.577339 71.319437 21.948300 0.000000 0.087729
327.000000 48.907000 4.000000 -5.000000 4.000000 54.906558 -27.995948 1547.178198 1797.471941 20.470548 0.000000 0.156138
328.000000 50.604000 5.000000 -5.000000 4.000000 62.165531 -23.260646 1437.649438 1559.572221 19.782635 0.000000 0.107101
329.000000 50.607000 6.000000 -5.000000 4.000000 68.059733 -18.939249 1344.321797 1399.360567 19.780107 0.000000 0.102470
330.000000 49.560000 7.000000 -5.000000 4.000000 72.826055 -15.022647 1263.848200 1285.402968 20.196538 0.000000 0.115334
331.000000 47.917000 8.000000 -5.000000 4.000000 76.682988 -11.488222 1193.744153 1200.970971 20.887751 0.000000 0.129656
332.000000 45.975000 9.000000 -5.000000 4.000000 79.815836 -8.305856 1132.126697 1136.398339 21.768915 0.000000 0.141259
333.000000 60.966000 3.000000 -4.000000 4.000000 58.320184 -34.608938 1717.733524 1748.011756 16.420109 0.000000 0.190919
334.000000 62.797000 5.000000 -4.000000 4.000000 73.770548 -23.202280 1436.351008 1281.861409 15.938474 0.000000 0.117911
335.000000 57.979000 7.000000 -4.000000 4.000000 83.045024 -13.923016 1241.814783 1076.268073 17.260602 0.000000 0.143752
336.000000 51.771000 9.000000 -4.000000 4.000000 88.602921 -6.587498 1099.293507 967.423611 19.328265 0.000000 0.160402
337.000000 45.950000 11.000000 -4.000000 4.000000 92.020960 -0.818991 990.385690 903.016878 21.775618 0.000000 0.166276
340.000000 77.028000 2.000000 -3.000000 4.000000 61.987904 -44.286467 2024.815404 1740.834016 12.994796 0.000000 0.281586
341.000000 80.853000 3.000000 -3.000000 4.000000 72.882414 -36.619857 1774.905579 1353.993462 12.378445 0.000000 0.147994
342.000000 79.805000 4.000000 -3.000000 4.000000 81.000480 -29.522891 1584.505780 1136.894141 12.539732 0.000000 0.117336
343.000000 76.197000 5.000000 -3.000000 4.000000 86.895964 -23.124445 1434.621254 1004.465220 13.132351 0.000000 0.128973
344.000000 71.526000 6.000000 -3.000000 4.000000 91.127436 -17.461711 1313.563684 918.795277 13.989046 0.000000 0.144286
345.000000 66.617000 7.000000 -3.000000 4.000000 94.155119 -12.506982 1213.746305 860.908879 15.019138 0.000000 0.155096
346.000000 61.876000 8.000000 -3.000000 4.000000 96.324905 -8.196534 1130.029913 820.471215 16.169201 0.000000 0.161456
347.000000 57.479000 9.000000 -3.000000 4.000000 97.885501 -4.452557 1058.809516 791.478157 17.405712 0.000000 0.164528
348.000000 53.481000 10.000000 -3.000000 4.000000 99.012245 -1.196618 997.481587 770.258708 18.706575 0.000000 0.165336
349.000000 49.880000 11.000000 -3.000000 4.000000 99.828000 1.643484 944.118885 754.473253 20.056632 0.000000 0.164626
350.000000 46.650000 12.000000 -3.000000 4.000000 100.419004 4.131035 897.264260 742.578489 21.445139 0.000000 0.162917
352.000000 103.996000 2.000000 -2.000000 4.000000 79.263891 -48.958982 2211.346204 1251.799243 9.622236 0.000000 0.269824
353.000000 103.061000 3.000000 -2.000000 4.000000 89.789217 -39.513509 1862.654827 946.132448 9.708101 0.000000 0.104878
354.000000 89.757000 5.000000 -2.000000 4.000000 101.450198 -23.015453 1432.202446 704.145808 11.145292 0.000000 0.111917
355.000000 74.888000 7.000000 -2.000000 4.000000 106.020471 -10.617833 1176.769747 626.577856 13.357337 0.000000 0.143712
356.000000 62.789000 9.000000 -2.000000 4.000000 107.532545 -1.737454 1007.647879 600.817060 15.930838 0.000000 0.151198
357.000000 53.484000 11.000000 -2.000000 4.000000 107.791150 4.652386 887.412916 594.481351 18.702070 0.000000 0.149068
358.000000 46.323000 13.000000 -2.000000 4.000000 107.546388 9.362488 797.544525 596.092902 21.593216 0.000000 0.143443
360.000000 124.325000 3.000000 -1.000000 4.000000 108.585355 -44.002768 2014.465780 437.866865 8.044887 0.000000 0.145366
361.000000 113.359000 4.000000 -1.000000 4.000000 114.286717 -32.701438 1666.006804 363.855924 8.822519 0.000000 0.009510
362.000000 101.884000 5.000000 -1.000000 4.000000 117.142151 -22.851916 1428.580450 342.236939 9.815868 0.000000 0.056256
363.000000 91.322000 6.000000 -1.000000 4.000000 118.263980 -14.652685 1256.410737 342.895573 10.951023 0.000000 0.089665
364.000000 82.078000 7.000000 -1.000000 4.000000 118.400882 -7.978137 1125.844516 353.340542 12.184374 0.000000 0.106729
365.000000 74.143000 8.000000 -1.000000 4.000000 118.008835 -2.576272 1023.427590 367.932060 13.488535 0.000000 0.115011
366.000000 67.367000 9.000000 -1.000000 4.000000 117.351207 1.812420 940.942543 383.985700 14.845433 0.000000 0.118379
367.000000 61.573000 10.000000 -1.000000 4.000000 116.575873 5.409151 873.086790 400.190463 16.242665 0.000000 0.118937
368.000000 56.595000 11.000000 -1.000000 4.000000 115.764282 8.388603 816.285438 415.908771 17.671436 0.000000 0.117873
369.000000 52.293000 12.000000 -1.000000 4.000000 114.960297 10.884485 768.040635 430.845698 19.125333 0.000000 0.115888
370.000000 48.552000 13.000000 -1.000000 4.000000 114.186616 12.998156 726.554371 444.884529 20.599571 0.000000 0.113403
372.000000 110.815000 5.000000 0.000000 4.000000 133.471485 -22.579227 1422.560307 -164.050257 9.022458 0.000000 0.066038
373.000000 87.497000 7.000000 0.000000 4.000000 130.941534 -4.051977 1051.243055 4.978442 11.427459 0.000000 0.048621
374.000000 70.912000 9.000000 0.000000 4.000000 127.076786 6.606693 850.341086 122.253288 14.100958 0.000000 0.065803
375.000000 59.065000 11.000000 0.000000 4.000000 123.559325 13.105305 724.433419 207.919526 16.930021 0.000000 0.069863
376.000000 50.361000 13.000000 0.000000 4.000000 120.634737 17.379479 638.133103 273.109297 19.857265 0.000000 0.069013
379.000000 81.170000 8.000000 1.000000 4.000000 139.593333 8.785243 808.664691 -338.353096 12.316648 0.000000 0.018601
380.000000 73.209000 9.000000 1.000000 4.000000 136.352947 13.318841 720.201077 -218.551636 13.656619 0.000000 0.025303
381.000000 66.494000 10.000000 1.000000 4.000000 133.474903 16.634624 653.434409 -124.041778 15.036399 0.000000 0.026639
382.000000 60.789000 11.000000 1.000000 4.000000 130.938711 19.149672 601.254413 -47.275232 16.447904 0.000000 0.025616
383.000000 55.906000 12.000000 1.000000 4.000000 128.705085 21.115796 559.351658 16.492064 17.885100 0.000000 0.023622
384.000000 51.693000 13.000000 1.000000 4.000000 126.732694 22.691585 524.962075 70.411038 19.343394 0.000000 0.021350
385.000000 48.030000 14.000000 1.000000 4.000000 124.983839 23.980968 496.231245 116.666956 20.819224 0.000000 0.019181
388.000000 52.518000 13.000000 2.000000 4.000000 132.294994 29.139955 374.958849 -180.071338 19.037757 0.000000 0.089591
389.000000 45.538000 15.000000 2.000000 4.000000 128.201550 30.516624 340.593513 -42.197979 21.957194 0.000000 0.071747
395.000000 46.128000 3.000000 -5.000000 5.000000 52.072337 -38.411156 1828.401594 2011.363124 21.703017 0.000000 0.271235
396.000000 49.370000 4.000000 -5.000000 5.000000 60.223849 -33.377013 1684.065936 1678.430102 20.276380 0.000000 0.171551
397.000000 50.437000 6.000000 -5.000000 5.000000 72.550514 -24.247650 1459.782128 1312.045366 19.844800 0.000000 0.116766
398.000000 49.370000 7.000000 -5.000000 5.000000 77.073610 -20.196392 1370.922231 1204.209590 20.272308 0.000000 0.124729
399.000000 47.773000 8.000000 -5.000000 5.000000 80.748113 -16.487878 1293.565210 1123.840477 20.948747 0.000000 0.136037
400.000000 45.898000 9.000000 -5.000000 5.000000 83.735192 -13.107663 1225.613280 1062.315707 21.803222 0.000000 0.146050
403.000000 59.711000 3.000000 -4.000000 5.000000 63.569250 -40.536425 1895.426170 1644.950341 16.763415 0.000000 0.221927
404.000000 61.501000 4.000000 -4.000000 5.000000 71.629894 -34.745521 1721.527290 1375.970871 16.273971 0.000000 0.141914
405.000000 61.091000 5.000000 -4.000000 5.000000 78.044765 -29.323506 1579.568926 1202.386537 16.381851 0.000000 0.119555
406.000000 59.339000 6.000000 -4.000000 5.000000 83.077009 -24.323248 1461.491344 1084.414131 16.864266 0.000000 0.125481
407.000000 56.865000 7.000000 -4.000000 5.000000 86.995481 -19.764474 1361.736100 1001.027498 17.596971 0.000000 0.137632
408.000000 54.072000 8.000000 -4.000000 5.000000 90.038795 -15.641416 1276.345578 940.243223 18.505203 0.000000 0.148350
409.000000 51.203000 9.000000 -4.000000 5.000000 92.403725 -11.931324 1202.425400 894.822193 19.541279 0.000000 0.156202
410.000000 48.397000 10.000000 -4.000000 5.000000 94.246033 -8.601855 1137.809840 860.183380 20.673352 0.000000 0.161412
411.000000 45.728000 11.000000 -4.000000 5.000000 95.686245 -5.616584 1080.846109 833.315529 21.879344 0.000000 0.164516
414.000000 75.333000 3.000000 -3.000000 5.000000 76.751652 -43.349585 1991.008446 1289.471187 13.284158 0.000000 0.189706
415.000000 74.879000 4.000000 -3.000000 5.000000 84.500760 -36.555604 1773.033458 1069.997412 13.363309 0.000000 0.111715
416.000000 72.248000 5.000000 -3.000000 5.000000 90.316808 -30.214982 1601.795048 934.113112 13.848925 0.000000 0.103214
417.000000 68.534000 6.000000 -3.000000 5.000000 94.596632 -24.421565 1463.717277 845.964047 14.598435 0.000000 0.118901
418.000000 64.425000 7.000000 -3.000000 5.000000 97.706111 -19.210099 1350.018050 786.774899 15.528966 0.000000 0.134478
419.000000 60.306000 8.000000 -3.000000 5.000000 99.945783 -14.570640 1254.764794 745.998642 16.589056 0.000000 0.145613
420.000000 56.375000 9.000000 -3.000000 5.000000 101.547584 -10.465313 1173.805446 717.374445 17.745063 0.000000 0.152694
421.000000 52.723000 10.000000 -3.000000 5.000000 102.684408 -6.842343 1104.147105 697.016643 18.974063 0.000000 0.156724
422.000000 49.376000 11.000000 -3.000000 5.000000 103.482769 -3.645769 1043.577908 682.423616 20.259898 0.000000 0.158569
423.000000 46.332000 12.000000 -3.000000 5.000000 104.034449 -0.821235 990.427856 671.934616 21.590854 0.000000 0.158882
425.000000 91.811000 3.000000 -2.000000 5.000000 91.472482 -47.225766 2138.341073 900.260754 10.897039 0.000000 0.197011
426.000000 88.465000 4.000000 -2.000000 5.000000 98.704502 -39.055871 1848.305054 728.796597 11.308101 0.000000 0.073009
427.000000 83.236000 5.000000 -2.000000 5.000000 103.690883 -31.438119 1632.956087 633.698533 12.017606 0.000000 0.056918
428.000000 77.379000 6.000000 -2.000000 5.000000 106.992932 -24.554653 1466.735965 579.386594 12.926757 0.000000 0.087415
429.000000 71.568000 7.000000 -2.000000 5.000000 109.092298 -18.472752 1334.553973 548.223693 13.976033 0.000000 0.110632
430.000000 66.119000 8.000000 -2.000000 5.000000 110.359465 -13.173925 1226.925830 530.800949 15.127433 0.000000 0.125172
431.000000 61.154000 9.000000 -2.000000 5.000000 111.062182 -8.590484 1137.591369 521.805714 16.355557 0.000000 0.133718
432.000000 56.692000 10.000000 -2.000000 5.000000 111.387147 -4.634655 1062.251825 518.100577 17.642786 0.000000 0.138307
433.000000 52.707000 11.000000 -2.000000 5.000000 111.462020 -1.216618 997.857464 517.764939 18.976510 0.000000 0.140293
434.000000 49.156000 12.000000 -2.000000 5.000000 111.373258 1.746360 942.184667 519.588541 20.347469 0.000000 0.140563
435.000000 45.989000 13.000000 -2.000000 5.000000 111.179196 4.326418 893.573943 522.790780 21.748708 0.000000 0.139704
437.000000 100.657000 4.000000 -1.000000 5.000000 113.866946 -42.715735 1968.723185 292.862050 9.935656 0.000000 0.144995
438.000000 92.917000 5.000000 -1.000000 5.000000 117.894312 -33.218183 1679.795178 259.983783 10.762783 0.000000 0.035335
439.000000 85.077000 6.000000 -1.000000 5.000000 120.051272 -24.744916 1471.062667 255.361239 11.754352 0.000000 0.032798
440.000000 77.740000 7.000000 -1.000000 5.000000 120.971009 -17.444374 1313.205830 263.897130 12.863700 0.000000 0.066503
441.000000 71.124000 8.000000 -1.000000 5.000000 121.116435 -11.278500 1189.644851 278.522942 14.060294 0.000000 0.086854
442.000000 65.262000 9.000000 -1.000000 5.000000 120.799624 -6.114503 1090.298240 295.738532 15.323313 0.000000 0.098765
443.000000 60.106000 10.000000 -1.000000 5.000000 120.220779 -1.792519 1008.683242 313.752174 16.638075 0.000000 0.105464
444.000000 55.577000 11.000000 -1.000000 5.000000 119.504516 1.839059 940.441623 331.636127 17.993928 0.000000 0.108887
445.000000 51.595000 12.000000 -1.000000 5.000000 118.726853 4.910240 882.535264 348.917355 19.382955 0.000000 0.110221
446.000000 48.083000 13.000000 -1.000000 5.000000 117.933347 7.527295 832.781520 365.368769 20.799150 0.000000 0.110212
450.000000 70.554000 9.000000 1.000000 5.000000 140.107967 2.225449 933.174175 -347.569196 14.169883 0.000000 0.005189
451.000000 64.620000 10.000000 1.000000 5.000000 137.536789 7.176905 839.473150 -244.371499 15.471504 0.000000 0.014186
452.000000 59.465000 11.000000 1.000000 5.000000 135.127107 10.968508 766.403454 -160.197051 16.813215 0.000000 0.021124
453.000000 54.973000 12.000000 1.000000 5.000000 132.913304 13.940987 707.826865 -89.988581 18.187767 0.000000 0.024757
454.000000 51.040000 13.000000 1.000000 5.000000 130.897702 16.322021 659.820450 -30.389353 19.589559 0.000000 0.026463
455.000000 47.581000 14.000000 1.000000 5.000000 129.068862 18.265914 619.759898 20.929758 21.014197 0.000000 0.027072
459.000000 55.810000 12.000000 2.000000 5.000000 139.370085 20.505701 572.467989 -398.267544 17.913363 0.000000 0.073138
460.000000 51.827000 13.000000 2.000000 5.000000 136.794538 22.426263 530.806242 -298.672961 19.290707 0.000000 0.069867
461.000000 48.316000 14.000000 2.000000 5.000000 134.494344 23.943981 497.063276 -216.033829 20.692846 0.000000 0.064998
467.000000 45.946000 3.000000 -5.000000 6.000000 56.834201 -43.076274 1981.342719 1903.960776 21.787080 0.000000 0.298546
468.000000 48.569000 4.000000 -5.000000 6.000000 64.423366 -38.223148 1822.664417 1596.714941 20.609198 0.000000 0.193570
469.000000 49.571000 5.000000 -5.000000 6.000000 70.813222 -33.582814 1689.622957 1390.565004 20.191036 0.000000 0.138644
470.000000 49.400000 6.000000 -5.000000 6.000000 76.117055 -29.197938 1576.469708 1245.735768 20.259646 0.000000 0.120625
471.000000 48.442000 7.000000 -5.000000 6.000000 80.479212 -25.094855 1479.055220 1140.326381 20.658847 0.000000 0.123127
472.000000 46.997000 8.000000 -5.000000 6.000000 84.048158 -21.285197 1394.309300 1061.423197 21.292816 0.000000 0.132421
474.000000 57.101000 3.000000 -4.000000 6.000000 67.451738 -45.649703 2075.984510 1580.271142 17.528071 0.000000 0.269603
475.000000 58.457000 5.000000 -4.000000 6.000000 81.177061 -34.858307 1724.669536 1144.591193 17.118572 0.000000 0.117839
476.000000 55.023000 7.000000 -4.000000 6.000000 89.980749 -25.266308 1482.987883 941.399891 18.184900 0.000000 0.121017
477.000000 50.074000 9.000000 -4.000000 6.000000 95.411547 -17.121186 1306.547053 834.313479 19.980410 0.000000 0.143509
480.000000 69.409000 4.000000 -3.000000 6.000000 86.706213 -42.603025 1964.808191 1025.152833 14.415525 0.000000 0.141468
481.000000 67.657000 5.000000 -3.000000 6.000000 92.489034 -36.504169 1771.537067 882.795410 14.787692 0.000000 0.085111
482.000000 61.559000 7.000000 -3.000000 6.000000 100.153013 -25.484615 1488.011329 727.479845 16.250682 0.000000 0.102972
483.000000 58.109000 8.000000 -3.000000 6.000000 102.558078 -20.665017 1380.946898 684.759865 17.215083 0.000000 0.119816
484.000000 51.468000 10.000000 -3.000000 6.000000 105.544815 -12.412082 1211.876585 634.445283 19.435485 0.000000 0.140673
485.000000 48.438000 11.000000 -3.000000 6.000000 106.416154 -8.921863 1143.963985 620.015940 20.650900 0.000000 0.146102
487.000000 76.527000 5.000000 -2.000000 6.000000 104.604190 -38.704706 1837.419458 581.639112 13.070725 0.000000 0.059189
488.000000 67.670000 7.000000 -2.000000 6.000000 110.893306 -25.772009 1494.652448 484.766268 14.780355 0.000000 0.064790
489.000000 58.965000 9.000000 -2.000000 6.000000 113.544147 -15.283855 1269.114847 454.832615 16.961666 0.000000 0.107110
490.000000 51.489000 11.000000 -2.000000 6.000000 114.317007 -7.120405 1109.448805 450.869881 19.424447 0.000000 0.124911
492.000000 84.266000 5.000000 -1.000000 6.000000 117.255153 -41.785658 1936.833460 197.412814 11.867717 0.000000 0.148455
493.000000 78.598000 6.000000 -1.000000 6.000000 120.314050 -33.596488 1689.993113 185.509519 12.723055 0.000000 0.055532
494.000000 72.930000 7.000000 -1.000000 6.000000 122.047768 -26.167426 1503.842594 190.264941 13.711655 0.000000 0.023697
495.000000 67.561000 8.000000 -1.000000 6.000000 122.850418 -19.609385 1358.449808 203.246606 14.801246 0.000000 0.048794
496.000000 62.620000 9.000000 -1.000000 6.000000 123.027317 -13.919752 1241.749696 220.147705 15.969197 0.000000 0.069945
497.000000 58.142000 10.000000 -1.000000 6.000000 122.799721 -9.028209 1146.011501 238.682225 17.199170 0.000000 0.083982
498.000000 54.116000 11.000000 -1.000000 6.000000 122.320971 -4.835620 1066.052825 257.611080 18.479073 0.000000 0.093009
499.000000 50.506000 12.000000 -1.000000 6.000000 121.694255 -1.238544 998.269527 276.260880 19.799768 0.000000 0.098630
500.000000 47.273000 13.000000 -1.000000 6.000000 120.987619 1.858427 940.077421 294.273495 21.154215 0.000000 0.101926
502.000000 76.951000 7.000000 0.000000 6.000000 133.419114 -26.745793 1517.397870 -199.501200 12.992984 0.000000 0.093181
503.000000 70.935000 8.000000 0.000000 6.000000 133.324984 -18.744871 1340.245234 -130.994644 14.095042 0.000000 0.048028
504.000000 60.578000 10.000000 0.000000 6.000000 131.545686 -6.465313 1096.968248 -18.860304 16.505399 0.000000 0.043994
505.000000 56.212000 11.000000 0.000000 6.000000 130.310559 -1.854165 1009.842421 27.416681 17.787752 0.000000 0.052854
506.000000 48.863000 13.000000 0.000000 6.000000 127.713720 5.193794 877.167098 105.302298 20.463688 0.000000 0.064165
507.000000 45.773000 14.000000 0.000000 6.000000 126.451984 7.908376 825.491444 138.345359 21.845499 0.000000 0.067088
511.000000 62.262000 10.000000 1.000000 6.000000 140.170965 -2.862358 1028.813830 -351.090230 16.057129 0.000000 0.018913
512.000000 57.701000 11.000000 1.000000 6.000000 138.140199 2.173130 934.158428 -261.108554 17.326816 0.000000 0.012117
513.000000 53.648000 12.000000 1.000000 6.000000 136.146025 6.182433 858.410907 -185.788269 18.636080 0.000000 0.018428
514.000000 50.045000 13.000000 1.000000 6.000000 134.244947 9.420741 796.420320 -121.626153 19.978470 0.000000 0.024164
515.000000 46.833000 14.000000 1.000000 6.000000 132.461367 12.075138 744.750944 -66.192782 21.348866 0.000000 0.028000
518.000000 50.794000 13.000000 2.000000 6.000000 140.433963 14.881188 688.998597 -406.791984 19.681971 0.000000 0.046940
521.000000 47.015000 4.000000 -5.000000 7.000000 67.717603 -42.551001 1963.005911 1539.681632 21.288923 0.000000 0.223679
522.000000 47.908000 5.000000 -5.000000 7.000000 73.793704 -38.062753 1817.793233 1338.315335 20.890447 0.000000 0.153765
523.000000 47.812000 6.000000 -5.000000 7.000000 78.904731 -33.759103 1694.404209 1194.876581 20.931099 0.000000 0.121340
524.000000 47.022000 7.000000 -5.000000 7.000000 83.158317 -29.674108 1588.262956 1089.626050 21.281298 0.000000 0.115132
525.000000 45.779000 8.000000 -5.000000 7.000000 86.672405 -25.829693 1495.989285 1010.524865 21.857881 0.000000 0.121458
528.000000 55.379000 4.000000 -4.000000 7.000000 77.485512 -44.850469 2045.691037 1277.969190 18.070235 0.000000 0.206031
529.000000 55.389000 5.000000 -4.000000 7.000000 83.425789 -39.798605 1871.690205 1102.448303 18.065839 0.000000 0.129679
530.000000 54.391000 6.000000 -4.000000 7.000000 88.268861 -34.953017 1727.314822 980.687971 18.395992 0.000000 0.098534
531.000000 52.751000 7.000000 -4.000000 7.000000 92.164535 -30.365704 1605.592396 893.852220 18.966685 0.000000 0.098809
532.000000 50.744000 8.000000 -4.000000 7.000000 95.266609 -26.070291 1501.579282 830.550157 19.716113 0.000000 0.110773
533.000000 48.560000 9.000000 -4.000000 7.000000 97.717877 -22.083318 1411.672784 783.589393 20.601975 0.000000 0.123639
534.000000 46.327000 10.000000 -4.000000 7.000000 99.643161 -18.407185 1333.185367 748.263271 21.594343 0.000000 0.134339
537.000000 64.021000 4.000000 -3.000000 7.000000 88.034600 -47.750168 2159.914594 995.931945 15.627978 0.000000 0.214998
538.000000 62.963000 5.000000 -3.000000 7.000000 93.770987 -41.994332 1943.906950 845.549313 15.889416 0.000000 0.112687
539.000000 60.938000 6.000000 -3.000000 7.000000 98.267013 -36.462064 1770.313609 746.556154 16.416468 0.000000 0.063899
540.000000 58.370000 7.000000 -3.000000 7.000000 101.721406 -31.236286 1627.758973 679.830624 17.137896 0.000000 0.065940
541.000000 55.554000 8.000000 -3.000000 7.000000 104.329285 -26.371140 1508.601558 634.136535 18.005846 0.000000 0.085867
542.000000 52.682000 9.000000 -3.000000 7.000000 106.265317 -21.893148 1407.518009 602.569304 18.986981 0.000000 0.104049
543.000000 49.870000 10.000000 -3.000000 7.000000 107.677083 -17.806068 1320.686027 580.726798 20.057363 0.000000 0.117799
544.000000 47.183000 11.000000 -3.000000 7.000000 108.684613 -14.097181 1245.290137 565.714512 21.199361 0.000000 0.127649
546.000000 72.353000 4.000000 -2.000000 7.000000 99.169687 -51.497648 2327.973352 661.924879 13.825659 0.000000 0.297720
547.000000 70.149000 5.000000 -2.000000 7.000000 104.673770 -44.850611 2045.696347 543.461766 14.258981 0.000000 0.150631
548.000000 67.068000 6.000000 -2.000000 7.000000 108.776230 -38.426747 1828.878716 473.932502 14.913121 0.000000 0.058595
549.000000 63.577000 7.000000 -2.000000 7.000000 111.729763 -32.365048 1657.116465 433.150698 15.731434 0.000000 0.012448
550.000000 59.977000 8.000000 -2.000000 7.000000 113.777315 -26.758086 1517.687471 409.938050 16.675125 0.000000 0.045198
551.000000 56.450000 9.000000 -2.000000 7.000000 115.131487 -21.651168 1402.247303 397.779847 17.716728 0.000000 0.071990
552.000000 53.095000 10.000000 -2.000000 7.000000 115.967111 -17.050580 1305.095420 392.721925 18.836254 0.000000 0.090526
553.000000 49.958000 11.000000 -2.000000 7.000000 116.421934 -12.935432 1222.204892 392.284453 20.018810 0.000000 0.103252
554.000000 47.057000 12.000000 -2.000000 7.000000 116.601315 -9.268905 1150.650213 394.870415 21.253068 0.000000 0.111894
557.000000 72.354000 6.000000 -1.000000 7.000000 119.607863 -41.082461 1913.331286 129.585334 13.820988 0.000000 0.152251
558.000000 68.052000 7.000000 -1.000000 7.000000 122.048052 -33.885391 1697.841458 129.344956 14.694404 0.000000 0.071001
559.000000 63.773000 8.000000 -1.000000 7.000000 123.499206 -27.274203 1529.903363 139.533716 15.680012 0.000000 0.029670
560.000000 59.685000 9.000000 -1.000000 7.000000 124.223018 -21.332882 1395.341334 155.068953 16.754119 0.000000 0.036959
561.000000 55.866000 10.000000 -1.000000 7.000000 124.430940 -16.072899 1285.104957 173.177934 17.899263 0.000000 0.056126
562.000000 52.348000 11.000000 -1.000000 7.000000 124.284561 -11.457577 1193.144774 192.306805 19.102292 0.000000 0.070972
563.000000 49.131000 12.000000 -1.000000 7.000000 123.902576 -7.424993 1115.263665 211.573688 20.353112 0.000000 0.081470
564.000000 46.202000 13.000000 -1.000000 7.000000 123.369782 -3.904446 1048.458284 230.479722 21.643849 0.000000 0.088690
568.000000 55.641000 11.000000 1.000000 7.000000 140.016578 -6.865138 1104.581505 -351.699891 17.967624 0.000000 0.031489
569.000000 52.043000 12.000000 1.000000 7.000000 138.409032 -1.923646 1011.149036 -272.328155 19.210469 0.000000 0.017695
570.000000 48.789000 13.000000 1.000000 7.000000 136.764322 2.139257 934.795638 -204.506098 20.491943 0.000000 0.018124
571.000000 45.849000 14.000000 1.000000 7.000000 135.144008 5.507075 871.230506 -145.734264 21.806316 0.000000 0.023422
576.000000 46.519000 14.000000 2.000000 7.000000 141.037721 10.028259 784.672888 -410.552367 21.490681 0.000000 0.027047
579.000000 45.906000 5.000000 -5.000000 8.000000 76.104636 -42.098432 1947.453018 1299.848492 21.799994 0.000000 0.178472
580.000000 45.911000 6.000000 -5.000000 8.000000 81.056273 -37.924305 1813.605726 1155.730989 21.796211 0.000000 0.127730
582.000000 52.198000 5.000000 -4.000000 8.000000 85.010608 -44.173143 2020.669300 1072.006500 19.169334 0.000000 0.166272
583.000000 50.273000 7.000000 -4.000000 8.000000 93.706151 -35.033672 1729.572403 855.856382 19.901018 0.000000 0.081052
584.000000 46.807000 9.000000 -4.000000 8.000000 99.425049 -26.763591 1517.817187 740.900994 21.372862 0.000000 0.098233
586.000000 59.002000 4.000000 -3.000000 8.000000 88.782758 -52.117658 2358.440248 978.243675 16.957077 0.000000 0.318200
587.000000 58.455000 5.000000 -3.000000 8.000000 94.440121 -46.745793 2118.966199 819.035541 17.114197 0.000000 0.183235
588.000000 57.045000 6.000000 -3.000000 8.000000 99.006642 -41.488652 1926.844770 713.261189 17.536187 0.000000 0.095891
589.000000 55.093000 7.000000 -3.000000 8.000000 102.620194 -36.426963 1769.294651 641.504261 18.156841 0.000000 0.048023
590.000000 52.840000 8.000000 -3.000000 8.000000 105.428319 -31.623707 1637.754705 592.168826 18.930319 0.000000 0.048289
591.000000 50.456000 9.000000 -3.000000 8.000000 107.572737 -27.121401 1526.274987 558.032845 19.823878 0.000000 0.069371
592.000000 48.056000 10.000000 -3.000000 8.000000 109.180724 -22.942777 1430.591751 534.439512 20.813503 0.000000 0.088694
593.000000 45.711000 11.000000 -3.000000 8.000000 110.361509 -19.093788 1347.569632 518.297355 21.881185 0.000000 0.103611
594.000000 64.320000 5.000000 -2.000000 8.000000 104.238584 -50.004770 2257.894449 516.065302 15.550889 0.000000 0.266625
595.000000 59.530000 7.000000 -2.000000 8.000000 111.874833 -38.201274 1821.998843 391.121218 16.800545 0.000000 0.064685
596.000000 53.781000 9.000000 -2.000000 8.000000 115.991983 -27.572626 1537.018447 349.006889 18.595607 0.000000 0.029003
597.000000 48.224000 11.000000 -2.000000 8.000000 117.864906 -18.548867 1336.144057 340.796319 20.737881 0.000000 0.075717
600.000000 63.344000 7.000000 -1.000000 8.000000 121.334792 -40.532304 1895.292155 78.817789 15.786594 0.000000 0.155621
601.000000 59.977000 8.000000 -1.000000 8.000000 123.350999 -34.113224 1704.068345 85.414872 16.672524 0.000000 0.083160
602.000000 56.637000 9.000000 -1.000000 8.000000 124.600315 -28.159254 1551.118841 98.825170 17.655414 0.000000 0.040375
603.000000 53.424000 10.000000 -1.000000 8.000000 125.265242 -22.735068 1425.997865 115.804745 18.717108 0.000000 0.031814
604.000000 50.391000 11.000000 -1.000000 8.000000 125.497977 -17.857098 1321.743807 134.489890 19.843718 0.000000 0.045532
605.000000 47.561000 12.000000 -1.000000 8.000000 125.419595 -13.507196 1233.538364 153.789584 21.024435 0.000000 0.059856
607.000000 58.900000 9.000000 0.000000 8.000000 133.301882 -28.952790 1570.440873 -218.192323 16.974944 0.000000 0.110571
608.000000 52.137000 11.000000 0.000000 8.000000 133.191672 -16.950190 1303.033327 -115.300450 19.176971 0.000000 0.042302
609.000000 46.313000 13.000000 0.000000 8.000000 131.833164 -7.760074 1121.669979 -31.344284 21.589186 0.000000 0.041690
614.000000 50.252000 12.000000 1.000000 8.000000 139.761660 -10.067521 1166.087804 -350.785274 19.894716 0.000000 0.042169
615.000000 47.349000 13.000000 1.000000 8.000000 138.483052 -5.307201 1074.981246 -280.039004 21.114755 0.000000 0.025095
622.000000 49.066000 5.000000 -4.000000 9.000000 86.105454 -48.030974 2171.646215 1050.568271 20.391944 0.000000 0.225981
623.000000 48.669000 6.000000 -4.000000 9.000000 90.814930 -43.591963 1999.653353 919.862279 20.557017 0.000000 0.139872
624.000000 47.736000 7.000000 -4.000000 9.000000 94.746943 -39.268571 1854.951183 825.555962 20.957548 0.000000 0.086418
625.000000 46.443000 8.000000 -4.000000 9.000000 97.989586 -35.103186 1731.521696 756.351997 21.540460 0.000000 0.065296
627.000000 54.269000 5.000000 -3.000000 9.000000 94.697804 -50.844849 2296.778249 800.925871 18.434179 0.000000 0.276946
628.000000 51.876000 7.000000 -3.000000 9.000000 103.025806 -41.061936 1912.652901 610.770855 19.282349 0.000000 0.087440
629.000000 50.100000 8.000000 -3.000000 9.000000 106.008716 -36.397251 1768.432877 557.360939 19.964806 0.000000 0.038343
630.000000 46.128000 10.000000 -3.000000 9.000000 110.159426 -27.764365 1541.610408 494.455693 21.683120 0.000000 0.054128
632.000000 57.626000 6.000000 -2.000000 9.000000 108.010002 -48.770493 2203.164247 410.080220 17.356344 0.000000 0.247305
633.000000 55.668000 7.000000 -2.000000 9.000000 111.548464 -43.302976 1989.353983 356.976499 17.966000 0.000000 0.144233
634.000000 53.436000 8.000000 -2.000000 9.000000 114.263740 -38.014709 1816.338300 325.217695 18.715874 0.000000 0.072797
635.000000 51.080000 9.000000 -2.000000 9.000000 116.287316 -32.981463 1673.458719 307.223509 19.578521 0.000000 0.022920
636.000000 48.704000 10.000000 -2.000000 9.000000 117.743868 -28.256548 1553.472310 298.294270 20.533221 0.000000 0.017408
637.000000 46.376000 11.000000 -2.000000 9.000000 118.745154 -23.870494 1451.285018 295.422017 21.564036 0.000000 0.043098
640.000000 56.304000 8.000000 -1.000000 9.000000 122.655408 -40.090207 1881.009587 39.355613 17.760005 0.000000 0.158465
641.000000 53.602000 9.000000 -1.000000 9.000000 124.365569 -34.297495 1709.129215 50.086047 18.655085 0.000000 0.092948
642.000000 50.925000 10.000000 -1.000000 9.000000 125.463438 -28.882820 1568.725371 65.407004 19.635579 0.000000 0.050911
643.000000 48.336000 11.000000 -1.000000 9.000000 126.081288 -23.896837 1451.876891 83.153204 20.687122 0.000000 0.032902
644.000000 45.872000 12.000000 -1.000000 9.000000 126.332148 -19.356971 1353.114763 102.027551 21.798399 0.000000 0.038426
649.000000 45.788000 13.000000 1.000000 9.000000 139.465638 -12.672615 1217.012902 -349.076297 21.834069 0.000000 0.051380
653.000000 46.092000 5.000000 -4.000000 10.000000 86.842463 -51.429214 2324.661406 1036.229968 21.707448 0.000000 0.303077
656.000000 49.864000 6.000000 -3.000000 10.000000 99.265562 -49.755188 2246.603599 669.218531 20.060898 0.000000 0.250308
657.000000 48.805000 7.000000 -3.000000 10.000000 103.078436 -45.174471 2057.869155 586.316071 20.495281 0.000000 0.153996
658.000000 47.425000 8.000000 -3.000000 10.000000 106.200619 -40.697066 1900.663247 528.551696 21.090895 0.000000 0.084674
659.000000 45.845000 9.000000 -3.000000 10.000000 108.716858 -36.371776 1767.694519 488.112725 21.816804 0.000000 0.035533
661.000000 52.060000 7.000000 -2.000000 10.000000 110.915959 -47.733879 2159.237933 329.409713 19.211118 0.000000 0.234593
662.000000 48.430000 9.000000 -2.000000 10.000000 116.160139 -37.857783 1811.599321 271.401224 20.649688 0.000000 0.080935
665.000000 50.659000 9.000000 -1.000000 10.000000 123.697581 -39.727220 1869.420811 7.783101 19.738667 0.000000 0.160841
666.000000 48.445000 10.000000 -1.000000 10.000000 125.177820 -34.449604 1713.323543 21.043496 20.640717 0.000000 0.100986
667.000000 46.252000 11.000000 -1.000000 10.000000 126.157755 -29.485224 1583.571641 37.466402 21.619118 0.000000 0.060371
670.000000 47.697000 11.000000 0.000000 10.000000 133.198196 -30.315602 1604.328807 -229.731891 20.961836 0.000000 0.122391
676.000000 45.924000 7.000000 -3.000000 11.000000 102.884973 -48.812440 2204.979769 567.123792 21.780821 0.000000 0.232539
679.000000 47.402000 8.000000 -2.000000 11.000000 113.218788 -46.851509 2123.203820 265.866383 21.098374 0.000000 0.225812
680.000000 45.882000 9.000000 -2.000000 11.000000 115.728559 -42.216011 1951.472236 240.710327 21.796367 0.000000 0.146576
683.000000 46.035000 10.000000 -1.000000 11.000000 124.540747 -39.423874 1859.829401 -18.059924 21.721031 0.000000 0.162831
#UB matrix in q= (UB) B0 G* 
#[[-0.755421723 -0.394576282 -0.522205912]
# [ 0.390621608  0.368993204 -0.84390061 ]
# [ 0.52607298  -0.842210704 -0.124745376]]
#B0 matrix in q= UB (B0) G*
#[[ 0.19670273 -0.          0.03056101]
# [ 0.          0.19187965 -0.        ]
# [ 0.          0.          0.18806537]]
#UBB0 matrix in q= (UB B0) G* i.e. recip. basis vectors are columns in LT frame: astar = UBB0[:,0], bstar = UBB0[:,1], cstar = UBB0[:,2]. (abcstar as columns on xyzlab1, xlab1 = ui, ui = unit vector along incident beam)
#[[-0.14859352 -0.07571116 -0.1212953 ]
# [ 0.07683634  0.07080229 -0.14677069]
# [ 0.10347999 -0.1616031  -0.00738297]]
#Euler angles phi theta psi (deg)
#[ 32.019  97.154 148.204]
#deviatoric strain in direct crystal frame (10-3 unit)
#[[-4.34  0.4   0.77]
# [ 0.4  -4.79  0.39]
# [ 0.77  0.39  9.13]]
#deviatoric strain in sample2 frame (10-3 unit)
#[[-0.9   5.65 -2.35]
# [ 5.66  4.55 -2.94]
# [-2.34 -2.93 -3.65]]
#new lattice parameters
#[ 5.1505     5.2092411  5.3168493 89.983838  99.1842097 89.9541867]
#CCDLabel
#sCMOS
#DetectorParameters
#[79.0, 975.0, 941.0, 0.0, 0.0]
#pixelsize
#0.0734
#Frame dimensions
#[2018, 2016]
#
