#Strain and Orientation Refinement from experimental file: /home/micha/LaueProjects/DepthEffects/testZrO2_137.cor
#File created at Wed Jun 28 14:26:37 2023 with indexingSpotsSet.py
#Number of indexed spots: 524
#Element
#ZrO2
#grainIndex
#G_0
#Mean Deviation(pixel): 0.115
##spot_index intensity h k l 2theta Chi Xexp Yexp Energy GrainIndex PixDev
3.000000 152.786000 -1.000000 1.000000 2.000000 49.668591 -14.676093 1256.880579 1885.597623 6.552590 0.000000 0.113862
4.000000 151.868000 -1.000000 2.000000 2.000000 62.892451 -33.932398 1699.123485 1605.033623 6.590363 0.000000 0.159551
6.000000 128.736000 -1.000000 3.000000 2.000000 68.012656 -47.138559 2134.794835 1579.866315 7.773405 0.000000 0.287462
7.000000 179.218000 0.000000 3.000000 2.000000 100.156734 -50.248949 2269.054923 639.465839 5.580707 0.000000 0.252998
13.000000 130.714000 -1.000000 1.000000 3.000000 58.718392 -3.188794 1034.963041 1595.938122 7.658304 0.000000 0.014334
14.000000 192.649000 0.000000 1.000000 3.000000 92.110531 7.683356 829.797663 900.976663 5.193041 0.000000 0.160936
16.000000 135.238000 -1.000000 2.000000 3.000000 70.722088 -19.862577 1363.818167 1341.258422 7.400366 0.000000 0.103694
17.000000 182.765000 0.000000 2.000000 3.000000 102.516869 -14.244952 1248.242989 694.478943 5.472691 0.000000 0.142938
18.000000 198.272000 1.000000 2.000000 3.000000 131.139989 -3.881231 1048.020171 -1.396371 5.042184 0.000000 0.045132
19.000000 79.488000 -2.000000 3.000000 3.000000 50.181671 -34.236455 1707.450361 2026.391728 12.593437 0.000000 0.241660
20.000000 122.673000 -1.000000 3.000000 3.000000 76.352764 -33.561498 1689.046150 1254.602129 8.157047 0.000000 0.121535
21.000000 156.855000 0.000000 3.000000 3.000000 104.139185 -32.506418 1660.844569 619.502245 6.376232 0.000000 0.053463
22.000000 171.109000 1.000000 3.000000 3.000000 130.466119 -30.626257 1612.184597 -125.975912 5.842542 0.000000 0.087757
25.000000 106.317000 -1.000000 4.000000 3.000000 78.332801 -43.899048 2010.706672 1249.435815 9.411124 0.000000 0.184558
26.000000 130.833000 0.000000 4.000000 3.000000 101.812300 -45.433991 2067.723969 620.234800 7.644466 0.000000 0.149099
30.000000 91.406000 -1.000000 5.000000 3.000000 78.606930 -51.515895 2328.858109 1289.520655 10.945866 0.000000 0.325653
39.000000 85.893000 -1.000000 0.000000 4.000000 47.465230 17.253110 640.737696 1974.968866 11.655858 0.000000 0.165413
40.000000 122.677000 0.000000 0.000000 4.000000 70.835998 27.889519 405.383557 1364.201628 8.157820 0.000000 0.129184
41.000000 139.942000 1.000000 0.000000 4.000000 90.272031 40.692998 49.469704 934.260336 7.148471 0.000000 0.125910
43.000000 64.332000 -2.000000 1.000000 4.000000 38.285226 -3.097778 1033.248153 2306.543019 15.563932 0.000000 0.249507
44.000000 107.975000 -1.000000 1.000000 4.000000 62.930279 3.731556 904.803889 1492.218703 9.270517 0.000000 0.054664
45.000000 142.230000 0.000000 1.000000 4.000000 87.717344 13.114129 724.258672 985.050969 7.034461 0.000000 0.150877
46.000000 156.184000 1.000000 1.000000 4.000000 108.696800 25.922948 451.846768 536.012796 6.403211 0.000000 0.072198
47.000000 152.192000 2.000000 1.000000 4.000000 123.106411 42.361732 -6.474285 -8.781805 6.569388 0.000000 0.204957
48.000000 114.470000 -1.000000 2.000000 4.000000 73.958955 -10.091073 1166.544197 1255.319368 8.742780 0.000000 0.115424
49.000000 143.444000 0.000000 2.000000 4.000000 98.702902 -3.443224 1039.758526 775.950099 6.973468 0.000000 0.163669
50.000000 155.377000 1.000000 2.000000 4.000000 120.791689 6.682995 848.888314 295.223514 6.435213 0.000000 0.095836
51.000000 151.971000 2.000000 2.000000 4.000000 137.543212 22.512314 528.913278 -332.384385 6.577741 0.000000 0.091280
53.000000 79.000000 -2.000000 3.000000 4.000000 57.694773 -25.085140 1478.832734 1692.416999 12.670822 0.000000 0.119744
54.000000 109.509000 -1.000000 3.000000 4.000000 80.326524 -22.734676 1425.989215 1139.916521 9.137399 0.000000 0.122991
55.000000 132.687000 0.000000 3.000000 4.000000 103.544337 -19.301116 1351.936428 666.282978 7.537933 0.000000 0.124824
56.000000 143.356000 1.000000 3.000000 4.000000 125.294256 -13.867082 1240.699766 156.230543 6.974303 0.000000 0.059539
59.000000 99.488000 -1.000000 4.000000 4.000000 83.264699 -33.343704 1683.169004 1093.154193 10.056731 0.000000 0.108837
60.000000 127.161000 1.000000 4.000000 4.000000 124.173808 -31.221682 1627.383789 86.513324 7.862522 0.000000 0.047967
63.000000 70.442000 -2.000000 5.000000 4.000000 66.096189 -41.216481 1917.771415 1575.163140 14.207150 0.000000 0.211727
64.000000 88.514000 -1.000000 5.000000 4.000000 84.158968 -41.823509 1938.113100 1088.751500 11.302985 0.000000 0.138841
65.000000 102.729000 0.000000 5.000000 4.000000 102.566059 -42.652762 1966.534052 614.800713 9.735734 0.000000 0.103773
66.000000 111.077000 1.000000 5.000000 4.000000 120.386573 -43.852956 2009.040380 65.807352 9.001345 0.000000 0.192562
68.000000 78.364000 -1.000000 6.000000 4.000000 83.982493 -48.484128 2190.850531 1112.169122 12.766685 0.000000 0.235193
80.000000 76.744000 0.000000 -1.000000 5.000000 55.069413 37.543989 147.816723 1889.040507 13.042836 0.000000 0.263630
81.000000 90.730000 1.000000 -1.000000 5.000000 70.117980 46.893546 -174.893495 1510.587598 11.029282 0.000000 0.297787
83.000000 62.638000 -2.000000 1.000000 5.000000 45.182057 1.922671 938.869304 2011.078528 15.984061 0.000000 0.145925
84.000000 90.460000 -1.000000 1.000000 5.000000 65.188056 8.234464 819.242719 1443.773544 11.065038 0.000000 0.076094
85.000000 111.886000 0.000000 1.000000 5.000000 84.749267 16.276170 660.755396 1044.041125 8.942656 0.000000 0.142833
86.000000 122.544000 1.000000 1.000000 5.000000 101.763499 26.396734 440.799342 690.776930 8.162012 0.000000 0.094658
87.000000 123.021000 2.000000 1.000000 5.000000 114.722988 38.625833 115.010753 306.670086 8.128246 0.000000 0.090065
90.000000 71.520000 -2.000000 2.000000 5.000000 55.123249 -8.158269 1129.296270 1698.853794 13.997423 0.000000 0.038927
91.000000 96.849000 -1.000000 2.000000 5.000000 75.217455 -3.276598 1036.617689 1225.483514 10.333321 0.000000 0.122938
92.000000 115.902000 0.000000 2.000000 5.000000 95.100588 3.245936 913.960179 844.777785 8.631230 0.000000 0.164948
93.000000 125.195000 1.000000 2.000000 5.000000 112.929401 12.114825 743.971191 475.333636 7.987712 0.000000 0.117509
94.000000 125.281000 2.000000 2.000000 5.000000 127.162885 24.137510 492.704440 46.979301 7.980192 0.000000 0.031024
96.000000 51.416000 -3.000000 3.000000 5.000000 44.421696 -20.164741 1370.247361 2110.955315 19.471747 0.000000 0.197523
97.000000 74.212000 -2.000000 3.000000 5.000000 62.544185 -17.700813 1318.506152 1528.020022 13.487849 0.000000 0.077202
98.000000 95.835000 -1.000000 3.000000 5.000000 81.909578 -14.453187 1252.410624 1098.996075 10.441151 0.000000 0.137963
99.000000 112.074000 0.000000 3.000000 5.000000 101.296045 -10.012682 1165.025374 722.687381 8.924868 0.000000 0.153868
100.000000 120.371000 1.000000 3.000000 5.000000 119.312814 -3.672889 1044.089439 335.451501 8.306915 0.000000 0.107942
101.000000 121.008000 2.000000 3.000000 5.000000 134.725471 5.799151 865.690134 -130.513161 8.261166 0.000000 0.026216
103.000000 53.425000 -3.000000 4.000000 5.000000 50.585930 -27.603127 1537.747842 1939.129638 18.737950 0.000000 0.181110
104.000000 72.558000 -2.000000 4.000000 5.000000 67.632520 -26.281721 1506.510581 1434.964182 13.793602 0.000000 0.110067
105.000000 90.341000 -1.000000 4.000000 5.000000 85.711239 -24.550370 1466.638734 1029.736780 11.074964 0.000000 0.123393
106.000000 103.862000 0.000000 4.000000 5.000000 103.928789 -22.188610 1413.977986 652.721867 9.629812 0.000000 0.111863
107.000000 111.328000 1.000000 4.000000 5.000000 121.308608 -18.790436 1341.199989 249.527976 8.981312 0.000000 0.061168
108.000000 112.772000 2.000000 4.000000 5.000000 137.017846 -13.533211 1234.055319 -246.887645 8.864271 0.000000 0.029458
110.000000 52.869000 -3.000000 5.000000 5.000000 55.159256 -34.121655 1704.299425 1845.972052 18.933061 0.000000 0.202272
111.000000 68.559000 -2.000000 5.000000 5.000000 70.897612 -33.719229 1693.321040 1389.142524 14.596869 0.000000 0.133340
112.000000 82.956000 -1.000000 5.000000 5.000000 87.442722 -33.200438 1679.318978 998.447864 12.060060 0.000000 0.100756
113.000000 100.794000 1.000000 5.000000 5.000000 120.292323 -31.530713 1635.347827 203.351372 9.919861 0.000000 0.024750
114.000000 102.893000 2.000000 5.000000 5.000000 135.325337 -30.059315 1597.885324 -316.744491 9.715399 0.000000 0.118651
115.000000 50.862000 -3.000000 6.000000 5.000000 58.486018 -39.742625 1869.910151 1799.232029 19.678464 0.000000 0.239591
116.000000 63.632000 -2.000000 6.000000 5.000000 72.875232 -40.025942 1878.948866 1374.064671 15.726021 0.000000 0.167582
117.000000 75.268000 -1.000000 6.000000 5.000000 87.869935 -40.383629 1890.468071 993.553791 13.291394 0.000000 0.114101
118.000000 84.475000 0.000000 6.000000 5.000000 102.978669 -40.849350 1905.651231 613.065557 11.839458 0.000000 0.079792
119.000000 90.405000 1.000000 6.000000 5.000000 117.686247 -41.480654 1926.577051 187.191759 11.060186 0.000000 0.133127
121.000000 48.171000 -3.000000 7.000000 5.000000 60.887043 -44.551857 2034.587969 1782.093575 20.776692 0.000000 0.289944
122.000000 58.584000 -2.000000 7.000000 5.000000 73.995660 -45.320553 2063.405256 1380.045976 17.080231 0.000000 0.224198
123.000000 68.045000 -1.000000 7.000000 5.000000 87.547790 -46.270124 2100.102488 1007.679209 14.702007 0.000000 0.183294
124.000000 75.684000 0.000000 7.000000 5.000000 101.166974 -47.472154 2148.423649 626.675186 13.214836 0.000000 0.188821
126.000000 53.806000 -2.000000 8.000000 5.000000 74.563996 -49.757358 2246.701263 1401.025808 18.596375 0.000000 0.303010
127.000000 61.573000 -1.000000 8.000000 5.000000 86.829792 -51.086820 2308.238469 1035.903394 16.247199 0.000000 0.285468
138.000000 67.194000 0.000000 -1.000000 6.000000 57.738210 36.074084 190.898159 1781.575921 14.896116 0.000000 0.228601
139.000000 77.318000 1.000000 -1.000000 6.000000 70.622333 43.948632 -62.502102 1466.793577 12.942538 0.000000 0.246664
141.000000 47.471000 -2.000000 0.000000 6.000000 39.478003 14.211803 702.419756 2288.924657 21.091312 0.000000 0.257678
142.000000 66.521000 -1.000000 0.000000 6.000000 55.459615 20.542757 571.674342 1732.142341 15.048660 0.000000 0.121966
143.000000 91.031000 1.000000 0.000000 6.000000 84.422019 36.217332 186.771584 1071.288038 10.990716 0.000000 0.122542
144.000000 94.169000 2.000000 0.000000 6.000000 95.417421 45.322119 -113.464759 795.832867 10.621979 0.000000 0.171228
145.000000 58.434000 -2.000000 1.000000 6.000000 49.858475 5.616458 869.156286 1853.036300 17.133174 0.000000 0.092580
146.000000 77.316000 -1.000000 1.000000 6.000000 66.538710 11.362682 758.710421 1417.460446 12.945697 0.000000 0.088054
147.000000 91.893000 0.000000 1.000000 6.000000 82.642203 18.333825 618.344661 1087.412027 10.888725 0.000000 0.137151
148.000000 100.135000 1.000000 1.000000 6.000000 96.938100 26.686580 433.996196 794.412887 9.989469 0.000000 0.106309
149.000000 102.160000 2.000000 1.000000 6.000000 108.516333 36.411567 181.151977 493.092591 9.789141 0.000000 0.047617
151.000000 46.377000 -3.000000 2.000000 6.000000 42.449488 -7.043411 1107.980168 2126.597100 21.588888 0.000000 0.186523
152.000000 82.985000 -1.000000 2.000000 6.000000 75.630385 1.618983 944.579500 1216.847188 12.059518 0.000000 0.125646
153.000000 103.671000 1.000000 2.000000 6.000000 107.013545 15.367450 679.196897 599.453983 9.647151 0.000000 0.127109
154.000000 105.188000 2.000000 2.000000 6.000000 119.393343 25.008955 472.910923 271.977721 9.505717 0.000000 0.027371
155.000000 102.333000 3.000000 2.000000 6.000000 128.663180 36.689899 173.050095 -132.899146 9.769427 0.000000 0.159068
156.000000 68.124000 -2.000000 3.000000 6.000000 65.668245 -11.799908 1199.847778 1438.190578 14.692611 0.000000 0.074959
157.000000 83.806000 -1.000000 3.000000 6.000000 82.307061 -8.158071 1129.292467 1087.871932 11.939796 0.000000 0.145295
158.000000 102.247000 1.000000 3.000000 6.000000 113.906862 2.797981 922.398439 463.328343 9.780353 0.000000 0.129958
159.000000 103.759000 2.000000 3.000000 6.000000 127.076212 11.201769 761.853459 111.912456 9.635646 0.000000 0.053527
160.000000 52.639000 -3.000000 4.000000 6.000000 55.372694 -21.779217 1405.034209 1741.373255 19.017115 0.000000 0.109521
161.000000 81.119000 -1.000000 4.000000 6.000000 86.664433 -17.427621 1312.860074 1006.747168 12.334018 0.000000 0.140840
162.000000 97.385000 1.000000 4.000000 6.000000 117.556922 -9.940381 1163.625172 370.796994 10.267955 0.000000 0.107181
164.000000 52.279000 -3.000000 5.000000 6.000000 59.700581 -28.214169 1552.446662 1654.720538 19.146149 0.000000 0.132178
165.000000 65.022000 -2.000000 5.000000 6.000000 74.159580 -27.146984 1526.881790 1284.186629 15.390527 0.000000 0.114121
166.000000 76.431000 -1.000000 5.000000 6.000000 89.132394 -25.799653 1495.292942 959.103667 13.089618 0.000000 0.119197
167.000000 85.238000 0.000000 5.000000 6.000000 104.100242 -24.047497 1455.266569 644.954330 11.733845 0.000000 0.102488
168.000000 90.681000 1.000000 5.000000 6.000000 118.528044 -21.681226 1402.901051 311.395379 11.026750 0.000000 0.060168
169.000000 92.701000 2.000000 5.000000 6.000000 131.953116 -18.324017 1331.450866 -78.185188 10.784124 0.000000 0.029332
171.000000 70.905000 -1.000000 6.000000 6.000000 90.234133 -33.099034 1676.601560 935.749855 14.108979 0.000000 0.094768
172.000000 83.342000 1.000000 6.000000 6.000000 117.664694 -31.719909 1640.249648 277.700570 11.997690 0.000000 0.010001
173.000000 48.268000 -3.000000 7.000000 6.000000 65.201627 -38.951877 1845.070172 1580.446000 20.734240 0.000000 0.192132
174.000000 57.248000 -2.000000 7.000000 6.000000 77.650746 -39.120450 1850.318665 1244.729106 17.478461 0.000000 0.142119
175.000000 65.270000 -1.000000 7.000000 6.000000 90.431005 -39.327393 1856.796289 930.533118 15.326738 0.000000 0.099075
176.000000 71.695000 0.000000 7.000000 6.000000 103.232504 -39.587483 1864.992076 612.594135 13.949873 0.000000 0.065870
177.000000 76.111000 1.000000 7.000000 6.000000 115.741925 -39.924193 1875.694153 264.302049 13.137709 0.000000 0.097826
180.000000 45.617000 -3.000000 8.000000 6.000000 66.849648 -43.329415 1990.292160 1573.641964 21.938356 0.000000 0.234049
181.000000 59.911000 -1.000000 8.000000 6.000000 90.068989 -44.586963 2035.887362 939.180307 16.697482 0.000000 0.150331
182.000000 69.370000 1.000000 8.000000 6.000000 113.313265 -46.502015 2109.257389 267.163890 14.414658 0.000000 0.204445
183.000000 49.280000 -2.000000 9.000000 6.000000 78.603812 -47.996938 2170.217427 1265.199190 20.303308 0.000000 0.247269
184.000000 54.999000 -1.000000 9.000000 6.000000 89.384460 -49.017178 2213.884887 958.631467 18.188674 0.000000 0.230594
196.000000 48.543000 -1.000000 -1.000000 7.000000 47.199073 28.678414 386.273008 2077.055011 20.622760 0.000000 0.243644
197.000000 59.540000 0.000000 -1.000000 7.000000 59.642651 34.990631 221.632875 1710.465752 16.810752 0.000000 0.206483
198.000000 67.205000 1.000000 -1.000000 7.000000 70.901093 41.778263 13.416357 1440.749108 14.890308 0.000000 0.216980
199.000000 71.280000 2.000000 -1.000000 7.000000 80.506917 48.889334 -258.315733 1214.721770 14.036249 0.000000 0.283153
201.000000 53.796000 -2.000000 1.000000 7.000000 53.184467 8.426550 815.557043 1755.418180 18.609458 0.000000 0.070337
202.000000 67.292000 -1.000000 1.000000 7.000000 67.415349 13.649831 713.625953 1401.691519 14.873849 0.000000 0.095473
203.000000 77.819000 0.000000 1.000000 7.000000 81.078417 19.776238 588.014354 1120.548118 12.858343 0.000000 0.133219
204.000000 84.325000 1.000000 1.000000 7.000000 93.397960 26.882181 429.385564 869.352437 11.863134 0.000000 0.112844
205.000000 86.798000 2.000000 1.000000 7.000000 103.783913 34.950631 222.751886 618.857470 11.522696 0.000000 0.052628
206.000000 86.001000 3.000000 1.000000 7.000000 111.930254 43.812029 -57.562957 340.502674 11.627477 0.000000 0.163661
208.000000 59.366000 -2.000000 2.000000 7.000000 61.180454 0.671753 962.380627 1533.216710 16.861793 0.000000 0.037090
209.000000 72.163000 -1.000000 2.000000 7.000000 75.674179 5.257230 875.965485 1217.021712 13.867952 0.000000 0.126073
210.000000 81.972000 0.000000 2.000000 7.000000 89.687412 10.807726 769.535473 946.978025 12.205157 0.000000 0.155806
211.000000 87.878000 1.000000 2.000000 7.000000 102.473162 17.520306 635.226297 691.338447 11.381788 0.000000 0.131271
212.000000 89.913000 2.000000 2.000000 7.000000 113.414715 25.552076 460.432638 424.389892 11.121791 0.000000 0.053284
213.000000 88.809000 3.000000 2.000000 7.000000 122.113215 34.920236 223.601447 117.164010 11.258200 0.000000 0.085028
215.000000 48.941000 -3.000000 3.000000 7.000000 53.559851 -10.132797 1167.352905 1748.268593 20.455376 0.000000 0.058960
216.000000 62.068000 -2.000000 3.000000 7.000000 67.707804 -7.069704 1108.481650 1385.629663 16.125886 0.000000 0.083189
217.000000 73.766000 -1.000000 3.000000 7.000000 82.146045 -3.319348 1037.423405 1089.716160 13.564948 0.000000 0.147517
218.000000 82.684000 0.000000 3.000000 7.000000 96.237091 1.332906 949.956996 823.340173 12.098478 0.000000 0.165478
219.000000 88.065000 1.000000 3.000000 7.000000 109.322384 7.167252 839.657361 560.642948 11.356344 0.000000 0.140042
220.000000 89.930000 2.000000 3.000000 7.000000 120.820756 14.520459 696.241314 277.683745 11.118404 0.000000 0.075043
221.000000 88.900000 3.000000 3.000000 7.000000 130.281436 23.716947 502.160103 -55.309169 11.245517 0.000000 0.048139
223.000000 50.557000 -3.000000 4.000000 7.000000 58.928294 -16.810389 1300.165356 1618.488590 19.799759 0.000000 0.070948
224.000000 62.322000 -2.000000 4.000000 7.000000 72.703443 -14.525784 1253.865432 1287.224508 16.058521 0.000000 0.109252
225.000000 72.725000 -1.000000 4.000000 7.000000 86.784958 -11.705974 1198.006875 1002.741766 13.757692 0.000000 0.150644
226.000000 80.693000 0.000000 4.000000 7.000000 100.652563 -8.157884 1129.288884 736.485321 12.395935 0.000000 0.157503
227.000000 85.615000 1.000000 4.000000 7.000000 113.769005 -3.598859 1042.693185 466.056394 11.680381 0.000000 0.130720
228.000000 87.484000 2.000000 4.000000 7.000000 125.647172 2.383524 930.199944 168.439496 11.428478 0.000000 0.075897
229.000000 86.772000 3.000000 4.000000 7.000000 135.872962 10.364666 778.149068 -187.007438 11.520516 0.000000 0.028931
231.000000 50.500000 -3.000000 5.000000 7.000000 63.111536 -23.023592 1432.382925 1533.998781 19.820214 0.000000 0.098085
232.000000 60.811000 -2.000000 5.000000 7.000000 76.302346 -21.480350 1398.537242 1222.905860 16.455949 0.000000 0.117541
233.000000 69.898000 -1.000000 5.000000 7.000000 89.791262 -19.575043 1357.722979 945.161673 14.313152 0.000000 0.137810
234.000000 76.935000 0.000000 5.000000 7.000000 103.166931 -17.169499 1307.540980 677.468630 13.000655 0.000000 0.133156
235.000000 81.442000 1.000000 5.000000 7.000000 116.010817 -14.049993 1244.348006 399.608530 12.278208 0.000000 0.103166
236.000000 83.383000 2.000000 5.000000 7.000000 127.947582 -9.873485 1162.330217 89.073259 11.990096 0.000000 0.055364
237.000000 83.087000 3.000000 5.000000 7.000000 138.661920 -4.071082 1051.603737 -285.574111 12.030966 0.000000 0.007918
239.000000 49.294000 -3.000000 6.000000 7.000000 66.267292 -28.689993 1564.009599 1480.417415 20.303415 0.000000 0.119660
240.000000 58.212000 -2.000000 6.000000 7.000000 78.744439 -27.801529 1542.502297 1183.148376 17.189581 0.000000 0.115720
241.000000 66.068000 -1.000000 6.000000 7.000000 91.491302 -26.711007 1516.578726 909.632357 15.141986 0.000000 0.114142
242.000000 72.243000 0.000000 6.000000 7.000000 104.184785 -25.341802 1484.723006 639.994136 13.844438 0.000000 0.095497
243.000000 76.364000 1.000000 6.000000 7.000000 116.501590 -23.573820 1444.635865 355.477745 13.094520 0.000000 0.058760
244.000000 78.372000 2.000000 6.000000 7.000000 128.157962 -21.208627 1392.653480 33.877902 12.756641 0.000000 0.027232
245.000000 78.484000 3.000000 6.000000 7.000000 138.930431 -17.896398 1322.558858 -356.903629 12.736558 0.000000 0.055716
247.000000 47.392000 -3.000000 7.000000 7.000000 68.586346 -33.782834 1695.049330 1448.839086 21.117246 0.000000 0.139516
248.000000 55.055000 -2.000000 7.000000 7.000000 80.292467 -33.440069 1685.765764 1161.644972 18.174256 0.000000 0.114245
249.000000 61.820000 -1.000000 7.000000 7.000000 92.228786 -33.023485 1674.581049 891.040269 16.181968 0.000000 0.090103
250.000000 70.978000 1.000000 7.000000 7.000000 115.769737 -31.847652 1643.570614 329.313269 14.087969 0.000000 0.002232
251.000000 73.016000 2.000000 7.000000 7.000000 126.898807 -30.979966 1621.190753 -1.522981 13.692344 0.000000 0.064985
254.000000 51.704000 -2.000000 8.000000 7.000000 81.182889 -38.408906 1828.332759 1154.053813 19.351336 0.000000 0.125779
255.000000 57.529000 -1.000000 8.000000 7.000000 92.301366 -38.520003 1831.736806 885.715428 17.388426 0.000000 0.089221
256.000000 62.259000 0.000000 8.000000 7.000000 103.401709 -38.655904 1835.915161 612.610121 16.064296 0.000000 0.057404
257.000000 65.670000 1.000000 8.000000 7.000000 114.279742 -38.825957 1841.165921 317.798718 15.227018 0.000000 0.074861
258.000000 67.694000 2.000000 8.000000 7.000000 124.754727 -39.044880 1847.962728 -20.540964 14.769303 0.000000 0.143142
260.000000 48.383000 -2.000000 9.000000 7.000000 81.606739 -42.758385 1970.208348 1157.288426 20.679125 0.000000 0.157832
261.000000 53.412000 -1.000000 9.000000 7.000000 91.939168 -43.266270 1988.052785 890.955871 18.728458 0.000000 0.127935
262.000000 57.559000 0.000000 9.000000 7.000000 102.251773 -43.877965 2009.944162 616.755391 17.375913 0.000000 0.122517
263.000000 60.651000 1.000000 9.000000 7.000000 112.377176 -44.628727 2037.435267 318.362333 16.487201 0.000000 0.161501
266.000000 49.577000 -1.000000 10.000000 7.000000 91.307911 -47.352994 2143.535697 904.728474 20.177297 0.000000 0.192735
267.000000 53.224000 0.000000 10.000000 7.000000 100.882373 -48.298460 2182.940839 629.961908 18.791282 0.000000 0.206628
268.000000 56.024000 1.000000 10.000000 7.000000 110.293016 -49.437348 2232.391954 328.979454 17.849239 0.000000 0.260059
270.000000 46.064000 -1.000000 11.000000 7.000000 90.521522 -50.874840 2298.192185 925.474269 21.715943 0.000000 0.272121
278.000000 50.468000 1.000000 -2.000000 8.000000 60.658222 45.294864 -112.429650 1801.065807 19.830927 0.000000 0.332939
280.000000 53.351000 0.000000 -1.000000 8.000000 61.067696 34.159481 244.663306 1659.977968 18.760705 0.000000 0.191534
281.000000 59.353000 1.000000 -1.000000 8.000000 71.061492 40.116773 68.137432 1423.921932 16.860136 0.000000 0.198179
282.000000 62.890000 2.000000 -1.000000 8.000000 79.797180 46.362836 -153.753370 1221.703744 15.909200 0.000000 0.237883
285.000000 53.109000 -1.000000 0.000000 8.000000 59.410142 22.283214 533.947865 1628.611805 18.847705 0.000000 0.118060
286.000000 66.993000 1.000000 0.000000 8.000000 81.246279 34.051242 247.628999 1141.026146 14.935365 0.000000 0.126384
287.000000 70.615000 3.000000 0.000000 8.000000 97.720644 47.677449 -206.897130 724.284078 14.164342 0.000000 0.214822
288.000000 49.410000 -2.000000 1.000000 8.000000 55.647852 10.626411 773.063462 1689.470428 20.260566 0.000000 0.066282
289.000000 59.466000 -1.000000 1.000000 8.000000 68.020376 15.389812 678.745056 1391.561912 16.830960 0.000000 0.100466
290.000000 67.412000 0.000000 1.000000 8.000000 79.875250 20.842218 565.246398 1146.654164 14.843599 0.000000 0.130494
291.000000 72.655000 1.000000 1.000000 8.000000 90.694767 27.023072 426.054633 926.348658 13.769385 0.000000 0.116758
292.000000 75.149000 2.000000 1.000000 8.000000 100.075204 33.915708 251.331875 710.555313 13.309823 0.000000 0.068005
293.000000 75.284000 3.000000 1.000000 8.000000 107.780521 41.419048 25.482842 480.724289 13.283735 0.000000 0.108923
295.000000 63.621000 -1.000000 2.000000 8.000000 75.556102 8.046661 822.842770 1220.981143 15.729997 0.000000 0.125562
296.000000 75.944000 1.000000 2.000000 8.000000 98.905026 19.046549 603.423799 762.592961 13.171311 0.000000 0.132848
297.000000 77.948000 3.000000 2.000000 8.000000 116.806989 33.741069 256.085804 286.997120 12.827980 0.000000 0.038056
298.000000 46.336000 -3.000000 3.000000 8.000000 56.484146 -6.354496 1094.860287 1658.218488 21.604724 0.000000 0.023151
299.000000 56.531000 -2.000000 3.000000 8.000000 69.064303 -3.241851 1035.962854 1353.425344 17.705132 0.000000 0.091153
300.000000 65.501000 -1.000000 3.000000 8.000000 81.736496 0.465999 966.246063 1097.319420 15.276868 0.000000 0.147123
301.000000 72.434000 0.000000 3.000000 8.000000 94.034805 4.915953 882.427148 864.800831 13.811087 0.000000 0.163894
302.000000 76.881000 1.000000 3.000000 8.000000 105.491639 10.282392 779.745855 637.817182 13.009332 0.000000 0.144373
303.000000 78.831000 2.000000 3.000000 8.000000 115.696270 16.752165 651.027826 400.147300 12.684983 0.000000 0.090373
304.000000 78.630000 3.000000 3.000000 8.000000 124.330873 24.481148 484.932062 133.341301 12.715362 0.000000 0.019985
305.000000 76.803000 4.000000 3.000000 8.000000 131.186756 33.507553 262.412313 -188.491837 13.016505 0.000000 0.139892
307.000000 47.901000 -3.000000 4.000000 8.000000 61.578237 -12.581230 1215.210097 1537.809073 20.896901 0.000000 0.057281
308.000000 65.400000 -1.000000 4.000000 8.000000 86.466287 -7.094779 1108.959944 1007.977494 15.298868 0.000000 0.155062
309.000000 75.824000 1.000000 4.000000 8.000000 110.266604 1.062965 955.030044 543.511290 13.189498 0.000000 0.142922
310.000000 77.596000 3.000000 4.000000 8.000000 129.968658 13.729448 712.041612 12.350659 12.883858 0.000000 0.034578
312.000000 48.120000 -3.000000 5.000000 8.000000 65.656466 -18.497553 1335.071924 1454.478050 20.800287 0.000000 0.086989
313.000000 56.495000 -2.000000 5.000000 8.000000 77.664784 -16.633946 1296.551726 1186.642539 17.712954 0.000000 0.124842
314.000000 63.807000 -1.000000 5.000000 8.000000 89.821051 -14.382218 1250.989371 944.470305 15.679671 0.000000 0.149575
315.000000 69.511000 0.000000 5.000000 8.000000 101.798610 -11.616751 1196.259433 711.476192 14.389556 0.000000 0.150162
316.000000 73.299000 1.000000 5.000000 8.000000 113.268382 -8.157707 1129.285504 473.447336 13.643037 0.000000 0.127425
317.000000 75.141000 2.000000 5.000000 8.000000 123.929352 -3.744554 1045.441322 215.410614 13.306131 0.000000 0.085187
318.000000 75.246000 3.000000 5.000000 8.000000 133.519814 1.998981 937.434149 -81.695120 13.285544 0.000000 0.032481
319.000000 73.964000 4.000000 5.000000 8.000000 141.804070 9.594733 793.060218 -446.332866 13.514313 0.000000 0.045490
321.000000 47.339000 -3.000000 6.000000 8.000000 68.815585 -24.011179 1454.448729 1397.645607 21.141593 0.000000 0.105150
322.000000 61.232000 -1.000000 6.000000 8.000000 91.990763 -21.194087 1392.339257 900.874672 16.338059 0.000000 0.133028
323.000000 69.839000 1.000000 6.000000 8.000000 114.724535 -16.925245 1302.521264 422.962886 14.318452 0.000000 0.098573
324.000000 72.007000 3.000000 6.000000 8.000000 135.052773 -9.811412 1161.129072 -153.283796 13.882803 0.000000 0.022454
326.000000 45.891000 -3.000000 7.000000 8.000000 71.192766 -29.070962 1573.343450 1360.387077 21.807381 0.000000 0.116967
327.000000 52.404000 -2.000000 7.000000 8.000000 82.130548 -28.313850 1554.860405 1109.979576 19.093418 0.000000 0.115081
328.000000 58.108000 -1.000000 7.000000 8.000000 93.213600 -27.404888 1533.014468 872.930501 17.215607 0.000000 0.109278
329.000000 62.671000 0.000000 7.000000 8.000000 104.228805 -26.293934 1506.796000 636.582838 15.958973 0.000000 0.090125
330.000000 65.890000 1.000000 7.000000 8.000000 114.966442 -24.906441 1474.746250 388.498507 15.176415 0.000000 0.057472
331.000000 67.719000 2.000000 7.000000 8.000000 125.239977 -23.126928 1434.676395 114.187585 14.763882 0.000000 0.026018
332.000000 68.256000 3.000000 7.000000 8.000000 134.897830 -20.767411 1383.145489 -205.985098 14.645698 0.000000 0.049416
334.000000 54.755000 -1.000000 8.000000 8.000000 93.724366 -32.965020 1673.019822 857.495572 18.269210 0.000000 0.086363
335.000000 61.778000 1.000000 8.000000 8.000000 114.339247 -31.939698 1645.969280 367.290068 16.186375 0.000000 0.008231
336.000000 64.287000 3.000000 8.000000 8.000000 133.522194 -30.282799 1603.502220 -242.673615 15.550102 0.000000 0.107290
337.000000 46.984000 -2.000000 9.000000 8.000000 83.895412 -37.835190 1810.918687 1086.749541 21.294422 0.000000 0.114474
338.000000 51.387000 -1.000000 9.000000 8.000000 93.725696 -37.883020 1812.360092 852.201611 19.466373 0.000000 0.082391
339.000000 55.009000 0.000000 9.000000 8.000000 103.521284 -37.940293 1814.088491 612.821894 18.181310 0.000000 0.052146
340.000000 57.721000 1.000000 9.000000 8.000000 113.141940 -38.010108 1816.199075 357.158597 17.324238 0.000000 0.059114
341.000000 59.476000 2.000000 9.000000 8.000000 122.461957 -38.097094 1818.834366 70.987138 16.810493 0.000000 0.113118
344.000000 48.133000 -1.000000 10.000000 8.000000 93.378344 -42.203387 1951.040006 855.229975 20.782134 0.000000 0.111982
345.000000 53.847000 1.000000 10.000000 8.000000 111.604543 -43.192549 1985.444251 356.363424 18.570747 0.000000 0.131700
347.000000 47.954000 0.000000 11.000000 8.000000 101.412407 -46.726321 2118.187477 624.053784 20.856586 0.000000 0.173613
348.000000 50.225000 1.000000 11.000000 8.000000 109.890329 -47.600501 2153.713325 363.497437 19.910325 0.000000 0.213484
352.000000 46.159000 1.000000 -2.000000 9.000000 61.941265 43.568929 -48.828784 1732.795231 21.682105 0.000000 0.294719
353.000000 49.576000 2.000000 -2.000000 9.000000 69.715278 48.792152 -254.101337 1544.842803 20.184638 0.000000 0.338535
356.000000 48.275000 0.000000 -1.000000 9.000000 62.173088 33.501950 262.563667 1622.297859 20.732844 0.000000 0.180907
357.000000 53.102000 1.000000 -1.000000 9.000000 71.155704 38.806006 109.451412 1412.374707 18.844917 0.000000 0.185470
358.000000 56.167000 2.000000 -1.000000 9.000000 79.151915 44.363786 -77.653414 1229.496510 17.813693 0.000000 0.210000
359.000000 57.600000 3.000000 -1.000000 9.000000 86.024043 50.083586 -311.484381 1057.583396 17.368182 0.000000 0.289761
362.000000 53.217000 -1.000000 1.000000 9.000000 68.458205 16.755674 650.955936 1384.709445 18.807029 0.000000 0.104046
363.000000 59.422000 0.000000 1.000000 9.000000 78.922330 21.661593 547.525988 1167.737090 16.839771 0.000000 0.128590
364.000000 63.725000 1.000000 1.000000 9.000000 88.565322 27.129390 423.535550 971.288232 15.699473 0.000000 0.119235
365.000000 66.079000 2.000000 1.000000 9.000000 97.099111 33.144632 272.177293 780.909609 15.137582 0.000000 0.080860
366.000000 66.692000 3.000000 1.000000 9.000000 104.340405 39.642512 83.265997 583.677769 14.996079 0.000000 0.082129
367.000000 65.921000 4.000000 1.000000 9.000000 110.218936 46.499391 -159.153371 365.135929 15.169702 0.000000 0.211968
369.000000 49.293000 -2.000000 2.000000 9.000000 64.215874 6.203243 858.015378 1463.995372 20.306306 0.000000 0.067076
370.000000 56.768000 -1.000000 2.000000 9.000000 75.370221 10.243664 780.497209 1226.501876 17.628931 0.000000 0.124729
371.000000 62.671000 0.000000 2.000000 9.000000 86.097814 14.881329 688.995769 1016.963467 15.965033 0.000000 0.146532
372.000000 66.679000 1.000000 2.000000 9.000000 96.038539 20.183515 579.352372 819.695908 15.002122 0.000000 0.133165
373.000000 68.766000 2.000000 2.000000 9.000000 104.891301 26.192276 445.577775 622.044138 14.544202 0.000000 0.085358
374.000000 69.146000 3.000000 2.000000 9.000000 112.443960 32.899759 278.720431 411.496506 14.462117 0.000000 0.020397
375.000000 68.171000 4.000000 2.000000 9.000000 118.586094 40.221242 64.776615 172.915756 14.667294 0.000000 0.135944
377.000000 51.635000 -2.000000 3.000000 9.000000 69.983673 -0.106725 977.004814 1333.087128 19.383290 0.000000 0.097203
378.000000 58.686000 -1.000000 3.000000 9.000000 81.229722 3.483751 909.477396 1107.354917 17.050880 0.000000 0.145504
379.000000 67.943000 1.000000 3.000000 9.000000 102.285946 12.602986 734.360837 700.819374 14.721601 0.000000 0.145785
380.000000 69.846000 2.000000 3.000000 9.000000 111.457717 18.351317 617.979970 495.286397 14.317779 0.000000 0.101056
381.000000 69.106000 4.000000 3.000000 9.000000 125.937993 32.585873 287.054947 15.045811 14.467287 0.000000 0.086943
383.000000 52.583000 -2.000000 4.000000 9.000000 74.742207 -6.389137 1095.519121 1236.423641 19.032248 0.000000 0.119978
384.000000 59.111000 -1.000000 4.000000 9.000000 85.931004 -3.344641 1037.900136 1017.694987 16.926844 0.000000 0.156311
385.000000 64.229000 0.000000 4.000000 9.000000 96.831090 0.269556 969.936389 812.065888 15.574704 0.000000 0.165462
386.000000 67.693000 1.000000 4.000000 9.000000 107.138204 4.591336 888.567220 608.034423 14.774540 0.000000 0.149068
387.000000 69.485000 2.000000 4.000000 9.000000 116.576055 9.784451 789.392475 394.647238 14.390918 0.000000 0.108871
388.000000 69.774000 3.000000 4.000000 9.000000 124.911714 16.025963 665.849694 159.466556 14.329359 0.000000 0.048933
389.000000 68.841000 4.000000 4.000000 9.000000 131.960374 23.469285 507.699833 -114.031563 14.521950 0.000000 0.058075
391.000000 45.507000 -3.000000 5.000000 9.000000 67.553390 -14.562711 1254.605793 1400.400297 21.993862 0.000000 0.087419
392.000000 52.365000 -2.000000 5.000000 9.000000 78.495514 -12.497587 1213.561139 1165.378939 19.110080 0.000000 0.130877
393.000000 58.321000 -1.000000 5.000000 9.000000 89.485129 -10.051069 1165.769035 950.822813 17.154619 0.000000 0.156109
394.000000 63.014000 0.000000 5.000000 9.000000 100.262159 -7.118718 1109.416621 744.624650 15.873727 0.000000 0.159239
395.000000 66.237000 1.000000 5.000000 9.000000 110.566991 -3.560921 1041.977730 536.373901 15.098412 0.000000 0.141357
396.000000 67.966000 2.000000 5.000000 9.000000 120.160181 0.807842 959.823788 315.520565 14.711778 0.000000 0.104737
397.000000 68.334000 3.000000 5.000000 9.000000 128.831449 6.227790 857.548807 69.521012 14.630390 0.000000 0.054184
398.000000 67.575000 4.000000 5.000000 9.000000 136.396573 12.989319 726.729211 -218.760958 14.793096 0.000000 0.037063
400.000000 51.267000 -2.000000 6.000000 9.000000 81.324411 -18.308799 1331.133685 1113.983817 19.517746 0.000000 0.131391
401.000000 56.647000 -1.000000 6.000000 9.000000 91.994785 -16.464501 1293.087668 901.910204 17.660540 0.000000 0.146014
402.000000 63.918000 1.000000 6.000000 9.000000 112.676044 -11.531893 1194.598513 482.040266 15.645401 0.000000 0.122836
403.000000 65.608000 2.000000 6.000000 9.000000 122.274916 -8.157541 1129.282309 254.306138 15.239827 0.000000 0.088467
404.000000 65.549000 4.000000 6.000000 9.000000 139.116438 1.641256 944.160760 -302.738868 15.249810 0.000000 0.011993
406.000000 49.571000 -2.000000 7.000000 9.000000 83.354875 -23.734778 1448.239555 1077.976256 20.184522 0.000000 0.124235
407.000000 54.397000 -1.000000 7.000000 9.000000 93.616638 -22.456542 1419.859579 867.389599 18.390163 0.000000 0.127928
408.000000 58.273000 0.000000 7.000000 9.000000 103.777644 -20.919662 1386.420081 658.457368 17.163572 0.000000 0.117800
409.000000 61.056000 1.000000 7.000000 9.000000 113.662686 -19.039863 1346.435651 442.080648 16.378319 0.000000 0.094206
410.000000 62.714000 2.000000 7.000000 9.000000 123.112559 -16.693777 1297.776344 208.149432 15.942917 0.000000 0.060979
411.000000 63.315000 3.000000 7.000000 9.000000 131.990832 -13.695140 1237.275543 -56.137334 15.789530 0.000000 0.029458
412.000000 62.999000 4.000000 7.000000 9.000000 140.181748 -9.753657 1160.011901 -368.906416 15.866796 0.000000 0.024860
414.000000 47.511000 -2.000000 8.000000 9.000000 84.728937 -28.725699 1564.881521 1054.231945 21.058554 0.000000 0.113258
415.000000 51.825000 -1.000000 8.000000 9.000000 94.525244 -27.950693 1546.088282 844.567965 19.302384 0.000000 0.104886
416.000000 55.330000 0.000000 8.000000 9.000000 104.252132 -27.023371 1523.952440 634.107288 18.076061 0.000000 0.085891
417.000000 57.910000 1.000000 8.000000 9.000000 113.766045 -25.894604 1497.495165 414.164536 17.267809 0.000000 0.056407
418.000000 59.531000 2.000000 8.000000 9.000000 122.937837 -24.492001 1465.314102 174.758262 16.795224 0.000000 0.025855
419.000000 60.237000 3.000000 8.000000 9.000000 131.659699 -22.704661 1425.326532 -97.026138 16.596226 0.000000 0.041392
422.000000 49.118000 -1.000000 9.000000 9.000000 94.886983 -32.918432 1671.777261 831.374411 20.365589 0.000000 0.083302
423.000000 54.673000 1.000000 9.000000 9.000000 113.221429 -32.009176 1647.783012 396.428159 18.290382 0.000000 0.013755
424.000000 56.247000 2.000000 9.000000 9.000000 122.026647 -31.397319 1631.903703 152.270975 17.775767 0.000000 0.034947
427.000000 46.407000 -1.000000 10.000000 9.000000 94.845810 -37.367763 1796.929970 826.190437 21.555061 0.000000 0.077452
428.000000 49.268000 0.000000 10.000000 9.000000 103.609612 -37.373511 1797.100928 613.108145 20.300095 0.000000 0.048857
429.000000 51.474000 1.000000 10.000000 9.000000 112.232149 -37.380374 1797.305090 387.363341 19.427026 0.000000 0.048020
430.000000 52.994000 2.000000 10.000000 9.000000 120.622501 -37.388712 1797.553173 139.160057 18.867322 0.000000 0.091141
431.000000 53.842000 3.000000 10.000000 9.000000 128.704331 -37.399057 1797.861054 -144.575520 18.567923 0.000000 0.150364
433.000000 46.361000 0.000000 11.000000 9.000000 102.799628 -41.663855 1932.725935 613.688306 21.573015 0.000000 0.090070
434.000000 48.398000 1.000000 11.000000 9.000000 110.958947 -42.057791 1946.067239 385.736669 20.662185 0.000000 0.110002
435.000000 49.855000 2.000000 11.000000 9.000000 118.917746 -42.529746 1962.270446 134.160522 20.055615 0.000000 0.158574
438.000000 45.490000 1.000000 12.000000 9.000000 109.521184 -46.116376 2094.075235 390.529751 21.983010 0.000000 0.179597
439.000000 46.880000 2.000000 12.000000 9.000000 117.053079 -46.922612 2126.063371 136.215962 21.328723 0.000000 0.234913
441.000000 48.018000 1.000000 -1.000000 10.000000 71.211054 37.746542 141.747828 1404.078886 20.840301 0.000000 0.176436
442.000000 50.683000 2.000000 -1.000000 10.000000 78.574810 42.746282 -19.786666 1237.189225 19.741541 0.000000 0.191937
443.000000 52.117000 3.000000 -1.000000 10.000000 85.032817 47.903519 -216.305551 1080.536151 19.195871 0.000000 0.245072
446.000000 52.864000 1.000000 0.000000 10.000000 79.265569 32.777199 281.981723 1183.676275 18.927775 0.000000 0.128523
447.000000 55.269000 2.000000 0.000000 10.000000 86.844341 37.986104 134.527048 1016.287616 18.101286 0.000000 0.120917
448.000000 56.383000 3.000000 0.000000 10.000000 93.445377 43.455349 -44.772211 851.734034 17.741036 0.000000 0.146539
449.000000 56.409000 4.000000 0.000000 10.000000 99.016770 49.099373 -267.480632 680.150129 17.730816 0.000000 0.247695
450.000000 48.127000 -1.000000 1.000000 10.000000 68.787118 17.855208 628.295381 1379.884602 20.796185 0.000000 0.106740
451.000000 53.103000 0.000000 1.000000 10.000000 78.149640 22.310820 533.342093 1185.111754 18.843861 0.000000 0.127251
452.000000 56.693000 1.000000 1.000000 10.000000 86.845601 27.212469 421.563749 1007.697189 17.647527 0.000000 0.120878
453.000000 58.853000 2.000000 1.000000 10.000000 94.662419 32.548110 288.053716 836.868254 16.996890 0.000000 0.090525
454.000000 59.701000 3.000000 1.000000 10.000000 101.456076 38.273826 125.792054 663.166996 16.753036 0.000000 0.073639
455.000000 59.455000 4.000000 1.000000 10.000000 107.157540 44.308668 -75.629532 476.633161 16.820510 0.000000 0.156931
457.000000 51.178000 -1.000000 2.000000 10.000000 75.160648 12.014023 745.951247 1232.546014 19.554333 0.000000 0.123850
458.000000 59.317000 1.000000 2.000000 10.000000 93.690831 21.062652 560.498442 866.601404 16.864769 0.000000 0.132876
459.000000 61.930000 3.000000 2.000000 10.000000 108.805347 32.269546 295.395432 507.537298 16.148232 0.000000 0.034601
460.000000 60.268000 5.000000 2.000000 10.000000 119.491915 45.354717 -114.704091 74.735555 16.590170 0.000000 0.238531
461.000000 47.363000 -2.000000 3.000000 10.000000 70.617361 2.493567 928.129043 1320.015410 21.131565 0.000000 0.101579
462.000000 53.027000 -1.000000 3.000000 10.000000 80.699172 5.933258 863.144347 1118.215256 18.870858 0.000000 0.143388
463.000000 57.532000 0.000000 3.000000 10.000000 90.439110 9.875699 787.626941 932.627143 17.389585 0.000000 0.157530
464.000000 60.694000 1.000000 3.000000 10.000000 99.583866 14.393223 698.790294 753.381311 16.480483 0.000000 0.145686
465.000000 62.492000 2.000000 3.000000 10.000000 107.911226 19.551748 592.769872 571.848094 16.003792 0.000000 0.108503
466.000000 63.042000 3.000000 3.000000 10.000000 115.245917 25.395303 464.046022 379.193285 15.861841 0.000000 0.045333
467.000000 62.552000 4.000000 3.000000 10.000000 121.468093 31.923559 304.451649 164.886374 15.984317 0.000000 0.047181
468.000000 61.262000 5.000000 3.000000 10.000000 126.517132 39.066343 101.368677 -85.399824 16.319309 0.000000 0.176079
470.000000 53.734000 -1.000000 4.000000 10.000000 85.301948 -0.259644 979.877407 1029.451574 18.620755 0.000000 0.155784
471.000000 60.912000 1.000000 4.000000 10.000000 104.380192 7.335600 836.443757 662.773986 16.420293 0.000000 0.151831
472.000000 63.112000 3.000000 4.000000 10.000000 120.570129 17.688348 631.751830 273.690275 15.842902 0.000000 0.063345
473.000000 61.402000 5.000000 4.000000 10.000000 132.609732 31.482337 315.902338 -219.927994 16.281081 0.000000 0.129304
474.000000 48.547000 -2.000000 5.000000 10.000000 78.968259 -8.960661 1144.710829 1153.421767 20.612781 0.000000 0.134966
475.000000 53.463000 -1.000000 5.000000 10.000000 88.948377 -6.422468 1096.153129 960.881609 18.713743 0.000000 0.159244
476.000000 60.150000 1.000000 5.000000 10.000000 108.026010 0.081808 973.463241 590.750180 16.627250 0.000000 0.149294
477.000000 61.759000 2.000000 5.000000 10.000000 116.727411 4.282208 894.409125 397.517862 16.191357 0.000000 0.117561
478.000000 62.291000 3.000000 5.000000 10.000000 124.639648 9.311886 798.520772 187.484880 16.050778 0.000000 0.070968
479.000000 61.904000 4.000000 5.000000 10.000000 131.619003 15.338572 679.780267 -50.536294 16.149364 0.000000 0.030492
481.000000 52.425000 -1.000000 6.000000 10.000000 91.687695 -12.417038 1211.974197 908.528116 19.082989 0.000000 0.154151
482.000000 58.631000 1.000000 6.000000 10.000000 110.558868 -7.141596 1109.853114 534.172979 17.057007 0.000000 0.137889
483.000000 60.767000 3.000000 6.000000 10.000000 127.411854 0.566359 964.360676 117.717757 16.452668 0.000000 0.067064
484.000000 59.558000 5.000000 6.000000 10.000000 141.131127 12.295540 740.417654 -425.699029 16.783310 0.000000 0.054989
485.000000 46.732000 -2.000000 7.000000 10.000000 84.122808 -19.669327 1359.719217 1058.656341 21.410805 0.000000 0.133415
486.000000 50.838000 -1.000000 7.000000 10.000000 93.618387 -18.126741 1327.343270 869.384291 19.677959 0.000000 0.141569
487.000000 54.155000 0.000000 7.000000 10.000000 102.990145 -16.301648 1289.764083 682.312927 18.469246 0.000000 0.136254
488.000000 56.581000 1.000000 7.000000 10.000000 112.090933 -14.113583 1245.617709 490.563856 17.674521 0.000000 0.118019
489.000000 58.091000 2.000000 7.000000 10.000000 120.784800 -11.451086 1193.017843 286.763923 17.212481 0.000000 0.088929
490.000000 58.734000 3.000000 7.000000 10.000000 128.951247 -8.157383 1129.279285 62.056294 17.021806 0.000000 0.052872
491.000000 58.612000 4.000000 7.000000 10.000000 136.483592 -4.009699 1050.444907 -195.308662 17.055371 0.000000 0.016539
494.000000 48.893000 -1.000000 8.000000 10.000000 94.864794 -23.467620 1442.262991 841.134884 20.459738 0.000000 0.123026
495.000000 54.196000 1.000000 8.000000 10.000000 112.780739 -20.656367 1380.761313 457.938649 18.451729 0.000000 0.090289
496.000000 56.368000 3.000000 8.000000 10.000000 129.415120 -16.474125 1293.284255 18.578809 17.736131 0.000000 0.033123
498.000000 46.748000 -1.000000 9.000000 10.000000 95.556931 -28.391177 1556.735980 821.968267 21.397868 0.000000 0.101001
499.000000 49.525000 0.000000 9.000000 10.000000 104.264195 -27.599889 1537.670389 632.236281 20.194899 0.000000 0.082479
500.000000 51.637000 1.000000 9.000000 10.000000 112.802901 -26.656160 1515.288178 434.690252 19.365897 0.000000 0.055555
501.000000 53.060000 2.000000 9.000000 10.000000 121.079962 -25.511944 1488.641470 222.161030 18.843976 0.000000 0.026403
502.000000 53.815000 3.000000 9.000000 10.000000 129.015931 -24.097048 1456.383156 -14.311996 18.577300 0.000000 0.033941
503.000000 53.961000 4.000000 9.000000 10.000000 136.546545 -22.305081 1416.531968 -286.900716 18.525081 0.000000 0.067394
506.000000 49.023000 1.000000 10.000000 10.000000 112.324032 -32.063479 1649.202517 419.503192 20.398410 0.000000 0.018127
507.000000 51.191000 3.000000 10.000000 10.000000 127.977110 -30.877836 1618.583476 -37.954595 19.529936 0.000000 0.071831
508.000000 46.439000 1.000000 11.000000 10.000000 111.488463 -36.879702 1782.508503 411.290423 21.533880 0.000000 0.040160
509.000000 47.759000 2.000000 11.000000 10.000000 119.115426 -36.839353 1781.324545 192.002708 20.935803 0.000000 0.074468
510.000000 48.577000 3.000000 11.000000 10.000000 126.499772 -36.790497 1779.892622 -53.478911 20.581047 0.000000 0.125193
513.000000 46.031000 3.000000 12.000000 10.000000 124.746780 -41.888623 1940.317918 -61.845315 21.719590 0.000000 0.188492
515.000000 46.137000 2.000000 -1.000000 11.000000 78.061441 41.412585 25.698726 1244.437019 21.687165 0.000000 0.179727
516.000000 47.518000 3.000000 -1.000000 11.000000 84.137404 46.100078 -143.438268 1100.379820 21.054247 0.000000 0.215480
517.000000 48.059000 4.000000 -1.000000 11.000000 89.426330 50.877777 -348.330774 958.079366 20.814865 0.000000 0.300940
519.000000 47.985000 0.000000 1.000000 11.000000 77.510828 22.837786 521.732082 1199.673381 20.853879 0.000000 0.126304
520.000000 51.022000 1.000000 1.000000 11.000000 85.428335 27.279177 419.978357 1037.829944 19.609454 0.000000 0.122014
521.000000 52.982000 2.000000 1.000000 11.000000 92.633025 32.072992 300.548648 882.588954 18.881184 0.000000 0.097750
522.000000 53.932000 3.000000 1.000000 11.000000 99.010250 37.188148 158.399025 726.772181 18.546061 0.000000 0.074942
523.000000 54.009000 4.000000 1.000000 11.000000 104.496837 42.569177 -13.635254 563.131786 18.517289 0.000000 0.122321
524.000000 53.386000 5.000000 1.000000 11.000000 109.079366 48.136437 -226.085337 383.179932 18.731868 0.000000 0.245768
526.000000 46.548000 -1.000000 2.000000 11.000000 74.948365 13.468432 717.231701 1238.616967 21.499368 0.000000 0.123041
527.000000 50.473000 0.000000 2.000000 11.000000 83.612180 17.403882 637.629738 1067.274926 19.824121 0.000000 0.139733
528.000000 53.348000 1.000000 2.000000 11.000000 91.735685 21.762426 545.331533 905.882544 18.752482 0.000000 0.132310
529.000000 55.148000 2.000000 2.000000 11.000000 99.150898 26.557237 437.036345 747.173849 18.137671 0.000000 0.101368
530.000000 55.945000 3.000000 2.000000 11.000000 105.731459 31.779945 308.190717 584.361253 17.876929 0.000000 0.050916
531.000000 55.878000 4.000000 2.000000 11.000000 111.398627 37.392575 152.331874 410.139196 17.896168 0.000000 0.061234
532.000000 55.120000 5.000000 2.000000 11.000000 116.122007 43.322035 -40.030211 215.532848 18.140621 0.000000 0.175471
534.000000 48.281000 -1.000000 3.000000 11.000000 80.179865 7.954322 824.611613 1129.107692 20.725812 0.000000 0.141148
535.000000 52.019000 0.000000 3.000000 11.000000 88.985907 11.650530 753.079141 960.452368 19.233249 0.000000 0.154111
536.000000 54.732000 1.000000 3.000000 11.000000 97.285591 15.813707 670.161302 797.985948 18.276678 0.000000 0.144814
537.000000 56.400000 2.000000 3.000000 11.000000 104.909477 20.485295 572.904868 635.084095 17.733217 0.000000 0.113725
538.000000 57.096000 3.000000 3.000000 11.000000 111.722139 25.690316 457.238567 465.173361 17.514880 0.000000 0.060367
539.000000 56.952000 4.000000 3.000000 11.000000 117.628200 31.424756 317.388678 280.820875 17.557009 0.000000 0.017859
540.000000 56.135000 5.000000 3.000000 11.000000 122.574890 37.641966 144.885269 72.576714 17.811027 0.000000 0.124138
542.000000 49.130000 -1.000000 4.000000 11.000000 84.645775 2.308830 931.605425 1041.954222 20.365929 0.000000 0.154299
543.000000 52.659000 0.000000 4.000000 11.000000 93.528317 5.673047 868.082887 874.310442 18.997984 0.000000 0.163235
544.000000 55.215000 1.000000 4.000000 11.000000 101.957013 9.521705 794.470936 709.886401 18.115351 0.000000 0.152656
545.000000 56.781000 2.000000 4.000000 11.000000 109.767782 13.924360 708.158422 542.483017 17.612787 0.000000 0.123270
546.000000 57.424000 3.000000 4.000000 11.000000 116.822060 18.945445 605.548103 365.635867 17.413428 0.000000 0.075483
547.000000 57.265000 4.000000 4.000000 11.000000 123.011360 24.630420 481.542626 171.752933 17.459825 0.000000 0.018406
548.000000 56.457000 5.000000 4.000000 11.000000 128.259743 30.985354 328.671543 -49.061667 17.708182 0.000000 0.088762
550.000000 49.191000 -1.000000 5.000000 11.000000 88.311318 -3.361356 1038.215214 972.785551 20.339521 0.000000 0.160248
551.000000 52.498000 0.000000 5.000000 11.000000 97.195277 -0.406892 982.643551 805.119127 19.054864 0.000000 0.165336
552.000000 54.904000 1.000000 5.000000 11.000000 105.689113 3.017526 918.263678 638.268236 18.216511 0.000000 0.153617
553.000000 56.394000 2.000000 5.000000 11.000000 113.640925 7.002439 842.801171 466.322152 17.732646 0.000000 0.126050
554.000000 57.022000 3.000000 5.000000 11.000000 120.917015 11.648199 753.124797 282.863145 17.535020 0.000000 0.083934
555.000000 56.896000 4.000000 5.000000 11.000000 127.404028 17.055615 644.801106 80.130387 17.571850 0.000000 0.034751
556.000000 56.152000 5.000000 5.000000 11.000000 133.009132 23.306086 511.338922 -152.180146 17.803130 0.000000 0.064373
559.000000 48.599000 -1.000000 6.000000 11.000000 91.193947 -8.946751 1144.443045 918.292330 20.585861 0.000000 0.158892
560.000000 51.681000 0.000000 6.000000 11.000000 100.001189 -6.454562 1096.763688 749.986482 19.354679 0.000000 0.160235
561.000000 53.946000 1.000000 6.000000 11.000000 108.484731 -3.537854 1041.542746 580.508875 18.539029 0.000000 0.147239
562.000000 55.376000 2.000000 6.000000 11.000000 116.509800 -0.097804 976.837245 404.148812 18.057598 0.000000 0.121062
563.000000 56.016000 3.000000 6.000000 11.000000 123.955065 3.987503 899.974067 214.499129 17.848989 0.000000 0.083525
564.000000 55.957000 4.000000 6.000000 11.000000 130.712700 8.862865 807.171426 3.633498 17.865977 0.000000 0.040351
565.000000 55.315000 5.000000 6.000000 11.000000 136.685529 14.687144 692.897594 -239.118714 18.071641 0.000000 0.044262
568.000000 47.507000 -1.000000 7.000000 11.000000 93.352448 -14.347327 1250.290967 875.923052 21.058124 0.000000 0.150821
569.000000 50.367000 0.000000 7.000000 11.000000 102.008996 -12.339416 1210.445835 706.635859 19.858686 0.000000 0.148320
570.000000 52.497000 1.000000 7.000000 11.000000 110.403608 -9.975816 1164.311331 534.506802 19.049944 0.000000 0.133699
571.000000 53.878000 2.000000 7.000000 11.000000 118.420604 -7.163483 1110.270734 353.967409 18.559003 0.000000 0.108290
572.000000 54.544000 3.000000 7.000000 11.000000 125.955499 -3.779536 1046.101279 158.601266 18.330042 0.000000 0.074318
573.000000 54.570000 4.000000 7.000000 11.000000 132.914308 0.337458 968.660814 -59.672691 18.319590 0.000000 0.036063
574.000000 54.053000 5.000000 7.000000 11.000000 139.209108 5.394862 873.357621 -311.849326 18.493288 0.000000 0.022193
577.000000 46.058000 -1.000000 8.000000 11.000000 94.872411 -19.482270 1355.761013 843.678925 21.719622 0.000000 0.136938
578.000000 48.705000 0.000000 8.000000 11.000000 103.314633 -17.951031 1323.692509 673.250585 20.535961 0.000000 0.130221
579.000000 50.706000 1.000000 8.000000 11.000000 111.547387 -16.145013 1286.572596 498.558340 19.722526 0.000000 0.113395
580.000000 52.042000 2.000000 8.000000 11.000000 119.473223 -13.987740 1243.105693 314.137788 19.213315 0.000000 0.088049
581.000000 52.739000 3.000000 8.000000 11.000000 127.005087 -11.374050 1191.511745 113.553696 18.957134 0.000000 0.057210
582.000000 52.855000 4.000000 8.000000 11.000000 134.066082 -8.157234 1129.276418 -111.414844 18.913667 0.000000 0.026433
583.000000 52.470000 5.000000 8.000000 11.000000 140.585679 -4.130675 1052.728946 -372.045380 19.050729 0.000000 0.005981
586.000000 46.821000 0.000000 9.000000 11.000000 104.030251 -23.209259 1436.506207 648.363438 21.361527 0.000000 0.106816
587.000000 48.699000 1.000000 9.000000 11.000000 112.040745 -21.930339 1408.329680 471.267827 20.534877 0.000000 0.086850
588.000000 49.992000 2.000000 9.000000 11.000000 119.801485 -20.403549 1375.346139 283.299535 20.001000 0.000000 0.060789
589.000000 50.717000 3.000000 9.000000 11.000000 127.240542 -18.552057 1336.210725 78.001432 19.712613 0.000000 0.035206
590.000000 50.920000 4.000000 9.000000 11.000000 134.296511 -16.265412 1289.025313 -152.970284 19.632097 0.000000 0.030089
591.000000 50.666000 5.000000 9.000000 11.000000 140.916529 -13.380449 1231.021391 -421.136035 19.729144 0.000000 0.042239
593.000000 46.580000 1.000000 10.000000 11.000000 112.013599 -27.260842 1529.585696 451.481074 21.468881 0.000000 0.054882
594.000000 47.828000 2.000000 10.000000 11.000000 119.551344 -26.302494 1506.996056 260.314842 20.905714 0.000000 0.027337
595.000000 48.576000 3.000000 10.000000 11.000000 126.822859 -25.144963 1480.203429 50.799827 20.581560 0.000000 0.027671
596.000000 48.857000 4.000000 10.000000 11.000000 133.778260 -23.720276 1447.914495 -185.512913 20.461141 0.000000 0.059065
599.000000 45.629000 2.000000 11.000000 11.000000 118.862846 -31.635466 1638.059391 244.224822 21.913680 0.000000 0.016600
600.000000 46.391000 3.000000 11.000000 11.000000 125.912666 -31.070046 1623.495014 30.975355 21.551282 0.000000 0.058774
601.000000 46.738000 4.000000 11.000000 11.000000 132.694945 -30.379909 1605.950884 -210.049343 21.389013 0.000000 0.102026
604.000000 46.937000 5.000000 0.000000 12.000000 99.845440 50.049903 -309.948739 650.108234 21.308521 0.000000 0.272417
605.000000 46.359000 1.000000 1.000000 12.000000 84.240525 27.333920 418.675924 1063.201238 21.582320 0.000000 0.122830
606.000000 48.129000 2.000000 1.000000 12.000000 90.918036 31.685688 310.638441 920.732273 20.785602 0.000000 0.103217
607.000000 49.108000 3.000000 1.000000 12.000000 96.914151 36.306514 184.194851 779.041987 20.368662 0.000000 0.079934
608.000000 49.385000 4.000000 1.000000 12.000000 102.172793 41.156940 34.203451 632.638795 20.252336 0.000000 0.101851
609.000000 49.075000 5.000000 1.000000 12.000000 106.673797 46.180609 -146.589196 475.411954 20.378033 0.000000 0.193113
611.000000 48.423000 1.000000 2.000000 12.000000 90.083881 22.332488 532.866441 939.296545 20.660285 0.000000 0.131640
612.000000 50.922000 3.000000 2.000000 12.000000 103.104407 31.388672 318.319203 647.498346 19.640948 0.000000 0.064088
613.000000 50.657000 5.000000 2.000000 12.000000 113.142245 41.704870 15.892663 324.836104 19.739767 0.000000 0.131018
615.000000 49.761000 1.000000 3.000000 12.000000 95.312518 16.966951 646.622547 836.363531 20.103208 0.000000 0.143570
616.000000 51.297000 2.000000 3.000000 12.000000 102.341274 21.231689 556.847979 688.369977 19.498520 0.000000 0.117413
617.000000 52.144000 4.000000 3.000000 12.000000 114.301687 31.035622 327.386069 373.799904 19.176916 0.000000 0.012004
618.000000 51.660000 5.000000 3.000000 12.000000 119.109798 36.537142 177.503891 195.112809 19.354870 0.000000 0.085368
620.000000 50.389000 1.000000 4.000000 12.000000 99.825523 11.299409 759.946718 750.913390 19.850999 0.000000 0.152361
621.000000 52.543000 3.000000 4.000000 12.000000 113.564944 19.928489 584.781521 441.661593 19.032151 0.000000 0.085246
622.000000 52.097000 5.000000 4.000000 12.000000 124.437592 30.609065 338.251469 83.529561 19.191086 0.000000 0.055850
624.000000 48.265000 0.000000 5.000000 12.000000 95.774093 2.130327 934.963623 832.090397 20.726279 0.000000 0.165345
625.000000 50.373000 1.000000 5.000000 12.000000 103.563096 5.422098 872.841408 680.183712 19.856070 0.000000 0.155702
626.000000 51.747000 2.000000 5.000000 12.000000 110.878954 9.180927 801.046032 525.128563 19.325974 0.000000 0.131678
627.000000 52.425000 3.000000 5.000000 12.000000 117.614091 13.473683 717.127402 362.055600 19.073722 0.000000 0.093947
628.000000 52.481000 4.000000 5.000000 12.000000 123.677810 18.363223 617.731688 185.322760 19.051372 0.000000 0.045091
629.000000 52.012000 5.000000 5.000000 12.000000 128.997211 23.895983 498.142299 -12.183839 19.221411 0.000000 0.040789
630.000000 51.124000 6.000000 5.000000 12.000000 133.518245 30.083444 351.509466 -240.117618 19.554067 0.000000 0.122556
632.000000 49.808000 1.000000 6.000000 12.000000 106.510455 -0.548779 985.309054 621.958841 20.080250 0.000000 0.152939
633.000000 51.469000 5.000000 6.000000 12.000000 132.682648 16.451238 657.183214 -93.941801 19.423065 0.000000 0.033598
635.000000 46.920000 0.000000 7.000000 12.000000 100.929823 -8.933311 1144.184333 730.605198 21.318323 0.000000 0.156067
636.000000 48.803000 1.000000 7.000000 12.000000 108.695589 -6.485486 1097.352075 574.441035 20.492562 0.000000 0.144068
637.000000 50.070000 2.000000 7.000000 12.000000 116.113499 -3.628762 1043.257150 412.354510 19.971492 0.000000 0.121743
638.000000 50.743000 3.000000 7.000000 12.000000 123.094037 -0.269796 980.068127 239.524413 19.703998 0.000000 0.090501
639.000000 50.878000 4.000000 7.000000 12.000000 129.556334 3.706249 905.281287 50.129497 19.649794 0.000000 0.053129
640.000000 50.547000 5.000000 7.000000 12.000000 135.426069 8.435721 815.380972 -163.369923 19.776699 0.000000 0.025924
641.000000 49.833000 6.000000 7.000000 12.000000 140.632109 14.069084 705.270869 -411.366729 20.058695 0.000000 0.061180
643.000000 47.470000 1.000000 8.000000 12.000000 110.181464 -12.264563 1208.972871 536.156414 21.067606 0.000000 0.129340
644.000000 49.377000 3.000000 8.000000 12.000000 124.566251 -7.184442 1110.670677 193.581385 20.248742 0.000000 0.078185
645.000000 49.326000 5.000000 8.000000 12.000000 137.213826 0.120189 972.742261 -221.857392 20.265772 0.000000 0.014480
647.000000 45.907000 1.000000 9.000000 12.000000 111.054645 -17.781347 1320.173824 505.885219 21.784357 0.000000 0.109115
648.000000 47.088000 2.000000 9.000000 12.000000 118.326272 -15.994248 1283.505486 337.475674 21.235189 0.000000 0.086549
649.000000 48.034000 4.000000 9.000000 12.000000 131.901091 -11.300524 1190.075062 -43.833724 20.812649 0.000000 0.032812
650.000000 47.884000 5.000000 9.000000 12.000000 138.095032 -8.157092 1129.273697 -270.598367 20.876060 0.000000 0.016461
652.000000 46.048000 3.000000 10.000000 12.000000 125.390473 -20.160604 1370.159163 126.481410 21.712063 0.000000 0.036488
653.000000 46.289000 5.000000 10.000000 12.000000 138.175538 -16.066847 1284.981828 -310.624980 21.595262 0.000000 0.043419
654.000000 45.796000 2.000000 2.000000 13.000000 95.041213 26.793034 431.488864 834.637261 21.843048 0.000000 0.110016
655.000000 46.663000 3.000000 2.000000 13.000000 100.835916 31.068837 326.535930 700.484048 21.434590 0.000000 0.074460
656.000000 46.961000 4.000000 2.000000 13.000000 105.998680 35.613032 204.078632 561.408846 21.296419 0.000000 0.046747
657.000000 46.772000 5.000000 2.000000 13.000000 110.498864 40.389574 59.339418 412.696548 21.380678 0.000000 0.099910
658.000000 46.186000 6.000000 2.000000 13.000000 114.330502 45.345983 -114.371886 248.571393 21.650182 0.000000 0.206240
659.000000 45.566000 1.000000 3.000000 13.000000 93.603458 17.921166 626.927298 869.763764 21.954732 0.000000 0.142173
660.000000 46.974000 2.000000 3.000000 13.000000 100.122241 21.841890 543.599960 733.991402 21.293813 0.000000 0.120035
661.000000 47.762000 3.000000 3.000000 13.000000 106.074706 26.111086 447.470624 595.608455 20.939688 0.000000 0.081481
662.000000 47.992000 4.000000 3.000000 13.000000 111.397075 30.723597 335.343548 450.410012 20.837220 0.000000 0.028465
663.000000 47.744000 5.000000 3.000000 13.000000 116.048936 35.655787 202.862786 293.540974 20.943737 0.000000 0.056796
664.000000 47.106000 6.000000 3.000000 13.000000 120.013365 40.862008 43.933121 118.913674 21.225699 0.000000 0.155888
666.000000 46.267000 1.000000 4.000000 13.000000 97.944291 12.770738 731.049927 786.993964 21.620459 0.000000 0.151428
667.000000 47.598000 2.000000 4.000000 13.000000 104.600333 16.543786 655.292218 648.532207 21.013075 0.000000 0.129640
668.000000 48.330000 3.000000 4.000000 13.000000 110.715132 20.717858 567.918880 505.837076 20.692004 0.000000 0.092997
669.000000 48.522000 4.000000 4.000000 13.000000 116.218611 25.308762 466.036636 354.687281 20.608001 0.000000 0.041037
670.000000 48.250000 5.000000 4.000000 13.000000 121.060275 30.314288 345.704313 190.081879 20.722497 0.000000 0.029065
671.000000 47.598000 6.000000 4.000000 13.000000 125.210081 35.706772 201.411189 5.640245 21.004864 0.000000 0.117943
674.000000 46.441000 1.000000 5.000000 13.000000 101.637910 7.421135 834.810053 717.453756 21.537943 0.000000 0.156383
675.000000 47.707000 2.000000 5.000000 13.000000 108.408866 10.960066 766.567983 576.124193 20.963592 0.000000 0.135376
676.000000 48.404000 3.000000 5.000000 13.000000 114.678075 14.936614 687.883627 429.164739 20.659245 0.000000 0.101692
677.000000 48.584000 4.000000 5.000000 13.000000 120.371916 19.391253 596.161626 272.318809 20.580370 0.000000 0.056162
678.000000 48.319000 5.000000 5.000000 13.000000 125.431611 24.351523 487.868848 100.441308 20.691719 0.000000 0.023362
679.000000 47.685000 6.000000 5.000000 13.000000 129.814052 29.821308 358.068779 -93.119371 20.965026 0.000000 0.090008
682.000000 46.152000 1.000000 6.000000 13.000000 104.661200 1.957751 938.209564 659.253909 21.671714 0.000000 0.156247
683.000000 47.363000 2.000000 6.000000 13.000000 111.513230 5.179935 877.429578 515.009574 21.114708 0.000000 0.135989
684.000000 48.040000 3.000000 6.000000 13.000000 117.913959 8.852660 807.367771 363.921212 20.814506 0.000000 0.105112
685.000000 48.230000 4.000000 6.000000 13.000000 123.790127 13.040207 725.722213 201.686896 20.730427 0.000000 0.065130
686.000000 47.996000 5.000000 6.000000 13.000000 129.078610 17.803789 629.361191 23.023692 20.829953 0.000000 0.029665
687.000000 47.408000 6.000000 6.000000 13.000000 133.726320 23.190438 513.912287 -178.967693 21.086776 0.000000 0.068690
690.000000 45.476000 1.000000 7.000000 13.000000 107.023159 -3.522347 1041.250338 610.844354 21.992668 0.000000 0.150875
691.000000 46.640000 2.000000 7.000000 13.000000 113.912881 -0.685589 987.879312 463.728340 21.440956 0.000000 0.131144
692.000000 47.309000 3.000000 7.000000 13.000000 120.407661 2.586802 926.374195 308.704117 21.135194 0.000000 0.102611
693.000000 47.523000 4.000000 7.000000 13.000000 126.438634 6.376456 854.722062 141.420159 21.037903 0.000000 0.067021
694.000000 47.337000 5.000000 7.000000 13.000000 131.943484 10.774304 770.186099 -43.535246 21.118851 0.000000 0.032714
695.000000 46.814000 6.000000 7.000000 13.000000 136.864982 15.873480 668.948043 -253.285541 21.353381 0.000000 0.050015
697.000000 45.617000 2.000000 8.000000 13.000000 115.639403 -6.515304 1097.919476 421.057792 21.921002 0.000000 0.120868
698.000000 46.285000 3.000000 8.000000 13.000000 122.179678 -3.716165 1044.905757 262.327343 21.602196 0.000000 0.094171
699.000000 46.532000 4.000000 8.000000 13.000000 128.320357 -0.434639 983.164805 90.348421 21.485502 0.000000 0.062138
700.000000 46.405000 5.000000 8.000000 13.000000 134.004677 3.437559 910.348283 -100.408879 21.542633 0.000000 0.029636
701.000000 45.958000 6.000000 8.000000 13.000000 139.178082 8.028939 823.182310 -317.269015 21.750345 0.000000 0.030351
#UB matrix in q= (UB) B0 G* 
#[[-0.698257473 -0.535778146 -0.473446168]
# [ 0.433667968 -0.844274946  0.315834939]
# [-0.569533664  0.015208863  0.822641921]]
#B0 matrix in q= UB (B0) G*
#[[ 0.19670273 -0.          0.03056101]
# [ 0.          0.19187965 -0.        ]
# [ 0.          0.          0.18806537]]
#UBB0 matrix in q= (UB B0) G* i.e. recip. basis vectors are columns in LT frame: astar = UBB0[:,0], bstar = UBB0[:,1], cstar = UBB0[:,2]. (abcstar as columns on xyzlab1, xlab1 = ui, ui = unit vector along incident beam)
#[[-0.13734915 -0.10280492 -0.11037828]
# [ 0.08530367 -0.16199918  0.07265094]
# [-0.11202883  0.00291827  0.13730494]]
#Euler angles phi theta psi (deg)
#[268.51   34.731  56.344]
#deviatoric strain in direct crystal frame (10-3 unit)
#[[-5.63  0.3   0.96]
# [ 0.3  -5.52  0.55]
# [ 0.96  0.55 11.15]]
#deviatoric strain in sample2 frame (10-3 unit)
#[[-5.3   0.74  1.51]
# [ 0.74 -4.13  4.98]
# [ 1.49  4.98  9.43]]
#new lattice parameters
#[ 5.1505     5.2122056  5.3164495 89.9725864 99.1730748 89.9655773]
#CCDLabel
#sCMOS
#DetectorParameters
#[79.0, 975.0, 941.0, 0.0, 0.0]
#pixelsize
#0.0734
#Frame dimensions
#[2018, 2016]
#
