#Strain and Orientation Refinement from experimental file: /home/micha/LaueProjects/DepthEffects/testZrO2_133.cor
#File created at Wed Jun 28 14:26:21 2023 with indexingSpotsSet.py
#Number of indexed spots: 543
#Element
#ZrO2
#grainIndex
#G_0
#Mean Deviation(pixel): 0.120
##spot_index intensity h k l 2theta Chi Xexp Yexp Energy GrainIndex PixDev
17.000000 48.373000 11.000000 6.000000 -10.000000 119.687343 -43.953052 2012.662295 88.680426 20.675317 0.000000 0.198294
18.000000 47.103000 6.000000 3.000000 -5.000000 123.301719 -39.412135 1859.459919 25.856030 10.615814 0.000000 0.145093
19.000000 45.673000 13.000000 6.000000 -10.000000 126.315040 -34.789373 1722.748005 -22.223053 21.895552 0.000000 0.105405
22.000000 46.495000 9.000000 7.000000 -10.000000 104.107836 -49.670092 2242.780498 523.033318 21.515402 0.000000 0.256960
23.000000 46.138000 10.000000 7.000000 -10.000000 108.984651 -45.835148 2083.136983 409.548906 21.680404 0.000000 0.181658
37.000000 53.229000 11.000000 5.000000 -9.000000 126.939040 -39.167924 1851.801310 -102.794468 18.787354 0.000000 0.169707
38.000000 51.273000 12.000000 5.000000 -9.000000 130.045144 -33.700756 1692.819578 -146.286105 19.503426 0.000000 0.122661
39.000000 49.232000 13.000000 5.000000 -9.000000 132.471386 -28.221298 1552.619130 -177.173435 20.311205 0.000000 0.088339
40.000000 47.177000 14.000000 5.000000 -9.000000 134.303855 -22.828271 1428.057496 -198.725605 21.195598 0.000000 0.063390
44.000000 52.476000 3.000000 2.000000 -3.000000 111.098421 -46.613729 2113.695719 336.450243 6.353684 0.000000 0.206283
45.000000 51.455000 10.000000 6.000000 -9.000000 115.793604 -42.055274 1945.981467 240.456588 19.438044 0.000000 0.139629
46.000000 50.096000 11.000000 6.000000 -9.000000 119.746322 -37.378819 1797.258831 166.986733 19.964361 0.000000 0.091056
47.000000 48.519000 4.000000 2.000000 -3.000000 123.017722 -32.643651 1664.474811 110.367633 6.870739 0.000000 0.056860
48.000000 46.819000 13.000000 6.000000 -9.000000 125.676407 -27.913678 1545.197506 66.535394 21.360321 0.000000 0.035650
50.000000 48.118000 7.000000 7.000000 -9.000000 92.682580 -51.992030 2352.198917 859.104647 20.793504 0.000000 0.314778
51.000000 48.587000 8.000000 7.000000 -9.000000 98.797845 -48.177816 2177.832036 691.191300 20.591121 0.000000 0.215060
52.000000 48.441000 9.000000 7.000000 -9.000000 104.191750 -44.221163 2022.424211 561.207532 20.651256 0.000000 0.139951
53.000000 47.821000 10.000000 7.000000 -9.000000 108.884777 -40.153494 1883.042730 459.292594 20.917720 0.000000 0.083143
54.000000 46.852000 11.000000 7.000000 -9.000000 112.914926 -36.012420 1757.330090 378.531431 21.349291 0.000000 0.040147
55.000000 45.640000 12.000000 7.000000 -9.000000 116.331829 -31.839928 1643.369564 313.965179 21.915043 0.000000 0.007738
66.000000 55.417000 6.000000 2.000000 -4.000000 136.886441 -25.468740 1487.645413 -332.352025 9.021680 0.000000 0.100132
67.000000 52.664000 13.000000 4.000000 -8.000000 138.423300 -19.006031 1345.724572 -342.207777 18.986272 0.000000 0.068369
68.000000 50.013000 7.000000 2.000000 -4.000000 139.362999 -12.886627 1221.239919 -345.496763 9.996220 0.000000 0.044385
69.000000 47.496000 15.000000 4.000000 -8.000000 139.830561 -7.210299 1111.164143 -344.164020 21.051774 0.000000 0.025729
72.000000 60.733000 8.000000 5.000000 -8.000000 113.787207 -47.672856 2156.706806 236.453681 16.468983 0.000000 0.243329
73.000000 59.207000 9.000000 5.000000 -8.000000 119.014117 -42.295291 1954.190746 133.973725 16.892111 0.000000 0.162925
74.000000 57.235000 10.000000 5.000000 -8.000000 123.270085 -36.748290 1778.657031 59.664656 17.473335 0.000000 0.106906
75.000000 55.007000 11.000000 5.000000 -8.000000 126.650646 -31.130736 1625.049951 5.470522 18.180390 0.000000 0.068949
76.000000 52.662000 12.000000 5.000000 -8.000000 129.262262 -25.549270 1489.502601 -34.104296 18.989233 0.000000 0.045296
77.000000 50.297000 13.000000 5.000000 -8.000000 131.214690 -20.106530 1369.006865 -62.894191 19.881579 0.000000 0.033606
78.000000 47.976000 14.000000 5.000000 -8.000000 132.614875 -14.890444 1261.187549 -83.627190 20.843275 0.000000 0.030456
79.000000 45.737000 15.000000 5.000000 -8.000000 133.562303 -9.967187 1164.144235 -98.277493 21.863196 0.000000 0.030911
82.000000 55.882000 7.000000 6.000000 -8.000000 99.734442 -49.322955 2227.322067 657.720099 17.902671 0.000000 0.242146
83.000000 55.628000 4.000000 3.000000 -4.000000 105.880383 -44.767704 2042.602155 509.723921 8.991391 0.000000 0.152424
84.000000 54.691000 9.000000 6.000000 -8.000000 111.112444 -40.057097 1879.947408 398.049795 18.289356 0.000000 0.087343
85.000000 53.281000 5.000000 3.000000 -4.000000 115.489432 -35.249200 1735.627057 312.673775 9.386207 0.000000 0.040310
86.000000 51.566000 11.000000 6.000000 -8.000000 119.088179 -30.409837 1606.706524 246.718570 19.395676 0.000000 0.009223
87.000000 49.678000 6.000000 3.000000 -4.000000 121.994880 -25.607445 1490.845780 195.349978 10.066085 0.000000 0.020724
88.000000 47.711000 13.000000 6.000000 -8.000000 124.298500 -20.907397 1386.156038 155.098069 20.961423 0.000000 0.037273
89.000000 45.733000 7.000000 3.000000 -4.000000 126.085944 -16.366943 1291.095983 123.426319 10.933809 0.000000 0.048705
91.000000 49.317000 6.000000 7.000000 -8.000000 85.636731 -50.552489 2283.089096 1070.250915 20.290814 0.000000 0.292139
92.000000 50.370000 7.000000 7.000000 -8.000000 92.471671 -46.608490 2113.487147 873.372304 19.864500 0.000000 0.189780
93.000000 50.594000 8.000000 7.000000 -8.000000 98.493022 -42.529014 1962.245112 722.908563 19.774639 0.000000 0.115181
94.000000 50.170000 9.000000 7.000000 -8.000000 103.717844 -38.350088 1826.534796 605.988619 19.940399 0.000000 0.062520
95.000000 49.266000 10.000000 7.000000 -8.000000 108.188703 -34.113668 1704.080519 513.869840 20.304921 0.000000 0.033363
96.000000 48.028000 11.000000 7.000000 -8.000000 111.964691 -29.865335 1593.030467 440.445715 20.827044 0.000000 0.036349
97.000000 46.574000 12.000000 7.000000 -8.000000 115.114034 -25.651438 1491.862403 381.348532 21.476239 0.000000 0.051915
98.000000 45.789000 2.000000 2.000000 -2.000000 91.663397 -40.756055 1902.592679 899.738398 5.463093 0.000000 0.113739
99.000000 45.787000 9.000000 8.000000 -8.000000 96.857327 -37.007426 1786.264643 778.916942 21.851802 0.000000 0.076653
116.000000 69.483000 8.000000 4.000000 -7.000000 123.200980 -42.644044 1966.231360 -16.525807 14.393004 0.000000 0.198652
117.000000 66.499000 9.000000 4.000000 -7.000000 127.766694 -35.828989 1752.076015 -87.479206 15.038044 0.000000 0.129735
118.000000 63.239000 10.000000 4.000000 -7.000000 131.168874 -28.933988 1569.979653 -134.429717 15.812785 0.000000 0.084215
119.000000 59.913000 11.000000 4.000000 -7.000000 133.583403 -22.155136 1413.244753 -165.007657 16.689973 0.000000 0.054759
120.000000 56.655000 12.000000 4.000000 -7.000000 135.188437 -15.669666 1276.917931 -184.216010 17.649492 0.000000 0.036517
121.000000 53.540000 13.000000 4.000000 -7.000000 136.151950 -9.611144 1157.256895 -195.418053 18.676169 0.000000 0.026058
122.000000 50.607000 14.000000 4.000000 -7.000000 136.622839 -4.059317 1051.381626 -200.923203 19.758342 0.000000 0.020735
123.000000 47.873000 15.000000 4.000000 -7.000000 136.726309 0.956023 957.039558 -202.346158 20.886902 0.000000 0.018641
126.000000 65.697000 6.000000 5.000000 -7.000000 100.945305 -50.881598 2298.511063 611.096539 15.227591 0.000000 0.283826
127.000000 65.243000 7.000000 5.000000 -7.000000 108.089416 -45.518468 2070.951394 439.248159 15.331951 0.000000 0.172387
128.000000 63.760000 8.000000 5.000000 -7.000000 113.993597 -39.923986 1875.687548 316.335610 15.687270 0.000000 0.096216
129.000000 61.618000 9.000000 5.000000 -7.000000 118.754631 -34.194573 1706.299821 226.981975 16.231691 0.000000 0.045200
130.000000 59.100000 10.000000 5.000000 -7.000000 122.498779 -28.441756 1557.964242 161.241671 16.922141 0.000000 0.018437
131.000000 56.413000 11.000000 5.000000 -7.000000 125.365160 -22.779789 1426.985766 112.477075 17.727707 0.000000 0.025830
132.000000 53.692000 12.000000 5.000000 -7.000000 127.493616 -17.312517 1310.486285 76.139063 18.625624 0.000000 0.038804
133.000000 51.025000 13.000000 5.000000 -7.000000 129.016205 -12.123063 1206.190684 49.038103 19.598760 0.000000 0.047392
134.000000 48.464000 14.000000 5.000000 -7.000000 130.051777 -7.268589 1112.276781 28.893444 20.633973 0.000000 0.051909
135.000000 46.038000 15.000000 5.000000 -7.000000 130.703177 -2.780264 1027.267960 14.045914 21.721015 0.000000 0.053290
138.000000 56.763000 5.000000 6.000000 -7.000000 84.489761 -52.069674 2356.052214 1109.910048 17.629097 0.000000 0.335978
139.000000 58.345000 6.000000 6.000000 -7.000000 92.544394 -47.539592 2151.199794 870.152785 17.149041 0.000000 0.207470
140.000000 58.631000 7.000000 6.000000 -7.000000 99.514611 -42.816583 1972.238200 695.077859 17.063675 0.000000 0.117753
141.000000 57.939000 8.000000 6.000000 -7.000000 105.424562 -37.955595 1814.550754 564.383717 17.265981 0.000000 0.056578
142.000000 56.564000 9.000000 6.000000 -7.000000 110.342791 -33.022578 1674.556819 465.068678 17.684427 0.000000 0.026108
143.000000 54.750000 10.000000 6.000000 -7.000000 114.364480 -28.089601 1549.436611 388.497602 18.269379 0.000000 0.037630
144.000000 52.682000 11.000000 6.000000 -7.000000 117.597413 -23.228731 1436.939300 328.759172 18.985322 0.000000 0.055959
145.000000 50.497000 12.000000 6.000000 -7.000000 120.151794 -18.505906 1335.246403 281.701768 19.806169 0.000000 0.069456
146.000000 48.287000 13.000000 6.000000 -7.000000 122.133363 -13.976062 1242.872730 244.344928 20.712329 0.000000 0.078138
147.000000 46.112000 14.000000 6.000000 -7.000000 123.639118 -9.680294 1158.593376 214.507849 21.688804 0.000000 0.082938
149.000000 49.520000 5.000000 7.000000 -7.000000 77.183058 -49.034854 2214.657162 1314.494266 20.210633 0.000000 0.292627
150.000000 51.485000 6.000000 7.000000 -7.000000 84.878287 -44.958532 2049.737459 1077.327504 19.436765 0.000000 0.185612
151.000000 52.281000 8.000000 7.000000 -7.000000 97.544183 -36.468348 1770.496113 763.750727 19.137443 0.000000 0.073383
152.000000 51.561000 9.000000 7.000000 -7.000000 102.564548 -32.141755 1651.251629 657.698493 19.403184 0.000000 0.064337
153.000000 50.370000 10.000000 7.000000 -7.000000 106.792905 -27.825196 1543.070609 573.727412 19.860372 0.000000 0.073758
154.000000 48.873000 11.000000 7.000000 -7.000000 110.310816 -23.566922 1444.481616 506.386141 20.467858 0.000000 0.086430
155.000000 47.193000 12.000000 7.000000 -7.000000 113.204436 -19.411367 1354.263070 451.792910 21.195499 0.000000 0.096913
156.000000 46.516000 7.000000 8.000000 -7.000000 84.540778 -39.136619 1850.823418 1073.615473 21.513973 0.000000 0.127204
157.000000 46.956000 8.000000 8.000000 -7.000000 90.353065 -35.306490 1737.241861 932.872815 21.310286 0.000000 0.096760
158.000000 46.766000 9.000000 8.000000 -7.000000 95.419701 -31.455883 1633.414580 821.295301 21.395144 0.000000 0.090829
159.000000 46.104000 10.000000 8.000000 -7.000000 99.787380 -27.619384 1538.136777 731.457813 21.701188 0.000000 0.097729
169.000000 69.023000 10.000000 3.000000 -6.000000 138.796452 -16.922152 1302.457790 -343.923163 14.486385 0.000000 0.059650
170.000000 64.425000 11.000000 3.000000 -6.000000 139.720024 -9.049031 1146.412546 -345.027937 15.519966 0.000000 0.031471
171.000000 60.171000 4.000000 1.000000 -2.000000 139.936014 -2.029103 1013.132404 -339.575295 5.539055 0.000000 0.010800
172.000000 56.281000 13.000000 3.000000 -6.000000 139.670263 4.093430 897.974318 -330.030615 17.765942 0.000000 0.006772
173.000000 52.745000 14.000000 3.000000 -6.000000 139.092909 9.365962 797.477495 -317.980876 18.957120 0.000000 0.020496
174.000000 49.540000 5.000000 1.000000 -2.000000 138.325463 13.881663 709.009620 -304.463498 6.727857 0.000000 0.033111
175.000000 46.638000 16.000000 3.000000 -6.000000 137.451469 17.747226 630.532942 -290.163948 21.439688 0.000000 0.044897
177.000000 76.215000 7.000000 4.000000 -6.000000 117.859181 -39.728255 1869.453687 201.306048 13.122968 0.000000 0.113364
178.000000 68.916000 9.000000 4.000000 -6.000000 126.798378 -25.570639 1489.995830 48.455193 14.511088 0.000000 0.030119
179.000000 64.952000 5.000000 2.000000 -3.000000 129.442322 -18.717921 1339.680766 6.145176 7.698120 0.000000 0.030020
180.000000 61.080000 11.000000 4.000000 -6.000000 131.182800 -12.257552 1208.834946 -22.621400 16.371720 0.000000 0.036898
181.000000 57.407000 6.000000 2.000000 -3.000000 132.228865 -6.304306 1093.905866 -41.856177 8.709578 0.000000 0.041031
182.000000 53.980000 13.000000 4.000000 -6.000000 132.756869 -0.913197 992.155757 -54.281945 18.524842 0.000000 0.041822
183.000000 50.816000 7.000000 2.000000 -3.000000 132.908512 3.909799 901.440683 -61.786222 9.839171 0.000000 0.040137
184.000000 47.911000 15.000000 4.000000 -6.000000 132.793405 8.191958 820.057819 -65.701463 20.871576 0.000000 0.036960
187.000000 69.293000 5.000000 5.000000 -6.000000 92.619628 -48.820692 2205.337303 866.209013 14.439573 0.000000 0.234380
188.000000 69.671000 6.000000 5.000000 -6.000000 100.894440 -43.215429 1986.253162 656.754990 14.359486 0.000000 0.122470
189.000000 68.477000 7.000000 5.000000 -6.000000 107.689524 -37.406542 1798.083844 508.854788 14.608420 0.000000 0.049621
190.000000 66.270000 8.000000 5.000000 -6.000000 113.124243 -31.506310 1634.717044 401.912344 15.093622 0.000000 0.018744
191.000000 63.487000 9.000000 5.000000 -6.000000 117.363469 -25.638016 1491.552151 323.141497 15.754209 0.000000 0.040904
192.000000 60.437000 10.000000 5.000000 -6.000000 120.588485 -19.921037 1365.060119 264.280448 16.548559 0.000000 0.060204
193.000000 57.322000 11.000000 5.000000 -6.000000 122.977468 -14.457082 1252.488652 219.811442 17.447258 0.000000 0.072025
194.000000 54.267000 12.000000 5.000000 -6.000000 124.693630 -9.321239 1151.659646 185.945583 18.428925 0.000000 0.078075
195.000000 51.345000 13.000000 5.000000 -6.000000 125.879132 -4.559286 1060.826870 160.018813 19.477646 0.000000 0.079887
196.000000 48.591000 14.000000 5.000000 -6.000000 126.653129 -0.190258 978.573988 140.119347 20.581336 0.000000 0.078616
197.000000 46.020000 15.000000 5.000000 -6.000000 127.112576 3.787940 903.740164 124.850655 21.730645 0.000000 0.075122
199.000000 56.679000 2.000000 3.000000 -3.000000 74.421992 -50.359566 2274.148496 1411.339705 8.829212 0.000000 0.337896
200.000000 59.781000 5.000000 6.000000 -6.000000 83.658417 -45.647684 2075.906893 1112.105856 16.739762 0.000000 0.200792
201.000000 60.901000 7.000000 6.000000 -6.000000 98.439050 -35.748643 1749.782320 744.246277 16.428212 0.000000 0.069822
202.000000 59.742000 4.000000 3.000000 -3.000000 104.058150 -30.699358 1614.040476 627.563533 8.372835 0.000000 0.066389
203.000000 57.926000 3.000000 2.000000 -2.000000 108.635308 -25.685873 1492.658650 538.250284 5.756406 0.000000 0.080201
204.000000 55.728000 5.000000 3.000000 -3.000000 112.303949 -20.782635 1383.472617 468.766166 8.974767 0.000000 0.093762
205.000000 53.341000 11.000000 6.000000 -6.000000 115.200219 -16.054577 1284.732246 413.974657 18.751869 0.000000 0.103233
206.000000 50.899000 4.000000 2.000000 -2.000000 117.452876 -11.552767 1195.006987 370.278868 6.550347 0.000000 0.108610
207.000000 48.486000 13.000000 6.000000 -6.000000 119.177732 -7.312550 1113.116105 335.100261 20.628348 0.000000 0.110590
208.000000 46.155000 7.000000 3.000000 -3.000000 120.475289 -3.353994 1038.076433 306.552588 10.834808 0.000000 0.109899
209.000000 47.999000 4.000000 7.000000 -6.000000 67.002253 -47.434902 2146.893190 1616.327224 20.854472 0.000000 0.320834
210.000000 51.347000 5.000000 7.000000 -6.000000 75.711591 -43.224520 1986.574749 1317.178510 19.492498 0.000000 0.201875
211.000000 53.201000 6.000000 7.000000 -6.000000 83.422509 -38.900001 1843.460030 1100.465628 18.811084 0.000000 0.129725
212.000000 53.817000 7.000000 7.000000 -6.000000 90.114296 -34.507386 1714.920858 938.394527 18.593687 0.000000 0.097663
213.000000 53.487000 8.000000 7.000000 -6.000000 95.824201 -30.097310 1598.838454 814.106239 18.706824 0.000000 0.095521
214.000000 52.481000 9.000000 7.000000 -6.000000 100.627276 -25.721619 1493.485720 716.834852 19.063730 0.000000 0.105526
215.000000 51.028000 10.000000 7.000000 -6.000000 104.618919 -21.429787 1397.440733 639.417169 19.605564 0.000000 0.116541
216.000000 49.301000 11.000000 7.000000 -6.000000 107.901753 -17.265727 1309.522189 576.924268 20.291013 0.000000 0.125030
217.000000 47.431000 12.000000 7.000000 -6.000000 110.576791 -13.265479 1228.740572 525.868250 21.090215 0.000000 0.130414
218.000000 45.507000 13.000000 7.000000 -6.000000 112.738102 -9.456022 1154.260752 483.721632 21.981052 0.000000 0.132967
219.000000 46.252000 3.000000 4.000000 -3.000000 76.116053 -37.452321 1799.447577 1276.117048 10.819986 0.000000 0.146402
220.000000 47.394000 7.000000 8.000000 -6.000000 82.668725 -33.544077 1688.574973 1107.142939 21.116712 0.000000 0.115378
221.000000 47.683000 4.000000 4.000000 -3.000000 88.389097 -29.631007 1587.190919 975.822398 10.493332 0.000000 0.111083
222.000000 47.321000 9.000000 8.000000 -6.000000 93.322606 -25.749335 1494.127343 871.626637 21.145641 0.000000 0.118924
223.000000 46.487000 5.000000 4.000000 -3.000000 97.535030 -21.933576 1408.400341 787.524762 10.761636 0.000000 0.129083
237.000000 88.302000 7.000000 3.000000 -5.000000 128.781782 -30.143573 1600.000018 -59.034393 11.324890 0.000000 0.076252
238.000000 82.043000 8.000000 3.000000 -5.000000 132.307759 -21.022290 1388.631160 -108.470680 12.188339 0.000000 0.041678
239.000000 75.953000 9.000000 3.000000 -5.000000 134.341114 -12.475039 1213.116814 -136.254222 13.165271 0.000000 0.029125
240.000000 70.279000 10.000000 3.000000 -5.000000 135.300413 -4.782465 1065.047249 -150.440238 14.228065 0.000000 0.026387
241.000000 65.111000 11.000000 3.000000 -5.000000 135.527236 1.944858 938.452037 -155.918806 15.357393 0.000000 0.025261
242.000000 60.458000 12.000000 3.000000 -5.000000 135.278210 7.726340 828.975433 -155.754529 16.539320 0.000000 0.024405
243.000000 56.292000 13.000000 3.000000 -5.000000 134.734739 12.653460 733.365085 -151.918266 17.763551 0.000000 0.025226
244.000000 52.567000 14.000000 3.000000 -5.000000 134.019711 16.844100 649.143454 -145.704262 19.022313 0.000000 0.028978
245.000000 49.236000 15.000000 3.000000 -5.000000 133.213958 20.415884 574.390054 -137.976716 20.309626 0.000000 0.035509
246.000000 46.250000 16.000000 3.000000 -5.000000 132.369482 23.474060 507.593222 -129.320131 21.620817 0.000000 0.043905
248.000000 85.225000 4.000000 4.000000 -5.000000 92.677994 -50.692361 2289.617000 861.530806 11.740204 0.000000 0.279326
249.000000 85.753000 5.000000 4.000000 -5.000000 102.859893 -43.805562 2007.329680 600.534606 11.666079 0.000000 0.131807
250.000000 83.521000 6.000000 4.000000 -5.000000 110.835955 -36.590163 1774.040013 430.838364 11.976469 0.000000 0.042528
251.000000 79.721000 7.000000 4.000000 -5.000000 116.837492 -29.260370 1578.009675 316.796737 12.546251 0.000000 0.014939
252.000000 75.202000 8.000000 4.000000 -5.000000 121.179297 -22.051304 1410.972582 238.300624 13.299277 0.000000 0.045517
253.000000 70.496000 9.000000 4.000000 -5.000000 124.191720 -15.176039 1266.939418 183.356493 14.186550 0.000000 0.062986
254.000000 65.902000 10.000000 4.000000 -5.000000 126.180124 -8.791947 1141.464259 144.485762 15.175109 0.000000 0.071025
255.000000 61.572000 11.000000 4.000000 -5.000000 127.404642 -2.987860 1031.177515 116.852371 16.241970 0.000000 0.072728
256.000000 57.571000 12.000000 4.000000 -5.000000 128.074193 2.209257 933.478797 97.232881 17.370611 0.000000 0.070196
257.000000 53.914000 13.000000 4.000000 -5.000000 128.349392 6.817341 846.329282 83.423068 18.548855 0.000000 0.064875
258.000000 50.590000 14.000000 4.000000 -5.000000 128.349863 10.881032 768.107885 73.882389 19.767527 0.000000 0.057796
259.000000 47.576000 15.000000 4.000000 -5.000000 128.162727 14.457175 697.509482 67.513710 21.019584 0.000000 0.049744
262.000000 71.183000 4.000000 5.000000 -5.000000 81.908125 -46.606257 2113.398293 1163.739197 14.058837 0.000000 0.223727
263.000000 72.885000 6.000000 5.000000 -5.000000 99.652162 -34.739661 1721.364262 718.244114 13.726807 0.000000 0.066334
264.000000 70.893000 7.000000 5.000000 -5.000000 106.006792 -28.685353 1563.896333 589.043494 14.111271 0.000000 0.071287
265.000000 67.967000 8.000000 5.000000 -5.000000 110.936720 -22.726270 1425.803583 494.550779 14.717564 0.000000 0.088764
266.000000 64.592000 9.000000 5.000000 -5.000000 114.676412 -16.983501 1303.717314 423.947448 15.485799 0.000000 0.101684
267.000000 57.614000 11.000000 5.000000 -5.000000 119.468489 -6.497913 1097.588539 328.911081 17.359896 0.000000 0.110645
268.000000 54.303000 12.000000 5.000000 -5.000000 120.894195 -1.851349 1009.789480 296.662920 18.417911 0.000000 0.109017
269.000000 51.197000 13.000000 5.000000 -5.000000 121.869027 2.380754 930.252071 271.294736 19.535225 0.000000 0.104725
270.000000 48.313000 14.000000 5.000000 -5.000000 122.503040 6.211281 857.862613 251.195257 20.700798 0.000000 0.098529
271.000000 45.655000 6.000000 2.000000 -2.000000 122.881687 9.665170 791.698972 235.183332 8.762468 0.000000 0.090995
273.000000 59.094000 4.000000 6.000000 -5.000000 72.592808 -43.641532 2001.429884 1407.286730 16.937857 0.000000 0.223120
274.000000 62.084000 5.000000 6.000000 -5.000000 81.889001 -38.582445 1833.654646 1137.223488 16.119832 0.000000 0.133220
275.000000 63.005000 6.000000 6.000000 -5.000000 89.774744 -33.435151 1685.633097 946.070551 15.882400 0.000000 0.099704
276.000000 62.410000 7.000000 6.000000 -5.000000 96.310428 -28.281251 1554.070526 805.844553 16.032161 0.000000 0.102742
277.000000 60.808000 8.000000 6.000000 -5.000000 101.626056 -23.202969 1436.366329 700.070798 16.453025 0.000000 0.115688
278.000000 58.603000 9.000000 6.000000 -5.000000 105.883254 -18.275527 1330.440370 618.481594 17.071098 0.000000 0.126806
279.000000 56.083000 10.000000 6.000000 -5.000000 109.249014 -13.561068 1234.608979 554.383328 17.837100 0.000000 0.133745
280.000000 53.444000 11.000000 6.000000 -5.000000 111.880121 -9.105210 1147.494793 503.250277 18.716912 0.000000 0.136729
281.000000 50.811000 12.000000 6.000000 -5.000000 113.915414 -4.936417 1067.960128 461.928615 19.686154 0.000000 0.136488
282.000000 48.258000 13.000000 6.000000 -5.000000 115.473153 -1.067598 995.057020 428.163849 20.726949 0.000000 0.133748
283.000000 45.828000 14.000000 6.000000 -5.000000 116.651394 2.500995 927.989259 400.308876 21.825886 0.000000 0.129116
284.000000 49.053000 4.000000 7.000000 -5.000000 64.621980 -41.403292 1923.990948 1621.675270 20.407657 0.000000 0.239268
285.000000 52.476000 5.000000 7.000000 -5.000000 73.435878 -36.959046 1784.840399 1341.622412 19.074195 0.000000 0.152587
286.000000 54.217000 6.000000 7.000000 -5.000000 81.123482 -32.466977 1659.803308 1140.230894 18.459664 0.000000 0.117494
287.000000 54.620000 7.000000 7.000000 -5.000000 87.698350 -27.981748 1546.836108 989.986098 18.321713 0.000000 0.116592
288.000000 54.042000 8.000000 7.000000 -5.000000 93.233968 -23.557528 1444.271596 874.656596 18.515914 0.000000 0.127658
289.000000 52.798000 9.000000 7.000000 -5.000000 97.837260 -19.244179 1350.736110 784.084888 18.950844 0.000000 0.138966
290.000000 51.135000 10.000000 7.000000 -5.000000 101.628211 -15.084177 1265.087642 711.612538 19.565812 0.000000 0.147186
291.000000 49.237000 11.000000 7.000000 -5.000000 104.726289 -11.110685 1186.368985 652.708074 20.318947 0.000000 0.151943
292.000000 47.232000 12.000000 7.000000 -5.000000 107.242521 -7.346888 1113.771806 604.190618 21.180427 0.000000 0.153656
293.000000 46.609000 6.000000 8.000000 -5.000000 73.571574 -31.720312 1640.260118 1314.079839 21.475910 0.000000 0.127609
294.000000 47.676000 7.000000 8.000000 -5.000000 80.081027 -27.750898 1541.287360 1153.672192 20.993342 0.000000 0.119835
295.000000 47.845000 8.000000 8.000000 -5.000000 85.709139 -23.831539 1450.410214 1029.281430 20.916926 0.000000 0.128786
296.000000 47.351000 9.000000 8.000000 -5.000000 90.522869 -19.996960 1366.674419 930.547521 21.133765 0.000000 0.140829
297.000000 46.391000 10.000000 8.000000 -5.000000 94.605813 -16.277417 1289.270022 850.672820 21.569259 0.000000 0.150953
306.000000 81.704000 9.000000 2.000000 -4.000000 139.411923 6.830739 846.073994 -324.243944 12.237811 0.000000 0.013757
307.000000 67.937000 11.000000 2.000000 -4.000000 136.992809 19.468647 594.526905 -282.869887 14.718289 0.000000 0.050571
308.000000 62.433000 6.000000 1.000000 -2.000000 135.587889 23.925893 497.470002 -260.888208 8.007947 0.000000 0.066946
309.000000 57.662000 13.000000 2.000000 -4.000000 134.201337 27.524079 414.141632 -239.288218 17.341478 0.000000 0.082521
310.000000 53.503000 7.000000 1.000000 -2.000000 132.877440 30.468089 341.821378 -218.474822 9.344882 0.000000 0.097376
311.000000 49.857000 15.000000 2.000000 -4.000000 131.635370 32.909417 278.463052 -198.645903 20.056723 0.000000 0.111522
312.000000 46.643000 8.000000 1.000000 -2.000000 130.480956 34.959710 222.498003 -179.880772 10.719613 0.000000 0.124960
313.000000 83.812000 8.000000 3.000000 -4.000000 128.430557 -7.933937 1124.997998 78.751125 11.931857 0.000000 0.060007
314.000000 76.783000 9.000000 3.000000 -4.000000 129.583562 -0.516813 984.708531 51.095733 13.024017 0.000000 0.061162
315.000000 70.491000 10.000000 3.000000 -4.000000 129.961010 5.854163 864.645981 34.401102 14.186356 0.000000 0.056392
316.000000 64.926000 11.000000 3.000000 -4.000000 129.853473 11.259306 760.730026 24.931267 15.402421 0.000000 0.048423
317.000000 60.023000 12.000000 3.000000 -4.000000 129.454493 15.826155 669.908680 20.306058 16.660531 0.000000 0.039287
318.000000 55.705000 13.000000 3.000000 -4.000000 128.889143 19.689492 589.853539 18.967617 17.952160 0.000000 0.031048
319.000000 51.893000 14.000000 3.000000 -4.000000 128.236683 22.972156 518.757339 19.873241 19.270943 0.000000 0.026530
320.000000 48.517000 15.000000 3.000000 -4.000000 127.546612 25.778556 455.195883 22.311962 20.612030 0.000000 0.028298
321.000000 45.515000 16.000000 3.000000 -4.000000 126.849381 28.194394 398.031655 25.791536 21.971662 0.000000 0.035438
323.000000 87.723000 3.000000 4.000000 -4.000000 79.190669 -48.029572 2171.587320 1248.284818 11.408618 0.000000 0.262078
324.000000 90.636000 5.000000 4.000000 -4.000000 101.386682 -33.224387 1679.961703 681.883936 11.038220 0.000000 0.064098
325.000000 81.823000 7.000000 4.000000 -4.000000 113.840326 -18.393158 1332.892706 439.787401 12.224803 0.000000 0.099041
326.000000 70.962000 9.000000 4.000000 -4.000000 119.874258 -5.297358 1074.794752 320.094721 14.094490 0.000000 0.110537
327.000000 65.903000 5.000000 2.000000 -2.000000 121.430460 0.316065 969.062706 283.231518 7.587967 0.000000 0.107151
328.000000 61.266000 11.000000 4.000000 -4.000000 122.371439 5.290080 875.343151 255.796733 16.324304 0.000000 0.100222
329.000000 53.291000 13.000000 4.000000 -4.000000 123.094050 13.500820 716.588311 219.597017 18.767156 0.000000 0.080335
330.000000 49.898000 7.000000 2.000000 -2.000000 123.102732 16.862376 648.768642 207.773858 10.021506 0.000000 0.068850
331.000000 46.851000 15.000000 4.000000 -4.000000 122.973945 19.813322 587.227502 198.805537 21.346460 0.000000 0.056982
333.000000 69.067000 3.000000 5.000000 -4.000000 67.982209 -44.227872 2022.669651 1548.392272 14.493026 0.000000 0.258050
334.000000 74.416000 4.000000 5.000000 -4.000000 79.657556 -38.133889 1819.950990 1190.716612 13.449113 0.000000 0.138323
335.000000 75.925000 5.000000 5.000000 -4.000000 89.257814 -31.922233 1645.513779 957.426960 13.179869 0.000000 0.103718
336.000000 74.787000 6.000000 5.000000 -4.000000 96.888963 -25.736302 1493.825583 796.644699 13.378837 0.000000 0.113521
337.000000 72.067000 7.000000 5.000000 -4.000000 102.799925 -19.716018 1360.708642 681.245653 13.882374 0.000000 0.128542
338.000000 68.543000 8.000000 5.000000 -4.000000 107.287943 -13.979893 1242.949160 595.795339 14.595138 0.000000 0.138130
339.000000 64.714000 9.000000 5.000000 -4.000000 110.641370 -8.613543 1138.034435 530.935304 15.457822 0.000000 0.141807
340.000000 60.876000 10.000000 5.000000 -4.000000 113.112444 -3.666640 1043.971572 480.703066 16.431598 0.000000 0.140816
341.000000 57.190000 11.000000 5.000000 -4.000000 114.908810 0.843188 959.159669 441.145538 17.489981 0.000000 0.136413
342.000000 53.735000 12.000000 5.000000 -4.000000 116.194968 4.922780 882.297961 409.554610 18.614285 0.000000 0.129594
343.000000 50.539000 13.000000 5.000000 -4.000000 117.098040 8.595168 812.318630 384.023438 19.790950 0.000000 0.121103
344.000000 47.606000 14.000000 5.000000 -4.000000 117.714725 11.892473 748.336892 363.177626 21.009894 0.000000 0.111485
346.000000 54.512000 3.000000 6.000000 -4.000000 58.793050 -41.515847 1927.755575 1811.765834 18.365720 0.000000 0.282149
347.000000 60.322000 2.000000 3.000000 -2.000000 69.655989 -36.292967 1765.413374 1436.127813 8.297265 0.000000 0.161827
348.000000 63.205000 5.000000 6.000000 -4.000000 78.950430 -31.015307 1622.094248 1186.238792 15.835342 0.000000 0.119579
349.000000 63.815000 3.000000 3.000000 -2.000000 86.684450 -25.771454 1494.639603 1010.238600 7.841050 0.000000 0.123523
350.000000 62.854000 7.000000 6.000000 -4.000000 92.986249 -20.646678 1380.553445 880.999125 15.920359 0.000000 0.138251
351.000000 60.913000 4.000000 3.000000 -2.000000 98.042498 -15.715027 1277.837287 783.017252 8.213092 0.000000 0.150144
352.000000 58.430000 9.000000 6.000000 -4.000000 102.054407 -11.033937 1184.872081 706.829293 17.122958 0.000000 0.156986
353.000000 55.701000 5.000000 3.000000 -2.000000 105.212135 -6.642061 1100.332245 646.354900 8.980384 0.000000 0.159324
354.000000 52.915000 11.000000 6.000000 -4.000000 107.682781 -2.560039 1023.122052 597.524246 18.905705 0.000000 0.158125
355.000000 50.184000 6.000000 3.000000 -2.000000 109.606777 1.206756 952.327883 557.520334 9.966960 0.000000 0.154273
356.000000 47.571000 13.000000 6.000000 -4.000000 111.098823 4.664602 887.181902 524.337952 21.028155 0.000000 0.148471
357.000000 49.077000 4.000000 7.000000 -4.000000 61.339949 -34.931995 1726.727140 1658.560087 20.399524 0.000000 0.188698
358.000000 52.602000 5.000000 7.000000 -4.000000 70.222517 -30.347686 1605.137832 1389.462452 19.030445 0.000000 0.128015
359.000000 54.275000 6.000000 7.000000 -4.000000 77.869470 -25.797359 1495.239778 1197.944863 18.441584 0.000000 0.120572
360.000000 54.530000 7.000000 7.000000 -4.000000 84.333654 -21.336704 1395.424093 1055.648182 18.353298 0.000000 0.134036
361.000000 53.787000 8.000000 7.000000 -4.000000 89.724788 -17.014992 1304.364153 946.406508 18.605322 0.000000 0.148714
362.000000 52.392000 9.000000 7.000000 -4.000000 94.177954 -12.872278 1220.956294 860.351477 19.099208 0.000000 0.159390
363.000000 50.608000 10.000000 7.000000 -4.000000 97.832118 -8.938014 1144.274863 791.131474 19.771141 0.000000 0.165638
364.000000 48.621000 11.000000 7.000000 -4.000000 100.817652 -5.231004 1073.537719 734.482105 20.577942 0.000000 0.168121
365.000000 46.557000 12.000000 7.000000 -4.000000 103.250343 -1.760408 1008.079457 687.439868 21.489348 0.000000 0.167625
366.000000 46.180000 3.000000 4.000000 -2.000000 70.263483 -25.817241 1495.700590 1369.958551 10.838691 0.000000 0.115108
367.000000 47.223000 7.000000 8.000000 -4.000000 76.733351 -21.868599 1406.982485 1214.440403 21.196483 0.000000 0.121972
368.000000 47.334000 2.000000 2.000000 -1.000000 82.288421 -18.024298 1325.213897 1094.263544 5.286144 0.000000 0.137890
369.000000 46.774000 9.000000 8.000000 -4.000000 87.015223 -14.313249 1249.609042 998.917290 21.396272 0.000000 0.152163
370.000000 45.756000 5.000000 4.000000 -2.000000 91.011998 -10.757987 1179.496298 921.647631 10.935352 0.000000 0.162451
379.000000 90.503000 8.000000 2.000000 -3.000000 132.493945 11.979067 746.637553 -66.983113 11.049093 0.000000 0.033268
380.000000 81.193000 9.000000 2.000000 -3.000000 131.567861 18.281894 619.426987 -64.239492 12.316113 0.000000 0.028573
381.000000 73.393000 10.000000 2.000000 -3.000000 130.439511 23.229869 513.035386 -57.203279 13.625172 0.000000 0.032915
382.000000 66.818000 11.000000 2.000000 -3.000000 129.265202 27.162985 422.738557 -47.911139 14.966079 0.000000 0.044881
383.000000 61.232000 12.000000 2.000000 -3.000000 128.120479 30.336625 345.141130 -37.531404 16.331689 0.000000 0.059882
384.000000 56.445000 13.000000 2.000000 -3.000000 127.039262 32.936536 277.740044 -26.745342 17.716847 0.000000 0.075613
385.000000 52.310000 14.000000 2.000000 -3.000000 126.034292 35.097086 218.649491 -15.952236 19.117738 0.000000 0.091158
386.000000 48.708000 15.000000 2.000000 -3.000000 125.107717 36.916123 166.421697 -5.384039 20.531480 0.000000 0.106138
387.000000 45.549000 16.000000 2.000000 -3.000000 124.256584 38.465754 119.926718 4.828421 21.955854 0.000000 0.120398
389.000000 83.684000 8.000000 3.000000 -3.000000 122.113552 3.701171 905.377088 264.075208 11.951310 0.000000 0.102840
390.000000 69.492000 10.000000 3.000000 -3.000000 123.115818 14.670793 693.225822 215.288731 14.391777 0.000000 0.076575
391.000000 63.775000 11.000000 3.000000 -3.000000 123.028953 18.871589 607.098264 201.522870 15.681919 0.000000 0.060958
392.000000 58.814000 4.000000 1.000000 -1.000000 122.754006 22.411462 531.131593 192.027840 5.668205 0.000000 0.045081
393.000000 54.493000 13.000000 3.000000 -3.000000 122.373363 25.413466 463.627874 185.564422 18.353020 0.000000 0.029800
394.000000 50.710000 14.000000 3.000000 -3.000000 121.937939 27.978276 403.247518 181.285362 19.722083 0.000000 0.017014
395.000000 47.381000 5.000000 1.000000 -1.000000 121.479090 30.186569 348.919494 178.599066 7.035998 0.000000 0.014335
397.000000 81.349000 2.000000 4.000000 -3.000000 60.511256 -45.112702 2055.536805 1803.471847 12.306256 0.000000 0.326043
398.000000 87.947000 6.000000 4.000000 -3.000000 104.102041 -14.619229 1255.739410 661.566001 11.375647 0.000000 0.143888
399.000000 81.942000 7.000000 4.000000 -3.000000 108.697347 -7.875027 1123.870055 573.282176 12.208282 0.000000 0.148953
400.000000 75.851000 8.000000 4.000000 -3.000000 111.851578 -1.799555 1008.815534 509.175736 13.187947 0.000000 0.146571
401.000000 70.090000 9.000000 4.000000 -3.000000 113.980023 3.585833 907.552481 461.313386 14.271231 0.000000 0.139237
402.000000 64.824000 10.000000 4.000000 -3.000000 115.388940 8.312733 817.741363 424.768787 15.430282 0.000000 0.128758
403.000000 60.087000 11.000000 4.000000 -3.000000 116.296824 12.441525 737.543482 396.346022 16.646410 0.000000 0.116363
404.000000 55.857000 12.000000 4.000000 -3.000000 116.856843 16.043465 665.493771 373.896357 17.906603 0.000000 0.102870
405.000000 52.090000 13.000000 4.000000 -3.000000 117.175536 19.189754 600.410473 355.931453 19.201527 0.000000 0.088827
406.000000 48.732000 14.000000 4.000000 -3.000000 117.326886 21.945935 541.329816 341.394065 20.524309 0.000000 0.074603
407.000000 45.734000 15.000000 4.000000 -3.000000 117.362370 24.369675 487.457973 329.516715 21.869778 0.000000 0.060438
409.000000 70.048000 3.000000 5.000000 -3.000000 63.944753 -35.344326 1738.309597 1586.133438 14.291623 0.000000 0.178798
410.000000 75.421000 4.000000 5.000000 -3.000000 75.682692 -28.955922 1570.517711 1254.934432 13.271376 0.000000 0.120297
411.000000 76.480000 5.000000 5.000000 -3.000000 85.084254 -22.666886 1424.492944 1041.317345 13.085691 0.000000 0.131467
412.000000 74.791000 6.000000 5.000000 -3.000000 92.396370 -16.619572 1296.257632 893.994561 13.379651 0.000000 0.150428
413.000000 71.599000 7.000000 5.000000 -3.000000 97.976241 -10.924945 1182.747621 787.408147 13.974603 0.000000 0.161905
414.000000 67.735000 8.000000 5.000000 -3.000000 102.184847 -5.654446 1081.564263 707.458523 14.770818 0.000000 0.165883
415.000000 63.689000 9.000000 5.000000 -3.000000 105.337638 -0.841204 990.803044 645.767307 15.708244 0.000000 0.164284
416.000000 59.730000 10.000000 5.000000 -3.000000 107.690333 3.512646 908.932574 597.064597 16.748557 0.000000 0.158808
417.000000 55.992000 11.000000 5.000000 -3.000000 109.441668 7.426504 834.707475 557.883153 17.866152 0.000000 0.150708
418.000000 52.529000 12.000000 5.000000 -3.000000 110.742430 10.932530 767.104589 525.856832 19.043268 0.000000 0.140876
419.000000 49.356000 13.000000 5.000000 -3.000000 111.705554 14.068851 705.275533 499.321180 20.267201 0.000000 0.129937
420.000000 46.463000 14.000000 5.000000 -3.000000 112.415116 16.874941 648.510903 477.074975 21.528621 0.000000 0.118334
421.000000 53.605000 1.000000 2.000000 -1.000000 54.396457 -33.886011 1697.858354 1869.329986 6.226046 0.000000 0.225984
422.000000 59.770000 4.000000 6.000000 -3.000000 65.411493 -28.490830 1559.157102 1501.369235 16.749487 0.000000 0.127885
423.000000 62.656000 5.000000 6.000000 -3.000000 74.682018 -23.174817 1435.740472 1261.680088 15.975827 0.000000 0.117712
424.000000 61.968000 7.000000 6.000000 -3.000000 88.423649 -13.109931 1225.658179 971.411674 16.149586 0.000000 0.156053
425.000000 59.876000 8.000000 6.000000 -3.000000 93.319914 -8.482495 1135.517102 877.875400 16.712306 0.000000 0.167103
426.000000 57.292000 3.000000 2.000000 -1.000000 97.204371 -4.172327 1053.515497 804.587456 5.821565 0.000000 0.171918
427.000000 54.511000 10.000000 6.000000 -3.000000 100.278043 -0.191565 978.598531 745.829146 18.354778 0.000000 0.172033
428.000000 51.710000 11.000000 6.000000 -3.000000 102.709149 3.462074 909.886094 697.822201 19.347981 0.000000 0.168749
429.000000 48.993000 4.000000 2.000000 -1.000000 104.633896 6.801135 846.638057 657.974693 6.806803 0.000000 0.163050
430.000000 46.412000 13.000000 6.000000 -3.000000 106.160428 9.844666 788.227508 624.452350 21.555024 0.000000 0.155653
431.000000 47.738000 4.000000 7.000000 -3.000000 57.063352 -28.150980 1550.918889 1731.809896 20.973932 0.000000 0.157131
432.000000 51.438000 5.000000 7.000000 -3.000000 65.997573 -23.547379 1444.044728 1463.783908 19.463052 0.000000 0.107097
433.000000 53.149000 6.000000 7.000000 -3.000000 73.615391 -19.063810 1346.939129 1275.819542 18.834198 0.000000 0.115902
434.000000 53.382000 7.000000 7.000000 -3.000000 80.007811 -14.747844 1258.321321 1137.088471 18.749904 0.000000 0.137763
435.000000 52.605000 8.000000 7.000000 -3.000000 85.315295 -10.636104 1177.125052 1030.740055 19.025387 0.000000 0.155372
436.000000 51.186000 9.000000 7.000000 -3.000000 89.693707 -6.753552 1102.455489 946.793933 19.550970 0.000000 0.166684
437.000000 49.398000 10.000000 7.000000 -3.000000 93.293745 -3.114123 1033.556093 878.967551 20.257443 0.000000 0.172627
438.000000 47.425000 11.000000 7.000000 -3.000000 96.250692 0.277726 969.782903 823.112065 21.098977 0.000000 0.174434
439.000000 45.934000 7.000000 8.000000 -3.000000 72.631029 -16.019371 1284.016254 1291.250966 21.793154 0.000000 0.113151
440.000000 46.077000 8.000000 8.000000 -3.000000 78.149750 -12.326422 1210.190082 1172.163878 21.723674 0.000000 0.134914
441.000000 45.540000 9.000000 8.000000 -3.000000 82.837764 -8.804777 1141.711043 1077.859738 21.977909 0.000000 0.152081
442.000000 82.504000 9.000000 1.000000 -2.000000 128.427461 38.197620 128.112320 -145.549809 12.120745 0.000000 0.149749
443.000000 73.852000 10.000000 1.000000 -2.000000 126.678464 40.628160 51.586272 -115.215077 13.541047 0.000000 0.171904
449.000000 78.810000 9.000000 2.000000 -2.000000 122.160184 26.745049 432.619656 183.193634 12.690155 0.000000 0.022845
450.000000 64.629000 11.000000 2.000000 -2.000000 120.786665 32.967119 276.924140 176.669006 15.474819 0.000000 0.030577
451.000000 59.201000 6.000000 1.000000 -1.000000 120.118428 35.250412 214.338811 176.439681 8.446861 0.000000 0.050227
452.000000 54.577000 13.000000 2.000000 -2.000000 119.489745 37.153239 159.431796 177.303500 18.325222 0.000000 0.069189
453.000000 50.597000 7.000000 1.000000 -1.000000 118.905903 38.760061 110.871737 178.868134 9.883386 0.000000 0.086997
454.000000 47.140000 15.000000 2.000000 -2.000000 118.367198 40.132932 67.618254 180.875396 21.216471 0.000000 0.103604
455.000000 90.217000 7.000000 3.000000 -2.000000 112.250876 7.827794 827.034093 496.515414 11.087807 0.000000 0.141257
456.000000 81.344000 8.000000 3.000000 -2.000000 113.810900 13.349334 719.596099 452.863830 12.296829 0.000000 0.124134
457.000000 73.727000 9.000000 3.000000 -2.000000 114.701512 17.944126 626.450811 420.612530 13.566862 0.000000 0.105117
458.000000 67.216000 10.000000 3.000000 -2.000000 115.177074 21.781135 544.924021 396.163333 14.880863 0.000000 0.085471
459.000000 61.637000 11.000000 3.000000 -2.000000 115.393821 25.006394 472.969496 377.232967 16.227594 0.000000 0.065925
460.000000 56.833000 12.000000 3.000000 -2.000000 115.448578 27.739131 408.994861 362.314263 17.599348 0.000000 0.046911
461.000000 52.669000 13.000000 3.000000 -2.000000 115.402076 30.074160 351.742382 350.379293 18.990659 0.000000 0.028737
462.000000 49.036000 14.000000 3.000000 -2.000000 115.292880 32.086109 300.205446 340.707384 20.397548 0.000000 0.012091
463.000000 45.846000 15.000000 3.000000 -2.000000 115.145763 33.833619 253.568864 332.781210 21.817044 0.000000 0.008689
465.000000 79.658000 7.000000 4.000000 -2.000000 101.564692 1.675554 943.515939 720.665427 12.560119 0.000000 0.170748
466.000000 67.773000 9.000000 4.000000 -2.000000 106.801675 11.262579 760.666112 609.631912 14.761077 0.000000 0.151490
467.000000 62.617000 5.000000 2.000000 -1.000000 108.339867 15.136558 683.856648 571.395729 7.988006 0.000000 0.137738
468.000000 58.021000 11.000000 4.000000 -2.000000 109.435816 18.502774 614.819029 540.519004 17.241011 0.000000 0.122846
469.000000 53.943000 6.000000 2.000000 -1.000000 110.218494 21.435727 552.430484 515.149438 9.272092 0.000000 0.107481
470.000000 50.325000 13.000000 4.000000 -2.000000 110.777135 24.001259 495.774579 493.996053 19.877130 0.000000 0.092081
471.000000 47.109000 7.000000 2.000000 -1.000000 111.173998 26.255759 444.095893 476.133728 10.616872 0.000000 0.076942
473.000000 67.505000 3.000000 5.000000 -2.000000 57.983756 -25.845753 1496.361700 1688.766004 14.832191 0.000000 0.135849
474.000000 73.194000 4.000000 5.000000 -2.000000 69.755290 -19.488222 1355.886815 1362.076457 13.677179 0.000000 0.104978
475.000000 74.223000 5.000000 5.000000 -2.000000 79.032111 -13.451955 1232.441043 1155.468354 13.485444 0.000000 0.136542
476.000000 72.448000 6.000000 5.000000 -2.000000 86.184020 -7.835051 1123.104808 1013.465400 13.814107 0.000000 0.160363
477.000000 69.226000 7.000000 5.000000 -2.000000 91.641023 -2.691135 1025.589854 910.131111 14.455705 0.000000 0.171875
478.000000 65.400000 8.000000 5.000000 -2.000000 95.793584 1.964781 938.077355 831.731535 15.300117 0.000000 0.174548
479.000000 61.446000 9.000000 5.000000 -2.000000 98.959921 6.145993 859.103410 770.322413 16.283464 0.000000 0.171374
480.000000 57.613000 10.000000 5.000000 -2.000000 101.385771 9.883472 787.476492 720.994022 17.366146 0.000000 0.164409
481.000000 54.014000 11.000000 5.000000 -2.000000 103.255831 13.217182 722.216919 680.551542 18.522305 0.000000 0.155025
482.000000 50.695000 12.000000 5.000000 -2.000000 104.707224 16.189977 662.511777 646.828324 19.734343 0.000000 0.144138
483.000000 47.662000 13.000000 5.000000 -2.000000 105.841366 18.843814 607.680882 618.304299 20.989865 0.000000 0.132369
484.000000 50.283000 3.000000 6.000000 -2.000000 48.652111 -25.865215 1496.813153 1993.587998 19.914757 0.000000 0.210258
485.000000 56.948000 2.000000 3.000000 -1.000000 59.788467 -20.497949 1377.366028 1610.070698 8.790880 0.000000 0.097668
486.000000 60.070000 5.000000 6.000000 -2.000000 69.063054 -15.344610 1270.341691 1368.014597 16.665800 0.000000 0.099065
487.000000 60.649000 3.000000 3.000000 -1.000000 76.621910 -10.470074 1173.897940 1201.308717 8.252277 0.000000 0.131029
488.000000 59.602000 7.000000 6.000000 -2.000000 82.706543 -5.916616 1086.539660 1079.489282 16.792821 0.000000 0.154277
489.000000 57.614000 4.000000 3.000000 -1.000000 87.576809 -1.705164 1007.040761 986.566679 8.685206 0.000000 0.167376
490.000000 55.150000 9.000000 6.000000 -2.000000 91.471018 2.161019 934.386268 913.341355 18.145170 0.000000 0.172917
491.000000 52.499000 5.000000 3.000000 -1.000000 94.591010 5.691713 867.728764 854.145181 9.530161 0.000000 0.173165
492.000000 49.833000 11.000000 6.000000 -2.000000 97.100497 8.905281 806.355180 805.295145 20.078981 0.000000 0.169753
493.000000 47.249000 6.000000 3.000000 -1.000000 99.129137 11.824952 749.661186 764.294161 10.588072 0.000000 0.163828
494.000000 48.807000 5.000000 7.000000 -2.000000 60.782266 -16.744380 1298.812684 1569.611162 20.514384 0.000000 0.078771
495.000000 50.714000 6.000000 7.000000 -2.000000 68.408430 -12.449017 1212.604122 1377.207914 19.740805 0.000000 0.094168
496.000000 51.097000 7.000000 7.000000 -2.000000 74.792643 -8.382158 1133.590866 1236.730152 19.590786 0.000000 0.124778
497.000000 50.452000 8.000000 7.000000 -2.000000 80.096464 -4.563587 1060.908181 1129.509520 19.839263 0.000000 0.147341
498.000000 49.163000 9.000000 7.000000 -2.000000 84.487554 -1.002010 993.824559 1044.887199 20.357854 0.000000 0.161415
499.000000 47.502000 10.000000 7.000000 -2.000000 88.121335 2.302899 931.717015 976.331688 21.067974 0.000000 0.168950
500.000000 45.655000 11.000000 7.000000 -2.000000 91.133262 5.358238 874.051683 919.615590 21.918829 0.000000 0.171699
501.000000 88.225000 8.000000 1.000000 -1.000000 117.871553 41.318196 28.846570 183.152871 11.336433 0.000000 0.119059
502.000000 78.134000 9.000000 1.000000 -1.000000 116.996705 43.258460 -37.776142 188.090326 12.800741 0.000000 0.146828
503.000000 70.074000 10.000000 1.000000 -1.000000 116.254535 44.777368 -92.962382 193.128967 14.273069 0.000000 0.170961
504.000000 63.499000 11.000000 1.000000 -1.000000 115.620491 45.997144 -139.424159 198.015317 15.751311 0.000000 0.192056
505.000000 58.036000 12.000000 1.000000 -1.000000 115.074359 46.997388 -179.078810 202.638651 17.234038 0.000000 0.210612
506.000000 53.429000 13.000000 1.000000 -1.000000 114.600045 47.831998 -213.320197 206.958512 18.720248 0.000000 0.227042
509.000000 83.354000 8.000000 2.000000 -1.000000 111.645271 30.013679 353.258553 447.737355 12.000451 0.000000 0.048347
510.000000 74.590000 9.000000 2.000000 -1.000000 111.853822 33.001877 275.996205 426.293235 13.410334 0.000000 0.024478
511.000000 67.409000 10.000000 2.000000 -1.000000 111.916259 35.422634 209.477391 409.618326 14.838871 0.000000 0.019406
512.000000 61.437000 11.000000 2.000000 -1.000000 111.896379 37.416928 151.606908 396.339481 16.281118 0.000000 0.036661
513.000000 56.404000 12.000000 2.000000 -1.000000 111.830253 39.084552 100.801106 385.553932 17.733734 0.000000 0.056740
514.000000 52.112000 13.000000 2.000000 -1.000000 111.738815 40.497448 55.840748 376.646169 19.194383 0.000000 0.075979
515.000000 48.412000 14.000000 2.000000 -1.000000 111.634453 41.708453 15.771894 369.183550 20.661383 0.000000 0.093921
517.000000 85.000000 7.000000 3.000000 -1.000000 102.127022 16.884111 648.322793 699.313410 11.770320 0.000000 0.147421
518.000000 76.771000 8.000000 3.000000 -1.000000 104.154403 21.067529 560.393240 650.123963 13.031469 0.000000 0.127975
519.000000 69.735000 9.000000 3.000000 -1.000000 105.556859 24.549707 483.376336 611.588186 14.345815 0.000000 0.107605
520.000000 63.728000 10.000000 3.000000 -1.000000 106.547054 27.473078 415.359277 580.580023 15.697726 0.000000 0.087509
521.000000 58.579000 11.000000 3.000000 -1.000000 107.258709 29.950051 354.851624 555.088046 17.077148 0.000000 0.068493
522.000000 54.139000 12.000000 3.000000 -1.000000 107.777918 32.068169 300.674826 533.759198 18.477322 0.000000 0.051386
523.000000 50.284000 13.000000 3.000000 -1.000000 108.161429 33.895436 251.884691 515.649720 19.893534 0.000000 0.037634
524.000000 46.914000 14.000000 3.000000 -1.000000 108.447487 35.484856 207.715892 500.081224 21.322399 0.000000 0.030219
525.000000 71.445000 2.000000 4.000000 -1.000000 45.297698 -21.798962 1405.464387 2088.200966 14.016679 0.000000 0.224078
526.000000 85.028000 3.000000 4.000000 -1.000000 61.370503 -13.986402 1243.078995 1546.484440 11.775500 0.000000 0.068410
527.000000 88.112000 4.000000 4.000000 -1.000000 73.366269 -6.842356 1104.147358 1264.853917 11.361107 0.000000 0.118820
528.000000 85.550000 5.000000 4.000000 -1.000000 82.064314 -0.475397 983.930478 1091.036656 11.699466 0.000000 0.155176
529.000000 80.574000 6.000000 4.000000 -1.000000 88.333554 5.103051 878.885520 972.437430 12.420528 0.000000 0.168616
530.000000 74.886000 7.000000 4.000000 -1.000000 92.881489 9.943687 786.310818 885.999686 13.362648 0.000000 0.168810
531.000000 69.275000 8.000000 4.000000 -1.000000 96.222112 14.127205 704.110211 819.997150 14.443978 0.000000 0.161562
532.000000 64.061000 9.000000 4.000000 -1.000000 98.712719 17.742422 630.632412 767.822307 15.618638 0.000000 0.150178
533.000000 59.346000 10.000000 4.000000 -1.000000 100.598426 20.874176 564.558930 725.460718 16.858913 0.000000 0.136596
534.000000 55.131000 11.000000 4.000000 -1.000000 102.047686 23.597959 504.824259 690.328260 18.147074 0.000000 0.121989
535.000000 51.381000 12.000000 4.000000 -1.000000 103.177316 25.978418 450.557972 660.683559 19.471250 0.000000 0.107104
536.000000 48.044000 13.000000 4.000000 -1.000000 104.069352 28.069766 401.042034 635.308680 20.823196 0.000000 0.092444
538.000000 60.661000 3.000000 5.000000 -1.000000 50.119112 -16.214895 1287.995836 1877.567464 16.507904 0.000000 0.134470
539.000000 67.205000 4.000000 5.000000 -1.000000 61.979654 -10.230608 1169.249555 1523.019779 14.898359 0.000000 0.058420
540.000000 68.870000 5.000000 5.000000 -1.000000 71.297418 -4.727785 1064.012979 1306.603537 14.536083 0.000000 0.108654
541.000000 67.646000 6.000000 5.000000 -1.000000 78.513455 0.260596 970.104708 1159.713618 14.797021 0.000000 0.143492
542.000000 64.932000 7.000000 5.000000 -1.000000 84.085402 4.738255 885.788995 1052.883725 15.413926 0.000000 0.160612
543.000000 61.573000 8.000000 5.000000 -1.000000 88.404554 8.733098 809.667466 971.329633 16.253243 0.000000 0.166414
544.000000 58.042000 9.000000 5.000000 -1.000000 91.778315 12.286225 740.600954 906.800565 17.240801 0.000000 0.165144
545.000000 54.584000 10.000000 5.000000 -1.000000 94.438879 15.443883 677.652098 854.319071 18.332110 0.000000 0.159447
546.000000 51.315000 11.000000 5.000000 -1.000000 96.558734 18.252344 620.042550 810.698021 19.498864 0.000000 0.150997
547.000000 48.284000 12.000000 5.000000 -1.000000 98.265426 20.755025 567.120631 773.798163 20.722195 0.000000 0.140881
548.000000 45.501000 13.000000 5.000000 -1.000000 99.653476 22.991141 518.336565 742.127635 21.989042 0.000000 0.129821
549.000000 51.703000 4.000000 6.000000 -1.000000 52.915615 -12.617777 1215.930931 1774.667838 19.367819 0.000000 0.089084
550.000000 55.367000 5.000000 6.000000 -1.000000 62.255981 -7.806143 1122.551547 1512.417539 18.083681 0.000000 0.054114
551.000000 56.410000 6.000000 6.000000 -1.000000 69.875582 -3.346514 1037.935440 1336.061657 17.747105 0.000000 0.100712
552.000000 55.781000 7.000000 6.000000 -1.000000 76.040862 0.750332 960.904301 1208.558088 17.945468 0.000000 0.133521
553.000000 54.176000 8.000000 6.000000 -1.000000 81.020733 4.490043 890.482009 1111.592606 18.475354 0.000000 0.152270
554.000000 52.059000 9.000000 6.000000 -1.000000 85.052819 7.889491 825.853043 1035.054088 19.224878 0.000000 0.161395
555.000000 49.721000 10.000000 6.000000 -1.000000 88.333673 10.972237 766.330759 972.893602 20.127411 0.000000 0.164060
556.000000 47.335000 11.000000 6.000000 -1.000000 91.020356 13.765045 711.332903 921.263873 21.140800 0.000000 0.162374
557.000000 47.001000 6.000000 7.000000 -1.000000 62.394474 -6.117266 1090.350726 1507.028259 21.302516 0.000000 0.051949
558.000000 47.719000 7.000000 7.000000 -1.000000 68.840979 -2.374502 1019.630294 1357.939685 20.979930 0.000000 0.094483
559.000000 47.382000 8.000000 7.000000 -1.000000 74.222065 1.099644 954.340778 1245.168969 21.127283 0.000000 0.125194
560.000000 46.375000 9.000000 7.000000 -1.000000 78.708620 4.310233 893.879717 1156.505934 21.584052 0.000000 0.144499
562.000000 193.089000 3.000000 1.000000 0.000000 95.924248 29.812318 358.293120 812.280517 5.181877 0.000000 0.105181
563.000000 152.534000 4.000000 1.000000 0.000000 99.947204 35.617470 203.952484 708.804286 6.559012 0.000000 0.065198
564.000000 125.227000 5.000000 1.000000 0.000000 102.128543 39.444096 89.533791 641.485684 7.988858 0.000000 0.060796
565.000000 105.922000 6.000000 1.000000 0.000000 103.458541 42.134329 1.321491 593.668717 9.444582 0.000000 0.085602
566.000000 91.652000 7.000000 1.000000 0.000000 104.339108 44.120885 -68.762735 557.747475 10.914923 0.000000 0.115441
567.000000 80.711000 8.000000 1.000000 0.000000 104.958384 45.644547 -125.786313 529.683559 12.394325 0.000000 0.143260
568.000000 72.073000 9.000000 1.000000 0.000000 105.414320 46.848649 -173.088959 507.108852 13.879731 0.000000 0.167981
569.000000 65.087000 10.000000 1.000000 0.000000 105.762240 47.823384 -212.961161 488.532944 15.369322 0.000000 0.189739
570.000000 59.325000 11.000000 1.000000 0.000000 106.035462 48.628154 -247.026220 472.966640 16.861943 0.000000 0.208905
571.000000 54.493000 12.000000 1.000000 0.000000 106.255111 49.303602 -276.466682 459.725565 18.356832 0.000000 0.225856
572.000000 50.385000 13.000000 1.000000 0.000000 106.435167 49.878431 -302.164423 448.320126 19.853460 0.000000 0.240926
573.000000 46.850000 14.000000 1.000000 0.000000 106.585210 50.373472 -324.790499 438.390277 21.351452 0.000000 0.254394
575.000000 151.990000 2.000000 2.000000 0.000000 62.364930 3.185319 915.102439 1505.384101 6.587578 0.000000 0.049269
576.000000 144.510000 3.000000 2.000000 0.000000 78.178920 12.997755 726.562316 1172.186129 6.926544 0.000000 0.139616
577.000000 126.969000 4.000000 2.000000 0.000000 87.098028 20.253245 577.864820 999.155511 7.881949 0.000000 0.146470
578.000000 110.356000 5.000000 2.000000 0.000000 92.469643 25.675232 457.587445 889.493818 9.067448 0.000000 0.128961
579.000000 85.354000 7.000000 2.000000 0.000000 98.273880 33.041724 274.931465 754.290947 11.721886 0.000000 0.082420
580.000000 68.810000 9.000000 2.000000 0.000000 101.184623 37.711907 142.787912 671.991277 14.539191 0.000000 0.057541
581.000000 57.400000 11.000000 2.000000 0.000000 102.867431 40.898051 42.748735 615.734249 17.428770 0.000000 0.071545
582.000000 49.143000 13.000000 2.000000 0.000000 103.940257 43.197478 -35.618459 574.526696 20.356708 0.000000 0.100587
583.000000 88.789000 2.000000 3.000000 0.000000 45.129795 -5.129434 1071.614057 2016.736954 11.279151 0.000000 0.161900
584.000000 99.489000 4.000000 3.000000 0.000000 73.913023 10.049771 784.256117 1256.228069 10.061757 0.000000 0.124349
585.000000 92.599000 5.000000 3.000000 0.000000 81.703694 15.661849 673.240461 1103.995220 10.808684 0.000000 0.146732
586.000000 77.068000 7.000000 3.000000 0.000000 90.949617 24.033814 495.041610 921.466478 12.984426 0.000000 0.136036
587.000000 70.289000 8.000000 3.000000 0.000000 93.782891 27.175321 422.445784 861.005030 14.235667 0.000000 0.121262
588.000000 59.216000 10.000000 3.000000 0.000000 97.581861 32.048409 301.191608 771.979803 16.896120 0.000000 0.089599
589.000000 54.745000 11.000000 3.000000 0.000000 98.892204 33.963068 250.039297 737.969390 18.275750 0.000000 0.075855
590.000000 47.426000 13.000000 3.000000 0.000000 100.810384 37.059029 162.214230 683.465671 21.094853 0.000000 0.058842
591.000000 70.538000 3.000000 4.000000 0.000000 50.087028 -2.908190 1029.676952 1842.496839 14.196800 0.000000 0.087458
592.000000 75.503000 5.000000 4.000000 0.000000 71.444992 8.460041 814.914045 1306.246759 13.258922 0.000000 0.112396
593.000000 67.970000 7.000000 4.000000 0.000000 83.236374 16.896598 648.066605 1074.406424 14.724716 0.000000 0.148128
594.000000 59.171000 9.000000 4.000000 0.000000 90.098489 23.154619 514.708407 938.987799 16.912002 0.000000 0.139214
595.000000 51.547000 11.000000 4.000000 0.000000 94.373392 27.877347 405.676233 847.879899 19.411361 0.000000 0.117281
596.000000 49.952000 3.000000 5.000000 0.000000 40.822056 -6.974915 1106.674027 2196.218296 20.049316 0.000000 0.236533
597.000000 57.856000 4.000000 5.000000 0.000000 52.842189 -1.621325 1005.464534 1757.030089 17.308305 0.000000 0.051139
598.000000 60.719000 6.000000 5.000000 0.000000 69.841710 7.467064 833.932544 1339.489136 16.487666 0.000000 0.103441
599.000000 58.999000 7.000000 5.000000 0.000000 75.719443 11.264934 760.620106 1220.336636 16.966395 0.000000 0.131665
600.000000 56.484000 8.000000 5.000000 0.000000 80.372330 14.628386 694.076864 1129.692885 17.720309 0.000000 0.144663
601.000000 53.658000 9.000000 5.000000 0.000000 84.091859 17.608352 633.406655 1057.853755 18.651904 0.000000 0.148423
602.000000 48.008000 11.000000 5.000000 0.000000 89.554980 22.607007 526.827485 950.055614 20.844426 0.000000 0.140969
603.000000 48.860000 5.000000 6.000000 0.000000 54.591407 -0.782506 989.700191 1706.196874 20.494506 0.000000 0.029856
604.000000 50.730000 7.000000 6.000000 0.000000 68.717955 6.788302 846.882547 1363.200861 19.734683 0.000000 0.096606
605.000000 139.123000 2.000000 1.000000 1.000000 51.297102 36.095471 190.283023 2008.233660 7.196909 0.000000 0.248613
606.000000 132.805000 3.000000 1.000000 1.000000 67.663652 40.293659 62.440852 1520.775998 7.537439 0.000000 0.188660
607.000000 116.772000 4.000000 1.000000 1.000000 77.039320 43.114153 -32.677160 1280.323907 8.570903 0.000000 0.174078
608.000000 101.898000 5.000000 1.000000 1.000000 83.000494 45.130547 -106.210115 1128.305529 9.820966 0.000000 0.172517
609.000000 89.613000 6.000000 1.000000 1.000000 87.090461 46.640367 -164.756714 1020.674236 11.166492 0.000000 0.179463
610.000000 79.650000 7.000000 1.000000 1.000000 90.057892 47.811707 -212.474706 939.380656 12.562480 0.000000 0.191182
611.000000 71.528000 8.000000 1.000000 1.000000 92.303645 48.746195 -252.114023 875.338333 13.988374 0.000000 0.204926
612.000000 64.829000 9.000000 1.000000 1.000000 94.059810 49.508698 -285.566135 823.354688 15.433447 0.000000 0.219092
613.000000 59.231000 10.000000 1.000000 1.000000 95.469386 50.142483 -314.174790 780.197866 16.891554 0.000000 0.232862
614.000000 54.496000 11.000000 1.000000 1.000000 96.625002 50.677485 -338.920887 743.729291 18.358923 0.000000 0.245867
615.000000 50.444000 12.000000 1.000000 1.000000 97.589177 51.135053 -360.537205 712.467069 19.833109 0.000000 0.257970
616.000000 46.942000 13.000000 1.000000 1.000000 98.405574 51.530817 -379.582191 685.346682 21.312458 0.000000 0.269152
618.000000 102.142000 3.000000 2.000000 1.000000 56.993611 24.975485 473.676265 1712.244534 9.802577 0.000000 0.123252
619.000000 98.386000 4.000000 2.000000 1.000000 68.457827 29.574830 364.204987 1429.528468 10.174774 0.000000 0.124944
620.000000 90.338000 5.000000 2.000000 1.000000 76.080871 33.087869 273.697258 1259.365193 11.079631 0.000000 0.125767
621.000000 81.945000 6.000000 2.000000 1.000000 81.414413 35.839683 197.618314 1141.450957 12.213206 0.000000 0.119377
622.000000 74.316000 7.000000 2.000000 1.000000 85.312548 38.044079 132.772514 1053.058494 13.465847 0.000000 0.112169
623.000000 67.666000 8.000000 2.000000 1.000000 88.266049 39.844666 76.843019 983.436404 14.788335 0.000000 0.107851
624.000000 61.938000 9.000000 2.000000 1.000000 90.571004 41.340333 28.109138 926.713094 16.155296 0.000000 0.107807
625.000000 57.006000 10.000000 2.000000 1.000000 92.414344 42.600880 -14.733829 879.349626 17.552316 0.000000 0.111849
626.000000 52.742000 11.000000 2.000000 1.000000 93.918913 43.676729 -52.693139 839.055216 18.970606 0.000000 0.118991
627.000000 49.035000 12.000000 2.000000 1.000000 95.168306 44.605086 -86.558794 804.265258 20.404495 0.000000 0.128116
628.000000 45.789000 13.000000 2.000000 1.000000 96.221145 45.413934 -116.959124 773.865733 21.850168 0.000000 0.138321
630.000000 73.487000 3.000000 3.000000 1.000000 46.532153 14.238422 701.887593 1993.551571 13.627222 0.000000 0.153602
631.000000 78.232000 4.000000 3.000000 1.000000 59.114967 19.315773 597.754448 1623.166232 12.798444 0.000000 0.087634
632.000000 76.450000 5.000000 3.000000 1.000000 68.072480 23.446508 508.208269 1413.261883 13.094673 0.000000 0.110540
633.000000 72.216000 6.000000 3.000000 1.000000 74.601933 26.839852 430.384664 1273.210109 13.860677 0.000000 0.122779
634.000000 67.320000 7.000000 3.000000 1.000000 79.491745 29.658590 362.123131 1170.737843 14.867328 0.000000 0.123258
635.000000 62.496000 8.000000 3.000000 1.000000 83.249505 32.026537 301.763353 1091.267603 16.013669 0.000000 0.117665
636.000000 58.019000 9.000000 3.000000 1.000000 86.205250 34.037376 248.008371 1027.147816 17.248286 0.000000 0.109725
637.000000 53.967000 10.000000 3.000000 1.000000 88.578202 35.762223 199.830337 973.921082 18.542238 0.000000 0.101730
638.000000 50.339000 11.000000 3.000000 1.000000 90.517587 37.255486 156.404159 928.784236 19.877989 0.000000 0.095134
639.000000 47.100000 12.000000 3.000000 1.000000 92.127492 38.559195 117.059857 889.868451 21.244294 0.000000 0.090834
640.000000 52.012000 3.000000 4.000000 1.000000 37.804804 6.781134 847.019097 2338.083383 19.255454 0.000000 0.280663
641.000000 60.511000 4.000000 4.000000 1.000000 50.481802 11.726474 751.591485 1847.727125 16.549093 0.000000 0.098186
642.000000 62.869000 5.000000 4.000000 1.000000 60.132070 15.950469 667.384260 1583.845066 15.925931 0.000000 0.072997
643.000000 62.000000 6.000000 4.000000 1.000000 67.510937 19.563164 592.528364 1413.872559 16.147007 0.000000 0.102777
644.000000 59.608000 7.000000 4.000000 1.000000 73.224341 22.665029 525.548022 1292.606933 16.793292 0.000000 0.120582
645.000000 56.601000 8.000000 4.000000 1.000000 77.717676 25.342433 465.262474 1200.273256 17.683696 0.000000 0.126940
646.000000 53.443000 9.000000 4.000000 1.000000 81.308766 27.667319 410.715760 1126.768700 18.727179 0.000000 0.126238
647.000000 50.359000 10.000000 4.000000 1.000000 84.223372 29.698672 361.125657 1066.347744 19.872963 0.000000 0.121506
648.000000 47.449000 11.000000 4.000000 1.000000 86.622970 31.484521 315.845922 1015.474739 21.090493 0.000000 0.114692
649.000000 46.474000 4.000000 5.000000 1.000000 43.073026 6.068447 860.576771 2098.726550 21.549463 0.000000 0.188661
650.000000 50.987000 5.000000 5.000000 1.000000 52.869639 10.140247 782.502674 1768.822678 19.639724 0.000000 0.068908
651.000000 52.384000 6.000000 5.000000 1.000000 60.703570 13.733710 711.956766 1562.673910 19.113595 0.000000 0.065629
652.000000 51.948000 7.000000 5.000000 1.000000 66.983285 16.904703 647.900283 1418.879745 19.271999 0.000000 0.096955
653.000000 50.509000 8.000000 5.000000 1.000000 72.054077 19.707251 589.477170 1311.274228 19.818924 0.000000 0.117153
654.000000 48.572000 9.000000 5.000000 1.000000 76.188375 22.190729 535.975596 1226.760578 20.607529 0.000000 0.127193
655.000000 46.430000 10.000000 5.000000 1.000000 79.594754 24.398784 486.798814 1158.020385 21.556691 0.000000 0.130392
670.000000 72.265000 6.000000 1.000000 2.000000 71.937168 49.783329 -297.870875 1484.635587 13.850376 0.000000 0.304695
671.000000 66.749000 7.000000 1.000000 2.000000 76.649983 50.487306 -330.060133 1342.442502 14.993663 0.000000 0.295084
672.000000 61.611000 8.000000 1.000000 2.000000 80.303387 51.066190 -357.256687 1233.651760 16.243114 0.000000 0.291976
673.000000 56.994000 9.000000 1.000000 2.000000 83.212213 51.550511 -380.538525 1147.018982 17.558079 0.000000 0.292716
674.000000 52.900000 10.000000 1.000000 2.000000 85.579724 51.961635 -400.694134 1076.022661 18.916312 0.000000 0.295746
675.000000 49.281000 11.000000 1.000000 2.000000 87.542313 52.314956 -418.313573 1016.567067 20.304615 0.000000 0.300106
678.000000 69.418000 5.000000 2.000000 2.000000 60.726683 38.420923 121.299539 1711.076575 14.421723 0.000000 0.206093
679.000000 62.457000 7.000000 2.000000 2.000000 72.929729 41.831094 11.630313 1384.556368 16.025833 0.000000 0.179299
680.000000 54.513000 9.000000 2.000000 2.000000 80.323148 44.200123 -71.654937 1196.997363 18.358739 0.000000 0.171989
681.000000 47.718000 11.000000 2.000000 2.000000 85.221186 45.936211 -137.054997 1070.379610 20.970952 0.000000 0.175175
683.000000 56.515000 4.000000 3.000000 2.000000 44.969638 26.459052 439.339543 2144.498405 17.718894 0.000000 0.231475
684.000000 59.493000 5.000000 3.000000 2.000000 54.929324 29.485909 366.411384 1809.041119 16.829749 0.000000 0.163662
685.000000 58.970000 6.000000 3.000000 2.000000 62.491446 32.002196 302.399323 1601.930686 16.977129 0.000000 0.147189
686.000000 56.851000 7.000000 3.000000 2.000000 68.349571 34.119398 245.762450 1457.060475 17.607895 0.000000 0.142790
687.000000 54.096000 8.000000 3.000000 2.000000 72.980694 35.920858 195.295587 1347.818163 18.503045 0.000000 0.139455
688.000000 51.174000 9.000000 3.000000 2.000000 76.711635 37.469422 150.042576 1261.273950 19.558515 0.000000 0.135697
689.000000 48.306000 10.000000 3.000000 2.000000 79.768906 38.812997 109.235122 1190.306997 20.718520 0.000000 0.132031
690.000000 45.592000 11.000000 3.000000 2.000000 82.312234 39.988535 72.248812 1130.626460 21.950465 0.000000 0.129133
691.000000 49.571000 5.000000 4.000000 2.000000 49.005157 22.121637 537.488683 1950.771078 20.200716 0.000000 0.160846
692.000000 50.635000 7.000000 4.000000 2.000000 63.344464 27.437156 416.216224 1549.747370 19.771748 0.000000 0.121131
693.000000 47.273000 9.000000 4.000000 2.000000 72.630614 31.443595 316.902591 1335.604825 21.174399 0.000000 0.126693
704.000000 50.943000 7.000000 2.000000 3.000000 61.508761 44.773951 -92.835003 1763.896806 19.651019 0.000000 0.280444
705.000000 49.181000 8.000000 2.000000 3.000000 66.547466 45.702676 -128.022773 1609.582993 20.353387 0.000000 0.261869
706.000000 47.038000 9.000000 2.000000 3.000000 70.650850 46.501482 -159.236284 1490.077519 21.279041 0.000000 0.250455
707.000000 46.623000 7.000000 3.000000 3.000000 57.913235 37.703273 143.047041 1793.908824 21.473498 0.000000 0.215820
708.000000 45.734000 8.000000 3.000000 3.000000 63.267244 39.088733 100.670738 1639.417269 21.889163 0.000000 0.198822
#UB matrix in q= (UB) B0 G* 
#[[-0.809613292  0.088513606  0.579676508]
# [ 0.492144308 -0.436397453  0.753986104]
# [ 0.319875442  0.896335907  0.309997535]]
#B0 matrix in q= UB (B0) G*
#[[ 0.19670273 -0.          0.03056101]
# [ 0.          0.19187965 -0.        ]
# [ 0.          0.          0.18806537]]
#UBB0 matrix in q= (UB B0) G* i.e. recip. basis vectors are columns in LT frame: astar = UBB0[:,0], bstar = UBB0[:,1], cstar = UBB0[:,2]. (abcstar as columns on xyzlab1, xlab1 = ui, ui = unit vector along incident beam)
#[[-0.15925315  0.01698396  0.08427448]
# [ 0.09680613 -0.08373579  0.1568391 ]
# [ 0.06292037  0.17198862  0.06807552]]
#Euler angles phi theta psi (deg)
#[160.343  71.972  37.603]
#deviatoric strain in direct crystal frame (10-3 unit)
#[[ 4.86 -0.13 -0.73]
# [-0.13  3.87 -0.17]
# [-0.73 -0.17 -8.73]]
#deviatoric strain in sample2 frame (10-3 unit)
#[[-0.85 -6.41  0.31]
# [-6.42 -3.42  1.2 ]
# [ 0.3   1.2   4.27]]
#new lattice parameters
#[ 5.1505     5.2064717  5.314928  90.0076289 99.2783508 90.014789 ]
#CCDLabel
#sCMOS
#DetectorParameters
#[79.0, 975.0, 941.0, 0.0, 0.0]
#pixelsize
#0.0734
#Frame dimensions
#[2018, 2016]
#
