#Strain and Orientation Refinement from experimental file: /home/micha/LaueProjects/DepthEffects/testZrO2_151.cor
#File created at Wed Jun 28 14:27:22 2023 with indexingSpotsSet.py
#Number of indexed spots: 523
#Element
#ZrO2
#grainIndex
#G_0
#Mean Deviation(pixel): 0.111
##spot_index intensity h k l 2theta Chi Xexp Yexp Energy GrainIndex PixDev
14.000000 49.339000 -3.000000 1.000000 -1.000000 76.710088 -49.260607 2224.568715 1330.545663 6.757701 0.000000 0.307433
17.000000 47.532000 -10.000000 4.000000 -3.000000 83.880378 -48.810947 2204.915095 1116.227774 21.041292 0.000000 0.259331
18.000000 52.730000 -9.000000 4.000000 -3.000000 86.257055 -51.425630 2324.488220 1053.923142 18.965955 0.000000 0.311996
21.000000 49.686000 -10.000000 5.000000 -3.000000 92.241644 -50.829871 2296.072749 874.298255 20.125782 0.000000 0.278993
24.000000 46.593000 -11.000000 6.000000 -3.000000 97.060662 -50.300549 2271.427985 732.300196 21.460105 0.000000 0.258940
34.000000 47.600000 -8.000000 1.000000 -2.000000 59.757091 -41.429282 1924.859079 1777.917024 21.020420 0.000000 0.306674
35.000000 54.212000 -7.000000 1.000000 -2.000000 60.482566 -43.561805 1998.573920 1781.938418 18.455952 0.000000 0.332847
39.000000 48.631000 -9.000000 2.000000 -2.000000 70.248627 -41.428864 1924.845105 1456.430359 20.571162 0.000000 0.216591
40.000000 55.129000 -4.000000 1.000000 -1.000000 72.035204 -43.412595 1993.249169 1421.405978 9.072918 0.000000 0.231729
41.000000 63.362000 -7.000000 2.000000 -2.000000 74.163088 -45.941496 2087.260310 1380.046463 15.787075 0.000000 0.257980
43.000000 47.671000 -10.000000 3.000000 -2.000000 78.515963 -41.428495 1924.832768 1232.634457 20.982589 0.000000 0.169103
44.000000 53.491000 -9.000000 3.000000 -2.000000 80.879676 -43.282835 1988.639822 1178.350527 18.698548 0.000000 0.179777
45.000000 60.662000 -8.000000 3.000000 -2.000000 83.652001 -45.609803 2074.451767 1112.164673 16.487218 0.000000 0.200550
46.000000 69.615000 -7.000000 3.000000 -2.000000 86.919986 -48.604826 2196.023517 1028.582009 14.365760 0.000000 0.242554
48.000000 45.787000 -11.000000 4.000000 -2.000000 85.134650 -41.428166 1924.821796 1063.188655 21.843042 0.000000 0.139677
49.000000 50.822000 -5.000000 2.000000 -1.000000 87.792082 -43.168957 1984.610779 997.895343 9.839037 0.000000 0.148750
50.000000 56.861000 -9.000000 4.000000 -2.000000 90.854764 -45.323403 2063.513539 918.161535 17.587106 0.000000 0.168752
51.000000 64.164000 -4.000000 2.000000 -1.000000 94.396604 -48.049853 2172.439532 817.209162 7.792143 0.000000 0.210280
52.000000 73.049000 -7.000000 4.000000 -2.000000 98.490377 -51.591901 2332.551184 682.382284 13.687617 0.000000 0.292861
53.000000 47.847000 -11.000000 5.000000 -2.000000 93.305912 -43.068213 1981.058941 855.898479 20.899826 0.000000 0.129251
54.000000 52.892000 -10.000000 5.000000 -2.000000 96.467399 -45.073623 2054.063842 768.232588 18.905068 0.000000 0.151280
55.000000 58.833000 -9.000000 5.000000 -2.000000 100.062096 -47.574188 2152.626768 657.909620 16.994696 0.000000 0.194978
56.000000 65.849000 -8.000000 5.000000 -2.000000 104.144876 -50.764878 2293.016782 512.160499 15.183040 0.000000 0.275097
58.000000 49.121000 -11.000000 6.000000 -2.000000 100.943999 -44.853871 2045.818183 647.423220 20.355033 0.000000 0.142980
59.000000 53.991000 -5.000000 3.000000 -1.000000 104.482668 -47.162018 2135.747632 532.130990 9.258879 0.000000 0.189159
60.000000 59.606000 -9.000000 6.000000 -2.000000 108.443611 -50.061308 2260.468479 381.866491 16.772036 0.000000 0.266990
62.000000 45.671000 -12.000000 7.000000 -2.000000 104.587291 -44.659043 2038.560226 547.216900 21.890959 0.000000 0.140670
63.000000 49.707000 -11.000000 7.000000 -2.000000 108.017784 -46.801459 2121.195474 429.584376 20.112586 0.000000 0.188605
66.000000 45.950000 -6.000000 4.000000 -1.000000 110.903840 -46.483413 2108.520124 343.990656 10.877971 0.000000 0.190865
71.000000 45.607000 -9.000000 1.000000 -1.000000 61.960325 -33.445615 1685.915379 1627.991556 21.939077 0.000000 0.191295
72.000000 51.893000 -8.000000 1.000000 -1.000000 63.093401 -34.441411 1713.097252 1603.286727 19.281019 0.000000 0.191540
73.000000 60.088000 -7.000000 1.000000 -1.000000 64.510681 -35.724299 1749.088256 1573.048581 16.651021 0.000000 0.193162
74.000000 71.159000 -6.000000 1.000000 -1.000000 66.329443 -37.437262 1798.998791 1535.192812 14.059786 0.000000 0.197419
75.000000 86.811000 -5.000000 1.000000 -1.000000 68.736112 -39.834711 1872.839800 1486.449555 11.524254 0.000000 0.207293
76.000000 46.171000 -10.000000 2.000000 -1.000000 71.555199 -33.911485 1698.552953 1373.546338 21.667382 0.000000 0.137804
77.000000 52.179000 -9.000000 2.000000 -1.000000 73.546319 -34.897516 1725.763921 1328.558784 19.171925 0.000000 0.136287
78.000000 59.810000 -8.000000 2.000000 -1.000000 75.973487 -36.146489 1761.185732 1273.972784 16.724925 0.000000 0.134994
79.000000 69.754000 -7.000000 2.000000 -1.000000 78.988844 -37.777915 1809.195125 1205.967392 14.339788 0.000000 0.134251
80.000000 83.104000 -6.000000 2.000000 -1.000000 82.816870 -39.994798 1877.951623 1118.059311 12.035366 0.000000 0.135869
81.000000 50.544000 -10.000000 3.000000 -1.000000 81.684566 -35.297891 1736.999352 1133.744899 19.789171 0.000000 0.112084
82.000000 57.150000 -9.000000 3.000000 -1.000000 84.610080 -36.510576 1771.723348 1067.344134 17.500604 0.000000 0.108108
83.000000 65.436000 -8.000000 3.000000 -1.000000 88.135367 -38.064978 1817.860667 985.504938 15.283487 0.000000 0.103520
84.000000 76.020000 -7.000000 3.000000 -1.000000 92.444604 -40.125567 1882.145071 880.906564 13.154536 0.000000 0.101749
85.000000 89.790000 -6.000000 3.000000 -1.000000 97.787299 -42.978455 1977.904266 739.812349 11.136121 0.000000 0.117594
86.000000 48.111000 -11.000000 4.000000 -1.000000 88.139141 -35.652130 1747.033152 984.034166 20.787475 0.000000 0.095712
87.000000 53.692000 -10.000000 4.000000 -1.000000 91.280275 -36.827758 1780.984527 910.949306 18.625714 0.000000 0.089022
88.000000 60.466000 -9.000000 4.000000 -1.000000 94.972372 -38.310165 1825.316077 821.661879 16.537828 0.000000 0.082384
89.000000 68.778000 -8.000000 4.000000 -1.000000 99.353456 -40.234394 1885.647233 708.776724 14.537839 0.000000 0.083066
90.000000 79.075000 -7.000000 4.000000 -1.000000 104.596708 -42.825419 1972.546746 558.839121 12.643562 0.000000 0.110374
91.000000 50.123000 -11.000000 5.000000 -1.000000 96.553491 -37.106535 1789.187948 785.960664 19.949969 0.000000 0.073167
92.000000 55.665000 -10.000000 5.000000 -1.000000 100.241676 -38.522007 1831.798301 692.441787 17.962451 0.000000 0.067716
93.000000 62.256000 -9.000000 5.000000 -1.000000 104.518054 -40.326375 1888.616031 575.415970 16.059576 0.000000 0.076472
94.000000 70.128000 -8.000000 5.000000 -1.000000 109.502135 -42.699788 1968.168394 422.327997 14.255622 0.000000 0.115623
95.000000 79.535000 -7.000000 5.000000 -1.000000 115.323306 -45.948012 2087.513436 208.525094 12.568273 0.000000 0.198809
97.000000 46.726000 -12.000000 6.000000 -1.000000 100.809980 -37.353472 1796.505039 682.468790 21.398456 0.000000 0.060502
98.000000 51.297000 -11.000000 6.000000 -1.000000 104.410555 -38.706870 1837.486215 586.601558 19.490489 0.000000 0.060052
99.000000 56.601000 -10.000000 6.000000 -1.000000 108.509926 -40.405139 1891.164686 467.802694 17.662888 0.000000 0.079130
100.000000 62.764000 -9.000000 6.000000 -1.000000 113.191704 -42.594805 1964.523250 314.618722 15.927263 0.000000 0.125857
101.000000 69.912000 -8.000000 6.000000 -1.000000 118.541303 -45.514881 2070.814189 105.599577 14.297576 0.000000 0.207653
103.000000 47.413000 -12.000000 7.000000 -1.000000 107.782746 -38.869595 1842.517388 497.623026 21.086033 0.000000 0.059463
104.000000 51.748000 -11.000000 7.000000 -1.000000 111.680643 -40.473343 1893.376491 378.513013 19.318303 0.000000 0.087062
105.000000 56.680000 -10.000000 7.000000 -1.000000 116.062098 -42.505769 1961.441367 226.971373 17.636051 0.000000 0.137280
108.000000 47.582000 -12.000000 8.000000 -1.000000 114.256277 -40.532979 1895.314089 302.899163 21.009022 0.000000 0.097145
109.000000 51.605000 -11.000000 8.000000 -1.000000 118.356190 -42.429301 1958.801554 154.007940 19.369562 0.000000 0.148338
112.000000 47.326000 -12.000000 9.000000 -1.000000 120.230301 -42.362917 1956.515058 92.187447 21.120354 0.000000 0.158496
118.000000 51.382000 -2.000000 0.000000 0.000000 52.021662 -25.613521 1490.986144 1872.806245 5.564857 0.000000 0.237186
119.000000 48.189000 -9.000000 1.000000 0.000000 64.267194 -26.618727 1514.408099 1521.246197 20.763527 0.000000 0.123552
120.000000 55.264000 -8.000000 1.000000 0.000000 65.782624 -26.752214 1517.549135 1483.126608 18.104836 0.000000 0.117301
121.000000 64.659000 -7.000000 1.000000 0.000000 67.723311 -26.926576 1521.663116 1435.521233 15.473706 0.000000 0.111370
122.000000 77.673000 -6.000000 1.000000 0.000000 70.295609 -27.163975 1527.284943 1374.247878 12.880497 0.000000 0.106541
123.000000 96.736000 -5.000000 1.000000 0.000000 73.863063 -27.506126 1535.429601 1292.095509 10.341509 0.000000 0.103944
124.000000 126.878000 -4.000000 1.000000 0.000000 79.127422 -28.041931 1548.286564 1175.224502 7.883946 0.000000 0.104144
125.000000 179.983000 -3.000000 1.000000 0.000000 87.622174 -29.000426 1571.610122 992.099955 5.556863 0.000000 0.102505
126.000000 54.963000 -9.000000 2.000000 0.000000 76.216592 -27.740824 1541.045741 1239.321155 18.200386 0.000000 0.103754
127.000000 74.648000 -7.000000 2.000000 0.000000 82.814193 -28.442252 1557.976291 1095.324002 13.399259 0.000000 0.104384
128.000000 111.870000 -5.000000 2.000000 0.000000 94.124093 -29.832538 1592.211502 851.540439 8.939119 0.000000 0.093644
129.000000 144.544000 -4.000000 2.000000 0.000000 103.322888 -31.204977 1626.954784 643.006941 6.917248 0.000000 0.065441
130.000000 195.467000 -3.000000 2.000000 0.000000 117.059874 -33.891628 1698.011481 278.644947 5.113959 0.000000 0.024591
131.000000 47.024000 -11.000000 3.000000 0.000000 81.481165 -28.294921 1554.401685 1124.090796 21.270990 0.000000 0.104404
132.000000 52.808000 -10.000000 3.000000 0.000000 84.270028 -28.606699 1561.977955 1064.013777 18.940534 0.000000 0.104147
133.000000 69.093000 -8.000000 3.000000 0.000000 91.718812 -29.513240 1584.266381 903.886909 14.474178 0.000000 0.097894
134.000000 80.849000 -7.000000 3.000000 0.000000 96.822494 -30.208662 1601.636082 791.996190 12.368352 0.000000 0.087394
135.000000 117.227000 -5.000000 3.000000 0.000000 111.809073 -32.750091 1667.298152 428.912996 8.527827 0.000000 0.022662
136.000000 145.536000 -4.000000 3.000000 0.000000 123.168276 -35.463615 1741.682465 77.316600 6.867813 0.000000 0.078296
138.000000 49.952000 -11.000000 4.000000 0.000000 90.612240 -29.371029 1580.743865 927.802292 20.020716 0.000000 0.099453
139.000000 63.242000 -9.000000 4.000000 0.000000 98.297737 -30.422984 1607.038610 758.964742 15.811412 0.000000 0.083284
140.000000 83.551000 -7.000000 4.000000 0.000000 109.458904 -32.289268 1655.122866 491.172275 11.965573 0.000000 0.035590
141.000000 115.518000 -5.000000 4.000000 0.000000 126.595279 -36.494010 1771.241739 -53.116365 8.652016 0.000000 0.115477
142.000000 46.943000 -12.000000 5.000000 0.000000 95.704811 -30.050457 1597.663217 816.783712 21.302129 0.000000 0.090178
143.000000 51.916000 -11.000000 5.000000 0.000000 99.227497 -30.561426 1610.540999 737.940094 19.260399 0.000000 0.080435
144.000000 64.868000 -9.000000 5.000000 0.000000 108.127414 -32.040160 1648.592720 525.325769 15.412112 0.000000 0.042748
145.000000 73.333000 -8.000000 5.000000 0.000000 113.816321 -33.166952 1678.420938 373.469293 13.631834 0.000000 0.014124
146.000000 83.504000 -7.000000 5.000000 0.000000 120.611748 -34.768802 1722.175185 165.774562 11.970171 0.000000 0.053626
147.000000 95.644000 -6.000000 5.000000 0.000000 128.783092 -37.221140 1792.577913 -145.063819 10.449505 0.000000 0.141721
148.000000 53.002000 -11.000000 6.000000 0.000000 107.270520 -31.884125 1644.520499 546.919430 18.862856 0.000000 0.047180
150.000000 48.790000 -12.000000 7.000000 0.000000 110.445417 -32.479305 1660.128663 465.361537 20.490187 0.000000 0.030140
151.000000 53.339000 -11.000000 7.000000 0.000000 114.713541 -33.360805 1683.629391 347.927822 18.741414 0.000000 0.013595
152.000000 58.525000 -10.000000 7.000000 0.000000 119.563454 -34.499917 1714.714263 200.200925 17.079297 0.000000 0.044317
153.000000 64.420000 -9.000000 7.000000 0.000000 125.093882 -36.027426 1757.760994 5.885162 15.515209 0.000000 0.098610
155.000000 53.068000 -11.000000 8.000000 0.000000 121.551974 -35.017664 1729.123962 134.018660 18.834975 0.000000 0.062386
157.000000 52.329000 -11.000000 9.000000 0.000000 127.798129 -36.886470 1782.707222 -102.730347 19.099230 0.000000 0.129656
161.000000 49.822000 -9.000000 1.000000 1.000000 65.864952 -19.403717 1354.101525 1452.280176 20.082934 0.000000 0.080941
162.000000 57.264000 -8.000000 1.000000 1.000000 67.552496 -18.562130 1336.421263 1410.061858 17.472659 0.000000 0.077476
163.000000 67.148000 -7.000000 1.000000 1.000000 69.699290 -17.458450 1313.496366 1358.374985 14.900242 0.000000 0.078544
164.000000 80.815000 -6.000000 1.000000 1.000000 72.515739 -15.949045 1282.586800 1293.602179 12.379718 0.000000 0.086649
165.000000 100.715000 -5.000000 1.000000 1.000000 76.355972 -13.763752 1238.641350 1209.982459 9.933028 0.000000 0.103394
166.000000 131.679000 -4.000000 1.000000 1.000000 81.849350 -10.331629 1171.209650 1097.690759 7.596519 0.000000 0.128341
167.000000 184.017000 -3.000000 1.000000 1.000000 90.146954 -4.229630 1054.597722 938.231939 5.435076 0.000000 0.156019
168.000000 49.806000 -10.000000 2.000000 1.000000 75.501389 -20.734125 1382.430455 1238.595023 20.085707 0.000000 0.098502
169.000000 56.692000 -9.000000 2.000000 1.000000 78.033454 -20.115141 1369.190325 1183.934871 17.645280 0.000000 0.105746
170.000000 65.544000 -8.000000 2.000000 1.000000 81.160208 -19.317020 1352.271865 1118.370086 15.261506 0.000000 0.115215
171.000000 77.239000 -7.000000 2.000000 1.000000 85.109416 -18.249343 1329.894947 1037.970119 12.949731 0.000000 0.126455
172.000000 93.196000 -6.000000 2.000000 1.000000 90.233575 -16.749123 1298.909850 936.417913 10.731397 0.000000 0.138204
173.000000 115.776000 -5.000000 2.000000 1.000000 97.096571 -14.490907 1253.166395 802.603106 8.637397 0.000000 0.147340
174.000000 148.918000 -4.000000 2.000000 1.000000 106.615110 -10.723453 1178.824249 614.125336 6.713930 0.000000 0.145843
175.000000 198.595000 -3.000000 2.000000 1.000000 120.170164 -3.289842 1036.867281 314.299057 5.033320 0.000000 0.111030
176.000000 48.267000 -11.000000 3.000000 1.000000 83.124547 -21.918864 1408.079207 1080.890265 20.723360 0.000000 0.115326
177.000000 54.272000 -10.000000 3.000000 1.000000 86.088103 -21.478677 1398.500958 1020.091496 18.429283 0.000000 0.121134
178.000000 61.736000 -9.000000 3.000000 1.000000 89.650952 -20.919680 1386.420473 948.019634 16.200088 0.000000 0.126735
179.000000 71.180000 -8.000000 3.000000 1.000000 94.004339 -20.186435 1370.709899 860.725384 14.049627 0.000000 0.131069
180.000000 83.357000 -7.000000 3.000000 1.000000 99.423052 -19.182830 1349.443716 751.874499 11.995994 0.000000 0.132198
181.000000 99.353000 -6.000000 3.000000 1.000000 106.308828 -17.726702 1319.042085 610.392144 10.063290 0.000000 0.126483
182.000000 120.669000 -5.000000 3.000000 1.000000 115.251275 -15.427082 1272.008233 414.383263 8.284334 0.000000 0.106966
183.000000 149.065000 -4.000000 3.000000 1.000000 127.078063 -11.273849 1189.554007 111.649480 6.705009 0.000000 0.061118
185.000000 46.062000 -12.000000 4.000000 1.000000 89.248093 -22.979750 1431.410955 956.342853 21.712613 0.000000 0.120363
186.000000 51.187000 -11.000000 4.000000 1.000000 92.403968 -22.684121 1424.873220 892.026918 19.537537 0.000000 0.122518
187.000000 57.373000 -10.000000 4.000000 1.000000 96.114390 -22.313818 1416.723720 816.371501 17.429822 0.000000 0.123037
188.000000 64.924000 -9.000000 4.000000 1.000000 100.528685 -21.836504 1406.282625 725.500981 15.401332 0.000000 0.120662
189.000000 74.243000 -8.000000 4.000000 1.000000 105.849117 -21.198065 1392.425227 613.266914 13.466890 0.000000 0.113369
190.000000 85.847000 -7.000000 4.000000 1.000000 112.351904 -20.300633 1373.146857 469.129955 11.645267 0.000000 0.097909
191.000000 100.353000 -6.000000 4.000000 1.000000 120.413496 -18.947403 1344.493016 273.007246 9.960579 0.000000 0.069442
192.000000 118.355000 -5.000000 4.000000 1.000000 130.532301 -16.676720 1297.427144 -19.699872 8.444349 0.000000 0.027474
194.000000 47.987000 -12.000000 5.000000 1.000000 97.454558 -23.756558 1448.727875 787.133703 20.838375 0.000000 0.116148
195.000000 53.110000 -11.000000 5.000000 1.000000 101.161211 -23.536273 1443.796504 709.375697 18.826853 0.000000 0.112167
196.000000 59.188000 -10.000000 5.000000 1.000000 105.477775 -23.256724 1437.562137 616.608255 16.892374 0.000000 0.104467
197.000000 66.440000 -9.000000 5.000000 1.000000 110.551981 -22.890297 1429.429731 502.983478 15.047095 0.000000 0.091212
198.000000 75.127000 -8.000000 5.000000 1.000000 116.575379 -22.389096 1418.376870 358.716977 13.305872 0.000000 0.069878
199.000000 85.524000 -7.000000 5.000000 1.000000 123.795114 -21.662149 1402.486103 165.874728 11.687054 0.000000 0.038582
200.000000 97.850000 -6.000000 5.000000 1.000000 132.523453 -20.513132 1377.691136 -112.877123 10.213574 0.000000 0.029947
202.000000 49.183000 -12.000000 6.000000 1.000000 105.191505 -24.615985 1468.129258 619.533805 20.328852 0.000000 0.098157
203.000000 54.133000 -11.000000 6.000000 1.000000 109.340669 -24.490560 1465.281415 525.880784 18.468584 0.000000 0.086469
204.000000 59.889000 -10.000000 6.000000 1.000000 114.122906 -24.329064 1461.622919 412.061088 16.692180 0.000000 0.069191
205.000000 66.587000 -9.000000 6.000000 1.000000 119.673758 -24.113328 1456.750192 269.116637 15.011624 0.000000 0.044779
206.000000 74.359000 -8.000000 6.000000 1.000000 126.160893 -23.810523 1449.938472 81.219481 13.441300 0.000000 0.019860
207.000000 83.291000 -7.000000 6.000000 1.000000 133.788166 -23.354644 1439.742917 -182.774747 11.998620 0.000000 0.051141
209.000000 45.649000 -13.000000 7.000000 1.000000 108.473433 -25.575927 1490.117921 542.371841 21.901032 0.000000 0.083032
210.000000 49.735000 -12.000000 7.000000 1.000000 112.429000 -25.571494 1490.015570 448.504889 20.100650 0.000000 0.068447
211.000000 54.390000 -11.000000 7.000000 1.000000 116.916546 -25.565875 1489.885863 335.266316 18.378921 0.000000 0.048614
212.000000 59.690000 -10.000000 7.000000 1.000000 122.034148 -25.558523 1489.716139 194.517439 16.745690 0.000000 0.023993
213.000000 65.700000 -9.000000 7.000000 1.000000 127.899111 -25.548486 1489.484505 12.351971 15.212512 0.000000 0.026421
214.000000 72.455000 -8.000000 7.000000 1.000000 134.649501 -25.533969 1489.149527 -237.289709 13.793051 0.000000 0.071361
216.000000 45.916000 -13.000000 8.000000 1.000000 114.948502 -26.525646 1512.222170 381.384836 21.771325 0.000000 0.051206
217.000000 49.746000 -12.000000 8.000000 1.000000 119.156229 -26.639520 1514.896881 269.248380 20.093997 0.000000 0.030086
218.000000 54.032000 -11.000000 8.000000 1.000000 123.887058 -26.785879 1518.342451 131.221365 18.498677 0.000000 0.014001
219.000000 58.808000 -10.000000 8.000000 1.000000 129.225331 -26.980932 1522.948231 -44.905164 16.994846 0.000000 0.042955
220.000000 64.088000 -9.000000 8.000000 1.000000 135.267582 -27.253824 1529.418867 -281.059513 15.593503 0.000000 0.088866
222.000000 45.790000 -13.000000 9.000000 1.000000 120.988627 -27.579662 1537.186690 211.718115 21.829220 0.000000 0.014786
223.000000 49.321000 -12.000000 9.000000 1.000000 125.377376 -27.840287 1543.433112 76.718822 20.264936 0.000000 0.023424
224.000000 53.204000 -11.000000 9.000000 1.000000 130.267846 -28.180511 1551.632665 -93.331382 18.784865 0.000000 0.059045
225.000000 57.441000 -10.000000 9.000000 1.000000 135.729409 -28.643335 1562.871159 -317.006934 17.398051 0.000000 0.103919
227.000000 48.561000 -12.000000 10.000000 1.000000 131.107361 -29.198900 1576.493433 -134.863283 20.580417 0.000000 0.073511
233.000000 47.147000 -8.000000 0.000000 2.000000 54.190790 -10.038502 1165.525549 1729.583510 21.227360 0.000000 0.129006
234.000000 53.721000 -7.000000 0.000000 2.000000 54.219736 -7.805403 1122.537372 1723.938361 18.629584 0.000000 0.122133
235.000000 62.196000 -6.000000 0.000000 2.000000 54.149828 -4.857397 1066.464851 1721.484624 16.091091 0.000000 0.116575
236.000000 73.342000 -5.000000 0.000000 2.000000 53.853573 -0.812404 990.261940 1727.263002 13.645889 0.000000 0.115889
237.000000 88.100000 -4.000000 0.000000 2.000000 53.020209 5.006330 880.716639 1754.554530 11.360148 0.000000 0.129349
238.000000 106.676000 -3.000000 0.000000 2.000000 50.832544 13.841127 709.817452 1844.007478 9.381997 0.000000 0.180384
239.000000 123.175000 -2.000000 0.000000 2.000000 45.063321 27.865083 405.971042 2155.769743 8.125314 0.000000 0.342130
241.000000 50.326000 -9.000000 1.000000 2.000000 66.625449 -12.008134 1203.933118 1416.593564 19.882095 0.000000 0.056181
242.000000 57.616000 -8.000000 1.000000 2.000000 68.224426 -10.175214 1168.175276 1377.825174 17.366138 0.000000 0.059537
243.000000 67.113000 -7.000000 1.000000 2.000000 70.181074 -7.789925 1122.241169 1332.504352 14.908053 0.000000 0.069009
244.000000 79.854000 -6.000000 1.000000 2.000000 72.604246 -4.571938 1061.066041 1279.278975 12.528989 0.000000 0.084131
245.000000 97.491000 -5.000000 1.000000 2.000000 75.617699 -0.029580 975.555652 1216.991072 10.261829 0.000000 0.103003
246.000000 122.584000 -4.000000 1.000000 2.000000 79.279264 6.751477 847.584052 1146.194315 8.160642 0.000000 0.121037
247.000000 158.244000 -3.000000 1.000000 2.000000 83.197717 17.527465 635.078424 1075.634542 6.321014 0.000000 0.125046
248.000000 57.177000 -9.000000 2.000000 2.000000 78.840063 -12.260825 1208.899338 1158.286113 17.495736 0.000000 0.114989
249.000000 77.083000 -7.000000 2.000000 2.000000 85.546712 -7.771852 1121.895337 1025.600443 12.976094 0.000000 0.142637
250.000000 112.219000 -5.000000 2.000000 2.000000 95.899996 0.942887 957.286381 829.760825 8.911456 0.000000 0.164034
251.000000 139.769000 -4.000000 2.000000 2.000000 102.948349 9.021355 804.120502 690.440208 7.153949 0.000000 0.154984
252.000000 175.961000 -3.000000 2.000000 2.000000 110.664272 22.569441 527.655291 501.402538 5.681594 0.000000 0.092680
253.000000 48.823000 -11.000000 3.000000 2.000000 84.054911 -15.335622 1270.160156 1057.218463 20.487182 0.000000 0.129106
254.000000 54.811000 -10.000000 3.000000 2.000000 87.004679 -14.105818 1245.462626 999.068998 18.248231 0.000000 0.138186
255.000000 62.194000 -9.000000 3.000000 2.000000 90.510083 -12.547500 1214.545009 931.183450 16.080940 0.000000 0.147120
256.000000 71.430000 -8.000000 3.000000 2.000000 94.723860 -10.512332 1174.718980 850.542981 14.000483 0.000000 0.154822
257.000000 83.145000 -7.000000 3.000000 2.000000 99.844016 -7.750472 1121.486261 752.518266 12.026643 0.000000 0.159251
258.000000 98.161000 -6.000000 3.000000 2.000000 106.110129 -3.811647 1046.707145 629.448316 10.185705 0.000000 0.156374
259.000000 117.427000 -5.000000 3.000000 2.000000 113.744617 2.182572 933.980814 467.196162 8.513370 0.000000 0.137648
260.000000 141.592000 -4.000000 3.000000 2.000000 122.677183 12.082738 744.601648 234.995893 7.059383 0.000000 0.083160
261.000000 169.530000 -3.000000 3.000000 2.000000 131.488737 29.739504 360.108686 -155.232753 5.895191 0.000000 0.085182
262.000000 51.729000 -11.000000 4.000000 2.000000 93.400732 -15.746323 1278.471808 874.548810 19.332840 0.000000 0.143425
263.000000 65.349000 -9.000000 4.000000 2.000000 101.448072 -12.875492 1221.019812 717.419535 15.301235 0.000000 0.148789
264.000000 85.632000 -7.000000 4.000000 2.000000 112.789671 -7.724787 1120.994850 484.654581 11.674512 0.000000 0.135201
265.000000 115.713000 -5.000000 4.000000 2.000000 128.846400 3.815324 903.223477 72.275835 8.637439 0.000000 0.063193
266.000000 134.481000 -4.000000 4.000000 2.000000 138.363008 16.405555 658.115984 -321.067155 7.431035 0.000000 0.050658
267.000000 48.506000 -12.000000 5.000000 2.000000 98.505417 -17.212258 1308.421077 772.496289 20.615402 0.000000 0.139380
268.000000 53.628000 -11.000000 5.000000 2.000000 102.226318 -16.205444 1287.803301 698.129458 18.645156 0.000000 0.138905
269.000000 59.671000 -10.000000 5.000000 2.000000 106.530073 -14.927637 1261.935758 610.415965 16.755616 0.000000 0.135330
270.000000 66.830000 -9.000000 5.000000 2.000000 111.541016 -13.254399 1228.520871 504.518994 14.959439 0.000000 0.126983
271.000000 75.319000 -8.000000 5.000000 2.000000 117.406370 -10.973371 1183.691342 372.556656 13.272077 0.000000 0.111340
272.000000 85.338000 -7.000000 5.000000 2.000000 124.284731 -7.693348 1120.393462 200.557140 11.712589 0.000000 0.084663
273.000000 96.985000 -6.000000 5.000000 2.000000 132.297245 -2.620175 1024.254005 -39.282705 10.304764 0.000000 0.042186
274.000000 110.071000 -5.000000 5.000000 2.000000 141.352580 6.058786 860.760303 -412.524934 9.078677 0.000000 0.026304
275.000000 54.618000 -11.000000 6.000000 2.000000 110.476936 -16.722016 1298.354603 521.337091 18.304196 0.000000 0.119084
276.000000 66.940000 -9.000000 6.000000 2.000000 120.743977 -13.697031 1237.313180 282.086803 14.932343 0.000000 0.088328
277.000000 83.146000 -7.000000 6.000000 2.000000 134.366302 -7.653981 1119.640526 -121.209664 12.019595 0.000000 0.024734
279.000000 46.109000 -13.000000 7.000000 2.000000 109.620455 -19.083795 1347.359434 535.002795 21.682412 0.000000 0.112413
280.000000 50.199000 -12.000000 7.000000 2.000000 113.614727 -18.301384 1330.979143 445.379583 19.914698 0.000000 0.102184
281.000000 54.840000 -11.000000 7.000000 2.000000 118.128121 -17.307438 1310.381620 338.346511 18.227882 0.000000 0.087541
282.000000 60.097000 -10.000000 7.000000 2.000000 123.246538 -16.003698 1283.697595 206.996424 16.632039 0.000000 0.067378
283.000000 66.018000 -9.000000 7.000000 2.000000 129.064903 -14.220873 1247.761558 39.797000 15.138993 0.000000 0.041442
284.000000 72.614000 -8.000000 7.000000 2.000000 135.677823 -11.641933 1196.752514 -184.214126 13.762706 0.000000 0.018866
287.000000 46.348000 -13.000000 8.000000 2.000000 116.159669 -19.700181 1360.372986 379.471735 21.568078 0.000000 0.085647
288.000000 54.445000 -11.000000 8.000000 2.000000 125.179858 -17.976307 1324.217222 143.388368 18.358145 0.000000 0.049011
289.000000 64.375000 -9.000000 8.000000 2.000000 136.547223 -14.850412 1260.382541 -234.308640 15.524012 0.000000 0.028192
291.000000 46.193000 -13.000000 9.000000 2.000000 122.266455 -20.388067 1375.015110 216.062643 21.638691 0.000000 0.053017
292.000000 49.718000 -12.000000 9.000000 2.000000 126.710826 -19.678721 1359.918229 88.658133 20.102804 0.000000 0.033889
293.000000 53.580000 -11.000000 9.000000 2.000000 131.650005 -18.747606 1340.302531 -69.894300 18.652751 0.000000 0.023546
294.000000 57.773000 -10.000000 9.000000 2.000000 137.144869 -17.472289 1313.782071 -275.161992 17.297714 0.000000 0.041620
297.000000 45.719000 -13.000000 10.000000 2.000000 127.948586 -21.160421 1391.611924 40.975394 21.860993 0.000000 0.023864
298.000000 52.375000 -11.000000 10.000000 2.000000 137.568113 -19.646459 1359.234819 -309.153572 19.080241 0.000000 0.054897
300.000000 47.885000 -12.000000 11.000000 2.000000 137.875304 -21.473648 1398.391860 -337.900373 20.869272 0.000000 0.067256
304.000000 49.666000 -9.000000 1.000000 3.000000 66.512162 -4.672668 1062.970615 1410.274143 20.146420 0.000000 0.040002
305.000000 56.314000 -8.000000 1.000000 3.000000 67.773387 -1.941463 1011.484118 1381.063469 17.767743 0.000000 0.047790
306.000000 64.653000 -7.000000 1.000000 3.000000 69.185439 1.547831 945.917116 1350.308212 15.475672 0.000000 0.059117
307.000000 75.219000 -6.000000 1.000000 3.000000 70.705155 6.120986 859.578585 1319.964686 13.301420 0.000000 0.071986
308.000000 88.592000 -5.000000 1.000000 3.000000 72.173733 12.279149 740.740178 1295.207855 11.293249 0.000000 0.083923
309.000000 104.979000 -4.000000 1.000000 3.000000 73.139611 20.770100 566.796750 1289.862902 9.529948 0.000000 0.093334
310.000000 122.757000 -3.000000 1.000000 3.000000 72.477581 32.555746 287.851820 1344.167793 8.149498 0.000000 0.122164
311.000000 134.869000 -2.000000 1.000000 3.000000 67.893408 48.282742 -232.273867 1597.966888 7.417534 0.000000 0.323548
312.000000 49.983000 -10.000000 2.000000 3.000000 76.382777 -6.795520 1103.254963 1203.570095 20.014974 0.000000 0.106176
313.000000 56.387000 -9.000000 2.000000 3.000000 78.592843 -4.464937 1059.043491 1158.819948 17.741256 0.000000 0.118073
314.000000 64.329000 -8.000000 2.000000 3.000000 81.165493 -1.514262 1003.451861 1108.341411 15.550232 0.000000 0.130347
315.000000 74.293000 -7.000000 2.000000 3.000000 84.150290 2.317775 931.437108 1051.359790 13.463850 0.000000 0.141552
316.000000 86.879000 -6.000000 2.000000 3.000000 87.553965 7.439446 834.460233 987.366706 11.512578 0.000000 0.148708
317.000000 102.682000 -5.000000 2.000000 3.000000 91.240827 14.491509 696.821534 916.921516 9.739985 0.000000 0.145345
318.000000 121.797000 -4.000000 2.000000 3.000000 94.681110 24.426829 486.163452 844.205695 8.210626 0.000000 0.117236
319.000000 142.354000 -3.000000 2.000000 3.000000 96.427690 38.352176 123.401409 786.382971 7.024415 0.000000 0.076048
321.000000 48.660000 -11.000000 3.000000 3.000000 84.225641 -8.712725 1139.940815 1051.110019 20.556253 0.000000 0.137850
322.000000 54.388000 -10.000000 3.000000 3.000000 86.967718 -6.724077 1101.894066 998.409178 18.390397 0.000000 0.147342
323.000000 69.849000 -8.000000 3.000000 3.000000 93.839786 -1.022630 994.212014 868.750393 14.317696 0.000000 0.162439
324.000000 80.322000 -7.000000 3.000000 3.000000 98.108858 3.220977 914.430523 787.408241 12.449850 0.000000 0.163890
325.000000 108.667000 -5.000000 3.000000 3.000000 108.140023 17.210577 641.613522 571.851387 9.200513 0.000000 0.124048
326.000000 126.326000 -4.000000 3.000000 3.000000 112.914396 29.000844 378.379616 420.811698 7.913616 0.000000 0.042711
327.000000 143.853000 -3.000000 3.000000 3.000000 115.359797 45.527318 -121.290094 212.824993 6.948931 0.000000 0.185831
328.000000 46.575000 -12.000000 4.000000 3.000000 90.532570 -10.449059 1173.489722 930.826737 21.473492 0.000000 0.150475
329.000000 51.546000 -11.000000 4.000000 3.000000 93.548498 -8.752321 1140.702175 873.470176 19.401647 0.000000 0.156511
330.000000 57.447000 -10.000000 4.000000 3.000000 97.009172 -6.643670 1100.362892 807.778175 17.407622 0.000000 0.160947
331.000000 64.492000 -9.000000 4.000000 3.000000 100.991560 -3.960874 1049.523298 731.453614 15.504939 0.000000 0.162424
332.000000 72.926000 -8.000000 4.000000 3.000000 105.569806 -0.450891 983.470117 641.095276 13.710451 0.000000 0.158618
333.000000 82.999000 -7.000000 4.000000 3.000000 110.784786 4.294715 894.172872 531.330818 12.045422 0.000000 0.145366
334.000000 94.870000 -6.000000 4.000000 3.000000 116.564175 10.951112 766.742487 392.892194 10.537085 0.000000 0.114697
335.000000 108.400000 -5.000000 4.000000 3.000000 122.526751 20.615220 570.121240 207.659546 9.220883 0.000000 0.050665
336.000000 122.726000 -4.000000 4.000000 3.000000 127.566110 34.799995 226.956126 -67.153449 8.143822 0.000000 0.104440
337.000000 48.473000 -12.000000 5.000000 3.000000 98.804915 -10.578967 1176.014093 771.403644 20.629483 0.000000 0.155245
338.000000 53.439000 -11.000000 5.000000 3.000000 102.360296 -8.796614 1141.554037 702.335823 18.711227 0.000000 0.155851
339.000000 59.238000 -10.000000 5.000000 3.000000 106.406926 -6.552500 1098.627352 622.004210 16.878357 0.000000 0.153167
340.000000 66.015000 -9.000000 5.000000 3.000000 111.014758 -3.651009 1043.676735 526.690358 15.144182 0.000000 0.145280
341.000000 73.912000 -8.000000 5.000000 3.000000 116.237769 0.222119 970.827498 410.512025 13.524936 0.000000 0.129079
342.000000 83.016000 -7.000000 5.000000 3.000000 122.069813 5.591301 869.633396 263.407965 12.040614 0.000000 0.099367
343.000000 93.267000 -6.000000 5.000000 3.000000 128.336306 13.351370 719.555701 66.243331 10.716137 0.000000 0.048826
344.000000 104.287000 -5.000000 5.000000 3.000000 134.442726 24.965985 473.893423 -223.357991 9.582969 0.000000 0.071427
346.000000 45.455000 -13.000000 6.000000 3.000000 103.070906 -12.229435 1208.281909 685.312252 21.997144 0.000000 0.148422
347.000000 54.434000 -11.000000 6.000000 3.000000 110.606798 -8.846492 1142.513556 531.429543 18.366284 0.000000 0.139893
348.000000 59.928000 -10.000000 6.000000 3.000000 115.107166 -6.448250 1096.643605 433.451860 16.681403 0.000000 0.129043
349.000000 73.292000 -8.000000 6.000000 3.000000 125.818037 1.025678 955.730709 164.112430 13.637299 0.000000 0.082565
350.000000 81.174000 -7.000000 6.000000 3.000000 131.982341 7.186287 839.294104 -35.167357 12.311960 0.000000 0.040645
352.000000 46.162000 -13.000000 7.000000 3.000000 110.058705 -12.454287 1212.707937 538.541087 21.657593 0.000000 0.133535
353.000000 50.161000 -12.000000 7.000000 3.000000 113.934398 -10.885115 1181.971633 454.526046 19.929656 0.000000 0.125107
354.000000 54.668000 -11.000000 7.000000 3.000000 118.263631 -8.903083 1143.602518 355.299406 18.285406 0.000000 0.112196
355.000000 59.727000 -10.000000 7.000000 3.000000 123.095551 -6.327889 1094.354303 235.191473 16.735217 0.000000 0.093207
356.000000 65.362000 -9.000000 7.000000 3.000000 128.462844 -2.863521 1028.835720 84.946983 15.291250 0.000000 0.066143
357.000000 71.549000 -8.000000 7.000000 3.000000 134.349726 2.001416 937.388335 -111.779003 13.967860 0.000000 0.029860
358.000000 78.180000 -7.000000 7.000000 3.000000 140.615820 9.192481 800.823305 -387.096408 12.782108 0.000000 0.033606
360.000000 46.397000 -13.000000 8.000000 3.000000 116.620896 -12.704367 1217.639594 388.002312 21.545363 0.000000 0.110061
361.000000 50.142000 -12.000000 8.000000 3.000000 120.753396 -11.067204 1185.520823 288.450158 19.935009 0.000000 0.095788
362.000000 54.289000 -11.000000 8.000000 3.000000 125.330696 -8.967838 1144.849010 168.633755 18.410899 0.000000 0.076443
363.000000 58.849000 -10.000000 8.000000 3.000000 130.387523 -6.187372 1091.682961 20.041022 16.982916 0.000000 0.050966
364.000000 63.806000 -9.000000 8.000000 3.000000 135.932887 -2.352730 1019.220614 -171.864004 15.662511 0.000000 0.019001
365.000000 69.093000 -8.000000 8.000000 3.000000 141.909569 3.210514 914.627693 -434.279675 14.463031 0.000000 0.020412
367.000000 46.239000 -13.000000 9.000000 3.000000 122.755720 -12.984163 1223.168774 230.383459 21.617131 0.000000 0.080305
368.000000 53.443000 -11.000000 9.000000 3.000000 131.825813 -9.042663 1146.289881 -34.312617 18.700735 0.000000 0.037672
369.000000 57.488000 -10.000000 9.000000 3.000000 137.018509 -6.021174 1088.525239 -220.338958 17.383612 0.000000 0.012110
371.000000 45.763000 -13.000000 10.000000 3.000000 128.471382 -13.299288 1229.411072 62.185993 21.839926 0.000000 0.047498
372.000000 48.900000 -12.000000 10.000000 3.000000 132.925544 -11.510371 1194.177433 -80.594623 20.437434 0.000000 0.027300
373.000000 52.257000 -11.000000 10.000000 3.000000 137.778761 -9.130103 1147.974442 -260.323416 19.123572 0.000000 0.015808
376.000000 47.867000 -12.000000 11.000000 3.000000 138.320431 -11.783743 1199.530899 -293.898882 20.877449 0.000000 0.025224
380.000000 48.503000 -7.000000 0.000000 4.000000 52.184793 8.936092 805.762133 1786.580523 20.634320 0.000000 0.147661
381.000000 58.094000 -5.000000 0.000000 4.000000 48.634493 20.029656 582.629925 1949.743485 17.227824 0.000000 0.237837
383.000000 47.964000 -9.000000 1.000000 4.000000 65.588515 2.373283 930.392657 1429.908262 20.861908 0.000000 0.028668
384.000000 53.621000 -8.000000 1.000000 4.000000 66.332387 5.825135 865.196960 1415.183278 18.660712 0.000000 0.039286
385.000000 60.339000 -7.000000 1.000000 4.000000 66.985864 10.122773 782.841401 1405.402392 16.582675 0.000000 0.051605
386.000000 68.197000 -6.000000 1.000000 4.000000 67.383122 15.549063 675.524420 1406.424037 14.671583 0.000000 0.066226
387.000000 76.996000 -5.000000 1.000000 4.000000 67.200771 22.468812 529.870547 1430.580601 12.994765 0.000000 0.088306
388.000000 85.798000 -4.000000 1.000000 4.000000 65.843648 31.289615 320.869998 1505.880873 11.661376 0.000000 0.137192
389.000000 92.121000 -3.000000 1.000000 4.000000 62.341873 42.298073 -4.286264 1703.605675 10.860856 0.000000 0.268252
391.000000 54.453000 -9.000000 2.000000 4.000000 77.372594 2.997765 918.635899 1182.451276 18.371701 0.000000 0.112624
392.000000 69.471000 -7.000000 2.000000 4.000000 81.275112 11.481310 756.391048 1109.547352 14.399085 0.000000 0.126294
393.000000 90.087000 -5.000000 2.000000 4.000000 84.686481 25.320256 465.772410 1051.739540 11.102712 0.000000 0.112953
394.000000 101.450000 -4.000000 2.000000 4.000000 85.029852 35.298993 212.969583 1055.683303 9.858738 0.000000 0.103058
395.000000 110.765000 -3.000000 2.000000 4.000000 83.037573 47.639196 -205.313218 1136.067528 9.029544 0.000000 0.224495
396.000000 47.804000 -11.000000 3.000000 4.000000 83.652287 -2.223752 1016.793908 1060.821513 20.924531 0.000000 0.139685
397.000000 53.066000 -10.000000 3.000000 4.000000 86.019774 0.428917 966.942695 1015.890664 18.848993 0.000000 0.147550
398.000000 59.304000 -9.000000 3.000000 4.000000 88.657748 3.701094 905.378527 966.271369 16.865274 0.000000 0.153551
399.000000 66.708000 -8.000000 3.000000 4.000000 91.556696 7.807431 827.423802 911.476781 14.992504 0.000000 0.155781
400.000000 75.444000 -7.000000 3.000000 4.000000 94.646857 13.050031 725.527761 851.198167 13.255527 0.000000 0.150803
401.000000 85.562000 -6.000000 3.000000 4.000000 97.729646 19.840044 586.660288 785.693800 11.687203 0.000000 0.132215
402.000000 96.779000 -5.000000 3.000000 4.000000 100.354730 28.679761 386.240137 716.841188 10.331923 0.000000 0.089103
403.000000 108.080000 -4.000000 3.000000 4.000000 101.649607 40.005981 71.690388 651.301098 9.251155 0.000000 0.072262
405.000000 50.666000 -11.000000 4.000000 4.000000 92.864446 -1.906298 1010.822792 887.117030 19.739098 0.000000 0.161163
406.000000 62.473000 -9.000000 4.000000 4.000000 99.268451 4.498950 890.313654 764.815669 16.006424 0.000000 0.162939
407.000000 78.415000 -7.000000 4.000000 4.000000 106.836879 14.878799 689.046658 603.992044 12.750347 0.000000 0.134937
408.000000 98.155000 -5.000000 4.000000 4.000000 113.852511 32.665878 284.936162 375.707996 10.184632 0.000000 0.012246
409.000000 47.899000 -12.000000 5.000000 4.000000 98.354247 -4.031581 1050.858006 782.552698 20.876966 0.000000 0.163305
410.000000 52.569000 -11.000000 5.000000 4.000000 101.580958 -1.552113 1004.163397 720.360301 19.021071 0.000000 0.163167
411.000000 57.942000 -10.000000 5.000000 4.000000 105.159928 1.522946 946.384901 649.282421 17.256206 0.000000 0.159078
412.000000 64.103000 -9.000000 5.000000 4.000000 109.093776 5.411378 873.044585 566.762753 15.596478 0.000000 0.148700
413.000000 71.108000 -8.000000 5.000000 4.000000 113.334116 10.430178 776.876992 468.913906 14.059070 0.000000 0.128090
414.000000 78.928000 -7.000000 5.000000 4.000000 117.725108 17.033270 645.260310 349.379532 12.665125 0.000000 0.090234
415.000000 87.366000 -6.000000 5.000000 4.000000 121.901857 25.823042 454.164915 196.693709 11.440955 0.000000 0.024060
416.000000 95.923000 -5.000000 5.000000 4.000000 125.141345 37.420420 151.502908 -12.909568 10.419727 0.000000 0.117701
417.000000 53.603000 -11.000000 6.000000 4.000000 109.747644 -1.154466 996.689443 554.542391 18.651505 0.000000 0.149837
418.000000 64.449000 -9.000000 6.000000 4.000000 118.083161 6.464387 853.049382 363.044198 15.510490 0.000000 0.116930
419.000000 77.654000 -7.000000 6.000000 4.000000 127.304067 19.600877 591.730290 70.520455 12.870884 0.000000 0.033438
421.000000 45.810000 -13.000000 7.000000 4.000000 109.777445 -5.861427 1085.491926 551.954757 21.824130 0.000000 0.146525
422.000000 49.631000 -12.000000 7.000000 4.000000 113.385520 -3.565994 1042.073394 474.665879 20.142896 0.000000 0.138081
423.000000 53.893000 -11.000000 7.000000 4.000000 117.338897 -0.704879 988.241740 384.515331 18.548659 0.000000 0.124624
424.000000 58.618000 -10.000000 7.000000 4.000000 121.636471 2.939123 919.740456 277.041178 17.052151 0.000000 0.104093
425.000000 63.801000 -9.000000 7.000000 4.000000 126.234158 7.692268 829.627196 145.124004 15.665949 0.000000 0.073684
426.000000 69.381000 -8.000000 7.000000 4.000000 131.000627 14.044653 705.758573 -23.459707 14.404880 0.000000 0.034139
427.000000 75.216000 -7.000000 7.000000 4.000000 135.636045 22.699061 524.797068 -251.852708 13.286556 0.000000 0.065665
429.000000 46.065000 -13.000000 8.000000 4.000000 116.318474 -5.741986 1083.225059 405.945737 21.701058 0.000000 0.125320
430.000000 53.581000 -11.000000 8.000000 4.000000 124.352533 -0.192533 978.616731 205.350747 18.654501 0.000000 0.090882
431.000000 62.438000 -9.000000 8.000000 4.000000 133.577528 9.141059 801.814421 -96.310143 16.006169 0.000000 0.030012
433.000000 45.930000 -13.000000 9.000000 4.000000 122.438869 -5.608459 1080.692011 253.647849 21.762681 0.000000 0.097585
434.000000 49.237000 -12.000000 9.000000 4.000000 126.468812 -2.977150 1030.975780 144.415294 20.299622 0.000000 0.077959
435.000000 52.805000 -11.000000 9.000000 4.000000 130.803802 0.396596 967.549870 11.820796 18.926700 0.000000 0.052514
436.000000 56.610000 -10.000000 9.000000 4.000000 135.404613 4.841470 883.836498 -154.512626 17.653478 0.000000 0.023329
437.000000 60.598000 -9.000000 9.000000 4.000000 140.163386 10.873796 768.248830 -372.718923 16.490922 0.000000 0.037601
439.000000 45.480000 -13.000000 10.000000 4.000000 128.146208 -5.458203 1077.842974 91.824629 21.976017 0.000000 0.065677
440.000000 51.690000 -11.000000 10.000000 4.000000 136.719694 1.081011 954.690935 -202.126033 19.333645 0.000000 0.015529
442.000000 47.502000 -12.000000 11.000000 4.000000 137.678669 -2.208828 1016.513140 -241.826532 21.038091 0.000000 0.008261
443.000000 50.339000 -11.000000 11.000000 4.000000 142.134096 1.885608 939.566287 -444.009505 19.851259 0.000000 0.018315
447.000000 49.959000 -8.000000 1.000000 5.000000 64.139741 12.909348 728.310888 1476.226155 20.029012 0.000000 0.050619
448.000000 54.950000 -7.000000 1.000000 5.000000 63.984603 17.696895 631.574941 1492.395026 18.209623 0.000000 0.070941
449.000000 60.221000 -6.000000 1.000000 5.000000 63.310589 23.512495 506.734800 1531.061397 16.615416 0.000000 0.101443
450.000000 65.245000 -5.000000 1.000000 5.000000 61.772893 30.561324 339.461567 1611.966730 15.335828 0.000000 0.154252
451.000000 68.935000 -4.000000 1.000000 5.000000 58.877079 38.991733 103.691189 1777.102517 14.514883 0.000000 0.256397
454.000000 46.786000 -10.000000 2.000000 5.000000 74.165528 6.366743 854.906794 1248.154505 21.383586 0.000000 0.094413
455.000000 51.629000 -9.000000 2.000000 5.000000 75.356539 9.917887 786.810314 1226.492149 19.377278 0.000000 0.100848
456.000000 57.183000 -8.000000 2.000000 5.000000 76.492209 14.213521 702.385418 1207.715009 17.494824 0.000000 0.105177
457.000000 63.441000 -7.000000 2.000000 5.000000 77.435745 19.448190 594.959142 1195.390098 15.768440 0.000000 0.106266
458.000000 70.236000 -6.000000 2.000000 5.000000 77.945714 25.845290 453.649022 1196.384429 14.242578 0.000000 0.104933
459.000000 77.063000 -5.000000 2.000000 5.000000 77.623612 33.618076 259.422236 1224.608109 12.980342 0.000000 0.114970
460.000000 82.844000 -4.000000 2.000000 5.000000 75.878275 42.875365 -24.292349 1310.496722 12.074418 0.000000 0.188529
462.000000 46.340000 -11.000000 3.000000 5.000000 82.407995 3.977733 900.158494 1084.801869 21.586132 0.000000 0.134955
463.000000 50.989000 -10.000000 3.000000 5.000000 84.284864 7.156879 839.855293 1049.561446 19.617421 0.000000 0.139942
464.000000 56.339000 -9.000000 3.000000 5.000000 86.253439 10.997255 765.843107 1012.797636 17.753622 0.000000 0.141973
465.000000 62.447000 -8.000000 3.000000 5.000000 88.235536 15.681235 672.847636 975.437469 16.016422 0.000000 0.138889
466.000000 69.290000 -7.000000 3.000000 5.000000 90.075952 21.432938 552.490967 939.467264 14.433927 0.000000 0.127356
467.000000 76.674000 -6.000000 3.000000 5.000000 91.492657 28.500204 390.614937 909.086907 13.043231 0.000000 0.103964
468.000000 84.077000 -5.000000 3.000000 5.000000 92.017916 37.091464 161.257056 893.459275 11.894313 0.000000 0.086751
469.000000 90.449000 -4.000000 3.000000 5.000000 90.971331 47.239271 -188.891257 914.122607 11.056170 0.000000 0.190459
471.000000 49.169000 -11.000000 4.000000 5.000000 91.431957 4.612097 888.174699 914.007862 20.340446 0.000000 0.158188
472.000000 54.013000 -10.000000 4.000000 5.000000 93.911086 8.036538 823.036726 866.686577 18.515404 0.000000 0.158121
473.000000 59.526000 -9.000000 4.000000 5.000000 96.521561 12.209196 742.116105 815.114174 16.799828 0.000000 0.152914
474.000000 65.728000 -8.000000 4.000000 5.000000 99.167811 17.342967 638.886027 759.025850 15.213629 0.000000 0.139233
475.000000 72.552000 -7.000000 4.000000 5.000000 101.660498 23.695286 502.645450 698.434611 13.781863 0.000000 0.111535
476.000000 79.755000 -6.000000 4.000000 5.000000 103.660965 31.534782 314.546947 634.079266 12.536497 0.000000 0.063512
477.000000 86.797000 -5.000000 4.000000 5.000000 104.625889 41.041486 38.022598 568.605073 11.518980 0.000000 0.080335
479.000000 46.830000 -12.000000 5.000000 5.000000 97.207473 2.268029 932.373077 804.783077 21.354277 0.000000 0.164199
480.000000 51.094000 -11.000000 5.000000 5.000000 99.981240 5.316099 874.850163 750.765370 19.570778 0.000000 0.162021
481.000000 61.296000 -9.000000 5.000000 5.000000 106.052057 13.578422 715.046039 622.414389 16.311595 0.000000 0.140295
482.000000 67.238000 -8.000000 5.000000 5.000000 109.168723 19.236471 599.426322 544.728236 14.869238 0.000000 0.113242
483.000000 73.615000 -7.000000 5.000000 5.000000 112.062983 26.289082 443.317413 454.448395 13.580282 0.000000 0.065458
484.000000 80.148000 -6.000000 5.000000 5.000000 114.330845 35.015513 220.936259 346.781225 12.472665 0.000000 0.024577
485.000000 48.042000 -12.000000 6.000000 5.000000 104.852814 2.818691 922.008483 655.223425 20.812416 0.000000 0.159034
486.000000 52.191000 -11.000000 6.000000 5.000000 108.001598 6.101620 859.946553 589.265009 19.156584 0.000000 0.150465
487.000000 56.800000 -10.000000 6.000000 5.000000 111.340224 10.130682 782.688081 513.839895 17.601112 0.000000 0.135175
488.000000 61.861000 -9.000000 6.000000 5.000000 114.789800 15.135756 683.872820 426.051076 16.160037 0.000000 0.109583
489.000000 67.314000 -8.000000 6.000000 5.000000 118.190760 21.408726 553.015782 321.364861 14.850138 0.000000 0.067662
490.000000 73.005000 -7.000000 6.000000 5.000000 121.254300 29.279564 371.516511 192.101635 13.691648 0.000000 0.011575
491.000000 78.645000 -6.000000 6.000000 5.000000 123.509688 39.016415 102.923401 23.783894 12.709184 0.000000 0.127367
493.000000 48.644000 -12.000000 7.000000 5.000000 112.031658 3.430896 910.473885 504.674928 20.551833 0.000000 0.142419
494.000000 52.573000 -11.000000 7.000000 5.000000 115.465388 6.983332 843.165487 424.600958 19.014853 0.000000 0.126801
495.000000 56.861000 -10.000000 7.000000 5.000000 119.064648 11.388713 758.201647 330.796959 17.579830 0.000000 0.102734
496.000000 61.473000 -9.000000 7.000000 5.000000 122.723452 16.919967 647.587042 218.117087 16.259821 0.000000 0.066434
497.000000 66.322000 -8.000000 7.000000 5.000000 126.240825 23.918311 497.640444 77.981119 15.070206 0.000000 0.023362
498.000000 71.240000 -7.000000 7.000000 5.000000 129.270484 32.744611 282.847351 -105.274794 14.029240 0.000000 0.095801
500.000000 48.729000 -12.000000 8.000000 5.000000 118.732019 4.115409 897.559320 349.438780 20.513732 0.000000 0.116832
501.000000 52.370000 -11.000000 8.000000 5.000000 122.367009 7.979554 824.128354 252.162343 19.086553 0.000000 0.094188
502.000000 56.272000 -10.000000 8.000000 5.000000 126.126188 12.825996 729.958351 135.295604 17.762006 0.000000 0.062451
503.000000 60.381000 -9.000000 8.000000 5.000000 129.872710 18.980177 604.818630 -9.741740 16.552206 0.000000 0.028606
504.000000 64.597000 -8.000000 8.000000 5.000000 133.359963 26.838138 430.425116 -198.071730 15.471257 0.000000 0.076493
506.000000 48.392000 -12.000000 9.000000 5.000000 124.956261 4.885607 883.001387 185.850772 20.654637 0.000000 0.084851
507.000000 51.709000 -11.000000 9.000000 5.000000 128.717447 9.113400 802.347403 67.156738 19.328559 0.000000 0.056687
508.000000 55.200000 -10.000000 9.000000 5.000000 132.547736 14.481518 697.021751 -79.309851 18.105079 0.000000 0.028814
509.000000 58.801000 -9.000000 9.000000 5.000000 136.275983 21.378997 553.659945 -267.489607 16.995434 0.000000 0.062436
511.000000 47.725000 -12.000000 10.000000 5.000000 130.717392 5.758314 866.465098 9.974337 20.941706 0.000000 0.049888
512.000000 50.708000 -11.000000 10.000000 5.000000 134.538949 10.414402 777.183369 -135.850565 19.708630 0.000000 0.025852
514.000000 46.809000 -12.000000 11.000000 5.000000 136.035594 6.754956 847.517779 -182.722426 21.349670 0.000000 0.020935
515.000000 49.466000 -11.000000 11.000000 5.000000 139.860358 11.920771 747.781676 -363.479343 20.202178 0.000000 0.040088
518.000000 45.716000 -12.000000 12.000000 5.000000 140.935282 7.903194 825.590665 -397.763225 21.858765 0.000000 0.030560
522.000000 45.781000 -8.000000 1.000000 6.000000 61.464162 19.211716 599.947880 1560.767500 21.857303 0.000000 0.086798
523.000000 49.201000 -7.000000 1.000000 6.000000 60.573389 24.218350 490.879794 1606.709313 20.337998 0.000000 0.119801
524.000000 52.362000 -6.000000 1.000000 6.000000 59.027993 30.088350 351.386385 1687.587508 19.110131 0.000000 0.170829
525.000000 54.716000 -5.000000 1.000000 6.000000 56.543590 36.907567 166.673086 1830.447107 18.287721 0.000000 0.255629
528.000000 48.219000 -9.000000 2.000000 6.000000 72.767803 16.175666 662.803246 1288.592070 20.748523 0.000000 0.088789
529.000000 56.975000 -7.000000 2.000000 6.000000 73.124102 26.190784 445.612586 1304.867189 17.559081 0.000000 0.100783
530.000000 65.153000 -5.000000 2.000000 6.000000 70.866953 39.933407 74.011512 1427.958859 15.354499 0.000000 0.182329
532.000000 48.349000 -10.000000 3.000000 6.000000 81.936593 13.330794 719.963941 1097.700392 20.689265 0.000000 0.126816
533.000000 57.547000 -8.000000 3.000000 6.000000 84.273209 22.499757 529.189655 1057.829702 17.381232 0.000000 0.118329
534.000000 62.608000 -7.000000 3.000000 6.000000 84.976739 28.385500 393.401825 1048.532631 15.975633 0.000000 0.106854
535.000000 72.084000 -5.000000 3.000000 6.000000 84.052484 43.277646 -38.455887 1095.011252 13.874919 0.000000 0.156524
537.000000 47.175000 -11.000000 4.000000 6.000000 89.381292 10.672332 772.170330 952.827397 21.201058 0.000000 0.148980
538.000000 55.934000 -9.000000 4.000000 6.000000 93.052530 19.027400 603.826329 880.287101 17.879441 0.000000 0.135720
539.000000 66.081000 -7.000000 4.000000 6.000000 95.911723 30.834655 332.517191 811.206992 15.132764 0.000000 0.088379
540.000000 75.670000 -5.000000 4.000000 6.000000 95.809266 46.966669 -177.839012 780.539794 13.214550 0.000000 0.176076
541.000000 49.124000 -11.000000 5.000000 6.000000 97.706740 11.658536 752.922352 792.282231 20.356523 0.000000 0.153908
542.000000 53.302000 -10.000000 5.000000 6.000000 99.994390 15.778069 670.884329 743.902737 18.760162 0.000000 0.143109
543.000000 57.848000 -9.000000 5.000000 6.000000 102.227461 20.698797 568.328097 691.662551 17.284913 0.000000 0.123532
544.000000 62.685000 -8.000000 5.000000 6.000000 104.246463 26.581955 436.455871 635.426180 15.950325 0.000000 0.090719
545.000000 67.644000 -7.000000 5.000000 6.000000 105.803423 33.574526 260.601360 575.371072 14.780392 0.000000 0.044597
546.000000 72.422000 -6.000000 5.000000 6.000000 106.544550 41.750396 14.357268 512.446680 13.804896 0.000000 0.090633
548.000000 50.298000 -11.000000 6.000000 6.000000 105.529433 12.749862 731.462202 634.360826 19.878308 0.000000 0.143441
549.000000 67.683000 -7.000000 6.000000 6.000000 114.607914 36.645113 174.357708 326.620730 14.769643 0.000000 0.043594
551.000000 47.262000 -12.000000 7.000000 6.000000 109.987708 9.936190 786.455960 543.561022 21.153930 0.000000 0.139462
552.000000 50.795000 -11.000000 7.000000 6.000000 112.819626 13.963129 707.385259 474.344572 19.681253 0.000000 0.120587
553.000000 54.581000 -10.000000 7.000000 6.000000 115.651402 18.813225 608.322294 394.966526 18.315297 0.000000 0.091697
554.000000 58.561000 -9.000000 7.000000 6.000000 118.343836 24.672419 480.587517 302.085625 17.069660 0.000000 0.047674
555.000000 62.628000 -8.000000 7.000000 6.000000 120.678711 31.724659 309.627029 190.321254 15.960351 0.000000 0.023549
556.000000 66.607000 -7.000000 7.000000 6.000000 122.340601 40.088952 69.030705 50.238765 15.006355 0.000000 0.134690
558.000000 50.729000 -11.000000 8.000000 6.000000 119.567947 15.318689 680.181822 307.882066 19.704698 0.000000 0.088263
559.000000 57.782000 -9.000000 8.000000 6.000000 125.275895 27.047010 425.487873 86.126457 17.297892 0.000000 0.023384
561.000000 50.215000 -11.000000 9.000000 6.000000 125.780636 16.841313 649.200623 130.545177 19.904261 0.000000 0.050850
562.000000 53.343000 -10.000000 9.000000 6.000000 128.781717 22.651896 525.837732 3.917612 18.736221 0.000000 0.027218
564.000000 49.362000 -11.000000 10.000000 6.000000 131.474743 18.561303 613.596011 -62.581966 20.246722 0.000000 0.028807
566.000000 45.821000 -12.000000 11.000000 6.000000 133.558043 14.781988 690.992728 -117.470880 21.810678 0.000000 0.027908
567.000000 48.262000 -11.000000 11.000000 6.000000 136.673835 20.515900 572.249589 -277.366170 20.706722 0.000000 0.060360
573.000000 47.629000 -8.000000 2.000000 7.000000 69.516292 26.435367 439.894556 1390.011039 21.005933 0.000000 0.101891
574.000000 50.635000 -7.000000 2.000000 7.000000 68.711795 31.824067 307.043220 1434.572511 19.758675 0.000000 0.129286
575.000000 53.226000 -6.000000 2.000000 7.000000 67.208303 37.945642 135.749925 1514.487310 18.796697 0.000000 0.183106
576.000000 54.947000 -5.000000 2.000000 7.000000 64.765826 44.791601 -93.493114 1655.764740 18.207668 0.000000 0.285538
579.000000 48.828000 -9.000000 3.000000 7.000000 79.748409 23.263694 512.282728 1152.883372 20.486506 0.000000 0.109227
580.000000 52.429000 -8.000000 3.000000 7.000000 80.013819 28.305889 395.332543 1156.249781 19.078973 0.000000 0.106038
581.000000 55.970000 -7.000000 3.000000 7.000000 79.779792 34.087394 246.639288 1175.305300 17.871541 0.000000 0.111954
582.000000 59.147000 -6.000000 3.000000 7.000000 78.814617 40.638472 51.249921 1221.465342 16.911323 0.000000 0.151673
583.000000 61.511000 -5.000000 3.000000 7.000000 76.847261 47.918450 -216.929822 1316.277126 16.261478 0.000000 0.259198
585.000000 48.290000 -10.000000 4.000000 7.000000 88.101394 20.249699 577.940500 979.028575 20.711603 0.000000 0.128699
586.000000 51.983000 -9.000000 4.000000 7.000000 89.153002 24.940191 474.482884 958.548331 19.239703 0.000000 0.116477
587.000000 55.795000 -8.000000 4.000000 7.000000 89.874525 30.358733 344.583479 943.731605 17.924550 0.000000 0.099505
588.000000 59.542000 -7.000000 4.000000 7.000000 90.066192 36.567504 176.620048 939.451851 16.796055 0.000000 0.091718
589.000000 62.928000 -6.000000 4.000000 7.000000 89.472109 43.573997 -49.010150 954.687871 15.892255 0.000000 0.140142
590.000000 65.525000 -5.000000 4.000000 7.000000 87.800323 51.294275 -368.159790 1007.111641 15.262277 0.000000 0.285120
592.000000 46.786000 -11.000000 5.000000 7.000000 94.926141 17.397333 637.764828 843.787270 21.374560 0.000000 0.140653
593.000000 50.307000 -10.000000 5.000000 7.000000 96.533606 21.738918 545.843406 808.294360 19.877972 0.000000 0.126270
594.000000 54.017000 -9.000000 5.000000 7.000000 97.941923 26.783047 431.724299 772.804954 18.511920 0.000000 0.103408
595.000000 57.808000 -8.000000 5.000000 7.000000 98.988269 32.615804 286.262713 738.884813 17.297342 0.000000 0.072995
596.000000 61.495000 -7.000000 5.000000 7.000000 99.451526 39.286362 94.491066 709.506410 16.259913 0.000000 0.071734
597.000000 64.795000 -6.000000 5.000000 7.000000 99.056682 46.768946 -169.892853 690.526409 15.431451 0.000000 0.169659
599.000000 48.041000 -11.000000 6.000000 7.000000 102.516261 18.708803 610.510161 688.741738 20.813526 0.000000 0.130634
600.000000 51.478000 -10.000000 6.000000 7.000000 104.401748 23.377134 509.755763 639.903503 19.423055 0.000000 0.107164
601.000000 55.053000 -9.000000 6.000000 7.000000 106.055915 28.813877 382.962716 587.469983 18.160989 0.000000 0.071839
602.000000 58.652000 -8.000000 6.000000 7.000000 107.296469 35.101019 218.539111 531.344224 17.045956 0.000000 0.034470
603.000000 62.095000 -7.000000 6.000000 7.000000 107.882997 42.266030 -3.186586 471.720523 16.100369 0.000000 0.100163
604.000000 65.124000 -6.000000 6.000000 7.000000 107.528929 50.236658 -318.490442 409.508028 15.351440 0.000000 0.259202
605.000000 45.556000 -12.000000 7.000000 7.000000 107.396745 15.852065 669.382788 590.445434 21.946692 0.000000 0.130592
606.000000 48.662000 -11.000000 7.000000 7.000000 109.603129 20.151481 580.035304 532.687818 20.545174 0.000000 0.107946
607.000000 51.918000 -10.000000 7.000000 7.000000 111.676268 25.184758 468.884040 468.269155 19.255651 0.000000 0.074024
608.000000 55.254000 -9.000000 7.000000 7.000000 113.470044 31.057017 326.838528 395.485794 18.092324 0.000000 0.024302
609.000000 58.555000 -8.000000 7.000000 7.000000 114.783117 37.839904 138.939311 311.754238 17.071900 0.000000 0.059062
611.000000 45.831000 -12.000000 8.000000 7.000000 113.821844 17.110953 643.663413 443.799746 21.812427 0.000000 0.106090
612.000000 48.748000 -11.000000 8.000000 7.000000 116.173985 21.743956 545.733718 371.482478 20.506618 0.000000 0.075074
613.000000 51.762000 -10.000000 8.000000 7.000000 118.349988 27.185280 422.209376 288.144970 19.311667 0.000000 0.030195
614.000000 54.799000 -9.000000 8.000000 7.000000 120.185904 33.539529 261.548021 189.878031 18.240546 0.000000 0.037820
615.000000 57.749000 -8.000000 8.000000 7.000000 121.463090 40.858780 44.039111 70.208682 17.308332 0.000000 0.140411
617.000000 45.710000 -12.000000 9.000000 7.000000 119.799947 18.500027 614.876398 291.012701 21.868260 0.000000 0.074300
618.000000 48.400000 -11.000000 9.000000 7.000000 122.230663 23.507950 506.836334 201.000156 20.651784 0.000000 0.036416
619.000000 51.140000 -10.000000 9.000000 7.000000 124.432267 29.405570 368.401488 94.037818 19.544743 0.000000 0.030724
620.000000 53.854000 -9.000000 9.000000 7.000000 126.223349 36.290917 184.645919 -37.139524 18.559022 0.000000 0.111630
622.000000 47.716000 -11.000000 10.000000 7.000000 127.785445 25.468800 462.353202 16.760432 20.946145 0.000000 0.030321
623.000000 50.171000 -10.000000 10.000000 7.000000 129.943376 31.876051 305.689841 -120.369520 19.920514 0.000000 0.092519
625.000000 46.781000 -11.000000 11.000000 7.000000 132.857279 27.655948 410.988060 -186.472822 21.363315 0.000000 0.078823
631.000000 47.405000 -8.000000 3.000000 8.000000 75.712137 33.214398 270.306406 1268.626625 21.101928 0.000000 0.117536
632.000000 49.736000 -7.000000 3.000000 8.000000 74.755122 38.761601 110.824148 1317.178554 20.112850 0.000000 0.153000
633.000000 51.556000 -6.000000 3.000000 8.000000 73.076109 44.874612 -96.593752 1403.135485 19.402746 0.000000 0.230308
636.000000 47.913000 -9.000000 4.000000 8.000000 85.064148 30.014227 353.244830 1048.344141 20.875196 0.000000 0.104052
637.000000 53.299000 -7.000000 4.000000 8.000000 84.417499 41.185999 33.240072 1080.786195 18.764943 0.000000 0.134104
639.000000 47.096000 -10.000000 5.000000 8.000000 92.778663 26.929653 428.264168 882.408749 21.234291 0.000000 0.108780
640.000000 50.031000 -9.000000 5.000000 8.000000 93.457701 31.932301 304.223651 864.372822 19.988206 0.000000 0.089127
641.000000 52.895000 -8.000000 5.000000 8.000000 93.695447 37.557903 147.400874 853.310277 18.905424 0.000000 0.082447
642.000000 55.514000 -7.000000 5.000000 8.000000 93.312685 43.801379 -57.178841 854.684279 18.013444 0.000000 0.131567
643.000000 57.649000 -6.000000 5.000000 8.000000 92.110190 50.598855 -335.248732 878.522107 17.346305 0.000000 0.258211
645.000000 45.537000 -11.000000 6.000000 8.000000 99.142009 23.971382 496.446928 751.446880 21.959150 0.000000 0.114486
646.000000 51.263000 -9.000000 6.000000 8.000000 101.243602 34.017019 248.565086 682.861892 19.505004 0.000000 0.060102
647.000000 56.554000 -7.000000 6.000000 8.000000 101.383689 46.618978 -163.904718 625.500010 17.679431 0.000000 0.166873
648.000000 46.279000 -11.000000 7.000000 8.000000 106.009217 25.555478 460.354137 598.702548 21.603975 0.000000 0.091456
649.000000 49.014000 -10.000000 7.000000 8.000000 107.383150 30.586146 338.832566 549.600000 20.398043 0.000000 0.055486
650.000000 51.734000 -9.000000 7.000000 8.000000 108.393067 36.284785 184.823211 497.013818 19.324730 0.000000 0.033978
651.000000 54.329000 -8.000000 7.000000 8.000000 108.869372 42.657888 -16.712104 440.797656 18.401505 0.000000 0.108368
652.000000 56.645000 -7.000000 7.000000 8.000000 108.617522 49.647912 -291.786200 381.016818 17.649045 0.000000 0.247951
654.000000 46.519000 -11.000000 8.000000 8.000000 112.391224 27.283569 419.873927 442.069738 21.490031 0.000000 0.057393
655.000000 51.588000 -9.000000 8.000000 8.000000 114.901221 38.752696 111.099235 300.333431 19.377534 0.000000 0.071604
657.000000 46.344000 -11.000000 9.000000 8.000000 118.286118 29.172609 374.154530 277.671850 21.569139 0.000000 0.014976
658.000000 48.692000 -10.000000 9.000000 8.000000 119.766911 34.937434 223.120828 190.096155 20.528519 0.000000 0.050276
659.000000 50.962000 -9.000000 9.000000 8.000000 120.780684 41.438013 24.849131 85.814876 19.613508 0.000000 0.144998
661.000000 45.839000 -11.000000 10.000000 8.000000 123.702069 31.241446 322.108439 101.392785 21.805148 0.000000 0.039920
665.000000 45.895000 -8.000000 4.000000 9.000000 80.329457 39.419596 90.305248 1178.412271 21.794147 0.000000 0.135769
666.000000 47.556000 -7.000000 4.000000 9.000000 79.121818 44.940790 -99.072080 1233.209298 21.032833 0.000000 0.199286
667.000000 48.693000 -6.000000 4.000000 9.000000 77.209059 50.863653 -347.664576 1328.137993 20.541882 0.000000 0.318962
669.000000 46.067000 -9.000000 5.000000 9.000000 88.966189 36.280553 184.945554 965.093060 21.709465 0.000000 0.094413
670.000000 48.151000 -8.000000 5.000000 9.000000 88.560644 41.623407 18.634630 977.177722 20.769821 0.000000 0.122823
671.000000 49.915000 -7.000000 5.000000 9.000000 87.548246 47.418327 -196.212932 1009.107115 20.035723 0.000000 0.203668
674.000000 49.521000 -8.000000 6.000000 9.000000 96.170543 43.981355 -63.688647 779.287028 20.192381 0.000000 0.127481
675.000000 51.272000 -7.000000 6.000000 9.000000 95.269068 50.052793 -310.080436 786.410938 19.502533 0.000000 0.241035
676.000000 45.992000 -10.000000 7.000000 9.000000 102.963274 35.146896 217.250882 638.001383 21.739680 0.000000 0.050680
677.000000 48.152000 -9.000000 7.000000 9.000000 103.317664 40.577175 53.247719 605.561757 20.763856 0.000000 0.075631
678.000000 50.127000 -8.000000 7.000000 9.000000 103.131665 46.501331 -159.230273 576.224649 19.945884 0.000000 0.165851
680.000000 46.258000 -10.000000 8.000000 9.000000 109.230987 37.228851 157.193655 469.452459 21.612149 0.000000 0.039732
681.000000 48.281000 -9.000000 8.000000 9.000000 109.626237 42.965737 -27.457998 416.503085 20.706270 0.000000 0.115324
682.000000 50.108000 -8.000000 8.000000 9.000000 109.441178 49.189835 -271.451783 359.728681 19.951304 0.000000 0.239669
684.000000 46.097000 -10.000000 9.000000 9.000000 114.984804 39.472451 88.640290 291.282335 21.685459 0.000000 0.081930
686.000000 45.598000 -10.000000 10.000000 9.000000 120.235058 41.889550 9.650665 98.345403 21.920919 0.000000 0.148753
690.000000 46.075000 -8.000000 7.000000 10.000000 97.679741 49.612712 -290.210105 717.012056 21.701825 0.000000 0.229409
#UB matrix in q= (UB) B0 G* 
#[[ 0.438236002 -0.889305246 -0.123823827]
# [ 0.388501772  0.063469112  0.919257124]
# [-0.810564975 -0.451587031  0.373753935]]
#B0 matrix in q= UB (B0) G*
#[[ 0.19670273 -0.          0.03056101]
# [ 0.          0.19187965 -0.        ]
# [ 0.          0.          0.18806537]]
#UBB0 matrix in q= (UB B0) G* i.e. recip. basis vectors are columns in LT frame: astar = UBB0[:,0], bstar = UBB0[:,1], cstar = UBB0[:,2]. (abcstar as columns on xyzlab1, xlab1 = ui, ui = unit vector along incident beam)
#[[ 0.08620222 -0.17063958 -0.00989404]
# [ 0.07641936  0.01217843  0.18475344]
# [-0.15944035 -0.08665036  0.04551849]]
#Euler angles phi theta psi (deg)
#[299.095  68.066   7.686]
#deviatoric strain in direct crystal frame (10-3 unit)
#[[-0.69 -0.51  0.08]
# [-0.51 -0.08  0.15]
# [ 0.08  0.15  0.77]]
#deviatoric strain in sample2 frame (10-3 unit)
#[[-0.32  0.21 -0.54]
# [ 0.21  0.6   0.46]
# [-0.54  0.46 -0.28]]
#new lattice parameters
#[ 5.1505     5.2147421  5.3172171 89.9816128 99.2251238 90.0580032]
#CCDLabel
#sCMOS
#DetectorParameters
#[79.0, 975.0, 941.0, 0.0, 0.0]
#pixelsize
#0.0734
#Frame dimensions
#[2018, 2016]
#
