#Strain and Orientation Refinement from experimental file: /home/micha/LaueProjects/DepthEffects/testZrO2_134.cor
#File created at Wed Jun 28 14:26:26 2023 with indexingSpotsSet.py
#Number of indexed spots: 534
#Element
#ZrO2
#grainIndex
#G_0
#Mean Deviation(pixel): 0.111
##spot_index intensity h k l 2theta Chi Xexp Yexp Energy GrainIndex PixDev
2.000000 46.240000 8.000000 1.000000 -14.000000 111.154517 -46.408813 2105.568512 336.968838 21.631590 0.000000 0.214341
3.000000 46.722000 9.000000 1.000000 -14.000000 118.133137 -46.103850 2093.585662 110.993548 21.406167 0.000000 0.242803
6.000000 45.681000 4.000000 1.000000 -7.000000 110.234396 -39.790783 1871.441303 424.680484 10.948558 0.000000 0.089985
7.000000 46.188000 9.000000 2.000000 -14.000000 117.138512 -39.050262 1848.130326 230.614519 21.654496 0.000000 0.106739
8.000000 46.260000 5.000000 1.000000 -7.000000 123.635493 -38.205134 1822.116250 29.765191 10.809394 0.000000 0.135036
9.000000 45.968000 11.000000 2.000000 -14.000000 129.718318 -37.232010 1792.899968 -182.018241 21.754057 0.000000 0.167401
11.000000 45.677000 5.000000 1.000000 -13.000000 91.110408 -46.604833 2113.341597 910.635089 21.905898 0.000000 0.207983
12.000000 47.874000 6.000000 1.000000 -13.000000 99.626799 -46.337668 2102.761065 676.577093 20.897687 0.000000 0.190789
13.000000 49.345000 7.000000 1.000000 -13.000000 107.756526 -46.034661 2090.885505 444.531809 20.271786 0.000000 0.194825
14.000000 50.147000 8.000000 1.000000 -13.000000 115.448869 -45.688103 2077.461656 207.799303 19.945162 0.000000 0.218266
18.000000 47.150000 6.000000 2.000000 -13.000000 98.689211 -39.855455 1873.500865 726.728074 21.219129 0.000000 0.090674
19.000000 48.634000 7.000000 2.000000 -13.000000 106.720348 -39.135123 1850.776718 524.167123 20.568876 0.000000 0.075270
20.000000 49.464000 8.000000 2.000000 -13.000000 114.318018 -38.315354 1825.474410 321.108769 20.221088 0.000000 0.082489
21.000000 49.721000 9.000000 2.000000 -13.000000 121.450867 -37.374448 1797.128799 112.640629 20.114573 0.000000 0.108280
22.000000 49.497000 10.000000 2.000000 -13.000000 128.104803 -36.284055 1765.155689 -106.110221 20.203602 0.000000 0.141585
26.000000 45.956000 6.000000 3.000000 -13.000000 97.086324 -33.674538 1692.108221 780.223072 21.771655 0.000000 0.070561
27.000000 47.459000 7.000000 3.000000 -13.000000 104.956492 -32.595410 1663.197419 599.732465 21.079118 0.000000 0.045975
28.000000 48.334000 8.000000 3.000000 -13.000000 112.399954 -31.377133 1631.383362 421.397106 20.694816 0.000000 0.018939
29.000000 48.654000 9.000000 3.000000 -13.000000 119.383578 -29.992287 1596.205611 241.243176 20.556454 0.000000 0.011714
30.000000 48.505000 10.000000 3.000000 -13.000000 125.890330 -28.406211 1557.100925 55.560061 20.617466 0.000000 0.041700
31.000000 47.978000 11.000000 3.000000 -13.000000 131.915913 -26.574664 1513.372879 -139.383547 20.842341 0.000000 0.070394
32.000000 47.157000 12.000000 3.000000 -13.000000 137.465012 -24.440661 1464.150028 -347.601305 21.203532 0.000000 0.094031
34.000000 45.889000 7.000000 4.000000 -13.000000 102.585860 -26.542137 1512.609200 672.388565 21.801740 0.000000 0.087457
35.000000 46.819000 8.000000 4.000000 -13.000000 109.831584 -25.017796 1477.291318 512.650624 21.365682 0.000000 0.073135
36.000000 47.219000 9.000000 4.000000 -13.000000 116.627056 -23.305238 1438.642203 353.458756 21.182274 0.000000 0.055044
37.000000 47.167000 10.000000 4.000000 -13.000000 122.952676 -21.371019 1396.167217 191.794335 21.203724 0.000000 0.036132
38.000000 46.744000 11.000000 4.000000 -13.000000 128.800778 -19.174519 1349.268695 24.783756 21.393582 0.000000 0.024407
39.000000 46.031000 12.000000 4.000000 -13.000000 134.172265 -16.666486 1297.217646 -150.490279 21.723558 0.000000 0.030148
40.000000 45.485000 9.000000 5.000000 -13.000000 113.354408 -17.374772 1311.769812 454.043454 21.991457 0.000000 0.100179
41.000000 45.541000 10.000000 5.000000 -13.000000 119.483628 -15.227364 1267.974726 310.325670 21.961874 0.000000 0.082341
48.000000 47.409000 4.000000 1.000000 -12.000000 85.212006 -46.269404 2100.074210 1071.415104 21.107906 0.000000 0.220952
49.000000 50.528000 5.000000 1.000000 -12.000000 94.654392 -45.968460 2088.308268 814.930667 19.801486 0.000000 0.188070
50.000000 52.711000 6.000000 1.000000 -12.000000 103.690160 -45.625265 2075.045466 566.113160 18.978475 0.000000 0.178389
51.000000 54.004000 7.000000 1.000000 -12.000000 112.239889 -45.230279 2059.980754 316.085267 18.521610 0.000000 0.193256
52.000000 54.506000 8.000000 1.000000 -12.000000 120.253576 -44.770870 2042.720153 56.733570 18.348717 0.000000 0.227303
55.000000 46.518000 2.000000 1.000000 -6.000000 84.305873 -39.917552 1875.482076 1080.923629 10.756430 0.000000 0.136939
56.000000 49.609000 5.000000 2.000000 -12.000000 93.614023 -39.216395 1853.317138 853.258184 20.169323 0.000000 0.098396
57.000000 51.795000 3.000000 1.000000 -6.000000 102.521237 -38.420602 1828.690629 635.912047 9.657530 0.000000 0.069612
58.000000 53.117000 7.000000 2.000000 -12.000000 110.948210 -37.510008 1801.168379 421.571834 18.831532 0.000000 0.060642
59.000000 53.669000 4.000000 1.000000 -6.000000 118.843508 -36.458419 1770.207734 203.997484 9.317816 0.000000 0.079777
60.000000 53.572000 9.000000 2.000000 -12.000000 126.180851 -35.231244 1735.121419 -22.695816 18.667364 0.000000 0.113344
61.000000 52.957000 5.000000 1.000000 -6.000000 132.954311 -33.781973 1695.025914 -264.613737 9.441168 0.000000 0.148719
64.000000 48.107000 5.000000 3.000000 -12.000000 91.854585 -32.807252 1668.817142 899.536105 20.800240 0.000000 0.086735
65.000000 50.296000 2.000000 1.000000 -4.000000 100.554750 -31.628409 1637.876524 705.473141 6.630576 0.000000 0.065948
66.000000 51.664000 7.000000 3.000000 -12.000000 108.784712 -30.291804 1603.729081 517.035081 19.362239 0.000000 0.042119
67.000000 52.293000 8.000000 3.000000 -12.000000 116.491477 -28.765291 1565.849010 329.065640 19.126906 0.000000 0.015463
68.000000 52.294000 3.000000 1.000000 -4.000000 123.645317 -27.008012 1523.588912 137.002565 6.374813 0.000000 0.018234
69.000000 51.788000 10.000000 3.000000 -12.000000 130.235319 -24.967556 1476.142486 -63.555838 19.309469 0.000000 0.047173
70.000000 50.892000 11.000000 3.000000 -12.000000 136.264019 -22.576153 1422.492586 -277.214162 19.647694 0.000000 0.072526
74.000000 46.130000 5.000000 4.000000 -12.000000 89.506781 -26.860976 1520.113843 951.385866 21.693062 0.000000 0.107166
75.000000 48.318000 3.000000 2.000000 -6.000000 97.941426 -25.385286 1485.723422 774.812406 10.353751 0.000000 0.103766
76.000000 49.739000 7.000000 4.000000 -12.000000 105.921620 -23.730624 1448.146442 605.612576 20.112906 0.000000 0.093905
77.000000 50.463000 4.000000 2.000000 -6.000000 113.393660 -21.865665 1406.918497 439.294354 9.910917 0.000000 0.077918
78.000000 50.587000 9.000000 4.000000 -12.000000 120.325144 -19.752414 1361.480328 272.072094 19.771111 0.000000 0.057791
79.000000 50.219000 5.000000 2.000000 -6.000000 126.701172 -17.344826 1311.152307 100.501433 9.956979 0.000000 0.037145
80.000000 49.467000 11.000000 4.000000 -12.000000 132.519685 -14.587364 1255.100210 -78.795888 20.214995 0.000000 0.023873
81.000000 48.429000 3.000000 1.000000 -3.000000 137.786708 -11.413791 1192.288611 -269.370769 5.161742 0.000000 0.026272
84.000000 45.981000 6.000000 5.000000 -12.000000 94.851155 -19.756286 1361.562432 843.940208 21.761411 0.000000 0.130661
85.000000 47.455000 7.000000 5.000000 -12.000000 102.549793 -17.888057 1322.385850 689.239291 21.082710 0.000000 0.128802
86.000000 48.280000 8.000000 5.000000 -12.000000 109.762657 -15.810993 1279.783638 539.096712 20.719708 0.000000 0.118838
87.000000 48.539000 9.000000 5.000000 -12.000000 116.455987 -13.494491 1233.285944 390.205235 20.606769 0.000000 0.102277
88.000000 48.326000 10.000000 5.000000 -12.000000 122.612387 -10.903658 1182.332876 239.692240 20.695269 0.000000 0.080865
89.000000 47.738000 11.000000 5.000000 -12.000000 128.227014 -7.999402 1126.251844 84.887537 20.948426 0.000000 0.056500
90.000000 46.863000 12.000000 5.000000 -12.000000 133.303681 -4.739138 1064.227705 -76.858841 21.337899 0.000000 0.031195
91.000000 45.780000 13.000000 5.000000 -12.000000 137.851375 -1.078553 995.262883 -248.338912 21.841497 0.000000 0.007565
92.000000 45.849000 4.000000 3.000000 -6.000000 105.795402 -10.566437 1175.770521 631.280775 10.909915 0.000000 0.144532
93.000000 46.245000 3.000000 2.000000 -4.000000 112.249530 -8.162166 1129.370975 496.180758 7.210268 0.000000 0.132011
94.000000 46.193000 5.000000 3.000000 -6.000000 118.193985 -5.517369 1078.964660 361.356104 10.826435 0.000000 0.113272
95.000000 45.777000 11.000000 6.000000 -12.000000 123.622269 -2.607168 1024.009158 224.567063 21.847517 0.000000 0.089787
98.000000 48.559000 3.000000 1.000000 -11.000000 78.102721 -45.905058 2085.845744 1266.871370 20.610447 0.000000 0.247627
99.000000 53.013000 4.000000 1.000000 -11.000000 88.629553 -45.565266 2072.743500 977.778651 18.875460 0.000000 0.195820
100.000000 56.267000 5.000000 1.000000 -11.000000 98.751596 -45.175446 2057.906023 705.960645 17.780732 0.000000 0.168325
101.000000 58.325000 6.000000 1.000000 -11.000000 108.343411 -44.723718 2040.964151 438.746577 17.150386 0.000000 0.169395
102.000000 59.295000 7.000000 1.000000 -11.000000 117.321102 -44.194132 2021.436016 165.500778 16.867561 0.000000 0.197320
105.000000 47.457000 3.000000 2.000000 -11.000000 77.133481 -39.294299 1855.757826 1258.665634 21.090140 0.000000 0.161463
106.000000 51.837000 4.000000 2.000000 -11.000000 87.482395 -38.521206 1831.773719 1001.486608 19.304411 0.000000 0.113911
107.000000 55.070000 5.000000 2.000000 -11.000000 97.433183 -37.639175 1805.031134 763.673280 18.168155 0.000000 0.076133
108.000000 57.152000 6.000000 2.000000 -11.000000 106.862034 -36.623957 1775.025143 534.524421 17.503219 0.000000 0.048324
109.000000 58.181000 7.000000 2.000000 -11.000000 115.684076 -35.443731 1741.119579 305.641758 17.191147 0.000000 0.050610
110.000000 58.313000 8.000000 2.000000 -11.000000 123.851688 -34.056008 1702.501431 69.628390 17.150112 0.000000 0.082370
111.000000 57.729000 9.000000 2.000000 -11.000000 131.348289 -32.402948 1658.114806 -180.823555 17.321771 0.000000 0.120144
114.000000 45.677000 3.000000 3.000000 -11.000000 75.498915 -33.010702 1674.239532 1272.958888 21.913395 0.000000 0.124085
115.000000 49.941000 4.000000 3.000000 -11.000000 85.564872 -31.869159 1644.130655 1039.297974 20.038723 0.000000 0.100797
116.000000 53.136000 5.000000 3.000000 -11.000000 95.243838 -30.578021 1610.961517 826.263608 18.830387 0.000000 0.085030
117.000000 55.253000 6.000000 3.000000 -11.000000 104.415202 -29.107431 1574.240570 624.361651 18.105866 0.000000 0.066659
118.000000 56.373000 7.000000 3.000000 -11.000000 112.993648 -27.419595 1533.365041 426.478617 17.743723 0.000000 0.043451
119.000000 56.633000 8.000000 3.000000 -11.000000 120.927858 -25.466231 1487.587584 226.742104 17.660024 0.000000 0.020228
120.000000 56.197000 9.000000 3.000000 -11.000000 128.194998 -23.185151 1435.970167 19.792980 17.794898 0.000000 0.026081
121.000000 55.231000 10.000000 3.000000 -11.000000 134.793023 -20.495758 1377.319123 -199.758313 18.104491 0.000000 0.050360
125.000000 47.485000 4.000000 4.000000 -11.000000 83.037794 -25.738481 1493.876042 1086.907890 21.076813 0.000000 0.110807
126.000000 50.625000 5.000000 4.000000 -11.000000 92.372644 -24.138652 1457.321320 892.131536 19.766144 0.000000 0.115491
127.000000 52.776000 6.000000 4.000000 -11.000000 101.221736 -22.339132 1417.279430 710.137494 18.957268 0.000000 0.112458
128.000000 54.001000 7.000000 4.000000 -11.000000 109.500991 -20.304357 1373.226386 534.589971 18.524398 0.000000 0.100573
129.000000 54.417000 8.000000 4.000000 -11.000000 117.156915 -17.991259 1324.527689 360.498172 18.380547 0.000000 0.081516
130.000000 54.166000 9.000000 4.000000 -11.000000 124.162169 -15.347871 1270.407566 183.577305 18.463640 0.000000 0.058062
131.000000 53.396000 10.000000 4.000000 -11.000000 130.509155 -12.312055 1209.907337 -0.186212 18.728189 0.000000 0.034140
132.000000 52.242000 11.000000 4.000000 -11.000000 136.203134 -8.810864 1141.828130 -194.876245 19.140104 0.000000 0.016947
133.000000 50.823000 12.000000 4.000000 -11.000000 141.255933 -4.761498 1064.650632 -404.964474 19.673329 0.000000 0.015625
136.000000 47.713000 5.000000 5.000000 -11.000000 89.026049 -18.382420 1332.668704 960.281179 20.974155 0.000000 0.134005
137.000000 49.888000 6.000000 5.000000 -11.000000 97.516198 -16.372334 1291.205989 792.991901 20.056373 0.000000 0.140345
138.000000 51.219000 7.000000 5.000000 -11.000000 105.468865 -14.133565 1246.016828 633.849204 19.532287 0.000000 0.135783
139.000000 51.799000 8.000000 5.000000 -11.000000 112.830374 -11.632879 1196.575214 478.393938 19.310928 0.000000 0.122017
140.000000 51.749000 9.000000 5.000000 -11.000000 119.571017 -8.832859 1142.251256 322.970160 19.327346 0.000000 0.101076
141.000000 51.197000 10.000000 5.000000 -11.000000 125.680042 -5.692396 1082.284195 164.342567 19.533933 0.000000 0.075081
142.000000 50.264000 11.000000 5.000000 -11.000000 131.160173 -2.168080 1015.746563 -0.577734 19.894996 0.000000 0.046363
143.000000 49.057000 12.000000 5.000000 -11.000000 136.022637 1.782994 941.495864 -174.957245 20.383246 0.000000 0.019308
144.000000 47.664000 13.000000 5.000000 -11.000000 140.283290 6.198348 858.108430 -362.252422 20.977467 0.000000 0.023528
146.000000 46.755000 6.000000 6.000000 -11.000000 93.512538 -11.179897 1187.719588 873.656659 21.402134 0.000000 0.153833
147.000000 48.179000 7.000000 6.000000 -11.000000 101.130962 -8.847166 1142.526521 726.685488 20.766512 0.000000 0.155476
148.000000 48.917000 8.000000 6.000000 -11.000000 108.199142 -6.282642 1093.493963 585.012297 20.450416 0.000000 0.146908
149.000000 49.068000 9.000000 6.000000 -11.000000 114.686554 -3.461915 1040.110917 445.361464 20.385370 0.000000 0.129955
150.000000 48.738000 10.000000 6.000000 -11.000000 120.580617 -0.360471 981.771499 304.960117 20.521159 0.000000 0.106367
151.000000 48.034000 11.000000 6.000000 -11.000000 125.882387 3.044697 917.751838 161.296357 20.820125 0.000000 0.077985
152.000000 47.051000 12.000000 6.000000 -11.000000 130.602538 6.772693 847.179894 11.938369 21.253468 0.000000 0.047748
153.000000 45.872000 13.000000 6.000000 -11.000000 134.758113 10.835458 768.995493 -145.617978 21.798792 0.000000 0.028457
154.000000 45.897000 8.000000 7.000000 -11.000000 103.458018 -1.792061 1008.674638 683.312506 21.798264 0.000000 0.160498
155.000000 46.234000 9.000000 7.000000 -11.000000 109.707468 0.969059 956.794603 555.417424 21.637066 0.000000 0.147938
156.000000 46.117000 10.000000 7.000000 -11.000000 115.408396 3.956449 900.560229 428.523274 21.689304 0.000000 0.127864
157.000000 45.638000 11.000000 7.000000 -11.000000 120.560180 7.180775 839.399308 300.466669 21.914996 0.000000 0.101740
164.000000 48.556000 2.000000 1.000000 -10.000000 69.443857 -45.507919 2070.547846 1516.922216 20.614855 0.000000 0.295373
165.000000 54.932000 3.000000 1.000000 -10.000000 81.226538 -45.123212 2055.933298 1176.420031 18.218365 0.000000 0.218029
166.000000 59.816000 4.000000 1.000000 -10.000000 92.653687 -44.678973 2039.300446 870.844117 16.727471 0.000000 0.169102
167.000000 63.094000 5.000000 1.000000 -10.000000 103.526017 -44.160293 2020.200182 580.093017 15.855448 0.000000 0.150072
168.000000 64.844000 6.000000 1.000000 -10.000000 113.701312 -43.546862 1998.039473 289.120436 15.425059 0.000000 0.166000
169.000000 65.275000 7.000000 1.000000 -10.000000 123.097334 -42.810294 1972.018691 -15.309455 15.320847 0.000000 0.207904
172.000000 47.215000 1.000000 1.000000 -5.000000 68.435210 -38.617467 1834.731780 1485.417860 10.600694 0.000000 0.200378
173.000000 53.430000 3.000000 2.000000 -10.000000 79.978775 -37.762391 1808.728425 1181.578253 18.731467 0.000000 0.136276
174.000000 58.234000 2.000000 1.000000 -5.000000 91.172629 -36.781322 1779.623890 913.493407 8.591393 0.000000 0.092229
175.000000 61.512000 5.000000 2.000000 -10.000000 101.822678 -35.644926 1746.828219 663.763961 16.264143 0.000000 0.054753
176.000000 63.327000 3.000000 1.000000 -5.000000 111.787529 -34.314294 1709.591690 420.131585 7.897685 0.000000 0.027704
177.000000 63.869000 7.000000 2.000000 -10.000000 120.981359 -32.736858 1666.946791 172.746647 15.659014 0.000000 0.048459
178.000000 63.391000 4.000000 1.000000 -5.000000 129.367031 -30.840156 1617.622956 -87.465575 7.887618 0.000000 0.088628
181.000000 51.044000 3.000000 3.000000 -10.000000 77.919295 -30.851791 1617.919486 1209.327674 19.608406 0.000000 0.111944
182.000000 55.720000 4.000000 3.000000 -10.000000 88.748826 -29.433780 1582.296966 967.990733 17.959375 0.000000 0.100006
183.000000 58.991000 5.000000 3.000000 -10.000000 99.053606 -27.810974 1542.729082 747.102565 16.960469 0.000000 0.089314
184.000000 60.900000 6.000000 3.000000 -10.000000 108.695129 -25.938823 1498.521959 535.997125 16.426047 0.000000 0.071554
185.000000 61.607000 7.000000 3.000000 -10.000000 117.584662 -23.760171 1448.808876 326.618803 16.235007 0.000000 0.047565
186.000000 61.335000 8.000000 3.000000 -10.000000 125.677548 -21.201196 1392.492877 112.143324 16.304976 0.000000 0.025781
187.000000 60.319000 9.000000 3.000000 -10.000000 132.962363 -18.166236 1328.164879 -113.921198 16.577981 0.000000 0.030175
188.000000 58.775000 10.000000 3.000000 -10.000000 139.448335 -14.531707 1253.984163 -358.450915 17.012032 0.000000 0.046696
191.000000 48.015000 3.000000 4.000000 -10.000000 75.244562 -24.530324 1466.183667 1252.598214 20.846935 0.000000 0.105996
192.000000 52.520000 2.000000 2.000000 -5.000000 85.620075 -22.792691 1427.270895 1030.419534 9.527744 0.000000 0.119166
193.000000 55.765000 5.000000 4.000000 -10.000000 95.499245 -20.831961 1384.532996 830.131189 17.943021 0.000000 0.126354
194.000000 57.775000 3.000000 2.000000 -5.000000 104.749624 -18.607830 1337.376800 642.013342 8.657970 0.000000 0.121471
195.000000 58.675000 7.000000 4.000000 -10.000000 113.282427 -16.071663 1285.079805 459.028444 17.047864 0.000000 0.105753
196.000000 58.650000 4.000000 2.000000 -5.000000 121.048531 -13.165197 1226.752902 275.566432 8.526390 0.000000 0.082042
197.000000 57.906000 9.000000 4.000000 -10.000000 128.029941 -9.819699 1161.289406 86.684336 17.270120 0.000000 0.053750
198.000000 56.635000 5.000000 2.000000 -5.000000 134.229723 -5.956352 1087.294167 -112.424560 8.828000 0.000000 0.024716
199.000000 55.006000 11.000000 4.000000 -10.000000 139.662630 -1.489322 1002.983032 -326.874183 18.177847 0.000000 0.001745
202.000000 48.896000 4.000000 5.000000 -10.000000 82.035995 -16.912536 1302.260454 1098.380564 20.469383 0.000000 0.126549
203.000000 52.091000 2.000000 2.000000 -4.000000 91.448165 -14.747756 1258.319565 912.863671 7.684162 0.000000 0.145077
204.000000 54.188000 6.000000 5.000000 -10.000000 100.277214 -12.332841 1210.316435 741.236427 18.463908 0.000000 0.149086
205.000000 55.280000 7.000000 5.000000 -10.000000 108.437327 -9.632027 1157.660445 577.054937 18.096634 0.000000 0.140364
206.000000 55.514000 8.000000 5.000000 -10.000000 115.878016 -6.605734 1099.640650 415.400505 18.017839 0.000000 0.121421
207.000000 55.062000 9.000000 5.000000 -10.000000 122.577889 -3.211638 1035.393490 252.184320 18.163593 0.000000 0.094790
208.000000 54.092000 4.000000 2.000000 -4.000000 128.536942 0.593035 963.859517 83.697335 7.395022 0.000000 0.063190
209.000000 52.754000 11.000000 5.000000 -10.000000 133.769246 4.847389 883.724515 -93.721585 18.955320 0.000000 0.031633
210.000000 51.170000 12.000000 5.000000 -10.000000 138.297220 9.580355 793.338018 -283.972698 19.540796 0.000000 0.029077
214.000000 48.205000 5.000000 6.000000 -10.000000 87.150959 -9.508822 1155.280257 995.309238 20.761235 0.000000 0.149521
215.000000 50.362000 3.000000 3.000000 -5.000000 95.553802 -7.021429 1107.560947 835.553718 9.934406 0.000000 0.161058
216.000000 51.623000 7.000000 6.000000 -10.000000 103.345723 -4.286819 1055.677969 684.951409 19.380366 0.000000 0.158865
217.000000 52.103000 4.000000 3.000000 -5.000000 110.476921 -1.280685 999.061525 538.983696 9.599674 0.000000 0.145361
218.000000 51.939000 9.000000 6.000000 -10.000000 116.924202 2.020316 937.032876 394.052984 19.257709 0.000000 0.122742
219.000000 51.273000 5.000000 3.000000 -5.000000 122.685165 5.636454 868.777004 247.069750 9.753050 0.000000 0.093120
220.000000 50.234000 11.000000 6.000000 -10.000000 127.772391 9.581981 793.306597 95.170302 19.907865 0.000000 0.059419
221.000000 48.934000 6.000000 3.000000 -5.000000 132.208603 13.861374 709.413985 -64.500555 10.217604 0.000000 0.032933
222.000000 47.465000 13.000000 6.000000 -10.000000 136.023206 18.465090 615.606025 -234.982409 21.066667 0.000000 0.051943
224.000000 46.482000 6.000000 7.000000 -10.000000 90.787370 -2.540024 1022.745327 926.193871 21.529523 0.000000 0.161973
225.000000 47.879000 7.000000 7.000000 -10.000000 98.224815 0.148700 972.206674 785.427251 20.898116 0.000000 0.165971
226.000000 48.574000 8.000000 7.000000 -10.000000 105.065254 3.058440 917.492950 650.880388 20.596509 0.000000 0.158045
227.000000 48.674000 9.000000 7.000000 -10.000000 111.284409 6.200659 858.064501 519.240340 20.551782 0.000000 0.140224
228.000000 48.294000 10.000000 7.000000 -10.000000 116.877376 9.583126 793.284480 387.778882 20.711035 0.000000 0.114260
229.000000 47.547000 11.000000 7.000000 -10.000000 121.853998 13.208150 722.395936 254.092997 21.034962 0.000000 0.082004
230.000000 46.528000 12.000000 7.000000 -10.000000 126.234725 17.070648 644.492099 115.919365 21.493745 0.000000 0.047453
234.000000 55.534000 2.000000 1.000000 -9.000000 72.002198 -44.636456 2037.721948 1432.390957 18.023688 0.000000 0.261786
235.000000 62.907000 3.000000 1.000000 -9.000000 84.986291 -44.128277 2019.032208 1072.548226 15.907856 0.000000 0.185550
236.000000 68.163000 4.000000 1.000000 -9.000000 97.444497 -43.529992 1997.436411 747.022662 14.678011 0.000000 0.141212
237.000000 71.247000 5.000000 1.000000 -9.000000 109.133102 -42.815478 1972.199628 431.970318 14.039782 0.000000 0.135848
238.000000 72.388000 6.000000 1.000000 -9.000000 119.898368 -41.947525 1942.316304 108.933106 13.816203 0.000000 0.170378
241.000000 53.644000 2.000000 2.000000 -9.000000 70.681959 -36.931100 1784.018532 1412.995138 18.660016 0.000000 0.170257
242.000000 60.806000 3.000000 2.000000 -9.000000 83.341635 -35.835699 1752.267807 1095.980636 16.458417 0.000000 0.113394
243.000000 65.989000 4.000000 2.000000 -9.000000 95.487441 -34.558140 1716.325723 815.449482 15.162423 0.000000 0.074701
244.000000 69.125000 5.000000 2.000000 -9.000000 106.881747 -33.050520 1675.303686 551.316629 14.471658 0.000000 0.036917
245.000000 70.409000 6.000000 2.000000 -9.000000 117.368766 -31.247332 1628.042822 289.309358 14.205364 0.000000 0.012266
246.000000 70.187000 7.000000 2.000000 -9.000000 126.870872 -29.057105 1573.002750 17.517574 14.248245 0.000000 0.053892
247.000000 68.850000 8.000000 2.000000 -9.000000 135.371103 -26.349298 1508.090515 -275.741103 14.523294 0.000000 0.093920
250.000000 50.696000 2.000000 3.000000 -9.000000 68.532108 -29.745386 1590.037883 1428.500700 19.746362 0.000000 0.127411
251.000000 57.535000 1.000000 1.000000 -3.000000 80.694618 -28.183567 1551.706553 1141.074846 5.798545 0.000000 0.107640
252.000000 62.596000 4.000000 3.000000 -9.000000 92.364557 -26.387268 1508.979052 891.387778 15.985774 0.000000 0.106657
253.000000 65.796000 5.000000 3.000000 -9.000000 103.315832 -24.303873 1461.053087 661.489266 15.205243 0.000000 0.097932
254.000000 67.351000 7.000000 3.000000 -9.000000 122.512524 -18.985123 1345.285268 215.530855 14.849372 0.000000 0.050711
255.000000 66.339000 8.000000 3.000000 -9.000000 130.641871 -15.549252 1274.479410 -17.958514 15.074171 0.000000 0.026680
258.000000 47.048000 2.000000 4.000000 -9.000000 65.787579 -23.227517 1436.912310 1467.675433 21.279285 0.000000 0.101981
259.000000 53.478000 3.000000 4.000000 -9.000000 77.342663 -21.336717 1395.424367 1200.497854 18.716968 0.000000 0.109883
260.000000 58.366000 4.000000 4.000000 -9.000000 88.437093 -19.196429 1349.730101 972.095294 17.146114 0.000000 0.131303
261.000000 61.614000 5.000000 4.000000 -9.000000 98.861948 -16.761121 1299.155652 765.743358 16.238993 0.000000 0.137953
262.000000 63.323000 6.000000 4.000000 -9.000000 108.468723 -13.976181 1242.875107 570.563858 15.797984 0.000000 0.128857
263.000000 63.721000 7.000000 4.000000 -9.000000 117.169348 -10.776931 1179.865040 378.669502 15.696833 0.000000 0.107258
264.000000 63.093000 8.000000 4.000000 -9.000000 124.925992 -7.088581 1108.841718 183.651856 15.851110 0.000000 0.077025
265.000000 61.719000 9.000000 4.000000 -9.000000 131.736348 -2.828313 1028.172722 -20.339753 16.202212 0.000000 0.042376
266.000000 59.846000 10.000000 4.000000 -9.000000 137.619221 2.088525 935.749931 -239.271057 16.708188 0.000000 0.012453
269.000000 49.023000 3.000000 5.000000 -9.000000 73.582835 -15.338357 1270.215397 1269.833913 20.419899 0.000000 0.102065
270.000000 53.689000 4.000000 5.000000 -9.000000 84.057998 -13.005075 1223.582529 1055.970657 18.641507 0.000000 0.137831
271.000000 56.948000 5.000000 5.000000 -9.000000 93.925188 -10.398688 1172.511481 865.917066 17.571373 0.000000 0.155437
272.000000 58.855000 6.000000 5.000000 -9.000000 103.046559 -7.481171 1116.337006 689.455265 16.998943 0.000000 0.155298
273.000000 59.580000 7.000000 5.000000 -9.000000 111.336042 -4.211426 1054.253909 519.451998 16.789595 0.000000 0.140694
274.000000 59.347000 8.000000 5.000000 -9.000000 118.752774 -0.547137 985.278209 350.430006 16.853244 0.000000 0.114861
275.000000 58.391000 9.000000 5.000000 -9.000000 125.290451 3.551783 908.194594 177.744403 17.127330 0.000000 0.080997
276.000000 56.925000 10.000000 5.000000 -9.000000 130.966337 8.117554 821.484198 -2.956729 17.567052 0.000000 0.044230
277.000000 55.125000 11.000000 5.000000 -9.000000 135.812367 13.166387 723.223512 -196.148339 18.139482 0.000000 0.032909
278.000000 53.129000 12.000000 5.000000 -9.000000 139.869375 18.688272 610.940019 -406.817325 18.819879 0.000000 0.074826
281.000000 48.898000 4.000000 6.000000 -9.000000 79.515027 -7.734848 1121.187330 1142.016327 20.470031 0.000000 0.130547
282.000000 52.121000 5.000000 6.000000 -9.000000 88.826870 -5.083089 1070.736513 963.127209 19.200859 0.000000 0.157410
283.000000 54.180000 2.000000 2.000000 -3.000000 97.473630 -2.168870 1015.761437 799.705854 6.156005 0.000000 0.165410
284.000000 55.192000 7.000000 6.000000 -9.000000 105.373879 1.031306 955.624954 645.019057 18.126631 0.000000 0.157944
285.000000 55.328000 8.000000 6.000000 -9.000000 112.485743 4.538589 889.564384 494.096672 18.079707 0.000000 0.137979
286.000000 54.776000 3.000000 2.000000 -3.000000 118.799387 8.369139 816.658996 342.948486 6.086615 0.000000 0.108091
287.000000 53.715000 10.000000 6.000000 -9.000000 124.328572 12.530667 735.786835 188.080553 18.618755 0.000000 0.071199
288.000000 52.300000 11.000000 6.000000 -9.000000 129.103203 17.018364 645.566566 26.159502 19.120937 0.000000 0.036647
289.000000 50.658000 4.000000 2.000000 -3.000000 133.163750 21.810787 544.277929 -146.257267 6.579901 0.000000 0.051432
290.000000 48.885000 13.000000 6.000000 -9.000000 136.557643 26.866703 429.750991 -332.977955 20.454612 0.000000 0.107381
292.000000 47.376000 5.000000 7.000000 -9.000000 83.791515 -0.647318 987.160312 1058.091723 21.125937 0.000000 0.148739
293.000000 49.530000 6.000000 7.000000 -9.000000 91.985399 2.186786 933.901524 903.662397 20.203965 0.000000 0.164294
294.000000 50.772000 7.000000 7.000000 -9.000000 99.520123 5.248682 876.127425 759.741484 19.706920 0.000000 0.163807
295.000000 51.226000 8.000000 7.000000 -9.000000 106.353825 8.547294 813.238381 621.624533 19.529640 0.000000 0.150161
296.000000 51.038000 9.000000 7.000000 -9.000000 112.473162 12.086707 744.523665 485.681258 19.599021 0.000000 0.125627
297.000000 50.356000 10.000000 7.000000 -9.000000 117.886915 15.864297 669.134478 348.893955 19.862663 0.000000 0.092207
298.000000 49.311000 11.000000 7.000000 -9.000000 122.619835 19.868845 586.048712 208.555850 20.282030 0.000000 0.053022
299.000000 48.015000 12.000000 7.000000 -9.000000 126.707552 24.078969 494.024338 62.051710 20.828145 0.000000 0.030058
300.000000 46.558000 13.000000 7.000000 -9.000000 130.192771 28.462285 391.536888 -93.324138 21.478798 0.000000 0.072085
301.000000 46.479000 7.000000 8.000000 -9.000000 93.917330 8.680069 810.686976 866.444639 21.529448 0.000000 0.161556
302.000000 47.190000 8.000000 8.000000 -9.000000 100.491077 11.759150 750.951149 737.421503 21.202186 0.000000 0.154232
303.000000 47.314000 9.000000 8.000000 -9.000000 106.431339 15.019660 686.211958 612.362310 21.144126 0.000000 0.135565
304.000000 46.967000 10.000000 8.000000 -9.000000 111.741567 18.455161 615.813316 488.515207 21.298145 0.000000 0.107218
305.000000 46.259000 11.000000 8.000000 -9.000000 116.440223 22.053510 538.979187 363.529316 21.622211 0.000000 0.070717
311.000000 53.453000 1.000000 1.000000 -8.000000 60.369331 -44.097939 2017.926653 1793.442216 18.729091 0.000000 0.347635
312.000000 64.559000 2.000000 1.000000 -8.000000 75.161018 -43.514082 1996.868012 1334.202853 15.503416 0.000000 0.224172
313.000000 73.063000 3.000000 1.000000 -8.000000 89.582004 -42.820338 1972.369316 951.705200 13.695498 0.000000 0.149957
314.000000 78.497000 4.000000 1.000000 -8.000000 103.213259 -41.982736 1943.512664 601.043648 12.744464 0.000000 0.113510
315.000000 80.982000 5.000000 1.000000 -8.000000 115.763298 -40.951856 1909.021709 253.223243 12.350820 0.000000 0.129657
316.000000 81.039000 6.000000 1.000000 -8.000000 127.082545 -39.653046 1867.067767 -115.573061 12.340078 0.000000 0.182929
318.000000 51.177000 1.000000 2.000000 -8.000000 59.048463 -36.016838 1757.456927 1739.008336 19.563103 0.000000 0.239947
319.000000 61.798000 1.000000 1.000000 -4.000000 73.383241 -34.788717 1722.729719 1332.105689 8.098637 0.000000 0.141005
320.000000 70.037000 3.000000 2.000000 -8.000000 87.351751 -33.345703 1683.222821 1000.593409 14.288352 0.000000 0.097071
321.000000 78.096000 5.000000 2.000000 -8.000000 112.705852 -29.554606 1585.292857 423.285230 12.808053 0.000000 0.028911
322.000000 77.073000 7.000000 2.000000 -8.000000 133.319299 -23.820687 1450.166602 -168.442145 12.974159 0.000000 0.060665
324.000000 47.709000 1.000000 3.000000 -8.000000 56.926165 -28.538666 1560.320907 1738.872860 20.986828 0.000000 0.184410
325.000000 57.609000 2.000000 3.000000 -8.000000 70.576318 -26.813319 1518.989444 1366.245080 17.376582 0.000000 0.110112
326.000000 65.439000 3.000000 3.000000 -8.000000 83.871717 -24.818658 1472.743159 1068.319151 15.293735 0.000000 0.113068
327.000000 70.780000 4.000000 3.000000 -8.000000 96.445280 -22.492470 1420.649983 809.402237 14.136500 0.000000 0.118906
328.000000 73.651000 5.000000 3.000000 -8.000000 108.024434 -19.754580 1361.526263 568.883872 13.582524 0.000000 0.107835
329.000000 74.399000 6.000000 3.000000 -8.000000 118.445127 -16.501607 1293.845734 332.907594 13.443570 0.000000 0.082139
330.000000 73.520000 7.000000 3.000000 -8.000000 127.637085 -12.601298 1215.605881 90.545574 13.602335 0.000000 0.048604
331.000000 71.516000 8.000000 3.000000 -8.000000 135.594160 -7.888421 1124.126471 -168.348995 13.981919 0.000000 0.017558
332.000000 68.814000 9.000000 3.000000 -8.000000 142.342959 -2.167536 1015.736343 -454.720703 14.529805 0.000000 0.012712
334.000000 52.588000 1.000000 2.000000 -4.000000 67.104032 -19.758799 1361.615746 1423.991832 9.518665 0.000000 0.088926
335.000000 59.904000 3.000000 4.000000 -8.000000 79.605506 -17.418446 1312.670746 1147.918506 16.708755 0.000000 0.119787
336.000000 68.188000 5.000000 4.000000 -8.000000 102.382493 -11.685927 1197.614142 699.704670 14.672526 0.000000 0.148003
337.000000 69.038000 7.000000 4.000000 -8.000000 120.972665 -4.097006 1052.093199 293.340736 14.487100 0.000000 0.102028
338.000000 65.471000 9.000000 4.000000 -8.000000 134.966272 5.984974 862.162294 -139.919684 15.273222 0.000000 0.025876
339.000000 62.897000 5.000000 2.000000 -4.000000 140.305437 12.130386 743.665406 -385.266036 7.948480 0.000000 0.045376
341.000000 47.282000 2.000000 5.000000 -8.000000 63.307247 -13.651021 1236.397720 1497.880254 21.175556 0.000000 0.064882
342.000000 54.020000 3.000000 5.000000 -8.000000 74.976458 -11.134526 1186.834150 1235.408027 18.530545 0.000000 0.109634
343.000000 59.030000 4.000000 5.000000 -8.000000 86.062165 -8.320633 1132.410216 1015.876608 16.954455 0.000000 0.148886
344.000000 62.241000 5.000000 5.000000 -8.000000 96.343314 -5.169570 1072.374122 820.863703 16.076361 0.000000 0.163233
345.000000 63.807000 6.000000 5.000000 -8.000000 105.672459 -1.639733 1005.810594 638.901767 15.679162 0.000000 0.156806
346.000000 64.008000 7.000000 5.000000 -8.000000 113.972513 2.309443 931.593888 462.032453 15.627334 0.000000 0.134123
347.000000 63.173000 8.000000 5.000000 -8.000000 121.223092 6.712648 848.323607 284.076688 15.831906 0.000000 0.099166
348.000000 61.610000 9.000000 5.000000 -8.000000 127.443851 11.591470 754.235494 99.645590 16.232048 0.000000 0.057029
349.000000 59.576000 10.000000 5.000000 -8.000000 132.679997 16.944911 647.075052 -96.523964 16.784762 0.000000 0.034210
350.000000 57.273000 11.000000 5.000000 -8.000000 136.992335 22.739034 523.914550 -310.117970 17.458796 0.000000 0.080952
353.000000 48.232000 3.000000 6.000000 -8.000000 70.302012 -5.851900 1085.311064 1328.345044 20.756268 0.000000 0.086748
354.000000 52.979000 2.000000 3.000000 -4.000000 80.650441 -3.026265 1031.900939 1118.453481 9.446373 0.000000 0.137775
355.000000 56.245000 5.000000 6.000000 -8.000000 90.302452 0.076426 973.564351 935.318411 17.792345 0.000000 0.162318
356.000000 58.111000 3.000000 3.000000 -4.000000 99.124951 3.477952 909.586734 767.805841 8.609046 0.000000 0.165086
357.000000 58.772000 7.000000 6.000000 -8.000000 107.043060 7.196024 839.108302 608.439691 17.021924 0.000000 0.150506
358.000000 58.473000 4.000000 3.000000 -4.000000 114.031542 11.241118 761.085193 451.705913 8.553285 0.000000 0.122026
359.000000 57.463000 9.000000 6.000000 -8.000000 120.102740 15.612633 674.237415 293.120607 17.405493 0.000000 0.082757
360.000000 55.959000 5.000000 3.000000 -4.000000 125.294897 20.294782 576.978078 128.655149 8.935817 0.000000 0.039723
361.000000 54.140000 11.000000 6.000000 -8.000000 129.662883 25.253097 467.315552 -45.673908 18.470776 0.000000 0.047642
362.000000 52.143000 6.000000 3.000000 -4.000000 133.271774 30.432711 342.715633 -234.155279 9.588721 0.000000 0.112663
365.000000 47.260000 4.000000 7.000000 -8.000000 75.441242 1.340732 949.809915 1220.603063 21.181061 0.000000 0.117009
366.000000 50.500000 5.000000 7.000000 -8.000000 84.501758 4.324151 893.616768 1044.897767 19.818806 0.000000 0.150796
367.000000 52.568000 6.000000 7.000000 -8.000000 92.850326 7.540398 832.531070 886.945320 19.035978 0.000000 0.162215
368.000000 53.591000 7.000000 7.000000 -8.000000 100.415692 10.995117 765.884774 739.458705 18.669761 0.000000 0.155759
369.000000 53.747000 8.000000 7.000000 -8.000000 107.168472 14.687900 692.882405 597.246760 18.613112 0.000000 0.134679
370.000000 53.227000 9.000000 7.000000 -8.000000 113.112681 18.610414 612.569164 456.294992 18.792770 0.000000 0.101423
371.000000 52.211000 10.000000 7.000000 -8.000000 118.276659 22.744722 523.788932 313.222592 19.156898 0.000000 0.058448
372.000000 50.850000 11.000000 7.000000 -8.000000 122.705095 27.062193 425.128259 164.926380 19.667789 0.000000 0.022041
373.000000 49.270000 12.000000 7.000000 -8.000000 126.452838 31.523426 314.840549 8.314643 20.297356 0.000000 0.069444
374.000000 47.564000 13.000000 7.000000 -8.000000 129.580423 36.079523 190.741760 -159.925973 21.024250 0.000000 0.143601
376.000000 47.360000 3.000000 4.000000 -4.000000 86.975025 10.812895 769.434831 998.904738 10.565743 0.000000 0.151858
377.000000 48.647000 7.000000 8.000000 -8.000000 94.207946 14.008843 706.473258 859.384436 20.569744 0.000000 0.153144
378.000000 49.164000 2.000000 2.000000 -2.000000 100.736077 17.381196 638.097698 727.166112 5.087652 0.000000 0.139570
379.000000 49.056000 9.000000 8.000000 -8.000000 106.555835 20.919730 563.578465 598.466635 20.393096 0.000000 0.113391
380.000000 48.465000 5.000000 4.000000 -4.000000 111.685567 24.608160 482.048579 470.249455 10.319941 0.000000 0.076235
381.000000 47.518000 11.000000 8.000000 -8.000000 116.159085 28.423885 392.469879 339.887980 21.049250 0.000000 0.029774
382.000000 46.324000 3.000000 2.000000 -2.000000 120.020248 32.338262 293.588579 204.933612 5.397529 0.000000 0.030699
385.000000 62.767000 1.000000 1.000000 -7.000000 62.349467 -42.824905 1972.528772 1709.824393 15.949457 0.000000 0.305810
386.000000 76.560000 2.000000 1.000000 -7.000000 79.147092 -42.015606 1944.630680 1218.731804 13.072502 0.000000 0.182326
387.000000 86.234000 3.000000 1.000000 -7.000000 95.295286 -41.026437 1911.480587 808.769623 11.602688 0.000000 0.111174
389.000000 59.300000 1.000000 2.000000 -7.000000 60.540758 -33.623981 1690.737714 1671.077250 16.883228 0.000000 0.201460
390.000000 72.354000 2.000000 2.000000 -7.000000 76.667924 -31.985789 1647.172171 1241.716402 13.833581 0.000000 0.117227
391.000000 81.727000 3.000000 2.000000 -7.000000 92.165085 -30.018348 1596.858426 894.006276 12.243666 0.000000 0.093242
392.000000 86.980000 4.000000 2.000000 -7.000000 106.501815 -27.617719 1538.096927 581.148653 11.501250 0.000000 0.068727
393.000000 88.553000 5.000000 2.000000 -7.000000 119.346377 -24.635159 1468.565109 275.271469 11.294478 0.000000 0.033133
394.000000 87.353000 6.000000 2.000000 -7.000000 130.558714 -20.853818 1385.003107 -44.724427 11.447784 0.000000 0.028831
395.000000 84.344000 7.000000 2.000000 -7.000000 140.130223 -15.954020 1282.687879 -399.236628 11.854770 0.000000 0.057301
397.000000 54.213000 1.000000 3.000000 -7.000000 57.745223 -25.306696 1483.915877 1692.318670 18.469066 0.000000 0.152085
398.000000 66.198000 2.000000 3.000000 -7.000000 72.904521 -23.084588 1433.736257 1300.831154 15.121595 0.000000 0.102399
399.000000 75.094000 3.000000 3.000000 -7.000000 87.473470 -20.478699 1376.953924 991.695153 13.326756 0.000000 0.126958
400.000000 80.460000 4.000000 3.000000 -7.000000 100.972069 -17.394364 1312.173909 722.334413 12.434760 0.000000 0.133189
401.000000 82.573000 5.000000 3.000000 -7.000000 113.082022 -13.710363 1237.578516 468.867881 12.114016 0.000000 0.114913
402.000000 82.127000 6.000000 3.000000 -7.000000 123.647883 -9.274290 1150.754065 215.126020 12.177603 0.000000 0.079500
403.000000 79.921000 7.000000 3.000000 -7.000000 132.635316 -3.902673 1048.424829 -52.231566 12.512131 0.000000 0.035998
404.000000 76.650000 8.000000 3.000000 -7.000000 140.077979 2.605064 926.030441 -346.559231 13.044820 0.000000 0.011999
406.000000 48.375000 1.000000 4.000000 -7.000000 54.382579 -18.045670 1325.657940 1751.936148 20.699726 0.000000 0.133160
407.000000 59.127000 2.000000 4.000000 -7.000000 68.437758 -15.482465 1273.128132 1382.329690 16.931821 0.000000 0.082762
408.000000 67.406000 3.000000 4.000000 -7.000000 81.962511 -12.549817 1214.590676 1096.701613 14.848637 0.000000 0.133208
409.000000 72.792000 4.000000 4.000000 -7.000000 94.541212 -9.180848 1148.952456 854.405493 13.746624 0.000000 0.157712
410.000000 75.412000 5.000000 4.000000 -7.000000 105.884940 -5.299643 1074.838032 633.400437 13.266108 0.000000 0.153378
411.000000 75.753000 6.000000 4.000000 -7.000000 115.839380 -0.824660 990.492214 419.732092 13.204068 0.000000 0.127117
412.000000 74.428000 7.000000 4.000000 -7.000000 124.359776 4.322960 893.639274 203.055800 13.437229 0.000000 0.085535
413.000000 72.012000 8.000000 4.000000 -7.000000 131.474514 10.203587 781.274536 -25.659762 13.886404 0.000000 0.039069
414.000000 68.967000 9.000000 4.000000 -7.000000 137.253936 16.834170 649.347090 -275.625177 14.498404 0.000000 0.051146
417.000000 51.986000 2.000000 5.000000 -7.000000 63.752100 -9.125955 1147.894528 1478.524513 19.259589 0.000000 0.051770
418.000000 59.562000 3.000000 5.000000 -7.000000 76.229622 -6.088115 1089.796866 1206.269410 16.806017 0.000000 0.118141
419.000000 64.841000 4.000000 5.000000 -7.000000 87.899183 -2.686924 1025.510569 980.524740 15.434401 0.000000 0.157480
420.000000 67.841000 5.000000 5.000000 -7.000000 98.508445 1.118248 953.991177 779.953876 14.748868 0.000000 0.165918
421.000000 68.871000 6.000000 5.000000 -7.000000 107.912300 5.363858 873.945187 591.581195 14.525681 0.000000 0.150454
422.000000 68.375000 7.000000 5.000000 -7.000000 116.059358 10.075834 783.751120 406.430596 14.628844 0.000000 0.116655
423.000000 66.804000 8.000000 5.000000 -7.000000 122.967280 15.260899 681.348535 217.403887 14.970939 0.000000 0.069812
424.000000 64.546000 9.000000 5.000000 -7.000000 128.698464 20.896491 564.078707 18.068439 15.493207 0.000000 0.032280
425.000000 61.899000 10.000000 5.000000 -7.000000 133.341926 26.921769 428.450470 -198.196139 16.154698 0.000000 0.083806
428.000000 52.153000 3.000000 6.000000 -7.000000 70.660488 -0.845557 990.884844 1318.787486 19.195640 0.000000 0.089640
429.000000 57.209000 4.000000 6.000000 -7.000000 81.474966 2.453372 928.885524 1102.482077 17.495667 0.000000 0.142037
430.000000 60.428000 5.000000 6.000000 -7.000000 91.399491 6.061650 860.705908 914.557653 16.560427 0.000000 0.162223
431.000000 61.987000 6.000000 6.000000 -7.000000 100.301304 9.992094 785.373415 742.365930 16.140951 0.000000 0.157599
432.000000 62.190000 7.000000 6.000000 -7.000000 108.124104 14.247799 701.700092 577.531418 16.085764 0.000000 0.133399
433.000000 61.375000 8.000000 6.000000 -7.000000 114.871937 18.818128 608.219509 413.864599 16.297417 0.000000 0.093451
434.000000 59.852000 9.000000 6.000000 -7.000000 120.590959 23.674990 503.100079 246.237950 16.710373 0.000000 0.042554
435.000000 57.878000 10.000000 6.000000 -7.000000 125.353807 28.770491 384.023855 69.888003 17.278932 0.000000 0.040230
436.000000 55.648000 11.000000 6.000000 -7.000000 129.248138 34.037184 248.013607 -120.105421 17.970256 0.000000 0.116730
440.000000 50.232000 4.000000 7.000000 -7.000000 75.490929 6.561840 851.194878 1221.367078 19.928023 0.000000 0.117669
441.000000 53.524000 5.000000 7.000000 -7.000000 84.782723 9.932964 786.518425 1040.773282 18.698927 0.000000 0.148345
442.000000 55.444000 6.000000 7.000000 -7.000000 93.217410 13.541311 715.783712 878.767754 18.048402 0.000000 0.153933
443.000000 55.997000 8.000000 7.000000 -7.000000 107.330252 21.437930 552.382743 580.184826 17.864838 0.000000 0.108723
444.000000 55.115000 9.000000 7.000000 -7.000000 113.028905 25.686523 457.326321 433.330870 18.149058 0.000000 0.063795
445.000000 53.750000 10.000000 7.000000 -7.000000 117.886048 30.091261 351.313333 282.753815 18.608161 0.000000 0.010930
446.000000 52.075000 11.000000 7.000000 -7.000000 121.970675 34.606518 232.333584 124.816493 19.205277 0.000000 0.066888
447.000000 50.221000 12.000000 7.000000 -7.000000 125.359367 39.178981 97.853100 -44.239517 19.913222 0.000000 0.151040
450.000000 47.298000 5.000000 8.000000 -7.000000 78.744902 13.020683 726.108625 1160.840157 21.162525 0.000000 0.128662
451.000000 49.430000 6.000000 8.000000 -7.000000 86.739994 16.329665 659.664526 1004.881998 20.246563 0.000000 0.143325
452.000000 50.561000 7.000000 8.000000 -7.000000 93.961692 19.807519 587.350663 861.773959 19.790703 0.000000 0.138255
453.000000 50.859000 8.000000 8.000000 -7.000000 100.391989 23.440010 508.353278 725.865015 19.672205 0.000000 0.116787
454.000000 50.504000 9.000000 8.000000 -7.000000 106.045060 27.206694 421.700904 592.954632 19.808421 0.000000 0.081210
455.000000 49.663000 10.000000 8.000000 -7.000000 110.957957 31.081010 326.224211 459.652079 20.141662 0.000000 0.033178
456.000000 48.483000 11.000000 8.000000 -7.000000 115.182424 35.030983 220.502935 322.977739 20.630438 0.000000 0.028418
457.000000 47.079000 12.000000 8.000000 -7.000000 118.778431 39.020549 102.794746 180.084968 21.244141 0.000000 0.100431
458.000000 45.543000 13.000000 8.000000 -7.000000 121.809408 43.011413 -29.061532 28.036194 21.959703 0.000000 0.186014
459.000000 46.072000 8.000000 9.000000 -7.000000 94.056384 25.016250 472.744054 856.772157 21.718528 0.000000 0.119405
460.000000 46.133000 9.000000 9.000000 -7.000000 99.635397 28.394405 393.185686 733.285307 21.687626 0.000000 0.093292
461.000000 45.725000 10.000000 9.000000 -7.000000 104.564130 31.849902 306.370792 611.799109 21.878722 0.000000 0.056176
465.000000 75.658000 1.000000 1.000000 -6.000000 64.935015 -41.095708 1913.769382 1608.944265 13.231514 0.000000 0.256833
467.000000 70.067000 1.000000 2.000000 -6.000000 62.352813 -30.451598 1607.761691 1595.019156 14.288791 0.000000 0.160300
468.000000 62.287000 1.000000 3.000000 -6.000000 58.562530 -21.161159 1391.627856 1646.512988 16.075232 0.000000 0.118065
469.000000 76.917000 2.000000 3.000000 -6.000000 75.496752 -18.232550 1329.545234 1234.130506 13.013927 0.000000 0.107399
470.000000 86.198000 7.000000 3.000000 -6.000000 136.864551 7.948412 824.724801 -218.870644 11.600342 0.000000 0.023249
472.000000 53.890000 1.000000 4.000000 -6.000000 54.242331 -13.371512 1230.844011 1737.635752 18.581768 0.000000 0.108867
473.000000 66.736000 1.000000 2.000000 -3.000000 69.662920 -10.148138 1167.650314 1346.265559 7.500644 0.000000 0.083745
474.000000 75.988000 3.000000 4.000000 -6.000000 84.247306 -6.440271 1096.491815 1050.116861 13.171147 0.000000 0.146543
475.000000 83.036000 5.000000 4.000000 -6.000000 109.029625 2.745395 923.388576 569.353013 12.047412 0.000000 0.149358
476.000000 79.565000 7.000000 4.000000 -6.000000 126.807874 14.734650 691.943671 108.211307 12.569184 0.000000 0.052091
479.000000 45.939000 1.000000 5.000000 -6.000000 49.892363 -6.969021 1106.561650 1854.316834 21.799483 0.000000 0.137248
480.000000 57.039000 2.000000 5.000000 -6.000000 63.861549 -3.690825 1044.427751 1470.264788 17.553597 0.000000 0.041856
481.000000 65.490000 3.000000 5.000000 -6.000000 77.145738 -0.023927 975.449475 1186.600236 15.284646 0.000000 0.124741
482.000000 70.903000 4.000000 5.000000 -6.000000 89.321112 4.069296 898.429988 953.785666 14.114426 0.000000 0.160641
483.000000 73.473000 5.000000 5.000000 -6.000000 100.116048 8.618197 811.876139 746.778772 13.617804 0.000000 0.159818
484.000000 73.751000 6.000000 5.000000 -6.000000 109.411763 13.636018 713.900707 550.727964 13.563918 0.000000 0.131436
485.000000 72.392000 7.000000 5.000000 -6.000000 117.209881 19.110289 602.083214 355.350137 13.816591 0.000000 0.081993
486.000000 69.985000 8.000000 5.000000 -6.000000 123.591588 24.993374 473.267261 152.281297 14.290296 0.000000 0.026715
487.000000 66.987000 9.000000 5.000000 -6.000000 128.683744 31.196696 323.257835 -66.457287 14.928615 0.000000 0.083528
490.000000 48.454000 1.000000 3.000000 -3.000000 58.452539 1.463663 947.499278 1601.996613 10.332672 0.000000 0.011989
491.000000 56.044000 1.000000 2.000000 -2.000000 70.558423 4.964976 881.499381 1322.331994 5.954322 0.000000 0.090653
492.000000 61.351000 2.000000 3.000000 -3.000000 81.776106 8.782844 808.710817 1098.400228 8.157208 0.000000 0.141224
493.000000 64.413000 5.000000 6.000000 -6.000000 91.874342 12.923585 728.029388 904.862771 15.535518 0.000000 0.154501
494.000000 65.208000 7.000000 6.000000 -6.000000 108.341007 22.133537 537.228168 555.809589 15.341237 0.000000 0.102157
495.000000 63.821000 4.000000 3.000000 -3.000000 114.738273 27.139484 423.296141 383.732759 7.836310 0.000000 0.046084
496.000000 59.328000 5.000000 3.000000 -3.000000 124.302258 37.651979 144.585243 13.594248 8.428416 0.000000 0.121292
498.000000 47.899000 3.000000 7.000000 -6.000000 64.641417 8.899774 806.461155 1457.325306 20.902372 0.000000 0.055318
499.000000 52.938000 4.000000 7.000000 -6.000000 74.996701 12.424295 737.882880 1236.375982 18.909257 0.000000 0.114655
500.000000 56.231000 5.000000 7.000000 -6.000000 84.450960 16.181278 662.688942 1049.878430 17.798482 0.000000 0.139908
501.000000 57.946000 6.000000 7.000000 -6.000000 92.893106 20.159071 579.873516 883.057521 17.268713 0.000000 0.137497
502.000000 58.367000 7.000000 7.000000 -6.000000 100.287165 24.336183 488.216001 726.602562 17.141805 0.000000 0.112812
503.000000 57.807000 8.000000 7.000000 -6.000000 106.655103 28.680568 386.220447 573.986004 17.305690 0.000000 0.069443
504.000000 56.557000 9.000000 7.000000 -6.000000 112.058047 33.150006 272.033286 420.099062 17.686338 0.000000 0.012221
505.000000 54.857000 10.000000 7.000000 -6.000000 116.580133 37.693854 143.329662 260.463253 18.232884 0.000000 0.068611
506.000000 52.891000 11.000000 7.000000 -6.000000 120.316391 42.256114 -2.846514 90.696958 18.909222 0.000000 0.161728
509.000000 45.721000 2.000000 4.000000 -3.000000 68.994146 15.300559 680.547908 1369.463810 10.948124 0.000000 0.088452
510.000000 49.055000 5.000000 8.000000 -6.000000 77.852550 18.717082 610.336803 1185.606045 20.404639 0.000000 0.121220
511.000000 51.114000 3.000000 4.000000 -3.000000 85.883855 22.292292 533.748679 1024.711091 9.789784 0.000000 0.129344
512.000000 52.071000 7.000000 8.000000 -6.000000 93.043075 26.007861 449.873403 877.335311 19.216987 0.000000 0.116393
513.000000 52.142000 4.000000 4.000000 -3.000000 99.332222 29.839328 357.618996 737.095681 9.594213 0.000000 0.086047
514.000000 51.543000 9.000000 8.000000 -6.000000 104.787515 33.756599 255.663832 599.267503 19.408963 0.000000 0.043781
515.000000 50.469000 5.000000 4.000000 -3.000000 109.467275 37.725064 142.392916 460.007194 9.910107 0.000000 0.040584
516.000000 49.078000 11.000000 8.000000 -6.000000 113.442065 41.707272 15.811702 315.870745 20.380719 0.000000 0.110544
517.000000 47.492000 6.000000 4.000000 -3.000000 116.787396 45.664992 -126.572369 163.470745 10.530112 0.000000 0.202438
519.000000 46.406000 7.000000 9.000000 -6.000000 86.558880 27.317852 419.058348 1013.842688 21.565483 0.000000 0.115704
520.000000 46.935000 8.000000 9.000000 -6.000000 92.727115 30.741656 334.884384 881.350911 21.319757 0.000000 0.096846
521.000000 46.842000 3.000000 3.000000 -2.000000 98.175753 34.226991 242.809725 753.979530 7.119854 0.000000 0.067307
522.000000 46.277000 10.000000 9.000000 -6.000000 102.942881 37.749224 141.667242 628.172276 21.618056 0.000000 0.047142
525.000000 84.737000 1.000000 2.000000 -5.000000 64.545390 -26.078175 1501.762848 1511.388115 11.814847 0.000000 0.119584
527.000000 72.264000 1.000000 3.000000 -5.000000 59.240124 -15.719588 1277.929753 1606.468058 13.855932 0.000000 0.082599
528.000000 90.179000 2.000000 3.000000 -5.000000 78.217921 -11.772870 1199.317772 1170.322275 11.099667 0.000000 0.122126
530.000000 59.919000 1.000000 4.000000 -5.000000 53.629834 -7.522729 1117.131212 1740.529404 16.712274 0.000000 0.089746
531.000000 75.270000 2.000000 4.000000 -5.000000 70.526123 -3.443794 1039.769278 1322.272131 13.300281 0.000000 0.088326
532.000000 85.376000 3.000000 4.000000 -5.000000 86.121219 1.248219 951.548641 1013.991268 11.722458 0.000000 0.154998
533.000000 90.105000 4.000000 4.000000 -5.000000 99.787862 6.624058 850.010509 754.078703 11.104262 0.000000 0.162427
534.000000 90.520000 5.000000 4.000000 -5.000000 111.239392 12.728036 731.893146 512.143074 11.050884 0.000000 0.128165
535.000000 88.058000 6.000000 4.000000 -5.000000 120.464517 19.551508 592.774964 269.174975 11.357972 0.000000 0.064749
536.000000 83.973000 7.000000 4.000000 -5.000000 127.621574 27.003888 426.508684 9.993735 11.909146 0.000000 0.044380
539.000000 49.158000 1.000000 5.000000 -5.000000 48.353227 -1.119195 996.026617 1898.333760 20.372416 0.000000 0.146700
540.000000 62.101000 2.000000 5.000000 -5.000000 63.381900 2.826999 921.852022 1481.050599 16.122800 0.000000 0.036664
541.000000 71.409000 3.000000 5.000000 -5.000000 77.413046 7.217073 838.706566 1183.242187 14.017647 0.000000 0.126135
542.000000 76.761000 4.000000 5.000000 -5.000000 89.951421 12.069685 744.858064 941.933189 13.036974 0.000000 0.154335
543.000000 78.001000 6.000000 5.000000 -5.000000 109.714591 23.116106 515.563960 521.652701 12.824752 0.000000 0.092328
544.000000 75.674000 7.000000 5.000000 -5.000000 116.978777 29.199883 373.482348 313.341888 13.217344 0.000000 0.020019
545.000000 72.401000 8.000000 5.000000 -5.000000 122.701569 35.518240 206.769678 92.020679 13.813384 0.000000 0.082513
547.000000 51.192000 2.000000 6.000000 -5.000000 57.085966 7.612527 831.152161 1643.854558 19.560538 0.000000 0.038011
548.000000 59.535000 3.000000 6.000000 -5.000000 69.752409 11.639556 753.294047 1346.350042 16.815543 0.000000 0.089157
549.000000 65.016000 4.000000 6.000000 -5.000000 81.275631 15.984141 666.699970 1112.807094 15.394664 0.000000 0.133276
550.000000 67.818000 5.000000 6.000000 -5.000000 91.425791 20.629630 569.812230 912.375697 14.755440 0.000000 0.136231
551.000000 68.453000 6.000000 6.000000 -5.000000 100.124025 25.541384 460.679388 728.001677 14.616121 0.000000 0.107247
552.000000 67.520000 7.000000 6.000000 -5.000000 107.406646 30.665342 336.823472 548.716087 14.815842 0.000000 0.052577
553.000000 65.564000 8.000000 6.000000 -5.000000 113.382773 35.929447 195.049539 366.284827 15.256073 0.000000 0.030590
554.000000 63.010000 9.000000 6.000000 -5.000000 118.198973 41.248468 31.166153 173.462070 15.873090 0.000000 0.130483
557.000000 49.783000 3.000000 7.000000 -5.000000 63.152498 15.010640 686.393584 1505.042239 20.111770 0.000000 0.064166
558.000000 55.079000 4.000000 7.000000 -5.000000 73.764469 18.908492 606.323871 1272.293792 18.174215 0.000000 0.108788
559.000000 58.332000 5.000000 7.000000 -5.000000 83.302261 23.011940 517.875460 1078.319921 17.157480 0.000000 0.125228
560.000000 59.812000 6.000000 7.000000 -5.000000 91.675526 27.292539 419.660588 905.572574 16.730270 0.000000 0.112591
561.000000 59.900000 7.000000 7.000000 -5.000000 98.882653 31.711559 309.967112 743.270665 16.703195 0.000000 0.077009
562.000000 58.985000 8.000000 7.000000 -5.000000 104.984185 36.221273 186.657845 583.916623 16.960144 0.000000 0.036589
563.000000 57.403000 9.000000 7.000000 -5.000000 110.077571 40.767580 47.029934 421.580334 17.425967 0.000000 0.081940
564.000000 55.414000 10.000000 7.000000 -5.000000 114.277531 45.293702 -112.385552 250.912969 18.049878 0.000000 0.179796
566.000000 46.842000 4.000000 8.000000 -5.000000 67.303739 21.165372 558.281129 1423.703231 21.372541 0.000000 0.092045
567.000000 50.242000 5.000000 8.000000 -5.000000 76.256917 24.827998 477.043851 1231.037262 19.922940 0.000000 0.113132
568.000000 52.219000 6.000000 8.000000 -5.000000 84.274149 28.614070 387.842381 1063.933336 19.165402 0.000000 0.112866
569.000000 53.006000 7.000000 8.000000 -5.000000 91.330982 32.495446 289.445186 911.351166 18.877967 0.000000 0.093016
570.000000 52.870000 8.000000 8.000000 -5.000000 97.454065 36.439104 180.353012 765.958259 18.924423 0.000000 0.064341
571.000000 52.061000 9.000000 8.000000 -5.000000 102.704008 40.408637 58.721966 622.350709 19.216548 0.000000 0.068288
572.000000 50.792000 10.000000 8.000000 -5.000000 107.160611 44.366184 -77.741560 476.089051 19.694681 0.000000 0.131760
573.000000 49.233000 11.000000 8.000000 -5.000000 110.911754 48.274561 -231.926890 323.101216 20.317037 0.000000 0.227475
575.000000 45.663000 6.000000 9.000000 -5.000000 77.798167 29.645795 362.441364 1208.793281 21.919736 0.000000 0.112587
576.000000 46.899000 7.000000 9.000000 -5.000000 84.653236 33.104467 273.253016 1061.250396 21.338733 0.000000 0.104143
577.000000 47.317000 8.000000 9.000000 -5.000000 90.720264 36.607913 175.442681 924.144142 21.147745 0.000000 0.086806
578.000000 47.098000 9.000000 9.000000 -5.000000 96.033400 40.130494 67.696607 792.215452 21.243859 0.000000 0.079733
579.000000 46.409000 10.000000 9.000000 -5.000000 100.645865 43.645721 -51.580149 661.413343 21.557443 0.000000 0.111098
583.000000 84.188000 1.000000 3.000000 -4.000000 59.448632 -8.423973 1134.393496 1583.215009 11.893669 0.000000 0.045039
584.000000 65.847000 1.000000 4.000000 -4.000000 52.169050 -0.172665 978.243503 1776.794814 15.208054 0.000000 0.089530
585.000000 87.047000 7.000000 4.000000 -4.000000 126.107060 40.324327 61.450133 -88.718012 11.488576 0.000000 0.174545
586.000000 51.499000 1.000000 5.000000 -4.000000 45.896805 5.870820 864.329775 1989.618061 19.446559 0.000000 0.180797
587.000000 66.473000 2.000000 5.000000 -4.000000 61.942451 10.561009 774.335007 1524.548371 15.062550 0.000000 0.045023
588.000000 76.557000 3.000000 5.000000 -4.000000 76.585427 15.709514 672.274476 1207.659351 13.075025 0.000000 0.119504
589.000000 81.643000 4.000000 5.000000 -4.000000 89.286891 21.291824 555.547314 955.377739 12.257403 0.000000 0.133942
590.000000 82.699000 5.000000 5.000000 -4.000000 99.849372 27.246834 420.747264 730.814804 12.098165 0.000000 0.099006
591.000000 81.025000 6.000000 5.000000 -4.000000 108.337967 33.473768 263.324779 513.323153 12.346065 0.000000 0.029078
592.000000 77.758000 7.000000 5.000000 -4.000000 114.969215 39.837749 77.063413 288.303766 12.863266 0.000000 0.089489
595.000000 52.982000 1.000000 3.000000 -2.000000 54.818447 14.626916 694.106347 1725.136615 9.449899 0.000000 0.082853
596.000000 62.060000 3.000000 6.000000 -4.000000 67.947172 19.163907 600.954729 1402.585412 16.131627 0.000000 0.089742
597.000000 67.647000 2.000000 3.000000 -2.000000 79.653298 23.977614 496.306693 1156.061067 7.397970 0.000000 0.118896
598.000000 70.136000 5.000000 6.000000 -4.000000 89.734633 29.020615 377.894003 946.700673 14.267825 0.000000 0.108010
599.000000 68.790000 7.000000 6.000000 -4.000000 105.086423 39.516005 87.266391 564.910728 14.542609 0.000000 0.057469
600.000000 66.349000 4.000000 3.000000 -2.000000 110.642206 44.798882 -93.764718 369.598674 7.537993 0.000000 0.152136
602.000000 50.746000 3.000000 7.000000 -4.000000 60.809796 21.714417 546.376756 1588.205065 19.730348 0.000000 0.090869
603.000000 56.278000 4.000000 7.000000 -4.000000 71.596895 25.928220 451.724326 1339.180034 17.787319 0.000000 0.107461
604.000000 59.481000 5.000000 7.000000 -4.000000 81.142777 30.292622 346.250320 1135.241676 16.826282 0.000000 0.111142
605.000000 60.743000 6.000000 7.000000 -4.000000 89.390760 34.762998 227.986375 954.931459 16.473968 0.000000 0.091938
606.000000 60.547000 7.000000 7.000000 -4.000000 96.382266 39.287482 94.455946 785.455073 16.525012 0.000000 0.073749
607.000000 59.347000 8.000000 7.000000 -4.000000 102.219742 43.810312 -57.501015 617.995883 16.857091 0.000000 0.113979
608.000000 57.514000 9.000000 7.000000 -4.000000 107.035559 48.275845 -231.981331 445.486266 17.392801 0.000000 0.211482
610.000000 47.161000 1.000000 2.000000 -1.000000 64.845709 27.406013 416.958727 1510.312930 5.306994 0.000000 0.111704
611.000000 50.629000 5.000000 8.000000 -4.000000 73.841976 31.248521 321.926624 1305.754102 19.770919 0.000000 0.116013
612.000000 52.545000 3.000000 4.000000 -2.000000 81.807145 35.163844 216.774618 1130.550786 9.523422 0.000000 0.109620
613.000000 53.202000 7.000000 8.000000 -4.000000 88.742038 39.116797 99.795308 971.462219 18.808893 0.000000 0.098400
614.000000 52.912000 4.000000 4.000000 -2.000000 94.699809 43.070109 -31.125688 819.875249 9.454937 0.000000 0.110780
615.000000 51.954000 9.000000 8.000000 -4.000000 99.764711 46.986486 -178.638673 669.476091 19.256570 0.000000 0.169026
616.000000 50.557000 5.000000 4.000000 -2.000000 104.035363 50.830686 -346.111161 515.018433 9.893539 0.000000 0.266131
618.000000 45.587000 6.000000 9.000000 -4.000000 75.249517 35.474901 207.997883 1288.967631 21.956349 0.000000 0.125415
619.000000 46.782000 7.000000 9.000000 -4.000000 82.038729 38.984462 103.917262 1134.642426 21.392683 0.000000 0.120209
620.000000 47.128000 8.000000 9.000000 -4.000000 88.003155 42.495296 -11.079468 991.893817 21.233066 0.000000 0.123949
621.000000 46.829000 9.000000 9.000000 -4.000000 93.192956 45.981224 -138.804692 854.596244 21.366529 0.000000 0.155134
622.000000 46.064000 10.000000 9.000000 -4.000000 97.674942 49.417161 -281.495513 718.046930 21.719331 0.000000 0.220305
625.000000 70.164000 1.000000 4.000000 -3.000000 49.265271 8.987105 804.780037 1879.415191 14.272746 0.000000 0.130669
626.000000 51.892000 1.000000 5.000000 -3.000000 42.150120 14.095135 704.750708 2166.976696 19.299543 0.000000 0.250064
627.000000 68.967000 2.000000 5.000000 -3.000000 59.072443 19.521858 593.402058 1625.183000 14.518005 0.000000 0.083932
628.000000 79.728000 3.000000 5.000000 -3.000000 74.124159 25.340510 465.306697 1279.688447 12.555074 0.000000 0.110040
629.000000 84.456000 4.000000 5.000000 -3.000000 86.781434 31.463864 316.379385 1011.956873 11.849307 0.000000 0.103950
630.000000 84.699000 5.000000 5.000000 -3.000000 96.974143 37.768480 141.088524 774.446390 11.812823 0.000000 0.066648
631.000000 82.168000 6.000000 5.000000 -3.000000 104.923538 44.106708 -68.246102 541.507832 12.174855 0.000000 0.122052
633.000000 53.105000 2.000000 6.000000 -3.000000 51.386940 22.449335 530.298933 1871.079912 18.856299 0.000000 0.150590
634.000000 68.569000 4.000000 6.000000 -3.000000 76.612887 32.547211 288.077479 1244.878202 14.597336 0.000000 0.115285
635.000000 70.805000 5.000000 6.000000 -3.000000 86.542429 37.797245 140.223467 1023.295976 14.133521 0.000000 0.101318
636.000000 68.703000 7.000000 6.000000 -3.000000 101.271475 48.277551 -232.053698 618.685533 14.561554 0.000000 0.197571
638.000000 50.361000 3.000000 7.000000 -3.000000 57.456659 28.894503 380.988350 1725.479365 19.881227 0.000000 0.145530
639.000000 56.131000 4.000000 7.000000 -3.000000 68.337499 33.320681 267.450558 1452.595354 17.834094 0.000000 0.132760
640.000000 59.331000 5.000000 7.000000 -3.000000 77.836315 37.817704 139.607777 1234.669865 16.869188 0.000000 0.128123
641.000000 60.464000 6.000000 7.000000 -3.000000 85.938788 42.331227 -5.425254 1044.369534 16.550501 0.000000 0.129565
642.000000 60.100000 7.000000 7.000000 -3.000000 92.731179 46.805703 -171.365646 865.988060 16.648508 0.000000 0.170030
643.000000 58.744000 8.000000 7.000000 -3.000000 98.353890 51.188404 -363.085445 688.833339 17.030874 0.000000 0.265100
645.000000 46.446000 4.000000 8.000000 -3.000000 61.541345 33.900398 251.749408 1643.854171 21.555422 0.000000 0.160872
646.000000 50.008000 5.000000 8.000000 -3.000000 70.539389 37.833001 139.147211 1422.517332 20.016838 0.000000 0.152924
647.000000 51.919000 6.000000 8.000000 -3.000000 78.434087 41.778078 13.422608 1236.366942 19.276894 0.000000 0.153059
648.000000 52.524000 7.000000 8.000000 -3.000000 85.252724 45.698455 -127.860217 1068.974239 19.052447 0.000000 0.172061
649.000000 52.169000 8.000000 8.000000 -3.000000 91.072982 49.558332 -287.779696 909.923986 19.180053 0.000000 0.227648
652.000000 45.969000 7.000000 9.000000 -3.000000 78.709855 44.835855 -95.144976 1244.008491 21.771633 0.000000 0.185703
653.000000 46.303000 8.000000 9.000000 -3.000000 84.586197 48.281509 -232.221574 1094.276900 21.612048 0.000000 0.217535
654.000000 45.988000 3.000000 3.000000 -1.000000 89.680418 51.661920 -385.964251 950.678155 7.252670 0.000000 0.280787
655.000000 70.051000 1.000000 4.000000 -2.000000 44.144660 20.059537 581.993879 2121.533713 14.295907 0.000000 0.230726
657.000000 68.015000 2.000000 5.000000 -2.000000 54.320014 29.492469 366.248735 1828.876654 14.721526 0.000000 0.170195
658.000000 79.445000 3.000000 5.000000 -2.000000 69.558611 35.723287 200.940599 1435.127424 12.600256 0.000000 0.142560
659.000000 84.010000 4.000000 5.000000 -2.000000 82.042230 42.036098 4.671723 1143.571356 11.912700 0.000000 0.141269
660.000000 83.813000 5.000000 5.000000 -2.000000 91.865721 48.279930 -232.154588 888.317561 11.938328 0.000000 0.199325
662.000000 50.813000 1.000000 3.000000 -1.000000 46.603691 30.892482 331.042946 2126.912223 9.853352 0.000000 0.255138
663.000000 61.261000 3.000000 6.000000 -2.000000 60.247729 36.095078 190.294338 1702.359667 16.342505 0.000000 0.185682
664.000000 67.150000 2.000000 3.000000 -1.000000 71.987509 41.348523 27.836178 1407.186686 7.453119 0.000000 0.176367
665.000000 69.346000 5.000000 6.000000 -2.000000 81.750238 46.565418 -161.774106 1167.974257 14.431510 0.000000 0.198087
667.000000 48.271000 3.000000 7.000000 -2.000000 53.019904 36.360051 182.645175 1947.398186 20.742436 0.000000 0.239074
668.000000 54.316000 4.000000 7.000000 -2.000000 63.926474 40.858389 44.051964 1637.330235 18.430574 0.000000 0.212000
669.000000 57.624000 5.000000 7.000000 -2.000000 73.354701 45.335855 -113.986831 1398.762498 17.369612 0.000000 0.217388
670.000000 58.787000 6.000000 7.000000 -2.000000 81.332699 49.738938 -295.872503 1194.867971 17.023482 0.000000 0.258399
673.000000 48.244000 5.000000 8.000000 -2.000000 66.354719 44.411766 -79.418292 1600.688638 20.749197 0.000000 0.242421
674.000000 50.240000 3.000000 4.000000 -1.000000 74.181563 48.283476 -232.305002 1399.241299 9.961017 0.000000 0.261536
679.000000 89.069000 2.000000 4.000000 -1.000000 57.381305 40.491379 56.037898 1846.733733 11.240393 0.000000 0.250308
681.000000 74.566000 3.000000 5.000000 -1.000000 62.753029 46.230481 -148.545186 1742.226873 13.425168 0.000000 0.293789
#UB matrix in q= (UB) B0 G* 
#[[-0.846136956 -0.013438597  0.532187561]
# [ 0.413157135  0.615130876  0.672371809]
# [-0.336680018  0.789322381 -0.515225279]]
#B0 matrix in q= UB (B0) G*
#[[ 0.19670273 -0.          0.03056101]
# [ 0.          0.19187965 -0.        ]
# [ 0.          0.          0.18806537]]
#UBB0 matrix in q= (UB B0) G* i.e. recip. basis vectors are columns in LT frame: astar = UBB0[:,0], bstar = UBB0[:,1], cstar = UBB0[:,2]. (abcstar as columns on xyzlab1, xlab1 = ui, ui = unit vector along incident beam)
#[[-0.16643745 -0.00257859  0.07422725]
# [ 0.08126914  0.1180311   0.13907635]
# [-0.06622588  0.1514549  -0.10718531]]
#Euler angles phi theta psi (deg)
#[203.119 120.966  38.415]
#deviatoric strain in direct crystal frame (10-3 unit)
#[[ 4.96  0.1  -0.74]
# [ 0.1   4.02  0.25]
# [-0.74  0.25 -8.98]]
#deviatoric strain in sample2 frame (10-3 unit)
#[[ 4.68 -0.53 -0.11]
# [-0.54 -1.85  6.66]
# [-0.1   6.66 -2.84]]
#new lattice parameters
#[ 5.1505     5.2067052  5.3145157 89.9866192 99.2799687 89.9890231]
#CCDLabel
#sCMOS
#DetectorParameters
#[79.0, 975.0, 941.0, 0.0, 0.0]
#pixelsize
#0.0734
#Frame dimensions
#[2018, 2016]
#
