#Strain and Orientation Refinement from experimental file: /home/micha/LaueProjects/DepthEffects/testZrO2_194.cor
#File created at Wed Jun 28 14:29:56 2023 with indexingSpotsSet.py
#Number of indexed spots: 513
#Element
#ZrO2
#grainIndex
#G_0
#Mean Deviation(pixel): 0.117
##spot_index intensity h k l 2theta Chi Xexp Yexp Energy GrainIndex PixDev
0.000000 45.584000 3.000000 -1.000000 -17.000000 129.715393 -30.811520 1616.893489 -99.971142 21.920448 0.000000 0.083659
2.000000 46.199000 2.000000 1.000000 -17.000000 133.259782 -12.453009 1212.682763 -96.225574 21.627789 0.000000 0.030194
3.000000 47.178000 3.000000 1.000000 -17.000000 139.081507 -17.758485 1319.700237 -362.824426 21.177327 0.000000 0.059830
5.000000 46.496000 2.000000 2.000000 -17.000000 136.499039 -4.628084 1062.127569 -196.849430 21.489025 0.000000 0.020292
8.000000 46.460000 2.000000 3.000000 -17.000000 138.872948 4.091290 898.014722 -294.753139 21.504936 0.000000 0.011781
11.000000 46.110000 2.000000 4.000000 -17.000000 140.266780 13.408260 718.426555 -390.158499 21.667919 0.000000 0.044806
16.000000 46.011000 1.000000 -1.000000 -8.000000 119.906250 -31.278441 1628.842618 216.668624 10.859965 0.000000 0.017142
17.000000 47.042000 3.000000 -2.000000 -16.000000 124.518135 -37.311600 1795.260921 10.318504 21.242441 0.000000 0.116498
19.000000 46.034000 1.000000 -1.000000 -16.000000 119.636691 -20.919850 1386.424123 285.454751 21.709573 0.000000 0.064780
20.000000 47.469000 2.000000 -1.000000 -16.000000 125.163316 -26.101209 1502.299295 96.684755 21.051490 0.000000 0.023112
21.000000 48.512000 3.000000 -1.000000 -16.000000 130.250423 -32.323169 1656.014305 -137.242299 20.597297 0.000000 0.102699
23.000000 47.115000 1.000000 0.000000 -16.000000 124.001392 -14.942774 1262.240319 189.582243 21.210310 0.000000 0.068931
24.000000 48.564000 1.000000 0.000000 -8.000000 130.002691 -19.913763 1364.905538 -19.644745 10.287642 0.000000 0.029707
25.000000 49.611000 3.000000 0.000000 -16.000000 135.614139 -26.121869 1502.780610 -283.710675 20.139461 0.000000 0.089455
27.000000 46.007000 0.000000 1.000000 -16.000000 121.179352 -4.618218 1061.941022 287.581607 21.722225 0.000000 0.107410
28.000000 47.817000 1.000000 1.000000 -16.000000 127.773125 -8.111886 1128.407162 98.519358 20.897569 0.000000 0.066043
29.000000 49.267000 2.000000 1.000000 -16.000000 134.232745 -12.580885 1215.203284 -132.626241 20.280791 0.000000 0.027941
32.000000 46.335000 0.000000 1.000000 -8.000000 123.896272 2.262876 932.470036 217.297547 10.783682 0.000000 0.095138
33.000000 48.130000 1.000000 2.000000 -16.000000 130.793532 -0.466031 983.754526 12.148977 20.761111 0.000000 0.055002
34.000000 49.564000 1.000000 1.000000 -8.000000 137.645845 -4.063520 1051.460975 -242.563720 10.079121 0.000000 0.015173
37.000000 46.299000 0.000000 3.000000 -16.000000 125.844733 9.573893 793.462849 152.491565 21.583525 0.000000 0.074600
38.000000 48.058000 1.000000 3.000000 -16.000000 132.929323 7.834009 826.915125 -69.613277 20.791429 0.000000 0.036971
39.000000 49.464000 2.000000 3.000000 -16.000000 140.047709 5.487255 871.606282 -349.763735 20.198556 0.000000 0.015594
41.000000 45.919000 0.000000 1.000000 -4.000000 126.975139 17.103066 643.825590 93.193739 5.440365 0.000000 0.046173
42.000000 47.626000 1.000000 4.000000 -16.000000 134.101186 16.495397 656.281157 -146.816679 20.979693 0.000000 0.031717
45.000000 46.870000 1.000000 5.000000 -16.000000 134.306710 25.138314 469.948986 -219.471858 21.317681 0.000000 0.071831
49.000000 45.615000 3.000000 -4.000000 -15.000000 111.685256 -46.572422 2112.052482 318.414036 21.910889 0.000000 0.198188
51.000000 46.941000 2.000000 -3.000000 -15.000000 113.852233 -37.106294 1789.180834 344.304925 21.291890 0.000000 0.048137
52.000000 48.015000 1.000000 -1.000000 -5.000000 118.149197 -43.282746 1988.636668 149.939254 6.937878 0.000000 0.166776
54.000000 45.506000 0.000000 -2.000000 -15.000000 108.861793 -22.266370 1415.682626 543.676250 21.965762 0.000000 0.103443
55.000000 47.462000 1.000000 -2.000000 -15.000000 114.519529 -27.040687 1524.362405 389.807081 21.058139 0.000000 0.050296
56.000000 49.015000 2.000000 -2.000000 -15.000000 119.819730 -32.652234 1664.702243 208.315311 20.388974 0.000000 0.028992
57.000000 50.111000 3.000000 -2.000000 -15.000000 124.577329 -39.202915 1852.895389 -16.343552 19.941499 0.000000 0.143843
59.000000 47.115000 0.000000 -1.000000 -15.000000 113.561319 -16.959843 1303.231496 450.302954 21.213702 0.000000 0.110598
60.000000 49.127000 1.000000 -1.000000 -15.000000 119.705127 -21.605975 1401.264883 280.561235 20.342941 0.000000 0.060693
61.000000 50.715000 2.000000 -1.000000 -15.000000 125.527250 -27.241649 1529.129515 76.643036 19.704096 0.000000 0.027809
62.000000 51.823000 3.000000 -1.000000 -15.000000 130.818470 -34.070028 1702.885194 -181.271992 19.281179 0.000000 0.126359
64.000000 46.700000 -1.000000 1.000000 -15.000000 114.321303 -1.264625 998.759684 454.434152 21.402462 0.000000 0.139875
65.000000 49.110000 0.000000 1.000000 -15.000000 121.382695 -4.176091 1053.586585 282.725514 20.349736 0.000000 0.106833
66.000000 51.156000 1.000000 1.000000 -15.000000 128.437656 -7.887456 1124.108011 78.628900 19.533507 0.000000 0.062553
67.000000 52.760000 2.000000 1.000000 -15.000000 135.335183 -12.732176 1218.188588 -175.412820 18.937737 0.000000 0.027395
69.000000 47.054000 -1.000000 2.000000 -15.000000 116.882056 5.369817 873.832251 392.983494 21.240368 0.000000 0.126848
70.000000 49.441000 0.000000 2.000000 -15.000000 124.202064 3.216812 914.509011 208.340050 20.212355 0.000000 0.092891
71.000000 51.466000 1.000000 2.000000 -15.000000 131.593848 0.407810 967.339212 -14.396336 19.415121 0.000000 0.050060
72.000000 53.050000 2.000000 2.000000 -15.000000 138.938828 -3.388469 1038.726295 -296.632115 18.833311 0.000000 0.010411
74.000000 46.999000 -1.000000 3.000000 -15.000000 118.686076 12.306906 740.193989 338.234379 21.264552 0.000000 0.105103
75.000000 49.333000 0.000000 1.000000 -5.000000 126.136912 11.070050 764.423664 140.189559 6.752017 0.000000 0.069472
76.000000 51.311000 1.000000 3.000000 -15.000000 133.718245 9.430914 796.223954 -102.286221 19.473058 0.000000 0.031329
77.000000 52.859000 2.000000 3.000000 -15.000000 141.346004 7.159777 839.799995 -415.222898 18.900850 0.000000 0.024333
79.000000 46.561000 -1.000000 4.000000 -15.000000 119.702603 19.356228 596.900918 290.244563 21.464076 0.000000 0.073509
80.000000 48.815000 0.000000 4.000000 -15.000000 127.137780 19.115679 601.969823 78.320094 20.470427 0.000000 0.038102
81.000000 50.726000 1.000000 4.000000 -15.000000 134.726202 18.795281 608.698462 -185.105278 19.697417 0.000000 0.040687
84.000000 45.782000 -1.000000 5.000000 -15.000000 119.952281 26.308329 442.867546 249.133724 21.828844 0.000000 0.031207
85.000000 47.936000 0.000000 2.000000 -6.000000 127.227358 27.044266 425.552854 22.842398 8.338348 0.000000 0.035727
86.000000 49.761000 1.000000 5.000000 -15.000000 134.637824 28.018299 402.283188 -262.869013 20.079025 0.000000 0.096082
88.000000 46.753000 0.000000 2.000000 -5.000000 126.495677 34.571951 233.291694 -26.059039 7.124492 0.000000 0.095454
93.000000 45.580000 1.000000 -4.000000 -14.000000 102.086130 -36.938678 1784.241318 652.658960 21.931687 0.000000 0.052558
94.000000 47.166000 1.000000 -2.000000 -7.000000 106.621827 -42.509244 1961.561500 505.137851 10.596295 0.000000 0.104758
95.000000 48.273000 3.000000 -4.000000 -14.000000 110.589484 -48.673971 2198.998184 328.701475 20.704812 0.000000 0.242445
97.000000 46.181000 0.000000 -3.000000 -14.000000 102.737668 -27.806711 1542.626725 665.940897 21.646508 0.000000 0.091231
98.000000 48.304000 1.000000 -3.000000 -14.000000 108.181439 -32.915446 1671.697645 519.925041 20.693101 0.000000 0.036831
99.000000 49.965000 2.000000 -3.000000 -14.000000 113.191803 -38.783205 1839.843486 349.460180 20.003220 0.000000 0.067751
100.000000 51.102000 3.000000 -3.000000 -14.000000 117.582291 -45.440534 2067.973606 139.674254 19.556619 0.000000 0.205820
102.000000 45.857000 -1.000000 -2.000000 -14.000000 101.953097 -18.623318 1337.700735 700.557368 21.800285 0.000000 0.137983
103.000000 48.479000 0.000000 -1.000000 -7.000000 108.160856 -22.967676 1431.143382 557.549044 10.309509 0.000000 0.102106
104.000000 50.698000 1.000000 -2.000000 -14.000000 114.137626 -28.118724 1550.139698 394.159859 19.714291 0.000000 0.043959
105.000000 52.419000 1.000000 -1.000000 -7.000000 119.686276 -34.213958 1706.832191 199.031897 9.532390 0.000000 0.044531
106.000000 53.577000 3.000000 -2.000000 -14.000000 124.582052 -41.358737 1922.504336 -47.543704 18.651298 0.000000 0.178299
108.000000 47.657000 -1.000000 -1.000000 -14.000000 106.526920 -13.243396 1228.302724 612.911692 20.975290 0.000000 0.145551
109.000000 50.371000 0.000000 -1.000000 -14.000000 113.239467 -17.362558 1311.517925 456.757617 19.842698 0.000000 0.110244
110.000000 52.660000 1.000000 -1.000000 -14.000000 119.774599 -22.391936 1418.439288 275.018748 18.978017 0.000000 0.055869
111.000000 54.424000 2.000000 -1.000000 -14.000000 125.920181 -28.561607 1560.879428 53.282968 18.361035 0.000000 0.037502
113.000000 45.927000 -2.000000 0.000000 -14.000000 103.474476 -4.248353 1054.951375 682.401112 21.766941 0.000000 0.167236
114.000000 49.014000 -1.000000 0.000000 -14.000000 110.601442 -7.231156 1111.562234 533.172970 20.393186 0.000000 0.147091
115.000000 51.782000 0.000000 0.000000 -4.000000 117.787496 -10.928894 1182.824568 363.357990 5.514519 0.000000 0.112290
116.000000 54.109000 1.000000 0.000000 -14.000000 124.875408 -15.588394 1275.271763 162.206962 18.468534 0.000000 0.061934
117.000000 55.893000 2.000000 0.000000 -14.000000 131.654615 -21.547741 1399.999885 -88.354635 17.877125 0.000000 0.036894
119.000000 46.776000 -2.000000 1.000000 -14.000000 106.572414 1.778580 941.578857 620.552523 21.370570 0.000000 0.162936
120.000000 49.881000 -1.000000 1.000000 -14.000000 114.025035 -0.623583 986.714385 461.210876 20.037735 0.000000 0.141124
121.000000 52.659000 0.000000 1.000000 -14.000000 121.611361 -3.667704 1043.991640 277.205552 18.978104 0.000000 0.106133
122.000000 54.990000 1.000000 1.000000 -14.000000 129.196437 -7.624214 1119.071297 55.478853 18.171429 0.000000 0.058532
123.000000 56.771000 2.000000 1.000000 -14.000000 136.594501 -12.913959 1221.780288 -226.459317 17.599416 0.000000 0.029483
125.000000 47.165000 -1.000000 1.000000 -7.000000 109.000203 8.145846 820.941881 566.620633 10.596693 0.000000 0.150858
126.000000 50.238000 -1.000000 2.000000 -14.000000 116.668109 6.473066 852.884241 396.962514 19.894116 0.000000 0.126355
127.000000 52.985000 0.000000 1.000000 -7.000000 124.534513 4.315952 893.771673 198.222113 9.430289 0.000000 0.090140
128.000000 55.285000 1.000000 2.000000 -14.000000 132.494465 1.438441 947.973387 -45.361583 18.073487 0.000000 0.044310
129.000000 57.041000 1.000000 1.000000 -7.000000 140.406729 -2.567236 1023.257507 -361.634810 8.757689 0.000000 0.007563
131.000000 47.102000 -2.000000 3.000000 -14.000000 110.696532 14.715955 692.319120 520.585906 21.221005 0.000000 0.130078
132.000000 50.099000 -1.000000 3.000000 -14.000000 118.444511 13.878821 709.066272 340.435470 19.948773 0.000000 0.101487
133.000000 52.773000 0.000000 3.000000 -14.000000 126.430363 12.788262 730.703815 126.400320 18.935428 0.000000 0.063220
134.000000 55.013000 1.000000 3.000000 -14.000000 134.575345 11.309987 759.740071 -140.458575 18.162565 0.000000 0.027323
137.000000 46.619000 -1.000000 2.000000 -7.000000 111.645234 21.322174 554.890479 482.497494 10.720137 0.000000 0.099679
138.000000 49.501000 -1.000000 4.000000 -14.000000 119.328532 21.358726 554.099040 291.712802 20.189280 0.000000 0.065119
139.000000 52.070000 0.000000 2.000000 -7.000000 127.253557 21.406401 553.066166 61.810507 9.595443 0.000000 0.030178
140.000000 54.221000 1.000000 4.000000 -14.000000 135.353085 21.471188 551.661494 -229.900482 18.427489 0.000000 0.056557
142.000000 45.767000 -2.000000 5.000000 -14.000000 111.877115 27.792285 407.719592 452.477666 21.839139 0.000000 0.059056
143.000000 48.504000 -1.000000 5.000000 -14.000000 119.360193 28.663630 386.633772 250.960347 20.604231 0.000000 0.016656
144.000000 50.941000 0.000000 5.000000 -14.000000 127.053956 29.791409 358.814739 4.610603 19.616124 0.000000 0.053129
147.000000 47.178000 -1.000000 6.000000 -14.000000 118.635642 35.577257 205.094996 218.436869 21.183132 0.000000 0.051109
148.000000 49.466000 0.000000 3.000000 -7.000000 125.963500 37.621292 145.504459 -44.940042 10.100582 0.000000 0.129421
150.000000 45.600000 -1.000000 7.000000 -14.000000 117.286489 41.949082 7.630824 194.507758 21.916317 0.000000 0.134154
154.000000 46.436000 2.000000 -5.000000 -13.000000 98.223965 -47.447104 2147.394251 710.979760 21.528244 0.000000 0.188305
156.000000 46.013000 0.000000 -4.000000 -13.000000 95.395406 -33.130765 1677.451205 819.612830 21.728485 0.000000 0.083552
157.000000 48.276000 1.000000 -4.000000 -13.000000 100.560597 -38.444556 1829.423947 684.801866 20.707388 0.000000 0.062672
158.000000 50.025000 2.000000 -4.000000 -13.000000 105.239583 -44.408088 2029.282917 530.540868 19.981423 0.000000 0.134597
160.000000 46.241000 -1.000000 -3.000000 -13.000000 95.429339 -24.085906 1456.132005 828.948323 21.621561 0.000000 0.125455
161.000000 49.112000 0.000000 -3.000000 -13.000000 101.455111 -28.823978 1567.284471 692.061179 20.355394 0.000000 0.088901
162.000000 51.525000 1.000000 -3.000000 -13.000000 107.175505 -34.327307 1709.950089 538.175305 19.399881 0.000000 0.034751
163.000000 53.366000 2.000000 -3.000000 -13.000000 112.380116 -40.668925 1899.743977 356.706470 18.728614 0.000000 0.092136
165.000000 48.819000 -1.000000 -2.000000 -13.000000 100.738594 -19.088481 1347.458001 725.004536 20.478312 0.000000 0.138389
166.000000 51.853000 0.000000 -2.000000 -13.000000 107.344539 -23.759917 1448.803198 573.723936 19.277427 0.000000 0.100499
167.000000 54.390000 1.000000 -2.000000 -13.000000 113.675210 -29.346031 1580.125680 399.623438 18.375902 0.000000 0.036477
168.000000 56.306000 2.000000 -2.000000 -13.000000 119.487170 -36.002128 1757.034642 188.684159 17.748893 0.000000 0.064236
170.000000 47.423000 -2.000000 -1.000000 -13.000000 98.478230 -9.777070 1160.464748 778.200281 21.082296 0.000000 0.165948
171.000000 50.951000 -1.000000 -1.000000 -13.000000 105.674902 -13.392821 1231.266960 630.532795 19.619833 0.000000 0.147169
172.000000 54.107000 0.000000 -1.000000 -13.000000 112.865176 -17.822626 1321.029196 464.246103 18.472896 0.000000 0.109802
173.000000 56.734000 1.000000 -1.000000 -13.000000 119.843115 -23.300862 1438.544744 268.691222 17.615193 0.000000 0.050099
174.000000 58.700000 2.000000 -1.000000 -13.000000 126.342325 -30.105291 1599.038757 25.687525 17.023277 0.000000 0.051999
176.000000 46.025000 -3.000000 1.000000 -13.000000 97.916689 4.537633 889.582466 790.861679 21.722812 0.000000 0.173146
177.000000 49.887000 -2.000000 1.000000 -13.000000 105.653133 2.575450 926.587880 639.112119 20.038158 0.000000 0.164584
178.000000 53.520000 -1.000000 1.000000 -13.000000 113.676223 0.107416 972.982194 469.071625 18.675155 0.000000 0.142460
179.000000 56.758000 0.000000 1.000000 -13.000000 121.870206 -3.077055 1032.857735 270.875924 17.607524 0.000000 0.105271
180.000000 59.436000 1.000000 1.000000 -13.000000 130.070904 -7.311152 1113.089405 28.188363 16.811773 0.000000 0.053858
181.000000 61.421000 2.000000 1.000000 -13.000000 138.046322 -13.136481 1226.184036 -288.464377 16.266838 0.000000 0.034678
183.000000 46.462000 -3.000000 2.000000 -13.000000 100.237989 10.630013 772.993401 743.213027 21.517734 0.000000 0.163666
184.000000 50.283000 -2.000000 2.000000 -13.000000 108.150154 9.355063 797.687793 583.413801 19.879454 0.000000 0.151078
185.000000 53.871000 -1.000000 2.000000 -13.000000 116.399286 7.730840 828.889346 401.839140 18.552749 0.000000 0.125561
186.000000 57.062000 0.000000 2.000000 -13.000000 124.895250 5.595151 869.560385 186.705642 17.512744 0.000000 0.086721
187.000000 59.699000 1.000000 2.000000 -13.000000 133.513904 2.671330 924.783003 -81.973284 16.737145 0.000000 0.037635
188.000000 61.649000 2.000000 2.000000 -13.000000 142.085813 -1.547050 1004.068213 -441.358730 16.205909 0.000000 0.008590
190.000000 46.411000 -3.000000 3.000000 -13.000000 101.866354 16.848246 649.058432 704.706539 21.540532 0.000000 0.145750
191.000000 50.128000 -2.000000 3.000000 -13.000000 109.815225 16.328550 659.687270 536.887352 19.940189 0.000000 0.127566
192.000000 53.610000 -1.000000 3.000000 -13.000000 118.122022 15.662400 673.229305 343.598603 18.642257 0.000000 0.096831
193.000000 56.703000 0.000000 3.000000 -13.000000 126.715254 14.778021 691.072429 110.848831 17.623133 0.000000 0.055546
194.000000 59.256000 1.000000 3.000000 -13.000000 135.502586 13.547908 715.652588 -185.694894 16.861606 0.000000 0.028710
196.000000 45.909000 -3.000000 4.000000 -13.000000 102.795950 23.048674 517.060712 675.345423 21.775054 0.000000 0.119097
197.000000 49.469000 -2.000000 4.000000 -13.000000 110.640241 23.294932 511.587298 499.602498 20.205226 0.000000 0.093049
198.000000 52.796000 -1.000000 4.000000 -13.000000 118.829075 23.610174 504.550974 294.470866 18.929445 0.000000 0.054501
199.000000 55.746000 0.000000 4.000000 -13.000000 127.296312 24.028076 495.170826 43.413546 17.925259 0.000000 0.026727
200.000000 58.183000 1.000000 4.000000 -13.000000 135.958591 24.608462 482.041722 -283.104317 17.172446 0.000000 0.079967
202.000000 48.378000 -2.000000 5.000000 -13.000000 110.675843 30.054434 352.237089 471.727023 20.660792 0.000000 0.047718
203.000000 51.511000 -1.000000 5.000000 -13.000000 118.589383 31.278730 321.149947 254.689977 19.401323 0.000000 0.007150
204.000000 54.288000 0.000000 5.000000 -13.000000 126.730785 32.882639 279.176524 -15.370426 18.406837 0.000000 0.078986
206.000000 46.938000 -2.000000 6.000000 -13.000000 110.019343 36.440789 180.304114 453.536131 21.294320 0.000000 0.030604
207.000000 49.855000 -1.000000 6.000000 -13.000000 117.537856 38.430360 121.010710 224.618687 20.046017 0.000000 0.081418
208.000000 52.437000 0.000000 6.000000 -13.000000 125.208784 40.986669 39.831208 -65.129635 19.056611 0.000000 0.174031
210.000000 47.927000 -1.000000 7.000000 -13.000000 115.844207 44.919329 -98.267737 204.769765 20.852648 0.000000 0.180454
214.000000 47.075000 1.000000 -5.000000 -12.000000 91.662145 -43.564792 1998.680763 897.897397 21.239010 0.000000 0.133398
215.000000 48.882000 2.000000 -5.000000 -12.000000 95.991760 -49.492528 2234.845964 767.084087 20.451707 0.000000 0.234815
217.000000 45.593000 -1.000000 -4.000000 -12.000000 87.614489 -29.403234 1581.540699 992.467124 21.932106 0.000000 0.111785
218.000000 48.668000 0.000000 -1.000000 -3.000000 93.366486 -34.418886 1712.475298 864.251518 5.135965 0.000000 0.085197
219.000000 51.238000 1.000000 -4.000000 -12.000000 98.757127 -40.119398 1881.946903 724.190945 19.510848 0.000000 0.078773
220.000000 53.172000 1.000000 -2.000000 -6.000000 103.576693 -46.518337 2109.904730 563.277095 9.399714 0.000000 0.172547
222.000000 49.064000 -1.000000 -3.000000 -12.000000 93.566000 -24.868283 1473.875182 867.071637 20.378458 0.000000 0.124098
223.000000 52.396000 0.000000 -1.000000 -4.000000 99.949216 -29.966920 1595.570531 723.069485 6.360032 0.000000 0.086532
224.000000 55.160000 1.000000 -3.000000 -12.000000 105.969806 -35.920596 1754.696908 560.662929 18.121606 0.000000 0.037804
225.000000 57.206000 2.000000 -3.000000 -12.000000 111.370862 -42.800086 1971.662416 366.995275 17.471650 0.000000 0.123078
227.000000 48.187000 -1.000000 -1.000000 -6.000000 92.186416 -15.422464 1271.914883 898.373569 10.375259 0.000000 0.155519
228.000000 52.161000 -1.000000 -2.000000 -12.000000 99.326099 -19.613048 1358.527353 753.359909 19.166626 0.000000 0.138611
229.000000 55.712000 0.000000 -1.000000 -6.000000 106.382770 -24.661635 1469.167172 592.823045 8.971173 0.000000 0.098557
230.000000 58.640000 1.000000 -2.000000 -12.000000 113.107306 -30.754518 1615.442710 406.605369 17.044367 0.000000 0.027809
231.000000 60.776000 1.000000 -1.000000 -6.000000 119.195122 -38.065470 1817.875584 177.129636 8.221687 0.000000 0.089430
233.000000 46.150000 -3.000000 -1.000000 -12.000000 89.394060 -6.559285 1098.756498 952.457944 21.667895 0.000000 0.167581
234.000000 50.552000 -2.000000 -1.000000 -12.000000 96.944814 -9.705494 1159.080579 807.996210 19.777755 0.000000 0.166922
235.000000 54.721000 -1.000000 -1.000000 -12.000000 104.684135 -13.562857 1234.644551 650.867133 18.268468 0.000000 0.148887
236.000000 58.435000 0.000000 -1.000000 -12.000000 112.424659 -18.353164 1332.058551 473.038020 17.104604 0.000000 0.109242
237.000000 61.481000 1.000000 -1.000000 -12.000000 119.907214 -24.363471 1462.401586 261.402718 16.254992 0.000000 0.043097
238.000000 63.679000 2.000000 -1.000000 -12.000000 126.791432 -31.931913 1645.766215 -7.440669 15.692105 0.000000 0.071780
240.000000 47.794000 -1.000000 0.000000 -4.000000 93.137619 -0.742200 988.942908 881.996269 6.973645 0.000000 0.174261
241.000000 52.323000 -1.000000 0.000000 -6.000000 101.132917 -3.380808 1038.581872 728.827985 9.553462 0.000000 0.171040
242.000000 56.605000 -1.000000 0.000000 -12.000000 109.405928 -6.689895 1101.243087 559.252535 17.658853 0.000000 0.151413
243.000000 63.520000 1.000000 0.000000 -12.000000 126.033313 -16.480742 1293.419431 124.525170 15.731768 0.000000 0.052536
244.000000 65.746000 1.000000 0.000000 -6.000000 133.799786 -23.895747 1451.852400 -187.884873 7.598771 0.000000 0.061172
245.000000 48.856000 -3.000000 1.000000 -12.000000 96.251910 5.454070 872.235378 822.554049 20.464789 0.000000 0.172971
246.000000 53.419000 -2.000000 1.000000 -12.000000 104.576304 3.476697 909.610387 660.605566 18.713725 0.000000 0.166181
247.000000 57.724000 -1.000000 1.000000 -12.000000 113.260173 0.948439 957.182066 478.297706 17.315262 0.000000 0.143882
248.000000 61.543000 0.000000 1.000000 -12.000000 122.165329 -2.382582 1019.782329 263.544904 16.238252 0.000000 0.104191
249.000000 64.653000 1.000000 1.000000 -12.000000 131.089462 -6.932674 1105.868733 -4.475478 15.455111 0.000000 0.048383
250.000000 66.868000 2.000000 1.000000 -12.000000 139.737757 -13.415155 1231.710324 -365.466955 14.941326 0.000000 0.042844
252.000000 49.309000 -3.000000 2.000000 -12.000000 98.637186 11.911495 747.963683 773.913430 20.275949 0.000000 0.162765
253.000000 53.811000 -1.000000 1.000000 -6.000000 107.139336 10.720155 771.239926 603.183849 9.288199 0.000000 0.150979
254.000000 58.049000 -1.000000 2.000000 -12.000000 116.056945 9.176536 801.130675 407.908714 17.217460 0.000000 0.124335
255.000000 61.801000 0.000000 1.000000 -6.000000 125.284759 7.100947 840.922403 173.483983 8.084895 0.000000 0.082397
256.000000 64.850000 1.000000 2.000000 -12.000000 134.674690 4.170926 896.510962 -125.967182 15.407316 0.000000 0.030090
258.000000 49.167000 -1.000000 1.000000 -4.000000 100.241668 18.476498 615.367809 735.967249 6.777791 0.000000 0.142994
259.000000 53.524000 -2.000000 3.000000 -12.000000 108.750178 18.138883 622.404190 556.537613 18.675397 0.000000 0.124184
260.000000 57.613000 -1.000000 3.000000 -12.000000 117.689442 17.699214 631.526955 348.122376 17.347216 0.000000 0.090753
261.000000 64.161000 1.000000 3.000000 -12.000000 136.496800 16.249059 661.307999 -240.235791 15.572331 0.000000 0.039216
263.000000 48.487000 -3.000000 4.000000 -12.000000 101.068823 24.979591 473.582396 708.719695 20.618166 0.000000 0.113652
264.000000 52.627000 -1.000000 2.000000 -6.000000 109.414467 25.489795 461.869247 520.766774 9.496560 0.000000 0.084839
265.000000 56.502000 -1.000000 4.000000 -12.000000 118.161516 26.151646 446.525331 299.117382 17.688054 0.000000 0.040844
268.000000 47.349000 -3.000000 5.000000 -12.000000 101.173842 31.260534 321.617833 692.290005 21.113326 0.000000 0.077843
269.000000 51.223000 -2.000000 5.000000 -12.000000 109.211245 32.542605 288.199244 496.105701 19.513667 0.000000 0.036486
270.000000 54.837000 -1.000000 5.000000 -12.000000 117.585039 34.186232 243.929185 261.231342 18.225056 0.000000 0.028815
271.000000 58.021000 0.000000 5.000000 -12.000000 126.199784 36.365139 182.497775 -37.227266 17.222537 0.000000 0.114742
273.000000 45.850000 -1.000000 2.000000 -4.000000 100.650701 37.190240 158.337124 686.919434 7.267833 0.000000 0.058468
274.000000 49.427000 -1.000000 3.000000 -6.000000 108.272626 39.119424 99.713339 482.937327 10.111324 0.000000 0.056606
275.000000 52.754000 -1.000000 6.000000 -12.000000 116.146992 41.549890 21.103218 234.985357 18.944675 0.000000 0.120850
276.000000 47.357000 -2.000000 7.000000 -12.000000 106.755965 45.113552 -105.568874 481.813139 21.106998 0.000000 0.146245
277.000000 50.388000 -1.000000 7.000000 -12.000000 114.063578 48.114057 -225.141807 221.118484 19.834582 0.000000 0.240689
282.000000 46.787000 0.000000 -5.000000 -11.000000 83.902149 -39.671390 1867.649231 1090.381698 21.372623 0.000000 0.124173
283.000000 49.454000 1.000000 -5.000000 -11.000000 88.911837 -45.430199 2067.579315 970.130976 20.217737 0.000000 0.167913
284.000000 51.442000 2.000000 -5.000000 -11.000000 93.335816 -51.739048 2339.736157 839.692930 19.434574 0.000000 0.295141
286.000000 47.980000 -1.000000 -4.000000 -11.000000 84.923520 -30.470477 1608.238997 1051.932158 20.841965 0.000000 0.111302
287.000000 51.542000 0.000000 -4.000000 -11.000000 90.974400 -35.855624 1752.837426 918.414124 19.399000 0.000000 0.090121
288.000000 54.481000 1.000000 -4.000000 -11.000000 96.602013 -41.989925 1943.757084 773.401311 18.350297 0.000000 0.102061
289.000000 56.620000 2.000000 -4.000000 -11.000000 101.555135 -48.870579 2207.501122 606.451492 17.654951 0.000000 0.221896
291.000000 47.802000 -2.000000 -3.000000 -11.000000 84.441229 -21.077289 1389.817335 1053.260354 20.920135 0.000000 0.135403
292.000000 52.177000 -1.000000 -3.000000 -11.000000 91.379276 -25.747381 1494.082086 912.229018 19.163284 0.000000 0.122309
293.000000 56.085000 0.000000 -3.000000 -11.000000 98.159779 -31.259257 1628.349346 760.466354 17.825323 0.000000 0.084462
294.000000 59.280000 1.000000 -3.000000 -11.000000 104.505478 -37.729671 1807.745411 588.925091 16.862574 0.000000 0.048550
295.000000 61.556000 2.000000 -3.000000 -11.000000 110.099783 -45.220722 2059.618852 381.835167 16.237232 0.000000 0.163336
297.000000 46.264000 -3.000000 -2.000000 -11.000000 82.484680 -11.980004 1203.380840 1086.150995 21.617291 0.000000 0.148197
298.000000 51.227000 -2.000000 -2.000000 -11.000000 90.002260 -15.703075 1277.595005 940.955895 19.519951 0.000000 0.153800
299.000000 55.953000 -1.000000 -2.000000 -11.000000 97.663946 -20.209065 1371.192527 786.667960 17.868306 0.000000 0.138539
300.000000 60.162000 0.000000 -2.000000 -11.000000 105.234375 -25.696648 1492.907911 615.713777 16.615656 0.000000 0.096208
301.000000 63.574000 1.000000 -2.000000 -11.000000 112.398450 -32.385351 1657.651163 415.717756 15.721603 0.000000 0.019082
302.000000 65.960000 2.000000 -2.000000 -11.000000 118.769605 -40.465978 1893.137417 164.237247 15.151025 0.000000 0.122362
304.000000 48.832000 -3.000000 -1.000000 -11.000000 87.029315 -6.298806 1093.801301 997.193236 20.478565 0.000000 0.164148
305.000000 54.081000 -2.000000 -1.000000 -11.000000 95.150339 -9.624435 1157.513728 842.605143 18.488085 0.000000 0.167434
306.000000 59.075000 -1.000000 -1.000000 -11.000000 103.517948 -13.758082 1238.528441 674.604726 16.922384 0.000000 0.150687
307.000000 63.509000 0.000000 -1.000000 -11.000000 111.898893 -18.971589 1345.000962 483.505491 15.738246 0.000000 0.108520
308.000000 67.080000 1.000000 -1.000000 -11.000000 119.960897 -25.621383 1491.167777 252.922366 14.898126 0.000000 0.034476
309.000000 69.541000 2.000000 -1.000000 -11.000000 127.260381 -34.122133 1704.312529 -48.004312 14.369248 0.000000 0.098361
311.000000 46.526000 -4.000000 1.000000 -11.000000 85.857603 8.045591 822.863261 1019.725174 21.494298 0.000000 0.161232
312.000000 51.994000 -3.000000 1.000000 -11.000000 94.299427 6.482388 852.706871 859.563185 19.230361 0.000000 0.171987
313.000000 57.455000 -2.000000 1.000000 -11.000000 103.299265 4.503720 890.223496 685.801409 17.399532 0.000000 0.167636
314.000000 62.631000 -1.000000 1.000000 -11.000000 112.756372 1.925885 938.808848 489.276448 15.958791 0.000000 0.145378
315.000000 67.203000 0.000000 1.000000 -11.000000 122.504436 -1.554544 1004.209087 254.955282 14.870634 0.000000 0.102808
316.000000 70.854000 1.000000 1.000000 -11.000000 132.290532 -6.465933 1096.980027 -44.294849 14.102213 0.000000 0.041924
318.000000 47.060000 -4.000000 2.000000 -11.000000 88.167581 14.185948 702.936531 976.516580 21.248827 0.000000 0.156777
319.000000 52.456000 -3.000000 2.000000 -11.000000 96.747562 13.345216 719.677810 810.124595 19.060146 0.000000 0.161055
320.000000 57.825000 -2.000000 2.000000 -11.000000 105.921800 12.271442 740.891800 626.787478 17.287213 0.000000 0.150408
321.000000 62.899000 -1.000000 2.000000 -11.000000 115.614220 10.853338 768.647300 415.599559 15.889871 0.000000 0.122487
322.000000 67.370000 0.000000 2.000000 -11.000000 125.701035 8.896637 806.521536 158.156195 14.832975 0.000000 0.076820
323.000000 70.934000 1.000000 2.000000 -11.000000 136.003809 6.031351 861.281442 -179.888262 14.085632 0.000000 0.022720
325.000000 46.978000 -4.000000 3.000000 -11.000000 89.763775 20.370138 575.368159 945.733496 21.284985 0.000000 0.143511
326.000000 52.186000 -3.000000 3.000000 -11.000000 98.312158 20.287310 577.137639 773.352505 19.157834 0.000000 0.139264
327.000000 57.346000 -2.000000 3.000000 -11.000000 107.447507 20.181322 579.399114 580.603128 17.430920 0.000000 0.119653
328.000000 62.205000 -1.000000 3.000000 -11.000000 117.104926 20.040886 582.390913 354.608648 16.066623 0.000000 0.082696
329.000000 66.477000 0.000000 3.000000 -11.000000 127.182667 19.845948 586.534939 73.010333 15.031897 0.000000 0.035336
330.000000 69.881000 1.000000 3.000000 -11.000000 137.544334 19.557151 592.655569 -307.419020 14.297591 0.000000 0.059740
332.000000 46.338000 -4.000000 4.000000 -11.000000 90.655388 26.456313 439.403729 927.247880 21.578442 0.000000 0.122755
333.000000 51.266000 -3.000000 4.000000 -11.000000 99.011216 27.108600 424.028528 749.251054 19.501031 0.000000 0.107330
334.000000 56.125000 -2.000000 4.000000 -11.000000 107.904691 27.938847 404.196866 547.393549 17.809926 0.000000 0.074874
335.000000 60.682000 -1.000000 4.000000 -11.000000 117.266335 29.030839 377.642820 306.573509 16.469767 0.000000 0.022958
336.000000 64.680000 0.000000 4.000000 -11.000000 126.989156 30.530162 340.250799 -0.214863 15.449382 0.000000 0.058780
338.000000 49.812000 -3.000000 5.000000 -11.000000 98.925831 33.628873 259.129734 737.983213 20.069774 0.000000 0.072941
339.000000 54.308000 -2.000000 5.000000 -11.000000 107.412862 35.281531 213.461907 527.493083 18.405684 0.000000 0.033089
340.000000 58.507000 -1.000000 5.000000 -11.000000 116.273727 37.420337 151.505371 271.994098 17.081987 0.000000 0.060640
341.000000 62.186000 0.000000 5.000000 -11.000000 125.380590 40.287060 62.653879 -60.991994 16.069196 0.000000 0.164074
343.000000 47.957000 -3.000000 6.000000 -11.000000 98.179923 39.713179 81.024990 739.880864 20.846204 0.000000 0.075979
344.000000 52.057000 -2.000000 6.000000 -11.000000 106.149481 42.025492 5.032826 521.447202 19.201545 0.000000 0.092846
345.000000 55.873000 -1.000000 6.000000 -11.000000 114.382997 44.953744 -99.557868 251.641170 17.887690 0.000000 0.173037
347.000000 45.829000 -3.000000 7.000000 -11.000000 96.915892 45.281917 -111.938280 755.460904 21.814302 0.000000 0.143637
348.000000 49.527000 -2.000000 7.000000 -11.000000 104.310838 48.079163 -223.672313 530.044338 20.182524 0.000000 0.202250
351.000000 45.880000 1.000000 -6.000000 -10.000000 77.788178 -50.237645 2268.535763 1305.186664 21.796323 0.000000 0.305383
353.000000 48.842000 0.000000 -2.000000 -4.000000 80.459051 -41.336777 1921.772369 1181.931056 8.189803 0.000000 0.150171
354.000000 51.869000 1.000000 -5.000000 -10.000000 85.641237 -47.490742 2149.188121 1062.408942 19.277602 0.000000 0.213946
356.000000 45.803000 -1.000000 -2.000000 -5.000000 75.162757 -26.633236 1514.749137 1259.961393 10.918319 0.000000 0.115512
357.000000 50.455000 -1.000000 -4.000000 -10.000000 81.749366 -31.662855 1638.769364 1124.360298 19.820559 0.000000 0.112630
358.000000 54.617000 0.000000 -2.000000 -5.000000 88.121839 -37.466109 1799.858614 985.466513 9.153767 0.000000 0.100447
359.000000 58.000000 1.000000 -4.000000 -10.000000 93.996089 -44.087780 2017.556677 836.321374 17.237575 0.000000 0.134517
360.000000 60.367000 1.000000 -2.000000 -5.000000 99.069894 -51.499513 2328.063740 665.002337 8.279933 0.000000 0.287886
361.000000 50.390000 -2.000000 -3.000000 -10.000000 81.379643 -21.705155 1403.421680 1116.616725 19.846890 0.000000 0.129754
362.000000 55.596000 -1.000000 -3.000000 -10.000000 88.781272 -26.741814 1517.304152 966.639428 17.985665 0.000000 0.120071
363.000000 60.235000 0.000000 -3.000000 -10.000000 96.004164 -32.730713 1666.783654 806.431116 16.597870 0.000000 0.083467
364.000000 63.961000 1.000000 -3.000000 -10.000000 102.700395 -39.797093 1871.642081 625.295025 15.628908 0.000000 0.068126
365.000000 66.491000 2.000000 -3.000000 -10.000000 108.476272 -47.983439 2169.651305 403.717637 15.032269 0.000000 0.217351
366.000000 48.631000 -3.000000 -2.000000 -10.000000 79.358294 -12.043467 1204.626957 1147.785427 20.566221 0.000000 0.139138
367.000000 54.574000 -1.000000 -1.000000 -5.000000 87.421446 -16.020969 1284.048743 991.429186 9.161803 0.000000 0.150663
368.000000 60.274000 -1.000000 -2.000000 -10.000000 95.681213 -20.892037 1385.825428 826.393022 16.587802 0.000000 0.137999
369.000000 65.336000 0.000000 -1.000000 -5.000000 103.841609 -26.896020 1520.941251 643.642353 7.650022 0.000000 0.093385
370.000000 69.360000 1.000000 -2.000000 -10.000000 111.497003 -34.292298 1708.986201 427.913715 14.410308 0.000000 0.017876
371.000000 45.482000 -4.000000 -1.000000 -10.000000 75.982285 -3.163320 1034.483037 1210.113840 21.991590 0.000000 0.131117
372.000000 51.728000 -3.000000 -1.000000 -10.000000 84.248365 -6.005385 1088.225370 1050.006374 19.333248 0.000000 0.158463
373.000000 58.072000 -2.000000 -1.000000 -10.000000 93.023109 -9.531875 1155.725477 883.362752 17.218263 0.000000 0.167161
374.000000 64.153000 -1.000000 -1.000000 -10.000000 102.125604 -13.984532 1243.041694 702.696286 15.583279 0.000000 0.152519
375.000000 69.535000 0.000000 -1.000000 -10.000000 111.260907 -19.701523 1360.401426 496.176908 14.374422 0.000000 0.107573
376.000000 73.778000 1.000000 -1.000000 -10.000000 119.993681 -27.132260 1526.532517 242.942545 13.545591 0.000000 0.023808
377.000000 76.529000 2.000000 -1.000000 -10.000000 127.732536 -36.787708 1779.810923 -98.921599 13.057101 0.000000 0.134714
378.000000 47.566000 -4.000000 0.000000 -10.000000 79.770030 2.846072 921.492865 1135.477045 21.026772 0.000000 0.146883
379.000000 54.052000 -3.000000 0.000000 -10.000000 88.521833 0.595106 963.820596 968.774855 18.500392 0.000000 0.169445
380.000000 60.635000 -2.000000 0.000000 -10.000000 97.894113 -2.256290 1017.406059 791.648745 16.488844 0.000000 0.174136
381.000000 66.935000 -1.000000 0.000000 -10.000000 107.736268 -5.963472 1087.429382 594.886790 14.934036 0.000000 0.156795
382.000000 76.849000 1.000000 0.000000 -10.000000 127.638051 -17.793820 1320.432240 69.302615 13.002912 0.000000 0.040033
383.000000 79.632000 2.000000 0.000000 -10.000000 136.670788 -27.539694 1536.231380 -345.773014 12.546931 0.000000 0.108815
384.000000 48.915000 -4.000000 1.000000 -10.000000 82.904657 9.166224 801.329416 1076.703582 20.445591 0.000000 0.153494
385.000000 55.467000 -3.000000 1.000000 -10.000000 91.981905 7.643607 830.557862 903.421394 18.027201 0.000000 0.169775
386.000000 62.099000 -2.000000 1.000000 -10.000000 101.763031 5.683998 867.875130 715.767673 16.098783 0.000000 0.168798
387.000000 68.429000 -1.000000 1.000000 -10.000000 112.135399 3.075143 917.178273 502.556070 14.606776 0.000000 0.146922
388.000000 73.997000 0.000000 1.000000 -10.000000 122.897293 -0.550781 985.346667 244.753957 13.505152 0.000000 0.100998
389.000000 78.342000 1.000000 1.000000 -10.000000 133.727310 -5.876066 1085.769818 -93.949059 12.754137 0.000000 0.034271
391.000000 49.484000 -2.000000 1.000000 -5.000000 85.285162 15.659543 673.287194 1033.189978 10.104522 0.000000 0.150138
392.000000 55.925000 -3.000000 2.000000 -10.000000 94.490581 14.957855 687.456177 853.507219 17.878500 0.000000 0.158195
393.000000 62.416000 -1.000000 1.000000 -5.000000 104.433698 14.046987 705.711983 655.440663 8.008052 0.000000 0.149137
394.000000 68.588000 -1.000000 2.000000 -10.000000 115.031430 12.817776 730.120754 425.552103 14.572232 0.000000 0.119720
395.000000 78.214000 1.000000 2.000000 -10.000000 137.532304 8.394834 816.165839 -247.635089 12.774317 0.000000 0.020856
396.000000 49.301000 -4.000000 3.000000 -10.000000 86.870334 22.163820 536.565050 1004.544296 20.283241 0.000000 0.137179
397.000000 55.472000 -3.000000 3.000000 -10.000000 95.995628 22.308904 533.384142 818.814452 18.023554 0.000000 0.134342
398.000000 61.657000 -2.000000 3.000000 -10.000000 105.832885 22.497229 529.245287 610.630313 16.212728 0.000000 0.113627
399.000000 67.509000 -1.000000 3.000000 -10.000000 116.307362 22.751508 523.639039 363.993745 14.804581 0.000000 0.071831
400.000000 72.626000 0.000000 3.000000 -10.000000 127.292246 23.113723 515.616877 49.772598 13.759059 0.000000 0.026871
402.000000 48.450000 -2.000000 2.000000 -5.000000 87.682319 28.515230 390.249408 990.575055 10.319298 0.000000 0.117505
403.000000 54.231000 -3.000000 4.000000 -10.000000 96.537317 29.460950 367.029974 799.344266 18.435393 0.000000 0.100641
404.000000 59.986000 -1.000000 2.000000 -5.000000 106.025566 30.678267 336.495271 581.551456 8.331947 0.000000 0.063637
405.000000 65.404000 -1.000000 4.000000 -10.000000 116.059728 32.302019 294.541905 318.299325 15.280952 0.000000 0.002491
407.000000 47.057000 -4.000000 5.000000 -10.000000 87.796813 34.571874 233.293821 991.286935 21.249161 0.000000 0.101715
408.000000 52.370000 -3.000000 5.000000 -10.000000 96.232160 36.214127 186.864068 795.323102 19.090250 0.000000 0.074590
409.000000 57.621000 -2.000000 5.000000 -10.000000 105.188538 38.296553 125.099126 568.693171 17.347686 0.000000 0.049810
410.000000 62.539000 -1.000000 5.000000 -10.000000 114.556727 41.014948 38.898572 289.233225 15.981013 0.000000 0.103776
411.000000 50.070000 -3.000000 6.000000 -10.000000 95.241753 42.432393 -8.908178 807.217580 19.967098 0.000000 0.107440
412.000000 54.789000 -1.000000 3.000000 -5.000000 103.557314 45.172280 -107.786336 572.854360 9.122316 0.000000 0.141523
413.000000 59.186000 -1.000000 6.000000 -10.000000 112.143326 48.655174 -248.188705 277.976554 16.886631 0.000000 0.243861
415.000000 47.501000 -3.000000 7.000000 -10.000000 93.739856 48.049064 -222.406346 835.759428 21.047270 0.000000 0.198580
416.000000 51.694000 -2.000000 7.000000 -10.000000 101.372827 51.241206 -365.613300 595.196613 19.337372 0.000000 0.276295
421.000000 46.510000 -1.000000 -5.000000 -9.000000 70.502235 -37.253747 1793.544272 1419.777045 21.505199 0.000000 0.157432
422.000000 50.751000 0.000000 -5.000000 -9.000000 76.362275 -43.185201 1985.184572 1299.136037 19.705458 0.000000 0.188026
423.000000 54.199000 1.000000 -5.000000 -9.000000 81.714712 -49.772470 2247.381702 1183.685262 18.449782 0.000000 0.276403
425.000000 47.438000 -2.000000 -4.000000 -9.000000 71.006520 -27.582682 1537.258887 1358.965291 21.085587 0.000000 0.114318
426.000000 52.927000 -1.000000 -4.000000 -9.000000 77.961349 -33.002507 1674.020627 1214.693766 18.895775 0.000000 0.118013
427.000000 57.834000 0.000000 -4.000000 -9.000000 84.677025 -39.280814 1855.334974 1070.552114 17.290111 0.000000 0.119111
428.000000 61.754000 1.000000 -4.000000 -9.000000 90.804197 -46.450294 2107.208747 919.072440 16.190354 0.000000 0.179568
430.000000 46.564000 -1.000000 -1.000000 -3.000000 69.954404 -17.866761 1321.944172 1353.608401 7.160837 0.000000 0.101761
431.000000 53.039000 -2.000000 -3.000000 -9.000000 77.733352 -22.414723 1418.940081 1194.139037 18.856828 0.000000 0.122131
432.000000 59.310000 -1.000000 -3.000000 -9.000000 85.650897 -27.875137 1544.270650 1033.599037 16.860222 0.000000 0.117555
433.000000 69.279000 1.000000 -3.000000 -9.000000 100.437571 -42.175726 1950.093504 673.465922 14.429634 0.000000 0.097966
435.000000 51.019000 -3.000000 -2.000000 -9.000000 75.651867 -12.115085 1206.033903 1222.578404 19.605005 0.000000 0.125696
436.000000 58.227000 -2.000000 -2.000000 -9.000000 84.328949 -16.384080 1291.445696 1052.403071 17.174895 0.000000 0.145342
437.000000 65.215000 -1.000000 -2.000000 -9.000000 93.278086 -21.682247 1402.923251 874.660556 15.331781 0.000000 0.136721
438.000000 71.408000 0.000000 -2.000000 -9.000000 102.121211 -28.300923 1554.547137 678.464798 13.999474 0.000000 0.090082
439.000000 76.215000 1.000000 -2.000000 -9.000000 110.325603 -36.546442 1772.766758 444.742995 13.114421 0.000000 0.033277
440.000000 79.170000 2.000000 -2.000000 -9.000000 117.238739 -46.616444 2113.803795 134.365367 12.623195 0.000000 0.229237
441.000000 47.279000 -4.000000 -1.000000 -9.000000 72.067541 -2.693865 1025.641241 1289.692392 21.157162 0.000000 0.111431
442.000000 54.804000 -3.000000 -1.000000 -9.000000 80.935355 -5.672370 1081.904275 1113.558259 18.249317 0.000000 0.149299
443.000000 62.591000 -2.000000 -1.000000 -9.000000 90.463104 -9.425178 1153.665330 932.181401 15.975765 0.000000 0.165552
444.000000 70.139000 -1.000000 -1.000000 -9.000000 100.434905 -14.250343 1248.350774 736.492364 14.253667 0.000000 0.154278
445.000000 76.805000 0.000000 -1.000000 -9.000000 110.471223 -20.575800 1379.033678 511.828396 13.014005 0.000000 0.106304
446.000000 81.923000 1.000000 -1.000000 -9.000000 119.986890 -28.978034 1571.060360 231.047371 12.198821 0.000000 0.012011
448.000000 51.340000 -4.000000 1.000000 -9.000000 79.403770 10.421001 777.055212 1145.726617 19.480825 0.000000 0.142153
449.000000 59.286000 -3.000000 1.000000 -9.000000 89.193268 8.964100 805.222954 956.342759 16.866717 0.000000 0.165672
450.000000 67.478000 -2.000000 1.000000 -9.000000 99.883989 7.053333 841.830597 752.036473 14.816175 0.000000 0.169411
451.000000 75.376000 -1.000000 1.000000 -9.000000 111.353711 4.444653 891.339846 518.938367 13.260709 0.000000 0.148451
452.000000 82.301000 0.000000 1.000000 -9.000000 123.356206 0.690416 962.029986 232.442979 12.142495 0.000000 0.098555
453.000000 87.550000 1.000000 1.000000 -9.000000 135.475444 -5.107146 1071.192021 -157.668211 11.412378 0.000000 0.025266
455.000000 51.947000 -4.000000 2.000000 -9.000000 81.860626 17.301881 639.732891 1102.229515 19.252193 0.000000 0.140927
456.000000 59.721000 -3.000000 2.000000 -9.000000 91.759040 16.782029 650.415918 906.475890 16.743016 0.000000 0.153700
457.000000 67.688000 -2.000000 2.000000 -9.000000 102.584330 16.094929 664.446802 690.926836 14.769165 0.000000 0.146829
458.000000 75.332000 -1.000000 2.000000 -9.000000 114.248334 15.144741 683.691681 438.759052 13.267767 0.000000 0.115574
459.000000 82.006000 0.000000 2.000000 -9.000000 126.574712 13.745596 711.720144 118.864450 12.185421 0.000000 0.059581
460.000000 87.057000 1.000000 2.000000 -9.000000 139.292176 11.484756 756.323643 -335.520845 11.476486 0.000000 0.033110
461.000000 51.627000 -4.000000 3.000000 -9.000000 83.431151 24.148065 492.466337 1076.824336 19.370359 0.000000 0.129630
462.000000 59.008000 -1.000000 1.000000 -3.000000 93.181404 24.574331 482.817138 875.217830 5.648175 0.000000 0.128112
463.000000 66.513000 -2.000000 3.000000 -9.000000 103.802075 25.136149 469.998616 648.937392 15.029385 0.000000 0.105755
464.000000 73.668000 -1.000000 3.000000 -9.000000 115.205798 25.910213 452.142477 377.787115 13.566904 0.000000 0.056927
466.000000 50.509000 -4.000000 4.000000 -9.000000 84.155929 30.771124 334.134799 1069.212491 19.798548 0.000000 0.114206
467.000000 57.336000 -3.000000 4.000000 -9.000000 93.534240 32.064423 300.772810 862.559412 17.438126 0.000000 0.095339
468.000000 64.216000 -2.000000 4.000000 -9.000000 103.660792 33.747937 255.899210 626.393407 15.566737 0.000000 0.054430
469.000000 70.730000 -1.000000 4.000000 -9.000000 114.422581 36.024829 192.313596 336.693450 14.130558 0.000000 0.034458
470.000000 76.377000 0.000000 4.000000 -9.000000 125.617862 39.262832 95.228667 -54.876954 13.083386 0.000000 0.150166
472.000000 48.767000 -4.000000 5.000000 -9.000000 84.138655 37.017365 163.442536 1079.380527 20.505007 0.000000 0.112363
473.000000 54.950000 -3.000000 5.000000 -9.000000 92.981899 39.035441 102.331201 868.821340 18.195045 0.000000 0.089381
474.000000 61.121000 -2.000000 5.000000 -9.000000 102.417487 41.612207 19.011072 624.032251 16.354930 0.000000 0.086031
475.000000 66.923000 -1.000000 5.000000 -9.000000 112.301234 45.000491 -101.312712 316.693551 14.934527 0.000000 0.163663
477.000000 46.592000 -4.000000 6.000000 -9.000000 83.518781 42.784443 -21.116727 1107.601037 21.462176 0.000000 0.149424
478.000000 52.100000 -1.000000 2.000000 -3.000000 91.732258 45.357963 -114.827597 894.676776 6.396724 0.000000 0.154441
479.000000 57.548000 -2.000000 6.000000 -9.000000 100.379945 48.569543 -244.508768 643.063711 17.370897 0.000000 0.207650
481.000000 49.007000 -3.000000 7.000000 -9.000000 89.993587 50.986715 -353.482785 941.191359 20.401487 0.000000 0.271948
485.000000 47.382000 -1.000000 -5.000000 -8.000000 65.347977 -38.870324 1842.539987 1575.431933 21.111090 0.000000 0.196749
486.000000 52.294000 0.000000 -5.000000 -8.000000 71.439017 -45.244031 2060.501722 1454.283734 19.125547 0.000000 0.243010
489.000000 48.695000 -1.000000 -2.000000 -4.000000 66.042599 -28.650413 1563.043780 1485.963035 10.271313 0.000000 0.121478
490.000000 55.219000 -1.000000 -4.000000 -8.000000 73.382473 -34.516735 1715.179525 1330.843588 18.112947 0.000000 0.131693
491.000000 65.625000 1.000000 -4.000000 -8.000000 86.839942 -49.121159 2218.435663 1031.794591 15.236235 0.000000 0.243206
492.000000 47.809000 -3.000000 -3.000000 -8.000000 65.046804 -18.312088 1331.202230 1468.528769 20.924672 0.000000 0.086532
493.000000 55.601000 -2.000000 -3.000000 -8.000000 73.329490 -23.222785 1436.807051 1291.715482 17.989293 0.000000 0.112848
494.000000 63.253000 -1.000000 -3.000000 -8.000000 81.817720 -29.177527 1575.966650 1118.246865 15.810299 0.000000 0.115552
495.000000 70.062000 0.000000 -3.000000 -8.000000 90.080391 -36.371763 1767.694121 939.124487 14.271305 0.000000 0.092835
496.000000 75.287000 1.000000 -3.000000 -8.000000 97.546680 -44.931183 2048.711925 739.590478 13.278638 0.000000 0.141638
498.000000 53.274000 -3.000000 -2.000000 -8.000000 71.197925 -12.196537 1207.634961 1315.906085 18.776494 0.000000 0.105853
499.000000 62.137000 -1.000000 -1.000000 -4.000000 80.562563 -16.802758 1300.008938 1127.880730 8.047649 0.000000 0.136621
500.000000 70.862000 -1.000000 -2.000000 -8.000000 90.310009 -22.606717 1423.166108 934.691762 14.110712 0.000000 0.134282
501.000000 84.421000 1.000000 -2.000000 -8.000000 108.764554 -39.242775 1854.143014 468.862335 11.839912 0.000000 0.061567
502.000000 48.806000 -4.000000 -1.000000 -8.000000 67.402545 -2.164468 1015.678619 1389.281817 20.497180 0.000000 0.082205
503.000000 57.967000 -3.000000 -1.000000 -8.000000 76.929422 -5.291193 1074.677944 1191.948290 17.254665 0.000000 0.134609
504.000000 67.694000 -2.000000 -1.000000 -8.000000 87.326892 -9.300841 1151.266175 991.919909 14.772362 0.000000 0.161647
505.000000 77.278000 -1.000000 -1.000000 -8.000000 98.339643 -14.566737 1254.686528 777.984968 12.937435 0.000000 0.155750
506.000000 85.738000 0.000000 -1.000000 -8.000000 109.469781 -21.641370 1402.034255 531.647879 11.658326 0.000000 0.104562
507.000000 51.805000 -2.000000 0.000000 -4.000000 71.708752 4.662989 887.212413 1297.949392 9.654546 0.000000 0.109922
508.000000 61.452000 -3.000000 0.000000 -8.000000 81.894851 2.329387 931.218632 1094.404812 16.274694 0.000000 0.154004
509.000000 81.764000 -1.000000 0.000000 -8.000000 105.243741 -4.937686 1067.984137 646.602267 12.226211 0.000000 0.163463
510.000000 53.670000 -4.000000 1.000000 -8.000000 75.202737 11.834090 749.482003 1231.488380 18.636704 0.000000 0.125693
511.000000 63.427000 -3.000000 1.000000 -8.000000 85.784964 10.477310 775.961492 1021.667042 15.766634 0.000000 0.158620
512.000000 73.738000 -2.000000 1.000000 -8.000000 97.540171 8.659087 811.090280 796.892825 13.558884 0.000000 0.169031
513.000000 83.836000 -1.000000 1.000000 -8.000000 110.344428 6.102310 859.933426 539.643394 11.922835 0.000000 0.149846
514.000000 45.723000 -5.000000 2.000000 -8.000000 68.257392 19.358526 596.852433 1395.959013 21.877964 0.000000 0.099710
515.000000 54.318000 -2.000000 1.000000 -4.000000 77.745939 19.140485 601.447784 1188.445694 9.206483 0.000000 0.128634
516.000000 63.805000 -3.000000 2.000000 -8.000000 88.404059 18.857741 607.388766 972.688206 15.672078 0.000000 0.146930
517.000000 83.422000 -1.000000 2.000000 -8.000000 113.170593 17.934491 626.650780 456.827079 11.981261 0.000000 0.109299
518.000000 45.666000 -5.000000 3.000000 -8.000000 69.969817 25.750607 455.843212 1376.643461 21.904292 0.000000 0.112492
519.000000 53.821000 -4.000000 3.000000 -8.000000 79.303293 26.349337 441.908564 1167.875137 18.581967 0.000000 0.122004
520.000000 62.722000 -3.000000 3.000000 -8.000000 89.718761 27.122005 423.710695 946.935797 15.941879 0.000000 0.120936
521.000000 71.954000 -2.000000 3.000000 -8.000000 101.206437 28.156827 398.939812 699.140504 13.893631 0.000000 0.096022
522.000000 80.850000 -1.000000 3.000000 -8.000000 113.662201 29.613278 363.249779 398.529173 12.362122 0.000000 0.036523
523.000000 88.552000 0.000000 3.000000 -8.000000 126.858343 31.811137 307.379615 -8.506782 11.284443 0.000000 0.069382
524.000000 52.369000 -2.000000 2.000000 -4.000000 79.940955 33.245594 269.468886 1169.287808 9.548359 0.000000 0.117149
525.000000 60.473000 -3.000000 4.000000 -8.000000 89.852860 34.948848 222.801722 944.372141 16.534377 0.000000 0.096084
526.000000 76.697000 -1.000000 4.000000 -8.000000 112.184340 40.260989 63.495199 365.872834 13.031564 0.000000 0.081753
527.000000 50.209000 -4.000000 5.000000 -8.000000 79.798008 39.666742 82.498114 1192.626448 19.917434 0.000000 0.137911
528.000000 57.417000 -3.000000 5.000000 -8.000000 89.034061 42.111007 2.117866 965.461601 17.414035 0.000000 0.122890
529.000000 64.706000 -2.000000 5.000000 -8.000000 98.941672 45.250061 -110.730266 700.457504 15.449582 0.000000 0.141420
530.000000 71.596000 -1.000000 5.000000 -8.000000 109.329162 49.399161 -280.696888 360.888604 13.960312 0.000000 0.249866
531.000000 47.597000 -2.000000 3.000000 -4.000000 79.047338 45.517681 -120.921298 1238.261244 10.505107 0.000000 0.202117
532.000000 53.900000 -3.000000 6.000000 -8.000000 87.524965 48.497246 -241.411567 1011.205617 18.550346 0.000000 0.221216
533.000000 60.196000 -1.000000 3.000000 -4.000000 96.473065 52.221608 -413.631253 741.662873 8.303821 0.000000 0.299777
539.000000 47.401000 -1.000000 -5.000000 -7.000000 59.153967 -40.679302 1900.082889 1788.571569 21.104328 0.000000 0.260190
540.000000 53.094000 0.000000 -5.000000 -7.000000 65.464077 -47.545022 2151.423654 1668.856297 18.838965 0.000000 0.324227
542.000000 49.204000 -2.000000 -4.000000 -7.000000 60.042690 -29.859098 1592.874691 1656.281986 20.331826 0.000000 0.148276
543.000000 56.991000 -1.000000 -4.000000 -7.000000 67.770505 -36.239450 1763.866932 1486.374911 17.551021 0.000000 0.160969
544.000000 63.979000 0.000000 -4.000000 -7.000000 75.216748 -43.679021 2002.775426 1333.733397 15.631735 0.000000 0.199897
546.000000 48.341000 -3.000000 -3.000000 -7.000000 59.122141 -18.818120 1341.780333 1620.928074 20.696461 0.000000 0.086420
547.000000 57.778000 -2.000000 -3.000000 -7.000000 67.926434 -24.150978 1457.599390 1419.327186 17.313088 0.000000 0.105439
548.000000 67.233000 -1.000000 -3.000000 -7.000000 77.036372 -30.688159 1613.755970 1229.110140 14.875611 0.000000 0.116712
549.000000 75.670000 0.000000 -3.000000 -7.000000 85.901059 -38.651085 1835.766711 1039.762228 13.214498 0.000000 0.111743
550.000000 81.958000 1.000000 -3.000000 -7.000000 93.774134 -48.144384 2176.420559 834.594975 12.198446 0.000000 0.206529
551.000000 55.100000 -3.000000 -2.000000 -7.000000 65.763594 -12.289997 1209.473278 1436.892555 18.155932 0.000000 0.077929
552.000000 66.144000 -2.000000 -2.000000 -7.000000 75.887515 -17.290759 1310.037915 1224.403122 15.121491 0.000000 0.122673
553.000000 77.266000 -1.000000 -2.000000 -7.000000 86.560592 -23.702209 1447.509652 1011.645747 12.942025 0.000000 0.130061
554.000000 87.149000 0.000000 -2.000000 -7.000000 97.134045 -31.970456 1646.771868 782.205145 11.471764 0.000000 0.083755
555.000000 49.746000 -4.000000 -1.000000 -7.000000 61.771358 -1.562978 1004.367631 1519.011894 20.111532 0.000000 0.037799
556.000000 61.005000 -3.000000 -1.000000 -7.000000 72.002244 -4.850636 1066.336923 1291.919422 16.397106 0.000000 0.110810
557.000000 73.386000 -2.000000 -1.000000 -7.000000 83.402101 -9.154096 1148.436832 1067.097479 13.627719 0.000000 0.153691
558.000000 85.889000 -1.000000 -1.000000 -7.000000 95.677232 -14.949647 1262.378643 830.255089 11.640930 0.000000 0.156484
559.000000 55.651000 -4.000000 1.000000 -7.000000 70.094710 13.435374 717.888224 1341.691352 17.974983 0.000000 0.102610
560.000000 67.776000 -3.000000 1.000000 -7.000000 81.544329 12.226086 741.783955 1104.715168 14.756067 0.000000 0.146925
561.000000 81.036000 -2.000000 1.000000 -7.000000 94.547752 10.564950 774.258385 853.914881 12.338440 0.000000 0.166865
562.000000 46.124000 -5.000000 2.000000 -7.000000 62.729455 21.188561 557.780143 1536.043733 21.689496 0.000000 0.093632
563.000000 56.357000 -4.000000 2.000000 -7.000000 72.742669 21.208211 557.355505 1299.639172 17.748539 0.000000 0.114013
564.000000 68.051000 -3.000000 2.000000 -7.000000 84.215359 21.234112 556.795591 1057.976219 14.695320 0.000000 0.137216
565.000000 80.694000 -2.000000 2.000000 -7.000000 97.208405 21.269813 556.023510 794.921508 12.389859 0.000000 0.136964
566.000000 46.036000 -5.000000 3.000000 -7.000000 64.514256 27.880913 405.590503 1521.410572 21.729920 0.000000 0.120508
567.000000 55.641000 -4.000000 3.000000 -7.000000 74.299767 28.797616 383.360523 1286.233569 17.975678 0.000000 0.118519
568.000000 66.448000 -3.000000 3.000000 -7.000000 85.400551 29.995968 353.702188 1040.977022 15.049088 0.000000 0.114891
569.000000 77.951000 -2.000000 3.000000 -7.000000 97.830635 31.627570 312.145226 767.160080 12.825271 0.000000 0.086191
570.000000 89.215000 -1.000000 3.000000 -7.000000 111.463070 33.974303 249.732457 430.728201 11.203271 0.000000 0.018385
571.000000 53.788000 -4.000000 4.000000 -7.000000 74.866307 35.961330 194.135746 1300.625313 18.594141 0.000000 0.134254
572.000000 63.435000 -3.000000 4.000000 -7.000000 85.296231 38.145085 129.709041 1053.605834 15.763355 0.000000 0.111936
573.000000 73.526000 -2.000000 4.000000 -7.000000 96.775263 41.047572 37.821619 771.449408 13.597052 0.000000 0.089911
574.000000 83.268000 -1.000000 4.000000 -7.000000 109.099949 45.067640 -103.838510 413.300334 12.003537 0.000000 0.152208
575.000000 51.150000 -4.000000 5.000000 -7.000000 74.624284 42.533778 -12.409941 1342.653661 19.552565 0.000000 0.184431
576.000000 59.545000 -3.000000 5.000000 -7.000000 84.211267 45.456551 -118.584945 1096.552299 16.793103 0.000000 0.179820
577.000000 68.172000 -2.000000 5.000000 -7.000000 94.555947 49.225649 -273.027968 809.678376 14.665139 0.000000 0.223022
579.000000 48.063000 -4.000000 6.000000 -7.000000 73.782954 48.435395 -238.768839 1412.826059 20.808199 0.000000 0.278587
580.000000 55.244000 -3.000000 6.000000 -7.000000 82.469020 51.853582 -395.361154 1171.362788 18.100508 0.000000 0.316056
587.000000 48.333000 -1.000000 -2.000000 -3.000000 52.701686 -31.237299 1627.785015 1899.878056 10.350172 0.000000 0.211667
588.000000 57.621000 -1.000000 -4.000000 -6.000000 60.792348 -38.213026 1822.356377 1706.809762 17.360812 0.000000 0.217897
589.000000 66.023000 0.000000 -2.000000 -3.000000 68.599472 -46.362089 2103.723912 1552.226560 7.574536 0.000000 0.279534
591.000000 47.542000 -1.000000 -1.000000 -2.000000 51.873651 -19.398079 1353.982480 1836.559598 7.015447 0.000000 0.135135
592.000000 58.986000 -2.000000 -3.000000 -6.000000 61.181334 -25.227624 1482.099615 1595.587986 16.960390 0.000000 0.114764
593.000000 70.789000 -1.000000 -3.000000 -6.000000 70.945619 -32.458612 1659.582559 1381.566446 14.129631 0.000000 0.128672
594.000000 89.047000 1.000000 -3.000000 -6.000000 88.734516 -51.913549 2348.317666 979.543948 11.228176 0.000000 0.307555
595.000000 55.929000 -3.000000 -2.000000 -6.000000 59.020012 -12.398333 1211.605815 1602.621295 17.888709 0.000000 0.055879
596.000000 84.344000 -1.000000 -2.000000 -6.000000 81.693424 -25.019940 1477.340361 1114.413537 11.857049 0.000000 0.123418
597.000000 49.547000 -4.000000 -1.000000 -6.000000 54.879535 -0.873756 991.414668 1698.094774 20.194359 0.000000 0.033619
598.000000 63.453000 -3.000000 -1.000000 -6.000000 65.822423 -4.335717 1056.601740 1425.586410 15.766016 0.000000 0.071415
599.000000 79.522000 -2.000000 -1.000000 -6.000000 78.362563 -8.978288 1145.050199 1165.414097 12.577345 0.000000 0.138300
600.000000 54.066000 -4.000000 0.000000 -6.000000 59.829124 7.014008 842.580560 1571.403772 18.505322 0.000000 0.035338
601.000000 86.440000 -2.000000 0.000000 -6.000000 85.530762 1.402503 948.648881 1025.149996 11.569302 0.000000 0.163731
602.000000 56.815000 -4.000000 1.000000 -6.000000 63.796477 15.262048 681.325335 1490.048488 17.608235 0.000000 0.076618
603.000000 72.028000 -3.000000 1.000000 -6.000000 76.160087 14.265913 701.337841 1214.595351 13.886431 0.000000 0.128035
604.000000 89.482000 -2.000000 1.000000 -6.000000 90.619133 12.858041 729.325094 929.070067 11.174636 0.000000 0.161462
605.000000 45.486000 -5.000000 2.000000 -6.000000 56.104503 23.225842 513.124952 1727.888316 21.995983 0.000000 0.121370
606.000000 57.622000 -2.000000 1.000000 -3.000000 66.584328 23.544199 506.026357 1449.429320 8.680155 0.000000 0.104293
607.000000 72.139000 -3.000000 2.000000 -6.000000 78.891485 23.971318 496.448371 1172.274298 13.863794 0.000000 0.124826
608.000000 56.669000 -4.000000 3.000000 -6.000000 68.177509 31.526330 314.765489 1446.604371 17.651137 0.000000 0.130553
609.000000 84.324000 -2.000000 3.000000 -6.000000 93.358678 35.625047 203.737080 863.291897 11.856879 0.000000 0.084933
610.000000 54.378000 -2.000000 2.000000 -3.000000 68.719112 38.941290 105.258621 1479.983323 9.197001 0.000000 0.176321
611.000000 65.836000 -3.000000 4.000000 -6.000000 79.606518 41.683180 16.623406 1205.329894 15.189744 0.000000 0.154320
612.000000 90.235000 -1.000000 4.000000 -6.000000 104.818549 50.485950 -329.997215 493.480619 11.077418 0.000000 0.263087
613.000000 51.240000 -4.000000 5.000000 -6.000000 68.439633 45.630225 -125.235987 1549.154412 19.519852 0.000000 0.259769
614.000000 60.953000 -3.000000 5.000000 -6.000000 78.295184 49.083302 -266.776652 1281.454084 16.406513 0.000000 0.268558
625.000000 58.098000 -2.000000 -3.000000 -5.000000 52.603554 -26.490454 1511.396659 1860.302064 17.221552 0.000000 0.174158
626.000000 72.884000 -1.000000 -3.000000 -5.000000 63.003686 -34.557777 1716.315666 1606.787194 13.725158 0.000000 0.169455
627.000000 86.400000 0.000000 -3.000000 -5.000000 73.184619 -44.532510 2033.872565 1397.290224 11.575602 0.000000 0.222326
628.000000 54.688000 -3.000000 -2.000000 -5.000000 50.498129 -12.525401 1214.109348 1849.919914 18.296932 0.000000 0.116587
629.000000 72.292000 -2.000000 -2.000000 -5.000000 62.228597 -18.556770 1336.309237 1538.862873 13.838723 0.000000 0.082638
630.000000 47.248000 -4.000000 -1.000000 -5.000000 46.325814 -0.076349 976.434210 1968.602733 21.179539 0.000000 0.150052
631.000000 64.343000 -3.000000 -1.000000 -5.000000 57.899225 -3.725983 1045.090976 1617.608593 15.550030 0.000000 0.017146
632.000000 85.550000 -2.000000 -1.000000 -5.000000 71.686138 -8.763838 1140.923640 1301.447508 11.692582 0.000000 0.108598
633.000000 56.318000 -4.000000 1.000000 -5.000000 55.920725 17.360673 638.520954 1703.891608 17.765663 0.000000 0.088975
634.000000 75.452000 -3.000000 1.000000 -5.000000 69.167614 16.669316 652.724425 1368.507611 13.257833 0.000000 0.100235
635.000000 57.342000 -4.000000 2.000000 -5.000000 58.916270 26.194779 445.519370 1664.109826 17.446903 0.000000 0.126320
636.000000 75.355000 -3.000000 2.000000 -5.000000 71.996461 27.142466 423.225406 1334.069519 13.273595 0.000000 0.116046
637.000000 56.211000 -4.000000 3.000000 -5.000000 60.627052 34.571846 233.294608 1676.705701 17.796910 0.000000 0.178000
638.000000 72.135000 -3.000000 3.000000 -5.000000 72.948198 36.924173 166.185100 1353.944217 13.865166 0.000000 0.144923
639.000000 90.522000 -2.000000 3.000000 -5.000000 87.324316 40.230015 64.493909 1006.883097 11.046044 0.000000 0.114627
640.000000 53.534000 -4.000000 4.000000 -5.000000 61.243581 42.207355 -1.175829 1738.377487 18.685586 0.000000 0.256524
641.000000 66.995000 -3.000000 4.000000 -5.000000 72.454220 45.589447 -123.670642 1427.285303 14.928408 0.000000 0.235880
642.000000 81.971000 -2.000000 4.000000 -5.000000 85.113449 50.148270 -314.439468 1084.595553 12.198250 0.000000 0.264398
650.000000 71.254000 -1.000000 -3.000000 -4.000000 52.393009 -37.078991 1788.374747 1980.185445 14.040935 0.000000 0.275061
652.000000 49.381000 -3.000000 -2.000000 -4.000000 39.531708 -12.676517 1217.089915 2277.762361 20.265121 0.000000 0.288592
653.000000 61.664000 -3.000000 -1.000000 -4.000000 47.497671 -2.992776 1031.270120 1928.669530 16.227799 0.000000 0.133755
654.000000 89.799000 -2.000000 -1.000000 -4.000000 62.499031 -8.496442 1135.784919 1507.524045 11.141040 0.000000 0.053143
655.000000 48.190000 -2.000000 0.000000 -2.000000 41.276136 10.162310 782.074932 2186.692208 10.382907 0.000000 0.243923
656.000000 71.401000 -3.000000 0.000000 -4.000000 54.583810 7.957558 824.549644 1713.781543 14.013409 0.000000 0.053531
657.000000 52.674000 -4.000000 1.000000 -4.000000 45.948086 19.789748 587.727754 2047.606228 18.996939 0.000000 0.200151
658.000000 76.403000 -3.000000 1.000000 -4.000000 59.866096 19.531789 593.192044 1603.903159 13.094610 0.000000 0.087665
659.000000 54.209000 -2.000000 1.000000 -2.000000 49.281101 29.214120 373.131326 2002.382942 9.228721 0.000000 0.219657
660.000000 76.192000 -3.000000 2.000000 -4.000000 62.903431 30.834788 332.513818 1582.340493 13.129572 0.000000 0.140516
661.000000 53.166000 -4.000000 3.000000 -4.000000 51.273048 37.972213 134.947033 2035.882355 18.818152 0.000000 0.285434
662.000000 72.031000 -3.000000 3.000000 -4.000000 63.900355 41.085626 36.564045 1640.539709 13.886995 0.000000 0.224513
671.000000 87.533000 -2.000000 -1.000000 -3.000000 49.279935 -8.153748 1129.209591 1876.875809 11.431663 0.000000 0.117536
672.000000 71.346000 -3.000000 1.000000 -3.000000 47.214162 22.979411 518.596564 2023.029638 14.024704 0.000000 0.200529
674.000000 71.670000 -3.000000 2.000000 -3.000000 50.747076 35.148763 217.198419 2016.582605 13.959921 0.000000 0.258850
#UB matrix in q= (UB) B0 G* 
#[[-0.300330134 -0.263990365  0.915369418]
# [-0.342411019  0.92648248   0.154846628]
# [-0.890256426 -0.267328907 -0.369116068]]
#B0 matrix in q= UB (B0) G*
#[[ 0.19670273 -0.          0.03056101]
# [ 0.          0.19187965 -0.        ]
# [ 0.          0.          0.18806537]]
#UBB0 matrix in q= (UB B0) G* i.e. recip. basis vectors are columns in LT frame: astar = UBB0[:,0], bstar = UBB0[:,1], cstar = UBB0[:,2]. (abcstar as columns on xyzlab1, xlab1 = ui, ui = unit vector along incident beam)
#[[-0.05907576 -0.05065438  0.1629709 ]
# [-0.06735318  0.17777314  0.01865686]
# [-0.17511587 -0.05129498 -0.09662508]]
#Euler angles phi theta psi (deg)
#[286.716 111.637  80.416]
#deviatoric strain in direct crystal frame (10-3 unit)
#[[  5.01   0.02  -0.89]
# [  0.02   5.12  -0.46]
# [ -0.89  -0.46 -10.13]]
#deviatoric strain in sample2 frame (10-3 unit)
#[[ 2.59 -1.06  5.57]
# [-1.06  4.69  2.21]
# [ 5.58  2.21 -7.28]]
#new lattice parameters
#[ 5.1505     5.2121536  5.3215945 90.0280707 99.2761554 89.9976092]
#CCDLabel
#sCMOS
#DetectorParameters
#[79.0, 975.0, 941.0, 0.0, 0.0]
#pixelsize
#0.0734
#Frame dimensions
#[2018, 2016]
#
