#Strain and Orientation Refinement from experimental file: /home/micha/LaueProjects/DepthEffects/testZrO2_185.cor
#File created at Wed Jun 28 14:29:19 2023 with indexingSpotsSet.py
#Number of indexed spots: 533
#Element
#ZrO2
#grainIndex
#G_0
#Mean Deviation(pixel): 0.114
##spot_index intensity h k l 2theta Chi Xexp Yexp Energy GrainIndex PixDev
3.000000 47.804000 2.000000 6.000000 -5.000000 53.001162 -30.517812 1609.436561 1882.426206 20.934395 0.000000 0.206670
4.000000 50.272000 3.000000 6.000000 -5.000000 57.742972 -38.196490 1821.853335 1805.334175 19.904466 0.000000 0.241823
5.000000 50.926000 4.000000 6.000000 -5.000000 61.346184 -45.639975 2075.610589 1782.184927 19.647257 0.000000 0.319459
8.000000 48.829000 2.000000 7.000000 -5.000000 60.207526 -27.893771 1544.718684 1638.216913 20.493465 0.000000 0.136416
9.000000 50.839000 3.000000 7.000000 -5.000000 64.653890 -35.144741 1732.688574 1564.482708 19.680944 0.000000 0.167805
10.000000 51.353000 4.000000 7.000000 -5.000000 68.052202 -42.279224 1953.639278 1527.194690 19.482344 0.000000 0.221316
11.000000 50.614000 5.000000 7.000000 -5.000000 70.432447 -49.090357 2217.085644 1525.185665 19.765211 0.000000 0.320589
15.000000 48.443000 2.000000 8.000000 -5.000000 66.096957 -25.571015 1490.004516 1469.813086 20.655026 0.000000 0.108820
16.000000 50.145000 3.000000 8.000000 -5.000000 70.312518 -32.410951 1658.325720 1397.162319 19.951942 0.000000 0.130479
17.000000 50.621000 4.000000 8.000000 -5.000000 73.576115 -39.223294 1853.533086 1350.530614 19.762637 0.000000 0.161443
18.000000 50.039000 5.000000 8.000000 -5.000000 75.896887 -45.821982 2082.627591 1329.021941 19.990743 0.000000 0.227930
21.000000 47.264000 2.000000 9.000000 -5.000000 70.952796 -23.506935 1443.140989 1346.218314 21.168713 0.000000 0.106276
22.000000 48.742000 3.000000 9.000000 -5.000000 74.977373 -29.958566 1595.361447 1274.393594 20.524740 0.000000 0.116623
23.000000 49.217000 4.000000 9.000000 -5.000000 78.144368 -36.447689 1769.896194 1221.880871 20.324790 0.000000 0.127676
24.000000 48.805000 5.000000 9.000000 -5.000000 80.446660 -42.810904 1972.039953 1187.919253 20.495202 0.000000 0.166149
25.000000 47.680000 6.000000 9.000000 -5.000000 81.945533 -48.902924 2208.906423 1172.702856 20.977752 0.000000 0.255715
27.000000 45.670000 2.000000 10.000000 -5.000000 74.995894 -21.665158 1402.551540 1251.402537 21.906002 0.000000 0.113534
28.000000 46.976000 3.000000 10.000000 -5.000000 78.854903 -27.753989 1541.361502 1180.605832 21.295244 0.000000 0.115491
29.000000 47.459000 4.000000 10.000000 -5.000000 81.944864 -33.926893 1698.973262 1124.572813 21.076657 0.000000 0.112049
30.000000 47.198000 2.000000 4.000000 -2.000000 84.247151 -40.042654 1879.484380 1082.635398 8.476769 0.000000 0.126352
31.000000 46.317000 6.000000 10.000000 -5.000000 85.800200 -45.967640 2088.276356 1054.707906 21.593732 0.000000 0.187119
32.000000 45.543000 4.000000 11.000000 -5.000000 85.128793 -31.635877 1638.070026 1048.735823 21.962312 0.000000 0.107795
39.000000 48.077000 0.000000 5.000000 -4.000000 42.832421 -15.102230 1265.451428 2143.505158 20.819562 0.000000 0.252616
40.000000 56.625000 1.000000 5.000000 -4.000000 50.771330 -24.175074 1458.143137 1904.173233 17.674619 0.000000 0.182301
41.000000 62.042000 2.000000 5.000000 -4.000000 57.411356 -33.625877 1690.789083 1767.278569 16.129032 0.000000 0.197585
42.000000 63.966000 3.000000 5.000000 -4.000000 62.365799 -42.959900 1977.253245 1710.974881 15.641887 0.000000 0.268125
45.000000 51.341000 0.000000 3.000000 -2.000000 52.129757 -13.216621 1227.771972 1800.747301 9.746985 0.000000 0.111339
46.000000 58.080000 1.000000 6.000000 -4.000000 59.449546 -21.496382 1398.885081 1623.755035 17.229848 0.000000 0.101574
47.000000 62.331000 1.000000 3.000000 -2.000000 65.581886 -30.214393 1601.780242 1506.457353 8.026345 0.000000 0.131210
48.000000 63.866000 3.000000 6.000000 -4.000000 70.210229 -38.988832 1846.218618 1439.248260 15.664963 0.000000 0.174301
49.000000 63.040000 2.000000 3.000000 -2.000000 73.290366 -47.423240 2146.414506 1418.552260 7.934321 0.000000 0.269610
51.000000 51.811000 0.000000 7.000000 -4.000000 59.466021 -11.612760 1196.181297 1589.112415 19.315323 0.000000 0.052500
52.000000 57.194000 1.000000 7.000000 -4.000000 66.241913 -19.206662 1349.945656 1442.686984 17.495093 0.000000 0.088886
53.000000 60.636000 2.000000 7.000000 -4.000000 71.964069 -27.260353 1529.574072 1335.242353 16.499666 0.000000 0.112892
54.000000 61.983000 3.000000 7.000000 -4.000000 76.367907 -35.481587 1742.191502 1261.545938 16.139415 0.000000 0.128648
55.000000 61.447000 4.000000 7.000000 -4.000000 79.385459 -43.540291 1997.804527 1219.256971 16.278706 0.000000 0.179273
56.000000 59.473000 5.000000 7.000000 -4.000000 81.130836 -51.143118 2310.922026 1208.701421 16.817955 0.000000 0.310724
58.000000 50.817000 0.000000 4.000000 -2.000000 65.344886 -10.233924 1169.313868 1443.005485 9.845679 0.000000 0.066269
59.000000 55.181000 1.000000 8.000000 -4.000000 71.643018 -17.232873 1308.845542 1314.924156 18.131623 0.000000 0.103196
60.000000 58.035000 1.000000 4.000000 -2.000000 77.017929 -24.690463 1469.823032 1214.094306 8.618976 0.000000 0.115942
61.000000 59.265000 3.000000 8.000000 -4.000000 81.246543 -32.383493 1657.602222 1137.243338 16.878350 0.000000 0.112471
62.000000 57.521000 5.000000 8.000000 -4.000000 86.080233 -47.405521 2145.687641 1049.964070 17.387404 0.000000 0.210848
64.000000 49.101000 0.000000 9.000000 -4.000000 70.130154 -9.037169 1146.184080 1334.861689 20.377713 0.000000 0.092909
65.000000 52.693000 1.000000 9.000000 -4.000000 76.007513 -15.517695 1273.840815 1219.346743 18.986610 0.000000 0.119433
66.000000 55.100000 2.000000 9.000000 -4.000000 81.079302 -22.442936 1419.560346 1123.785699 18.155031 0.000000 0.124533
67.000000 56.239000 3.000000 9.000000 -4.000000 85.156606 -29.642160 1587.468238 1045.932254 17.785542 0.000000 0.111533
68.000000 56.182000 4.000000 9.000000 -4.000000 88.152343 -36.898140 1783.049976 984.416113 17.802090 0.000000 0.099700
69.000000 55.118000 5.000000 9.000000 -4.000000 90.088936 -43.983366 2013.761620 938.678168 18.144442 0.000000 0.144256
70.000000 53.295000 6.000000 9.000000 -4.000000 91.078261 -50.700584 2290.001997 909.016642 18.764278 0.000000 0.269520
72.000000 47.071000 0.000000 5.000000 -2.000000 74.083242 -7.989529 1126.062715 1250.939291 10.627590 0.000000 0.113744
73.000000 50.067000 1.000000 10.000000 -4.000000 79.588518 -14.015977 1243.669112 1144.828249 19.980981 0.000000 0.132468
74.000000 52.126000 1.000000 5.000000 -2.000000 84.390561 -20.466469 1376.692164 1053.832960 9.594860 0.000000 0.133065
75.000000 53.183000 3.000000 10.000000 -4.000000 88.328828 -27.209927 1528.375873 976.309075 18.806395 0.000000 0.116382
76.000000 53.280000 2.000000 5.000000 -2.000000 91.316558 -34.072141 1702.943045 911.137929 9.385385 0.000000 0.091148
77.000000 52.540000 5.000000 10.000000 -4.000000 93.350718 -40.859806 1905.994567 857.681700 19.033910 0.000000 0.100969
78.000000 51.136000 3.000000 5.000000 -2.000000 94.503088 -47.391713 2145.121500 815.790587 9.777828 0.000000 0.190219
81.000000 47.477000 1.000000 11.000000 -4.000000 82.568036 -12.691932 1217.394142 1084.913286 21.069717 0.000000 0.142253
82.000000 49.258000 2.000000 11.000000 -4.000000 87.127096 -18.718768 1339.698505 998.028959 20.305894 0.000000 0.140193
83.000000 50.239000 3.000000 11.000000 -4.000000 90.933586 -25.044743 1477.907883 921.640956 19.907626 0.000000 0.122565
84.000000 50.442000 4.000000 11.000000 -4.000000 93.904475 -31.530432 1635.340580 854.817373 19.825970 0.000000 0.092635
85.000000 49.949000 5.000000 11.000000 -4.000000 96.020607 -38.013673 1816.306966 796.921184 20.020345 0.000000 0.076261
86.000000 48.882000 6.000000 11.000000 -4.000000 97.324081 -44.332664 2026.510176 747.602332 20.456822 0.000000 0.133058
87.000000 47.375000 7.000000 11.000000 -4.000000 97.904471 -50.348938 2273.658074 706.818301 21.106812 0.000000 0.255461
89.000000 46.562000 1.000000 6.000000 -2.000000 89.417025 -17.165042 1307.449264 952.462036 10.740424 0.000000 0.145831
90.000000 47.471000 3.000000 12.000000 -4.000000 93.097046 -23.110188 1434.304620 877.684694 21.067795 0.000000 0.128442
91.000000 47.744000 1.000000 3.000000 -1.000000 96.041151 -29.240797 1577.526684 810.461335 5.236389 0.000000 0.098168
92.000000 47.437000 5.000000 12.000000 -4.000000 98.220623 -35.421880 1740.501288 750.190589 21.079908 0.000000 0.067000
93.000000 46.635000 3.000000 6.000000 -2.000000 99.656246 -41.511722 1927.617356 696.443902 10.720902 0.000000 0.091924
99.000000 66.124000 0.000000 4.000000 -3.000000 46.187411 -14.438169 1252.109798 2007.258490 15.137012 0.000000 0.195073
100.000000 79.327000 1.000000 4.000000 -3.000000 56.228626 -26.276450 1506.387435 1743.679903 12.615293 0.000000 0.148226
101.000000 85.290000 2.000000 4.000000 -3.000000 63.776554 -38.566438 1833.162675 1619.039718 11.731246 0.000000 0.204079
104.000000 55.941000 -1.000000 5.000000 -3.000000 46.991243 -2.780191 1027.266570 1946.151349 17.892560 0.000000 0.160293
105.000000 69.157000 0.000000 5.000000 -3.000000 57.204148 -12.119904 1206.128615 1650.324636 14.471162 0.000000 0.062698
106.000000 78.853000 1.000000 5.000000 -3.000000 66.243838 -22.650954 1424.141493 1454.311706 12.689359 0.000000 0.098642
107.000000 83.359000 2.000000 5.000000 -3.000000 73.146676 -33.808205 1695.739442 1333.398391 12.001490 0.000000 0.129939
108.000000 82.808000 3.000000 5.000000 -3.000000 77.506386 -44.790349 2043.446427 1277.038330 12.079846 0.000000 0.204455
110.000000 46.483000 -2.000000 6.000000 -3.000000 46.526570 5.339859 874.399953 1965.864693 21.533521 0.000000 0.171712
111.000000 57.700000 -1.000000 6.000000 -3.000000 56.069001 -1.853440 1009.828801 1665.464309 17.345059 0.000000 0.035127
112.000000 75.082000 1.000000 6.000000 -3.000000 73.550831 -19.677368 1359.889574 1278.482268 13.325288 0.000000 0.109995
113.000000 78.709000 2.000000 6.000000 -3.000000 79.972535 -29.809204 1591.629171 1160.332596 12.709168 0.000000 0.114188
114.000000 75.763000 4.000000 6.000000 -3.000000 86.458224 -49.756119 2246.645507 1044.115064 13.200816 0.000000 0.258013
116.000000 47.944000 -2.000000 7.000000 -3.000000 54.299292 5.494729 871.464573 1717.986301 20.875093 0.000000 0.062891
117.000000 56.828000 -1.000000 7.000000 -3.000000 63.084822 -1.081378 995.315963 1487.491137 17.609311 0.000000 0.037740
118.000000 64.595000 0.000000 7.000000 -3.000000 71.529728 -8.672784 1139.172987 1304.660419 15.489698 0.000000 0.100567
119.000000 70.281000 1.000000 7.000000 -3.000000 79.033519 -17.206803 1308.308775 1159.328738 14.234248 0.000000 0.127503
120.000000 73.297000 2.000000 7.000000 -3.000000 85.056092 -26.432068 1510.028167 1044.970704 13.646457 0.000000 0.119293
121.000000 73.619000 3.000000 7.000000 -3.000000 89.280346 -35.922468 1754.750523 957.694408 13.585200 0.000000 0.095249
122.000000 71.707000 4.000000 7.000000 -3.000000 91.695110 -45.174432 2057.867669 895.817075 13.946509 0.000000 0.156756
124.000000 47.675000 -2.000000 8.000000 -3.000000 60.543368 5.627114 868.954161 1551.806444 20.991125 0.000000 0.026633
125.000000 54.765000 -1.000000 8.000000 -3.000000 68.628365 -0.428479 983.049077 1362.192348 18.271059 0.000000 0.080796
126.000000 60.875000 0.000000 8.000000 -3.000000 76.351997 -7.361036 1114.042013 1204.509391 16.434697 0.000000 0.124410
127.000000 65.396000 1.000000 8.000000 -3.000000 83.258113 -15.128813 1265.987219 1072.801325 15.296417 0.000000 0.140698
128.000000 67.951000 2.000000 8.000000 -3.000000 88.930713 -23.560974 1444.348632 962.915756 14.719184 0.000000 0.128029
129.000000 68.500000 3.000000 8.000000 -3.000000 93.097448 -32.348122 1656.670910 872.059344 14.599624 0.000000 0.091459
130.000000 67.303000 4.000000 8.000000 -3.000000 95.695334 -41.092827 1913.674094 798.572426 14.858291 0.000000 0.096195
131.000000 64.793000 5.000000 8.000000 -3.000000 96.863638 -49.408713 2231.120612 741.889605 15.433121 0.000000 0.232189
133.000000 46.502000 -2.000000 9.000000 -3.000000 65.641138 5.741579 866.782660 1430.754229 21.518590 0.000000 0.060602
134.000000 52.228000 -1.000000 9.000000 -3.000000 73.098043 0.130731 972.544225 1268.044212 19.156941 0.000000 0.108531
135.000000 57.125000 0.000000 3.000000 -1.000000 80.198961 -6.244440 1092.767698 1128.038120 5.837417 0.000000 0.140007
136.000000 60.794000 1.000000 9.000000 -3.000000 86.591328 -13.361084 1230.637066 1006.890607 16.453138 0.000000 0.149763
137.000000 62.987000 2.000000 9.000000 -3.000000 91.949262 -21.101743 1390.345006 901.736287 15.878480 0.000000 0.135775
138.000000 62.960000 4.000000 9.000000 -3.000000 98.779470 -37.468788 1799.938495 731.566389 15.882422 0.000000 0.065478
139.000000 61.165000 5.000000 9.000000 -3.000000 100.229664 -45.455894 2068.559864 664.103574 16.347801 0.000000 0.150015
141.000000 49.573000 -1.000000 10.000000 -3.000000 76.766971 0.614982 963.447196 1194.111793 20.181613 0.000000 0.126989
142.000000 53.566000 0.000000 10.000000 -3.000000 83.329361 -5.283148 1074.525530 1067.413424 18.674775 0.000000 0.150302
143.000000 56.597000 1.000000 10.000000 -3.000000 89.276148 -11.841681 1200.666851 954.893877 17.672308 0.000000 0.155879
144.000000 58.497000 2.000000 10.000000 -3.000000 94.348087 -18.979064 1345.157984 854.460014 17.096463 0.000000 0.141820
145.000000 59.225000 3.000000 10.000000 -3.000000 98.349008 -26.529688 1512.317037 764.455750 16.884688 0.000000 0.106815
146.000000 58.867000 4.000000 10.000000 -3.000000 101.182874 -34.253986 1707.932294 683.571476 16.986089 0.000000 0.059168
147.000000 57.600000 5.000000 10.000000 -3.000000 102.867903 -41.877652 1939.946122 610.783699 17.358838 0.000000 0.093646
148.000000 55.645000 6.000000 10.000000 -3.000000 103.521551 -49.146777 2219.559788 545.319994 17.968236 0.000000 0.231700
150.000000 46.971000 -1.000000 11.000000 -3.000000 79.826170 1.038341 955.492755 1134.180146 21.298179 0.000000 0.139606
151.000000 50.278000 0.000000 11.000000 -3.000000 85.920626 -4.447311 1058.710390 1017.992118 19.895029 0.000000 0.157179
152.000000 52.821000 1.000000 11.000000 -3.000000 91.477788 -10.523462 1174.935263 912.758760 18.934880 0.000000 0.159982
153.000000 54.481000 2.000000 11.000000 -3.000000 96.288528 -17.133067 1306.791421 816.886356 18.356065 0.000000 0.146356
154.000000 55.223000 3.000000 11.000000 -3.000000 100.186729 -24.153648 1457.659626 729.045094 18.107850 0.000000 0.114705
155.000000 55.097000 4.000000 11.000000 -3.000000 103.076694 -31.399941 1631.971314 648.106015 18.148123 0.000000 0.066200
156.000000 54.217000 5.000000 11.000000 -3.000000 104.947703 -38.647332 1835.651145 573.089969 18.441630 0.000000 0.055837
157.000000 52.737000 6.000000 11.000000 -3.000000 105.869856 -45.671008 2076.803805 503.123200 18.958639 0.000000 0.160351
159.000000 47.279000 0.000000 4.000000 -1.000000 88.097550 -3.714170 1044.868135 976.825673 7.052097 0.000000 0.161801
160.000000 49.441000 1.000000 12.000000 -3.000000 93.311472 -9.370108 1152.602496 877.882888 20.228838 0.000000 0.162709
161.000000 50.902000 2.000000 12.000000 -3.000000 97.883044 -15.516146 1273.809473 786.339886 19.646249 0.000000 0.149711
162.000000 51.633000 1.000000 4.000000 -1.000000 101.671292 -22.061010 1411.184830 701.108750 6.455512 0.000000 0.121285
163.000000 51.662000 4.000000 12.000000 -3.000000 104.585395 -28.861166 1568.194931 621.220014 19.354256 0.000000 0.076568
164.000000 51.065000 5.000000 12.000000 -3.000000 106.597806 -35.734298 1749.373280 545.781422 19.579296 0.000000 0.035938
165.000000 49.950000 2.000000 4.000000 -1.000000 107.745499 -42.486206 1960.765424 473.936482 6.671966 0.000000 0.107764
166.000000 48.434000 7.000000 12.000000 -3.000000 108.118667 -48.942233 2210.616666 404.817232 20.641898 0.000000 0.239489
168.000000 46.417000 1.000000 13.000000 -3.000000 94.859491 -8.353291 1133.036859 848.514365 21.546226 0.000000 0.164486
169.000000 47.711000 2.000000 13.000000 -3.000000 99.211667 -14.090308 1245.152903 761.038990 20.959566 0.000000 0.152173
170.000000 48.417000 3.000000 13.000000 -3.000000 102.886456 -20.208623 1371.183118 678.611061 20.652410 0.000000 0.126613
171.000000 48.550000 4.000000 13.000000 -3.000000 105.799974 -26.596640 1513.889095 600.397560 20.594519 0.000000 0.086478
172.000000 48.161000 5.000000 13.000000 -3.000000 107.915641 -33.107008 1676.815005 525.603021 20.759863 0.000000 0.035949
173.000000 47.324000 6.000000 13.000000 -3.000000 109.247844 -39.574640 1864.585937 453.434314 21.125915 0.000000 0.068225
174.000000 46.129000 7.000000 13.000000 -3.000000 109.856671 -45.840755 2083.353997 383.058453 21.673081 0.000000 0.175739
175.000000 45.534000 3.000000 14.000000 -3.000000 103.893106 -18.560642 1336.390165 660.175050 21.959564 0.000000 0.130887
176.000000 45.735000 4.000000 14.000000 -3.000000 106.787497 -24.570247 1467.090099 583.976120 21.861738 0.000000 0.095042
177.000000 45.498000 5.000000 14.000000 -3.000000 108.974958 -30.734942 1614.944884 510.454111 21.974605 0.000000 0.046296
180.000000 78.202000 -1.000000 4.000000 -2.000000 51.284941 1.891214 939.460858 1804.209047 12.798701 0.000000 0.095866
181.000000 59.694000 -2.000000 5.000000 -2.000000 49.258270 10.974393 766.288742 1885.394556 16.766957 0.000000 0.142618
182.000000 78.008000 -1.000000 5.000000 -2.000000 61.812222 2.527361 927.493022 1518.369974 12.828587 0.000000 0.027253
183.000000 47.126000 -3.000000 6.000000 -2.000000 47.368932 16.765077 650.763291 1975.763035 21.238492 0.000000 0.191063
184.000000 60.601000 -1.000000 3.000000 -1.000000 58.148161 10.628565 773.021573 1621.352070 8.257017 0.000000 0.051036
185.000000 74.161000 -1.000000 6.000000 -2.000000 69.392777 3.030257 918.023853 1346.273957 13.492303 0.000000 0.085814
186.000000 48.451000 -3.000000 7.000000 -2.000000 55.071793 16.027829 665.811765 1723.020219 20.656131 0.000000 0.098019
187.000000 59.062000 -2.000000 7.000000 -2.000000 64.969241 10.342443 778.580457 1451.888638 16.942470 0.000000 0.062204
188.000000 69.289000 -1.000000 7.000000 -2.000000 75.065102 3.437743 910.344803 1228.599367 14.439422 0.000000 0.118424
189.000000 77.829000 0.000000 7.000000 -2.000000 84.683600 -4.851110 1066.345895 1041.515603 12.852605 0.000000 0.154083
190.000000 83.512000 1.000000 7.000000 -2.000000 93.012276 -14.529913 1253.948211 882.491276 11.975925 0.000000 0.153548
191.000000 85.756000 2.000000 7.000000 -2.000000 99.318395 -25.303227 1483.836135 745.653370 11.660788 0.000000 0.110913
192.000000 84.755000 3.000000 7.000000 -2.000000 103.208173 -36.524295 1772.122348 626.660669 11.797353 0.000000 0.048557
193.000000 81.269000 4.000000 7.000000 -2.000000 104.761966 -47.371583 2144.296767 522.234714 12.302675 0.000000 0.193196
195.000000 48.086000 -3.000000 8.000000 -2.000000 61.260970 15.396608 678.607718 1553.177564 20.810648 0.000000 0.067196
196.000000 56.502000 -1.000000 4.000000 -1.000000 70.332907 10.101805 783.247809 1331.729108 8.854291 0.000000 0.092536
197.000000 64.386000 -1.000000 8.000000 -2.000000 79.448770 3.774587 903.992084 1141.910746 15.537640 0.000000 0.137496
198.000000 75.393000 1.000000 8.000000 -2.000000 95.687321 -12.386294 1211.368746 831.257687 13.264820 0.000000 0.158040
199.000000 77.154000 3.000000 8.000000 -2.000000 105.703437 -32.300846 1655.427232 582.998310 12.959209 0.000000 0.050392
201.000000 46.845000 -3.000000 9.000000 -2.000000 66.313597 14.850202 689.621685 1429.470876 21.360314 0.000000 0.076894
202.000000 53.598000 -2.000000 9.000000 -2.000000 74.643448 9.896611 787.222183 1241.047803 18.666562 0.000000 0.114443
203.000000 59.808000 -1.000000 9.000000 -2.000000 82.928378 4.057675 898.649387 1074.853748 16.725918 0.000000 0.149112
204.000000 64.941000 0.000000 9.000000 -2.000000 90.775927 -2.769509 1027.065448 926.406374 15.401584 0.000000 0.166036
205.000000 68.552000 1.000000 9.000000 -2.000000 97.743032 -10.613029 1176.676336 792.109096 14.588002 0.000000 0.160580
206.000000 70.405000 2.000000 9.000000 -2.000000 103.412728 -19.361071 1353.201272 668.953104 14.202418 0.000000 0.128869
207.000000 70.514000 3.000000 9.000000 -2.000000 107.490741 -28.715015 1564.620558 554.277956 14.179039 0.000000 0.066741
208.000000 69.116000 4.000000 9.000000 -2.000000 109.884104 -38.214970 1822.415520 445.546627 14.464901 0.000000 0.052274
209.000000 66.574000 5.000000 9.000000 -2.000000 110.717446 -47.357618 2143.724925 340.084609 15.016884 0.000000 0.212039
211.000000 50.670000 -1.000000 5.000000 -1.000000 78.173878 9.719571 790.647247 1169.643732 9.871992 0.000000 0.129452
212.000000 55.657000 -1.000000 10.000000 -2.000000 85.752428 4.298912 894.093573 1021.162143 17.972190 0.000000 0.156365
213.000000 59.784000 0.000000 5.000000 -1.000000 92.929449 -1.972558 1012.068911 885.889999 8.364673 0.000000 0.168270
214.000000 62.758000 1.000000 10.000000 -2.000000 99.365417 -9.124441 1147.865340 761.213026 15.934510 0.000000 0.161930
215.000000 64.416000 1.000000 5.000000 -1.000000 104.736158 -17.087327 1305.850786 644.840315 7.761227 0.000000 0.134313
216.000000 64.754000 3.000000 10.000000 -2.000000 108.794700 -25.655124 1491.947603 534.651321 15.440025 0.000000 0.081615
217.000000 63.908000 2.000000 5.000000 -1.000000 111.427516 -34.488248 1714.391569 428.539691 7.821740 0.000000 0.019477
218.000000 62.107000 5.000000 10.000000 -2.000000 112.679076 -43.179516 1984.983749 324.223139 16.096483 0.000000 0.136365
220.000000 47.863000 -2.000000 11.000000 -2.000000 81.113112 9.565266 793.629522 1111.663600 20.900800 0.000000 0.139816
221.000000 51.939000 -1.000000 11.000000 -2.000000 88.087473 4.506935 890.162726 977.051412 19.258001 0.000000 0.160940
222.000000 55.321000 0.000000 11.000000 -2.000000 94.696453 -1.291433 999.263514 852.557124 18.078281 0.000000 0.169317
223.000000 57.811000 1.000000 11.000000 -2.000000 100.674512 -7.858675 1123.557010 736.204557 17.297603 0.000000 0.162542
224.000000 59.294000 2.000000 11.000000 -2.000000 105.765238 -15.151976 1266.454177 626.200880 16.863217 0.000000 0.138231
225.000000 59.756000 3.000000 11.000000 -2.000000 109.762113 -23.027502 1432.469645 520.833975 16.731279 0.000000 0.093308
226.000000 59.278000 4.000000 11.000000 -2.000000 112.548503 -31.234278 1627.707386 418.362360 16.865045 0.000000 0.025024
227.000000 58.009000 5.000000 11.000000 -2.000000 114.121702 -39.449220 1860.627608 316.878649 17.233493 0.000000 0.082794
228.000000 56.129000 6.000000 11.000000 -2.000000 114.588368 -47.347360 2143.305119 214.115969 17.810249 0.000000 0.230912
230.000000 48.620000 -1.000000 12.000000 -2.000000 90.048808 4.688155 886.736502 940.080072 20.571972 0.000000 0.163814
231.000000 51.438000 0.000000 6.000000 -1.000000 96.171150 -0.702750 988.201730 824.616580 9.721282 0.000000 0.169639
232.000000 53.552000 1.000000 12.000000 -2.000000 101.750700 -6.770185 1102.772316 715.544643 18.672911 0.000000 0.162691
233.000000 54.879000 1.000000 6.000000 -1.000000 106.581512 -13.488282 1233.162604 611.430559 9.109734 0.000000 0.141069
234.000000 55.404000 3.000000 12.000000 -2.000000 110.490668 -20.755618 1382.892115 510.874940 18.045443 0.000000 0.102338
235.000000 55.174000 2.000000 6.000000 -1.000000 113.366822 -28.385905 1556.608009 412.433772 9.059769 0.000000 0.043230
236.000000 54.286000 5.000000 12.000000 -2.000000 115.180851 -36.125318 1760.576024 314.519981 18.414962 0.000000 0.043481
237.000000 52.868000 3.000000 6.000000 -1.000000 115.989515 -43.697863 2003.452366 215.266728 9.454324 0.000000 0.162721
239.000000 45.656000 -1.000000 13.000000 -2.000000 91.718535 4.847438 883.723588 908.591929 21.906711 0.000000 0.165573
240.000000 48.037000 0.000000 13.000000 -2.000000 97.419746 -0.188988 978.550139 800.835811 20.818326 0.000000 0.169517
241.000000 49.854000 1.000000 13.000000 -2.000000 102.649566 -5.824810 1084.796876 698.188244 20.057475 0.000000 0.162547
242.000000 51.046000 2.000000 13.000000 -2.000000 107.240308 -12.045100 1204.659027 599.482377 19.587594 0.000000 0.143137
243.000000 51.595000 3.000000 13.000000 -2.000000 111.046621 -18.777695 1340.932973 503.561370 19.377365 0.000000 0.109349
244.000000 51.532000 4.000000 13.000000 -2.000000 113.966046 -25.883487 1497.237146 409.220808 19.399810 0.000000 0.058528
245.000000 50.922000 5.000000 13.000000 -2.000000 115.955780 -33.163861 1678.338061 315.136970 19.631562 0.000000 0.013812
246.000000 49.852000 6.000000 13.000000 -2.000000 117.039483 -40.389090 1890.644897 219.769202 20.052283 0.000000 0.112158
249.000000 46.619000 1.000000 14.000000 -2.000000 103.410628 -4.996495 1069.097196 683.400682 21.449221 0.000000 0.162220
250.000000 47.691000 1.000000 7.000000 -1.000000 107.780141 -10.782828 1179.979825 589.647456 10.482512 0.000000 0.144649
251.000000 48.244000 3.000000 14.000000 -2.000000 111.475763 -17.044063 1304.961481 498.110368 20.723331 0.000000 0.114853
252.000000 48.294000 2.000000 7.000000 -1.000000 114.405038 -23.675611 1446.913828 407.777755 10.350321 0.000000 0.070742
253.000000 47.885000 5.000000 14.000000 -2.000000 116.519138 -30.522104 1609.545194 317.539670 20.876403 0.000000 0.009356
254.000000 47.080000 3.000000 7.000000 -1.000000 117.820345 -37.394628 1797.729211 226.117133 10.616276 0.000000 0.073632
255.000000 45.953000 7.000000 14.000000 -2.000000 118.360517 -44.099996 2018.001578 131.961342 21.753155 0.000000 0.184786
258.000000 79.709000 -2.000000 4.000000 -1.000000 52.600747 19.821619 587.051406 1815.689715 12.555876 0.000000 0.141369
259.000000 57.788000 -3.000000 5.000000 -1.000000 49.014548 24.738573 479.081795 1970.620361 17.319213 0.000000 0.212410
260.000000 79.076000 -2.000000 5.000000 -1.000000 62.976483 18.360760 617.783052 1519.401167 12.654507 0.000000 0.079652
261.000000 59.099000 -3.000000 6.000000 -1.000000 57.901693 23.150932 514.790333 1675.240452 16.933016 0.000000 0.119514
262.000000 74.966000 -2.000000 6.000000 -1.000000 70.445648 17.202495 641.779913 1341.187404 13.346659 0.000000 0.096041
263.000000 90.473000 -1.000000 6.000000 -1.000000 83.595065 9.429582 796.249659 1063.474532 11.056533 0.000000 0.147063
264.000000 46.493000 -4.000000 7.000000 -1.000000 54.304371 26.238110 444.508034 1803.098108 21.524958 0.000000 0.166578
265.000000 57.934000 -3.000000 7.000000 -1.000000 64.771367 21.822778 544.016593 1487.269454 17.271945 0.000000 0.093381
266.000000 69.921000 -2.000000 7.000000 -1.000000 76.029659 16.262344 661.037236 1219.918260 14.308307 0.000000 0.116688
267.000000 81.162000 -1.000000 7.000000 -1.000000 87.550342 9.202052 800.638799 987.644887 12.324130 0.000000 0.155816
268.000000 90.082000 0.000000 7.000000 -1.000000 98.490037 0.263229 970.055234 780.336378 11.101450 0.000000 0.169118
270.000000 46.499000 -4.000000 8.000000 -1.000000 60.552709 24.922043 474.897448 1611.022808 21.520576 0.000000 0.117421
271.000000 55.665000 -3.000000 8.000000 -1.000000 70.196349 20.696435 568.378815 1355.303944 17.974434 0.000000 0.098469
272.000000 64.896000 -2.000000 8.000000 -1.000000 80.340171 15.484389 676.832955 1131.097711 15.414978 0.000000 0.131007
273.000000 73.333000 -1.000000 8.000000 -1.000000 90.556757 9.018770 804.170284 930.410136 13.639052 0.000000 0.160223
274.000000 80.028000 0.000000 8.000000 -1.000000 100.228294 1.022375 955.792763 746.764411 12.495694 0.000000 0.167883
275.000000 84.230000 1.000000 8.000000 -1.000000 108.605187 -8.683554 1139.380021 574.477129 11.870381 0.000000 0.146563
276.000000 85.631000 2.000000 8.000000 -1.000000 114.958168 -19.976124 1366.231229 408.004436 11.674660 0.000000 0.088461
277.000000 84.434000 3.000000 8.000000 -1.000000 118.810839 -32.234434 1653.682370 241.174938 11.839132 0.000000 0.020390
278.000000 81.211000 4.000000 8.000000 -1.000000 120.140640 -44.421029 2029.759358 66.017533 12.308584 0.000000 0.203028
279.000000 45.574000 -4.000000 9.000000 -1.000000 65.684768 23.772398 500.916899 1472.396927 21.955784 0.000000 0.100613
280.000000 52.977000 -3.000000 9.000000 -1.000000 74.566101 19.729857 588.997978 1256.677997 18.885040 0.000000 0.110158
281.000000 60.228000 -2.000000 9.000000 -1.000000 83.757551 14.830217 690.023463 1062.786741 16.608623 0.000000 0.140420
282.000000 66.749000 -1.000000 9.000000 -1.000000 92.916121 8.867974 807.073122 885.510359 14.983496 0.000000 0.162352
283.000000 71.946000 0.000000 9.000000 -1.000000 101.578453 1.634495 944.287878 720.400530 13.899019 0.000000 0.166411
284.000000 75.355000 1.000000 9.000000 -1.000000 109.199432 -7.011411 1107.369920 563.382756 13.268270 0.000000 0.147559
285.000000 76.771000 2.000000 9.000000 -1.000000 115.240476 -17.016498 1304.395090 410.374868 13.022013 0.000000 0.100344
286.000000 76.282000 3.000000 9.000000 -1.000000 119.304894 -27.996499 1547.191451 256.826399 13.104415 0.000000 0.018011
287.000000 74.208000 4.000000 9.000000 -1.000000 121.273910 -39.231977 1853.804891 97.037741 13.469956 0.000000 0.121693
289.000000 50.206000 -3.000000 10.000000 -1.000000 78.148640 18.891753 606.675179 1179.715836 19.925879 0.000000 0.120793
290.000000 56.010000 -2.000000 10.000000 -1.000000 86.527736 14.272597 701.204179 1008.385972 17.858529 0.000000 0.146610
291.000000 61.177000 -1.000000 10.000000 -1.000000 94.815500 8.741732 809.501455 849.262135 16.347590 0.000000 0.163228
292.000000 65.320000 0.000000 10.000000 -1.000000 102.656787 2.138423 934.811327 699.131004 15.308541 0.000000 0.164907
293.000000 68.139000 1.000000 10.000000 -1.000000 109.643234 -5.650231 1081.484317 554.957879 14.673153 0.000000 0.148031
294.000000 69.493000 2.000000 10.000000 -1.000000 115.367135 -14.606923 1255.492546 413.649606 14.385747 0.000000 0.108645
295.000000 69.417000 3.000000 10.000000 -1.000000 119.503631 -24.489744 1465.262912 271.764504 14.400434 0.000000 0.041595
296.000000 68.095000 4.000000 10.000000 -1.000000 121.901276 -34.801393 1723.082809 125.096192 14.679053 0.000000 0.068033
298.000000 47.514000 -3.000000 11.000000 -1.000000 81.131846 18.158402 621.998131 1117.731850 21.053620 0.000000 0.129187
299.000000 52.239000 -2.000000 11.000000 -1.000000 88.815570 13.791708 710.801924 963.913151 19.146920 0.000000 0.150706
300.000000 56.420000 -1.000000 11.000000 -1.000000 96.376646 8.634500 811.562837 819.339575 17.725425 0.000000 0.163396
301.000000 59.796000 0.000000 11.000000 -1.000000 103.537523 2.560453 926.870166 681.600021 16.722482 0.000000 0.163458
302.000000 62.165000 1.000000 11.000000 -1.000000 109.984604 -4.521838 1060.118981 548.366290 16.083111 0.000000 0.148194
303.000000 63.427000 2.000000 11.000000 -1.000000 115.402529 -12.613675 1215.850009 417.238516 15.761556 0.000000 0.114648
304.000000 63.592000 3.000000 11.000000 -1.000000 119.526016 -21.560520 1400.277407 285.555152 15.719433 0.000000 0.059036
305.000000 62.771000 4.000000 11.000000 -1.000000 122.200398 -31.017013 1622.137893 150.127422 15.924298 0.000000 0.032129
306.000000 61.140000 5.000000 11.000000 -1.000000 123.426218 -40.496096 1894.115335 6.826860 16.348542 0.000000 0.156779
308.000000 48.878000 -2.000000 12.000000 -1.000000 90.735129 13.372788 719.130651 926.805052 20.462796 0.000000 0.153422
309.000000 52.322000 -1.000000 12.000000 -1.000000 97.682053 8.542285 813.334602 794.194002 19.113245 0.000000 0.163156
310.000000 55.123000 0.000000 12.000000 -1.000000 104.270212 2.919013 920.119211 666.896221 18.139685 0.000000 0.162097
311.000000 57.142000 1.000000 12.000000 -1.000000 110.253677 -3.571910 1042.184963 543.082608 17.496867 0.000000 0.148172
312.000000 58.304000 2.000000 12.000000 -1.000000 115.383888 -10.941223 1183.064800 420.853760 17.146521 0.000000 0.119112
313.000000 58.609000 3.000000 12.000000 -1.000000 119.443466 -19.089131 1347.471669 298.111307 17.056064 0.000000 0.072083
314.000000 58.123000 4.000000 12.000000 -1.000000 122.287208 -27.773770 1541.836064 172.382195 17.197579 0.000000 0.016122
315.000000 56.964000 5.000000 12.000000 -1.000000 123.877320 -36.628817 1775.166869 40.556714 17.547008 0.000000 0.104523
317.000000 45.880000 -2.000000 13.000000 -1.000000 92.367600 13.004622 726.426436 895.328189 21.798983 0.000000 0.155207
318.000000 48.761000 -1.000000 13.000000 -1.000000 98.789526 8.462139 814.873778 772.750634 20.508547 0.000000 0.162684
319.000000 51.122000 0.000000 13.000000 -1.000000 104.889166 3.227397 914.309538 654.383564 19.559363 0.000000 0.160836
320.000000 52.862000 1.000000 13.000000 -1.000000 110.470162 -2.761630 1026.917093 538.761639 18.913540 0.000000 0.148039
321.000000 53.926000 2.000000 13.000000 -1.000000 115.333352 -9.520164 1155.499294 424.355797 18.538593 0.000000 0.122512
322.000000 54.309000 3.000000 13.000000 -1.000000 119.299492 -16.983385 1303.714936 309.483629 18.406517 0.000000 0.082080
323.000000 54.052000 4.000000 13.000000 -1.000000 122.237464 -24.980243 1476.432504 192.189435 18.493040 0.000000 0.026757
324.000000 53.232000 5.000000 13.000000 -1.000000 124.091081 -33.236063 1680.275164 70.071376 18.777018 0.000000 0.066649
325.000000 51.950000 6.000000 13.000000 -1.000000 124.893024 -41.418222 1924.489562 -59.983845 19.239950 0.000000 0.183297
327.000000 45.642000 -1.000000 14.000000 -1.000000 99.740738 8.391838 816.223345 754.238300 21.909601 0.000000 0.162081
328.000000 47.658000 0.000000 14.000000 -1.000000 105.418882 3.495434 909.257114 643.604256 20.980966 0.000000 0.159675
329.000000 49.173000 1.000000 14.000000 -1.000000 110.647404 -2.062575 1013.761965 535.168033 20.332502 0.000000 0.147840
330.000000 50.146000 2.000000 14.000000 -1.000000 115.264395 -8.299193 1131.998869 427.680504 19.936293 0.000000 0.125153
331.000000 50.569000 3.000000 14.000000 -1.000000 119.120942 -15.172338 1266.864767 319.772774 19.768008 0.000000 0.089909
332.000000 50.468000 4.000000 14.000000 -1.000000 122.100895 -22.559835 1422.133094 209.872079 19.806353 0.000000 0.041030
333.000000 49.896000 5.000000 14.000000 -1.000000 124.140945 -30.255407 1602.812394 96.084008 20.032602 0.000000 0.039389
334.000000 48.924000 6.000000 14.000000 -1.000000 125.244096 -37.993502 1815.696700 -23.981673 20.430227 0.000000 0.133218
336.000000 45.961000 1.000000 15.000000 -1.000000 110.794712 -1.453486 1002.309421 532.136258 21.753294 0.000000 0.147603
337.000000 46.850000 2.000000 15.000000 -1.000000 115.185350 -7.239739 1111.726060 430.802927 21.338524 0.000000 0.127239
338.000000 47.291000 3.000000 15.000000 -1.000000 118.924541 -13.601136 1235.405573 329.091863 21.138453 0.000000 0.096156
339.000000 47.297000 4.000000 15.000000 -1.000000 121.910324 -20.449602 1376.331229 225.719652 21.134244 0.000000 0.053192
340.000000 46.907000 5.000000 15.000000 -1.000000 124.078466 -27.629575 1538.380640 119.165294 21.309203 0.000000 0.022849
341.000000 46.171000 6.000000 15.000000 -1.000000 125.414192 -34.930596 1726.688051 7.551983 21.648481 0.000000 0.095297
343.000000 107.958000 -2.000000 3.000000 0.000000 55.624443 34.615302 232.089980 1835.645875 9.269354 0.000000 0.226743
344.000000 175.060000 -1.000000 3.000000 0.000000 82.615651 25.345131 465.200435 1095.343510 5.714022 0.000000 0.118168
345.000000 70.281000 -3.000000 4.000000 0.000000 49.892388 36.216981 186.781709 2064.679880 14.239471 0.000000 0.304246
346.000000 105.095000 -2.000000 4.000000 0.000000 68.367006 30.671354 336.670838 1437.277728 9.520228 0.000000 0.126226
347.000000 144.120000 -1.000000 4.000000 0.000000 90.115710 21.953124 541.172837 938.656478 6.939818 0.000000 0.131069
348.000000 174.466000 0.000000 4.000000 0.000000 112.208281 7.317767 836.784275 497.982590 5.730470 0.000000 0.137609
349.000000 183.306000 1.000000 4.000000 0.000000 128.398425 -16.892133 1301.841792 49.523734 5.452614 0.000000 0.037506
352.000000 72.177000 -3.000000 5.000000 0.000000 60.519870 33.170146 271.493441 1667.892937 13.863685 0.000000 0.176427
353.000000 96.603000 -2.000000 5.000000 0.000000 76.765725 27.680030 410.411321 1226.834013 10.355724 0.000000 0.112230
354.000000 121.118000 -1.000000 5.000000 0.000000 94.660370 19.618713 591.352700 847.854640 8.257101 0.000000 0.138014
355.000000 146.766000 1.000000 5.000000 0.000000 125.999433 -11.228097 1188.660550 143.783824 6.810392 0.000000 0.066366
357.000000 103.995000 -1.000000 6.000000 0.000000 97.685079 17.919167 626.968757 788.360397 9.616161 0.000000 0.141517
358.000000 122.028000 1.000000 6.000000 0.000000 124.132230 -7.661600 1119.786243 204.838797 8.191273 0.000000 0.084279
359.000000 120.769000 2.000000 6.000000 0.000000 131.237260 -26.955914 1522.356591 -117.456886 8.275726 0.000000 0.065549
360.000000 53.920000 -4.000000 7.000000 0.000000 62.701377 32.499800 289.330210 1599.629990 18.557207 0.000000 0.158662
361.000000 66.420000 -3.000000 7.000000 0.000000 74.315375 28.592329 388.372242 1285.196887 15.062180 0.000000 0.112747
362.000000 79.259000 -2.000000 7.000000 0.000000 86.883284 23.477695 507.512061 1004.894431 12.619614 0.000000 0.125424
363.000000 90.927000 -1.000000 7.000000 0.000000 99.834497 16.628591 653.557850 746.281098 10.997779 0.000000 0.143300
364.000000 104.276000 1.000000 7.000000 0.000000 122.677114 -5.226930 1073.460545 247.755576 9.585991 0.000000 0.095577
365.000000 104.376000 2.000000 7.000000 0.000000 129.797321 -21.130635 1390.968687 -20.285268 9.575664 0.000000 0.030005
367.000000 62.358000 -3.000000 8.000000 0.000000 78.939289 26.839818 430.385485 1176.795969 16.042302 0.000000 0.113519
368.000000 80.688000 -1.000000 8.000000 0.000000 101.436916 15.616167 674.165842 714.913660 12.392959 0.000000 0.144192
369.000000 90.959000 1.000000 8.000000 0.000000 121.523645 -3.464937 1040.167887 279.625882 10.989649 0.000000 0.103200
370.000000 89.645000 3.000000 8.000000 0.000000 132.095160 -32.134323 1651.056922 -207.249186 11.148805 0.000000 0.117748
371.000000 50.549000 -4.000000 9.000000 0.000000 72.970804 29.078318 376.475639 1318.199668 19.791678 0.000000 0.114140
372.000000 65.873000 -2.000000 9.000000 0.000000 92.639736 20.686607 568.589772 887.957974 15.182579 0.000000 0.135133
373.000000 72.476000 -1.000000 9.000000 0.000000 102.675864 14.801192 690.606831 690.614709 13.796926 0.000000 0.144602
374.000000 80.619000 1.000000 9.000000 0.000000 120.591669 -2.132994 1015.086552 304.251375 12.399417 0.000000 0.108631
375.000000 81.557000 2.000000 9.000000 0.000000 127.127248 -13.701941 1237.410882 102.332577 12.255489 0.000000 0.053371
377.000000 54.600000 -3.000000 10.000000 0.000000 85.596920 24.056923 494.521083 1031.757657 18.319564 0.000000 0.123150
378.000000 65.755000 -1.000000 10.000000 0.000000 103.661538 14.131289 704.028642 671.229475 15.206911 0.000000 0.144744
379.000000 72.367000 1.000000 10.000000 0.000000 119.825137 -1.091819 995.512175 323.861186 13.813546 0.000000 0.112670
380.000000 72.913000 3.000000 10.000000 0.000000 130.280781 -22.861262 1428.787225 -48.901906 13.707726 0.000000 0.036296
381.000000 46.005000 -4.000000 11.000000 0.000000 79.935650 26.444232 439.686837 1154.349490 21.744113 0.000000 0.114529
382.000000 51.160000 -3.000000 11.000000 0.000000 88.056340 22.936245 519.552927 980.661065 19.550410 0.000000 0.127502
383.000000 55.976000 -2.000000 11.000000 0.000000 96.311792 18.706713 610.553932 815.312030 17.865937 0.000000 0.140060
384.000000 60.159000 -1.000000 11.000000 0.000000 104.463919 13.571030 715.192987 655.400352 16.621198 0.000000 0.144732
385.000000 65.633000 1.000000 11.000000 0.000000 119.184656 -0.256081 979.810475 339.851675 15.230897 0.000000 0.115774
386.000000 66.649000 2.000000 11.000000 0.000000 125.006321 -9.260468 1150.487507 177.239556 14.997339 0.000000 0.076425
387.000000 66.525000 3.000000 11.000000 0.000000 129.319854 -19.573574 1357.691887 5.372368 15.024134 0.000000 0.029334
388.000000 65.398000 4.000000 11.000000 0.000000 131.898120 -30.719598 1614.554819 -182.258181 15.282336 0.000000 0.102104
390.000000 55.431000 -1.000000 12.000000 0.000000 105.129506 13.095619 724.625221 642.228756 18.038667 0.000000 0.144631
391.000000 60.037000 1.000000 12.000000 0.000000 118.642066 0.429293 966.935628 353.143288 16.650694 0.000000 0.118226
393.000000 48.521000 -2.000000 13.000000 0.000000 98.844016 17.232474 641.162673 765.663334 20.609705 0.000000 0.142557
394.000000 51.386000 -1.000000 13.000000 0.000000 105.690364 12.687191 732.699424 631.095903 19.458556 0.000000 0.144480
395.000000 55.315000 1.000000 13.000000 0.000000 118.176844 1.001380 956.187279 364.367925 18.072394 0.000000 0.120207
396.000000 56.237000 2.000000 13.000000 0.000000 123.360792 -6.338632 1094.558587 228.012274 17.774549 0.000000 0.090523
397.000000 56.453000 3.000000 13.000000 0.000000 127.535053 -14.672485 1256.808138 86.208525 17.705250 0.000000 0.048307
398.000000 56.016000 4.000000 13.000000 0.000000 130.522873 -23.799917 1449.700474 -64.492294 17.842495 0.000000 0.041614
399.000000 55.013000 5.000000 13.000000 0.000000 132.240519 -33.330800 1682.821711 -228.716003 18.167016 0.000000 0.131805
401.000000 47.886000 -1.000000 14.000000 0.000000 106.169302 12.332556 739.689190 621.561605 20.880327 0.000000 0.144302
402.000000 51.277000 1.000000 14.000000 0.000000 117.773736 1.486034 947.078778 373.974048 19.495602 0.000000 0.121837
403.000000 52.431000 3.000000 14.000000 0.000000 126.735545 -12.810026 1219.726122 117.212205 19.063700 0.000000 0.058071
404.000000 51.471000 5.000000 14.000000 0.000000 131.773149 -29.911465 1594.183271 -168.153523 19.417706 0.000000 0.093633
405.000000 47.786000 1.000000 15.000000 0.000000 117.421203 1.901819 939.261442 382.288875 20.920026 0.000000 0.123198
406.000000 48.586000 2.000000 15.000000 0.000000 122.068346 -4.280301 1055.554841 264.784117 20.573825 0.000000 0.099733
407.000000 48.815000 4.000000 15.000000 0.000000 129.084762 -18.852839 1342.508420 17.236143 20.474798 0.000000 0.030603
409.000000 45.838000 3.000000 16.000000 0.000000 125.323310 -9.869706 1162.257067 166.825880 21.806123 0.000000 0.073352
410.000000 45.475000 5.000000 16.000000 0.000000 130.667678 -24.388709 1462.973018 -74.303847 21.978434 0.000000 0.045458
415.000000 199.969000 -1.000000 3.000000 1.000000 102.228226 46.710138 -167.540707 600.819628 5.000114 0.000000 0.178919
418.000000 122.004000 -2.000000 4.000000 1.000000 82.234753 44.028000 -65.382273 1145.129216 8.198327 0.000000 0.176772
419.000000 160.336000 -1.000000 4.000000 1.000000 106.751636 38.606110 115.617640 526.437719 6.235743 0.000000 0.056611
420.000000 186.841000 0.000000 4.000000 1.000000 132.676897 27.359396 418.069351 -176.358849 5.349078 0.000000 0.077686
422.000000 83.254000 -3.000000 5.000000 1.000000 71.087274 42.874786 -24.272089 1444.198245 12.016433 0.000000 0.216037
423.000000 108.455000 -2.000000 5.000000 1.000000 89.025305 39.093532 100.521084 964.593452 9.221549 0.000000 0.104942
424.000000 132.438000 -1.000000 5.000000 1.000000 109.001102 33.068143 274.225017 498.743246 7.549095 0.000000 0.030758
425.000000 148.986000 0.000000 5.000000 1.000000 129.205326 22.344494 532.602836 -8.245102 6.708553 0.000000 0.028402
428.000000 61.590000 -4.000000 6.000000 1.000000 64.111820 42.233665 -2.077012 1646.482394 16.245156 0.000000 0.251333
429.000000 78.461000 -3.000000 6.000000 1.000000 77.987642 39.327031 93.215053 1237.061823 12.749309 0.000000 0.146041
430.000000 96.241000 -2.000000 6.000000 1.000000 93.572467 35.231020 214.884887 858.736574 10.391236 0.000000 0.081861
431.000000 112.312000 -1.000000 6.000000 1.000000 110.237481 29.112110 375.644298 486.825046 8.901750 0.000000 0.051243
432.000000 123.544000 0.000000 6.000000 1.000000 126.679837 19.307151 597.936290 91.571900 8.090371 0.000000 0.035244
433.000000 127.817000 1.000000 6.000000 1.000000 140.663941 2.635858 925.450772 -373.678439 7.818521 0.000000 0.007915
435.000000 48.199000 -5.000000 7.000000 1.000000 59.369627 41.825609 11.815889 1796.217134 20.759895 0.000000 0.282313
436.000000 60.020000 -4.000000 7.000000 1.000000 70.581364 39.464022 88.905987 1432.457073 16.668539 0.000000 0.179593
437.000000 72.951000 -3.000000 7.000000 1.000000 83.125853 36.365393 182.490412 1102.133621 13.711168 0.000000 0.112778
438.000000 85.906000 -2.000000 7.000000 1.000000 96.768963 32.151345 298.497068 790.111504 11.640717 0.000000 0.081081
439.000000 97.282000 -1.000000 7.000000 1.000000 110.970222 26.170700 446.081040 481.371773 10.277029 0.000000 0.068591
440.000000 105.375000 0.000000 7.000000 1.000000 124.784819 17.280828 640.166695 158.036029 9.485650 0.000000 0.052399
441.000000 109.053000 1.000000 7.000000 1.000000 136.755460 3.623500 906.842093 -205.645290 9.164193 0.000000 0.015662
443.000000 47.919000 -5.000000 8.000000 1.000000 65.308125 39.554088 86.063682 1582.815673 20.879748 0.000000 0.209579
444.000000 57.505000 -4.000000 8.000000 1.000000 75.706078 37.063442 162.084056 1284.650577 17.396224 0.000000 0.138896
445.000000 67.555000 -3.000000 8.000000 1.000000 87.053014 33.868226 252.626330 1007.730356 14.805418 0.000000 0.100052
446.000000 77.287000 -2.000000 8.000000 1.000000 99.109116 29.651840 362.291015 742.426245 12.938452 0.000000 0.086997
447.000000 85.695000 -1.000000 8.000000 1.000000 111.429989 23.908931 497.851296 478.902681 11.666521 0.000000 0.080876
448.000000 91.791000 0.000000 8.000000 1.000000 123.318406 15.836075 669.707352 205.600691 10.889665 0.000000 0.065753
449.000000 94.920000 1.000000 8.000000 1.000000 133.777326 4.267371 894.689389 -93.178884 10.529131 0.000000 0.031884
450.000000 94.975000 2.000000 8.000000 1.000000 141.502379 -11.906354 1201.935446 -441.955446 10.522024 0.000000 0.046409
452.000000 46.824000 -5.000000 9.000000 1.000000 70.208848 37.536172 148.050275 1429.420228 21.366579 0.000000 0.163844
453.000000 54.636000 -4.000000 9.000000 1.000000 79.828637 34.969724 222.217881 1176.645142 18.308614 0.000000 0.117421
454.000000 62.574000 -3.000000 9.000000 1.000000 90.126420 31.741804 309.181783 938.207526 15.983094 0.000000 0.097684
455.000000 70.085000 -2.000000 9.000000 1.000000 100.880897 27.589993 412.566294 707.565390 14.267591 0.000000 0.093694
456.000000 76.519000 -1.000000 9.000000 1.000000 111.731399 22.120795 537.507112 477.920773 13.065522 0.000000 0.089774
457.000000 81.270000 0.000000 9.000000 1.000000 122.153125 14.755203 691.530842 241.378895 12.299672 0.000000 0.075792
458.000000 83.935000 1.000000 9.000000 1.000000 131.436477 4.720245 886.129612 -12.332884 11.907569 0.000000 0.045530
459.000000 84.419000 2.000000 9.000000 1.000000 138.694112 -8.703782 1139.768886 -298.136180 11.838125 0.000000 0.024120
461.000000 51.715000 -4.000000 10.000000 1.000000 83.194794 33.132220 272.509819 1094.376815 19.341523 0.000000 0.107735
462.000000 58.089000 -3.000000 10.000000 1.000000 92.582441 29.914014 355.752992 884.995014 17.216729 0.000000 0.099681
463.000000 64.023000 -2.000000 10.000000 1.000000 102.260315 25.864287 453.208359 681.073865 15.618310 0.000000 0.099644
464.000000 69.086000 -1.000000 10.000000 1.000000 111.935838 20.674234 568.855319 477.716145 14.471201 0.000000 0.096436
465.000000 72.890000 0.000000 10.000000 1.000000 121.206282 13.916666 708.311836 269.294858 13.713966 0.000000 0.083501
466.000000 75.173000 1.000000 10.000000 1.000000 129.549928 5.056093 879.774602 48.723158 13.295834 0.000000 0.056569
467.000000 75.858000 2.000000 10.000000 1.000000 136.335813 -6.398143 1095.690418 -193.755778 13.174482 0.000000 0.019984
470.000000 48.892000 -4.000000 11.000000 1.000000 85.981648 31.509780 315.193281 1029.684737 20.457419 0.000000 0.104730
471.000000 54.087000 -3.000000 11.000000 1.000000 94.581270 28.329121 394.769423 843.023489 18.489721 0.000000 0.103131
472.000000 58.872000 -2.000000 11.000000 1.000000 103.359644 24.401210 486.743867 660.319715 16.984495 0.000000 0.104618
473.000000 62.950000 -1.000000 11.000000 1.000000 112.078241 19.481324 594.258973 477.927479 15.881748 0.000000 0.101575
474.000000 66.063000 0.000000 11.000000 1.000000 120.422430 13.247445 721.617005 291.697098 15.131434 0.000000 0.089571
475.000000 68.033000 1.000000 11.000000 1.000000 127.998063 5.315068 874.869714 96.534465 14.691475 0.000000 0.065516
476.000000 68.801000 2.000000 11.000000 1.000000 134.340478 -4.664082 1062.808250 -114.291649 14.526234 0.000000 0.029044
477.000000 68.424000 3.000000 11.000000 1.000000 138.965089 -16.739415 1298.710979 -350.333150 14.605330 0.000000 0.056336
479.000000 46.234000 -4.000000 12.000000 1.000000 88.318222 30.068935 351.873435 977.515169 21.632888 0.000000 0.105135
480.000000 50.529000 -3.000000 12.000000 1.000000 96.234165 26.943730 427.931460 809.111378 19.791445 0.000000 0.106814
481.000000 54.454000 -2.000000 12.000000 1.000000 104.253225 23.146586 514.886905 643.656042 18.362144 0.000000 0.108716
482.000000 57.803000 -1.000000 12.000000 1.000000 112.179514 18.481540 615.262532 478.361073 17.295952 0.000000 0.105642
483.000000 60.396000 0.000000 12.000000 1.000000 119.763199 12.701099 732.424917 310.079761 16.551317 0.000000 0.094458
484.000000 62.110000 1.000000 12.000000 1.000000 126.699596 5.520845 870.969433 135.028074 16.092794 0.000000 0.072845
485.000000 62.898000 2.000000 12.000000 1.000000 132.636639 -3.314774 1037.337188 -51.635029 15.889963 0.000000 0.039621
486.000000 62.789000 3.000000 12.000000 1.000000 137.206277 -13.874376 1240.845139 -256.485582 15.916568 0.000000 0.035715
489.000000 47.361000 -3.000000 13.000000 1.000000 97.620199 25.723756 456.464818 781.165417 21.114782 0.000000 0.110271
490.000000 50.631000 -2.000000 13.000000 1.000000 104.991901 22.059813 538.841337 630.003527 19.748524 0.000000 0.112096
491.000000 53.426000 -1.000000 13.000000 1.000000 112.252694 17.631978 632.918075 478.909096 18.712974 0.000000 0.108928
492.000000 55.619000 0.000000 13.000000 1.000000 119.201274 12.246710 741.378321 325.439939 17.973080 0.000000 0.098470
493.000000 57.122000 1.000000 13.000000 1.000000 125.597455 5.688286 867.793788 166.708564 17.498575 0.000000 0.078923
494.000000 57.896000 2.000000 13.000000 1.000000 131.168114 -2.236061 1017.025473 -0.884109 17.263190 0.000000 0.049055
495.000000 57.956000 3.000000 13.000000 1.000000 135.627604 -11.596507 1195.863113 -182.059748 17.244007 0.000000 0.026070
496.000000 57.365000 4.000000 13.000000 1.000000 138.725426 -22.193591 1414.087126 -383.333183 17.420951 0.000000 0.085964
498.000000 47.294000 -2.000000 14.000000 1.000000 105.611443 21.109966 559.477500 618.627382 21.141709 0.000000 0.114899
499.000000 49.660000 -1.000000 14.000000 1.000000 112.306201 16.901451 647.967030 479.509960 20.132213 0.000000 0.111634
500.000000 51.538000 0.000000 14.000000 1.000000 118.716722 11.862909 748.916820 338.469072 19.396335 0.000000 0.101816
501.000000 52.865000 1.000000 14.000000 1.000000 124.650431 5.827188 865.157999 193.251405 18.907929 0.000000 0.084026
502.000000 53.608000 2.000000 14.000000 1.000000 129.891197 -1.354543 1000.449673 41.107752 18.644078 0.000000 0.057147
503.000000 53.777000 3.000000 14.000000 1.000000 134.213103 -9.747512 1159.893067 -121.467880 18.584608 0.000000 0.027234
504.000000 53.409000 4.000000 14.000000 1.000000 137.410664 -19.237208 1350.589205 -299.145009 18.711693 0.000000 0.060063
507.000000 46.386000 -1.000000 15.000000 1.000000 112.345641 16.266773 660.946956 480.127969 21.553227 0.000000 0.113894
508.000000 48.013000 0.000000 15.000000 1.000000 118.294672 11.534460 755.351248 349.662034 20.820794 0.000000 0.104647
509.000000 49.191000 1.000000 15.000000 1.000000 123.828050 5.944273 862.935188 215.821269 20.320186 0.000000 0.088358
510.000000 49.897000 2.000000 15.000000 1.000000 128.771814 -0.621001 986.665879 76.457806 20.031234 0.000000 0.064060
511.000000 50.132000 3.000000 15.000000 1.000000 132.944320 -8.219657 1130.473320 -71.104055 19.936044 0.000000 0.033821
512.000000 49.923000 4.000000 15.000000 1.000000 136.176115 -16.786490 1299.675494 -230.326110 20.018684 0.000000 0.041930
515.000000 45.990000 1.000000 16.000000 1.000000 123.107302 6.044307 861.035347 235.253700 21.734834 0.000000 0.092076
516.000000 46.655000 2.000000 16.000000 1.000000 127.783210 -0.001249 975.023464 106.645641 21.423584 0.000000 0.069991
517.000000 46.930000 3.000000 16.000000 1.000000 131.803369 -6.937668 1105.963936 -28.530807 21.296509 0.000000 0.041446
518.000000 46.834000 4.000000 16.000000 1.000000 135.027023 -14.728973 1257.942306 -172.913982 21.339285 0.000000 0.031042
519.000000 46.398000 5.000000 16.000000 1.000000 137.342492 -23.207704 1436.471622 -329.948057 21.539035 0.000000 0.083301
529.000000 83.246000 -3.000000 6.000000 2.000000 85.998682 48.918880 -259.600310 1055.569516 12.014334 0.000000 0.246551
530.000000 114.461000 -1.000000 6.000000 2.000000 119.702295 43.220852 -36.444965 98.474717 8.733062 0.000000 0.178079
533.000000 64.236000 -4.000000 7.000000 2.000000 77.520264 47.018491 -179.931348 1290.402362 15.572146 0.000000 0.245249
534.000000 76.887000 -3.000000 7.000000 2.000000 90.629319 45.035596 -102.632447 924.270536 13.007068 0.000000 0.161274
535.000000 89.205000 -2.000000 7.000000 2.000000 104.910068 42.252656 -2.727966 553.824457 11.208259 0.000000 0.102668
536.000000 99.648000 -1.000000 7.000000 2.000000 119.915575 38.089475 131.396693 154.153752 10.031263 0.000000 0.097002
539.000000 51.423000 -5.000000 8.000000 2.000000 71.365196 45.782798 -131.113078 1461.434861 19.454314 0.000000 0.258013
540.000000 70.850000 -3.000000 8.000000 2.000000 94.100213 41.730795 15.018606 837.615624 14.114665 0.000000 0.109178
541.000000 87.989000 -1.000000 8.000000 2.000000 119.808082 34.142852 245.119419 195.989371 11.360664 0.000000 0.047148
543.000000 49.790000 -5.000000 9.000000 2.000000 75.945731 43.355454 -41.216983 1311.554482 20.091258 0.000000 0.196677
544.000000 57.581000 -4.000000 9.000000 2.000000 85.990529 41.404495 25.968888 1041.579543 17.369832 0.000000 0.132584
545.000000 65.370000 -3.000000 9.000000 2.000000 96.759428 38.901913 106.480666 777.078430 15.297330 0.000000 0.078687
546.000000 72.598000 -2.000000 9.000000 2.000000 108.054647 35.590478 204.719487 509.561787 13.771786 0.000000 0.032511
547.000000 78.639000 -1.000000 9.000000 2.000000 119.556909 31.040380 327.264327 228.643436 12.711531 0.000000 0.014737
548.000000 82.940000 0.000000 9.000000 2.000000 130.798051 24.504195 484.409261 -79.921915 12.050386 0.000000 0.045250
551.000000 47.835000 -5.000000 10.000000 2.000000 79.740025 41.181190 33.399554 1199.850875 20.911073 0.000000 0.154941
552.000000 60.487000 -3.000000 10.000000 2.000000 98.838362 36.464267 179.622414 732.903302 16.531749 0.000000 0.064087
553.000000 71.007000 -1.000000 10.000000 2.000000 119.247487 28.550932 389.380478 254.869739 14.077799 0.000000 0.012810
554.000000 76.454000 1.000000 10.000000 2.000000 138.361544 13.551699 715.577242 -304.292153 13.071489 0.000000 0.036791
555.000000 45.762000 -5.000000 11.000000 2.000000 82.913308 39.227765 96.326981 1113.733141 21.857212 0.000000 0.126958
556.000000 51.059000 -4.000000 11.000000 2.000000 91.510896 37.048730 162.517976 905.430838 19.586959 0.000000 0.089199
557.000000 56.166000 -3.000000 11.000000 2.000000 100.493574 34.349183 239.447226 699.537962 17.803356 0.000000 0.060660
558.000000 60.800000 -2.000000 11.000000 2.000000 109.704414 30.934974 329.958531 491.612506 16.443666 0.000000 0.040504
559.000000 64.678000 -1.000000 11.000000 2.000000 118.921749 26.516301 437.997075 276.410565 15.455490 0.000000 0.029379
560.000000 67.558000 0.000000 11.000000 2.000000 127.847137 20.658180 569.199792 47.255269 14.794724 0.000000 0.027542
561.000000 69.287000 1.000000 11.000000 2.000000 136.084778 12.727129 731.911052 -204.997456 14.423981 0.000000 0.026390
564.000000 52.345000 -3.000000 12.000000 2.000000 101.833130 32.501377 289.288566 673.624016 19.102583 0.000000 0.063346
565.000000 59.354000 -1.000000 12.000000 2.000000 118.600253 24.826258 477.083526 294.426106 16.841888 0.000000 0.042756
566.000000 63.301000 1.000000 12.000000 2.000000 134.166012 12.094764 744.365383 -128.141315 15.788278 0.000000 0.025270
568.000000 48.960000 -3.000000 13.000000 2.000000 102.933142 30.876405 331.453015 653.027930 20.422883 0.000000 0.068422
569.000000 52.141000 -2.000000 13.000000 2.000000 110.648511 27.539436 413.774786 483.578029 19.174415 0.000000 0.060658
570.000000 54.820000 -1.000000 13.000000 2.000000 118.292750 23.402419 509.191933 309.720495 18.235075 0.000000 0.053412
571.000000 56.878000 0.000000 13.000000 2.000000 125.668330 18.201597 621.099194 127.816882 17.573372 0.000000 0.044196
572.000000 58.236000 1.000000 13.000000 2.000000 132.528414 11.594527 754.175658 -66.788864 17.161951 0.000000 0.030591
573.000000 58.866000 2.000000 13.000000 2.000000 138.568757 3.187805 915.055601 -280.364968 16.976938 0.000000 0.008108
576.000000 45.952000 -3.000000 14.000000 2.000000 103.848273 29.438449 367.587411 636.338429 21.759629 0.000000 0.074021
577.000000 50.915000 -1.000000 14.000000 2.000000 118.003422 22.187888 536.037830 322.869425 19.633658 0.000000 0.062044
578.000000 53.899000 1.000000 14.000000 2.000000 131.115263 11.188982 762.103075 -16.618293 18.543194 0.000000 0.037848
579.000000 54.583000 3.000000 14.000000 2.000000 141.429210 -5.647884 1081.439796 -415.245093 18.308350 0.000000 0.021964
581.000000 45.567000 -2.000000 15.000000 2.000000 111.225341 24.969949 473.802809 479.884436 21.940701 0.000000 0.075252
582.000000 47.520000 -1.000000 15.000000 2.000000 117.733563 21.140560 558.816998 334.296257 21.036599 0.000000 0.069155
583.000000 49.062000 0.000000 15.000000 2.000000 124.007329 16.502466 656.136726 183.632147 20.373538 0.000000 0.059561
584.000000 50.148000 1.000000 15.000000 2.000000 129.883909 10.853598 768.642228 25.209696 19.930636 0.000000 0.045082
585.000000 50.759000 2.000000 15.000000 2.000000 135.171768 3.976134 900.188667 -144.379469 19.689355 0.000000 0.024012
586.000000 50.901000 3.000000 15.000000 2.000000 139.653671 -4.306871 1056.056770 -329.632396 19.633181 0.000000 0.013291
589.000000 46.874000 1.000000 16.000000 2.000000 128.801736 10.571636 774.128430 60.640524 21.323220 0.000000 0.051740
590.000000 47.658000 3.000000 16.000000 2.000000 138.071099 -3.214405 1035.445640 -259.221319 20.969644 0.000000 0.011593
599.000000 62.881000 -4.000000 8.000000 3.000000 87.681793 51.416359 -374.040360 1010.863824 15.904713 0.000000 0.301544
600.000000 72.139000 -3.000000 8.000000 3.000000 99.731960 50.242981 -318.780785 652.363965 13.860726 0.000000 0.258333
601.000000 80.692000 -2.000000 8.000000 3.000000 112.577907 48.613437 -246.393532 264.087450 12.389044 0.000000 0.253079
603.000000 51.750000 -5.000000 9.000000 3.000000 80.964102 49.484379 -284.483218 1204.462159 19.328091 0.000000 0.278531
604.000000 59.270000 -4.000000 9.000000 3.000000 91.230606 48.279082 -232.118652 906.258849 16.872892 0.000000 0.218590
605.000000 73.376000 -2.000000 9.000000 3.000000 113.788269 44.587638 -85.912372 274.819011 13.624066 0.000000 0.170037
606.000000 78.863000 -1.000000 9.000000 3.000000 125.652972 41.566498 20.546058 -90.905102 12.673953 0.000000 0.191841
607.000000 49.559000 -5.000000 10.000000 3.000000 84.555079 46.943469 -176.903593 1091.268417 20.181591 0.000000 0.212772
608.000000 55.753000 -4.000000 10.000000 3.000000 94.068555 45.492964 -119.976025 831.789765 17.936553 0.000000 0.160519
609.000000 61.729000 -3.000000 10.000000 3.000000 104.129320 43.638119 -51.307473 566.636020 16.197372 0.000000 0.123913
610.000000 67.110000 -2.000000 10.000000 3.000000 114.584112 41.188655 33.151964 286.680570 14.896071 0.000000 0.113471
611.000000 71.515000 -1.000000 10.000000 3.000000 125.211982 37.819398 139.556784 -20.556649 13.976334 0.000000 0.130514
614.000000 47.292000 -5.000000 11.000000 3.000000 87.540577 44.648264 -88.160119 1005.979087 21.148094 0.000000 0.165097
615.000000 52.440000 -4.000000 11.000000 3.000000 96.365103 43.013354 -29.129729 776.800221 19.068997 0.000000 0.119042
616.000000 57.341000 -3.000000 11.000000 3.000000 105.599135 40.956890 40.812486 543.107980 17.436444 0.000000 0.084650
617.000000 61.725000 -2.000000 11.000000 3.000000 115.105554 38.299795 125.000237 298.397982 16.195566 0.000000 0.072912
618.000000 65.328000 -1.000000 11.000000 3.000000 124.694823 34.752476 228.279204 34.114167 15.300128 0.000000 0.087696
619.000000 67.937000 0.000000 11.000000 3.000000 134.114605 29.825113 357.973827 -261.854916 14.710898 0.000000 0.109719
622.000000 49.374000 -4.000000 12.000000 3.000000 98.244978 40.800218 45.960558 734.975632 20.252629 0.000000 0.089530
623.000000 57.072000 -2.000000 12.000000 3.000000 115.442564 35.826084 198.006995 309.470765 17.516049 0.000000 0.042692
624.000000 60.067000 -1.000000 12.000000 3.000000 124.155090 32.209554 296.970659 77.966654 16.640456 0.000000 0.056590
627.000000 46.562000 -4.000000 13.000000 3.000000 99.800573 38.818440 109.066731 702.377561 21.475384 0.000000 0.069454
628.000000 49.984000 -3.000000 13.000000 3.000000 107.667141 36.534858 177.570339 514.352164 20.002519 0.000000 0.038072
629.000000 53.025000 -2.000000 13.000000 3.000000 115.653921 33.691539 257.430550 319.729096 18.852919 0.000000 0.019604
630.000000 55.550000 -1.000000 13.000000 3.000000 123.621125 30.074786 351.726673 114.002701 17.993815 0.000000 0.033841
631.000000 57.450000 0.000000 13.000000 3.000000 131.389842 25.364195 464.761899 -108.732903 17.396719 0.000000 0.054300
632.000000 58.659000 1.000000 13.000000 3.000000 138.728359 19.079143 602.738420 -356.624859 17.036752 0.000000 0.064686
635.000000 46.901000 -3.000000 14.000000 3.000000 108.403077 34.700635 229.720862 505.428648 21.317142 0.000000 0.029615
636.000000 49.482000 -2.000000 14.000000 3.000000 115.778687 31.835754 306.739081 329.148119 20.202829 0.000000 0.004281
637.000000 51.637000 -1.000000 14.000000 3.000000 123.107413 28.261932 396.397338 144.187871 19.357627 0.000000 0.019093
638.000000 53.285000 0.000000 14.000000 3.000000 130.238028 23.720277 502.085478 -53.805235 18.756833 0.000000 0.037869
639.000000 54.377000 1.000000 14.000000 3.000000 136.979144 17.844158 628.524471 -270.629550 18.378679 0.000000 0.048304
642.000000 46.360000 -2.000000 15.000000 3.000000 115.843253 30.210699 348.312676 337.765485 21.563285 0.000000 0.014780
643.000000 48.219000 -1.000000 15.000000 3.000000 122.620781 26.706216 433.534072 169.868675 20.729953 0.000000 0.016517
644.000000 50.651000 1.000000 15.000000 3.000000 135.437794 16.841712 649.192440 -200.844105 19.731200 0.000000 0.036389
645.000000 51.171000 2.000000 15.000000 3.000000 141.118665 9.835661 788.401745 -413.666842 19.529453 0.000000 0.033466
647.000000 46.484000 0.000000 16.000000 3.000000 128.276685 21.177453 558.020151 30.194620 21.501719 0.000000 0.026329
648.000000 47.382000 1.000000 16.000000 3.000000 134.071140 16.012250 666.128534 -143.007488 21.092561 0.000000 0.029255
649.000000 47.893000 2.000000 16.000000 3.000000 139.384279 9.589987 793.151922 -331.824510 20.866512 0.000000 0.026273
661.000000 48.142000 -5.000000 11.000000 4.000000 91.511055 50.309872 -321.857309 896.543368 20.772857 0.000000 0.264493
662.000000 53.039000 -4.000000 11.000000 4.000000 100.423293 49.312398 -276.855375 637.304868 18.852178 0.000000 0.235475
663.000000 57.641000 -3.000000 11.000000 4.000000 109.748554 48.043846 -222.187019 363.045173 17.344341 0.000000 0.226833
667.000000 45.861000 -5.000000 12.000000 4.000000 93.916604 47.926646 -217.272657 831.031677 21.805100 0.000000 0.206392
668.000000 53.843000 -3.000000 12.000000 4.000000 110.858048 45.185217 -108.275418 359.155435 18.567577 0.000000 0.168976
671.000000 47.182000 -4.000000 13.000000 4.000000 103.699874 44.366914 -77.768383 573.985947 21.191571 0.000000 0.135939
672.000000 50.437000 -3.000000 13.000000 4.000000 111.707282 42.651500 -16.490242 358.437470 19.821260 0.000000 0.125346
673.000000 53.298000 -2.000000 13.000000 4.000000 119.865982 40.480274 56.398492 128.453795 18.754880 0.000000 0.132176
674.000000 55.642000 -1.000000 13.000000 4.000000 128.058474 37.653388 144.543007 -123.344432 17.962768 0.000000 0.150444
677.000000 47.382000 -3.000000 14.000000 4.000000 112.361297 40.398677 59.044637 359.601160 21.099197 0.000000 0.091541
678.000000 51.839000 -1.000000 14.000000 4.000000 127.469278 35.145128 217.300558 -67.874392 19.280855 0.000000 0.113368
680.000000 46.742000 -2.000000 15.000000 4.000000 119.887858 35.992435 193.243536 176.450090 21.385568 0.000000 0.069339
681.000000 48.490000 -1.000000 15.000000 4.000000 126.883059 32.993554 276.218451 -21.890697 20.612648 0.000000 0.084674
682.000000 49.826000 0.000000 15.000000 4.000000 133.740339 29.156195 374.558903 -238.418304 20.058109 0.000000 0.100730
686.000000 45.524000 -1.000000 16.000000 4.000000 126.313014 31.132590 324.902530 16.913557 21.955827 0.000000 0.062080
687.000000 47.527000 1.000000 16.000000 4.000000 138.777194 22.540356 528.295913 -389.057494 21.026937 0.000000 0.086187
696.000000 47.305000 -4.000000 13.000000 5.000000 106.932658 50.174296 -315.630746 429.373430 21.134851 0.000000 0.270668
700.000000 47.418000 -3.000000 14.000000 5.000000 115.645571 46.463596 -157.735265 190.832620 21.081688 0.000000 0.218821
704.000000 46.734000 -2.000000 15.000000 5.000000 123.271186 42.268164 -3.259793 -13.343138 21.388000 0.000000 0.185865
707.000000 45.499000 -1.000000 16.000000 5.000000 129.833502 37.541014 147.905594 -191.275985 21.966456 0.000000 0.163328
#UB matrix in q= (UB) B0 G* 
#[[-0.387249934 -0.829427226 -0.400462563]
# [-0.786561071  0.071030772  0.613483353]
# [-0.480998098  0.553161729 -0.680744447]]
#B0 matrix in q= UB (B0) G*
#[[ 0.19670273 -0.          0.03056101]
# [ 0.          0.19187965 -0.        ]
# [ 0.          0.          0.18806537]]
#UBB0 matrix in q= (UB B0) G* i.e. recip. basis vectors are columns in LT frame: astar = UBB0[:,0], bstar = UBB0[:,1], cstar = UBB0[:,2]. (abcstar as columns on xyzlab1, xlab1 = ui, ui = unit vector along incident beam)
#[[-0.07617312 -0.15915021 -0.08714789]
# [-0.15471871  0.01362936  0.09133688]
# [-0.09461364  0.10614048 -0.14272424]]
#Euler angles phi theta psi (deg)
#[221.012 132.863  33.179]
#deviatoric strain in direct crystal frame (10-3 unit)
#[[-0.4   0.3   0.05]
# [ 0.3   0.11  0.89]
# [ 0.05  0.89  0.29]]
#deviatoric strain in sample2 frame (10-3 unit)
#[[ 0.54 -0.47 -0.72]
# [-0.47 -0.14  0.2 ]
# [-0.72  0.2  -0.4 ]]
#new lattice parameters
#[ 5.1505     5.2142864  5.3169472 89.9523638 99.2278435 89.9655332]
#CCDLabel
#sCMOS
#DetectorParameters
#[79.0, 975.0, 941.0, 0.0, 0.0]
#pixelsize
#0.0734
#Frame dimensions
#[2018, 2016]
#
