#Strain and Orientation Refinement from experimental file: /home/micha/LaueProjects/DepthEffects/testZrO2_82.cor
#File created at Wed Jun 28 14:23:25 2023 with indexingSpotsSet.py
#Number of indexed spots: 520
#Element
#ZrO2
#grainIndex
#G_0
#Mean Deviation(pixel): 0.112
##spot_index intensity h k l 2theta Chi Xexp Yexp Energy GrainIndex PixDev
0.000000 46.071000 -7.000000 4.000000 -7.000000 77.968297 -7.506571 1116.822403 1172.378865 21.726591 0.000000 0.129783
1.000000 46.378000 -6.000000 4.000000 -7.000000 72.846894 -11.017392 1184.549494 1279.441416 21.584766 0.000000 0.106033
2.000000 45.819000 -5.000000 4.000000 -7.000000 66.792508 -14.733155 1258.026289 1418.155425 21.850243 0.000000 0.078865
3.000000 46.314000 -7.000000 5.000000 -7.000000 81.634465 -12.909125 1221.684715 1103.375780 21.611287 0.000000 0.136805
4.000000 46.629000 -6.000000 5.000000 -7.000000 76.590648 -16.533135 1294.490063 1208.661487 21.466835 0.000000 0.117897
5.000000 46.147000 -5.000000 5.000000 -7.000000 70.662037 -20.319443 1373.548611 1343.778090 21.693297 0.000000 0.098883
6.000000 45.914000 -7.000000 6.000000 -7.000000 84.573526 -18.198352 1328.833255 1048.624820 21.798015 0.000000 0.134308
7.000000 46.157000 -6.000000 6.000000 -7.000000 79.567186 -21.866073 1406.927395 1154.536682 21.684982 0.000000 0.119188
8.000000 45.664000 -5.000000 6.000000 -7.000000 73.730604 -25.649105 1491.808459 1289.441254 21.920881 0.000000 0.108449
9.000000 46.167000 -8.000000 1.000000 -6.000000 73.750768 13.362328 719.338252 1263.424165 21.682867 0.000000 0.114382
10.000000 47.338000 -7.000000 1.000000 -6.000000 69.194235 10.627468 773.042892 1357.107242 21.148612 0.000000 0.092941
11.000000 47.806000 -6.000000 1.000000 -6.000000 63.679437 7.593990 831.506588 1478.129426 20.943647 0.000000 0.058102
12.000000 47.077000 -5.000000 1.000000 -6.000000 56.975325 4.230213 895.391256 1642.523993 21.270122 0.000000 0.029814
13.000000 46.829000 -9.000000 2.000000 -6.000000 83.258303 10.792442 769.833034 1070.520642 21.372685 0.000000 0.145919
14.000000 48.701000 -4.000000 1.000000 -3.000000 79.720325 7.985823 824.008263 1138.112944 10.276304 0.000000 0.137991
15.000000 50.267000 -7.000000 2.000000 -6.000000 75.434949 4.894433 882.834369 1221.676176 19.914085 0.000000 0.122076
16.000000 51.233000 -3.000000 1.000000 -3.000000 70.217888 1.493570 946.937121 1328.241808 9.770271 0.000000 0.094147
17.000000 51.147000 -5.000000 2.000000 -6.000000 63.849084 -2.237887 1017.059821 1469.860986 19.575763 0.000000 0.048367
18.000000 49.351000 -2.000000 1.000000 -3.000000 56.082749 -6.314108 1094.092258 1669.127115 10.145270 0.000000 0.036621
19.000000 46.161000 -10.000000 3.000000 -6.000000 91.142968 8.325035 817.505328 919.297952 21.678765 0.000000 0.160635
20.000000 48.287000 -3.000000 1.000000 -2.000000 88.360194 5.465906 872.011000 971.952705 6.908580 0.000000 0.159872
21.000000 50.312000 -8.000000 3.000000 -6.000000 84.985778 2.338123 931.054253 1035.511436 19.892770 0.000000 0.154635
22.000000 52.067000 -7.000000 3.000000 -6.000000 80.875691 -1.076608 995.226326 1113.893325 19.223935 0.000000 0.142994
23.000000 53.280000 -2.000000 1.000000 -2.000000 75.855507 -4.791906 1065.225837 1213.186519 6.262636 0.000000 0.122291
24.000000 53.542000 -5.000000 3.000000 -6.000000 69.722668 -8.813785 1141.884324 1343.401069 18.697880 0.000000 0.089968
25.000000 52.272000 -4.000000 3.000000 -6.000000 62.259323 -13.137258 1226.199431 1522.254599 19.154609 0.000000 0.057639
26.000000 48.724000 -1.000000 1.000000 -2.000000 53.264438 -17.742952 1319.378565 1784.402563 6.850471 0.000000 0.112110
27.000000 46.874000 -5.000000 2.000000 -3.000000 95.464036 3.068569 917.302136 837.898620 10.673650 0.000000 0.166390
28.000000 49.004000 -9.000000 4.000000 -6.000000 92.754105 -0.076669 976.440220 889.224536 20.420409 0.000000 0.166032
29.000000 51.030000 -4.000000 2.000000 -3.000000 89.451156 -3.485631 1040.558052 951.329386 9.805523 0.000000 0.161770
30.000000 52.789000 -7.000000 4.000000 -6.000000 85.418302 -7.165660 1110.312261 1027.929505 18.959223 0.000000 0.152175
31.000000 54.030000 -3.000000 2.000000 -3.000000 80.494915 -11.116386 1186.480225 1124.653889 9.262719 0.000000 0.135595
32.000000 54.387000 -5.000000 4.000000 -6.000000 74.501900 -15.327156 1269.989172 1250.450866 18.405715 0.000000 0.111465
33.000000 53.359000 -2.000000 2.000000 -3.000000 67.256913 -19.774752 1361.954104 1420.448037 9.381079 0.000000 0.089307
34.000000 50.335000 -3.000000 4.000000 -6.000000 58.605364 -24.422033 1463.727877 1662.380211 19.891623 0.000000 0.117455
35.000000 47.019000 -10.000000 5.000000 -6.000000 99.109224 -2.353493 1019.234966 768.282185 21.279902 0.000000 0.165207
36.000000 49.051000 -9.000000 5.000000 -6.000000 96.392781 -5.740450 1083.195925 819.803797 20.399270 0.000000 0.164041
37.000000 50.957000 -8.000000 5.000000 -6.000000 93.078227 -9.370252 1152.605293 882.337439 19.637801 0.000000 0.159286
38.000000 52.579000 -7.000000 5.000000 -6.000000 89.038928 -13.237720 1228.190210 959.548172 19.033310 0.000000 0.149947
39.000000 53.689000 -6.000000 5.000000 -6.000000 84.132256 -17.328379 1310.813232 1056.870817 18.641504 0.000000 0.135317
40.000000 53.965000 -5.000000 5.000000 -6.000000 78.207272 -21.617041 1401.505394 1182.707022 18.547981 0.000000 0.116969
41.000000 52.989000 -4.000000 5.000000 -6.000000 71.120887 -26.067292 1501.509455 1350.738816 18.891396 0.000000 0.107005
42.000000 50.279000 -3.000000 5.000000 -6.000000 62.765680 -30.632272 1612.337189 1584.793394 19.912092 0.000000 0.140374
43.000000 46.670000 -5.000000 3.000000 -3.000000 102.062658 -7.849069 1123.373140 708.820869 10.718873 0.000000 0.157090
44.000000 48.530000 -3.000000 2.000000 -2.000000 99.274117 -11.417276 1192.356736 761.701217 6.872362 0.000000 0.154115
45.000000 50.233000 -4.000000 3.000000 -3.000000 95.884077 -15.193205 1267.285630 826.060695 9.959754 0.000000 0.147751
46.000000 51.631000 -7.000000 6.000000 -6.000000 91.779547 -19.160000 1348.963022 905.599698 19.381585 0.000000 0.137535
47.000000 52.517000 -2.000000 2.000000 -2.000000 86.839327 -23.291830 1438.343612 1005.706571 6.351992 0.000000 0.124091
48.000000 52.618000 -5.000000 6.000000 -6.000000 80.942922 -27.553910 1536.571095 1134.517028 19.021362 0.000000 0.112318
49.000000 51.594000 -2.000000 3.000000 -3.000000 73.985955 -31.903575 1645.027359 1304.875460 9.700385 0.000000 0.118871
50.000000 49.077000 -1.000000 2.000000 -2.000000 65.903243 -36.292432 1765.397903 1538.236645 6.799321 0.000000 0.169635
51.000000 45.915000 -10.000000 7.000000 -6.000000 104.342710 -13.318342 1229.789010 658.195466 21.789266 0.000000 0.142232
52.000000 47.557000 -9.000000 7.000000 -6.000000 101.435902 -16.997501 1304.004854 713.334067 21.037740 0.000000 0.136690
53.000000 49.013000 -8.000000 7.000000 -6.000000 97.930501 -20.839400 1384.692983 780.572844 20.414346 0.000000 0.128065
54.000000 50.145000 -7.000000 7.000000 -6.000000 93.729822 -24.818461 1472.738661 863.697077 19.954884 0.000000 0.116863
55.000000 50.772000 -6.000000 7.000000 -6.000000 88.735737 -28.902038 1569.196309 968.132274 19.709859 0.000000 0.106311
56.000000 50.666000 -5.000000 7.000000 -6.000000 82.857584 -33.051576 1675.331936 1101.906678 19.752898 0.000000 0.106861
57.000000 49.560000 -4.000000 7.000000 -6.000000 76.025550 -37.224553 1792.679017 1277.368721 20.195691 0.000000 0.136945
58.000000 47.181000 -3.000000 7.000000 -6.000000 68.208502 -41.376988 1923.113065 1514.447700 21.216240 0.000000 0.209493
59.000000 46.249000 -9.000000 8.000000 -6.000000 102.945972 -22.382241 1418.226273 673.428956 21.632043 0.000000 0.112417
60.000000 47.442000 -4.000000 4.000000 -3.000000 99.308865 -26.213856 1504.925793 744.354356 10.544585 0.000000 0.101766
61.000000 48.302000 -7.000000 8.000000 -6.000000 95.005768 -30.128862 1599.630530 832.001412 20.715134 0.000000 0.091858
62.000000 48.674000 -3.000000 4.000000 -3.000000 89.961161 -34.092584 1703.502862 941.881009 10.279369 0.000000 0.091423
63.000000 48.370000 -5.000000 8.000000 -6.000000 84.111155 -38.067651 1817.941657 1082.006943 20.689595 0.000000 0.115009
64.000000 47.187000 -2.000000 4.000000 -3.000000 77.414280 -42.016046 1944.645635 1264.435282 10.605275 0.000000 0.171627
65.000000 45.648000 -8.000000 9.000000 -6.000000 100.124516 -31.249062 1628.087295 716.192650 21.917364 0.000000 0.072919
66.000000 46.253000 -7.000000 9.000000 -6.000000 95.730780 -35.040289 1729.757810 809.076168 21.632393 0.000000 0.073583
67.000000 46.393000 -2.000000 3.000000 -2.000000 90.654056 -38.833579 1841.401846 925.226750 7.189517 0.000000 0.097156
68.000000 45.922000 -5.000000 9.000000 -6.000000 84.852764 -42.595942 1964.562649 1072.701179 21.792037 0.000000 0.147877
69.000000 47.598000 -10.000000 1.000000 -5.000000 86.714626 21.103646 559.613903 1007.224725 21.025615 0.000000 0.133842
70.000000 50.219000 -9.000000 1.000000 -5.000000 83.988108 18.818792 608.205571 1060.750380 19.929172 0.000000 0.136153
71.000000 52.862000 -8.000000 1.000000 -5.000000 80.665124 16.251273 661.262888 1125.286133 18.934331 0.000000 0.133997
72.000000 55.350000 -7.000000 1.000000 -5.000000 76.569845 13.357649 719.431101 1205.154338 18.084557 0.000000 0.124704
73.000000 57.362000 -6.000000 1.000000 -5.000000 71.467869 10.089511 783.486061 1307.461536 17.452232 0.000000 0.103906
74.000000 58.320000 -5.000000 1.000000 -5.000000 65.051299 6.395018 854.369024 1444.846690 17.167496 0.000000 0.064447
75.000000 57.252000 -4.000000 1.000000 -5.000000 56.930935 2.222311 933.233212 1642.327107 17.490215 0.000000 0.022465
76.000000 52.639000 -3.000000 1.000000 -5.000000 46.655988 -2.474231 1021.507036 1957.758398 19.025297 0.000000 0.148522
77.000000 46.890000 -11.000000 2.000000 -5.000000 94.644347 18.421479 616.516365 848.842553 21.339993 0.000000 0.141185
78.000000 49.636000 -10.000000 2.000000 -5.000000 92.641982 16.017298 666.025893 889.329553 20.160007 0.000000 0.148173
79.000000 52.540000 -9.000000 2.000000 -5.000000 90.191403 13.332088 719.938273 937.304929 19.047038 0.000000 0.152841
80.000000 55.524000 -8.000000 2.000000 -5.000000 87.162480 10.327621 778.868147 995.224599 18.024317 0.000000 0.153845
81.000000 58.437000 -7.000000 2.000000 -5.000000 83.382259 6.963157 843.550150 1066.797071 17.127217 0.000000 0.149103
82.000000 60.989000 -6.000000 2.000000 -5.000000 78.622569 3.197671 914.869692 1157.915575 16.412370 0.000000 0.135304
83.000000 62.660000 -5.000000 2.000000 -5.000000 72.588672 -1.006223 993.903724 1278.575937 15.976473 0.000000 0.107139
84.000000 62.578000 -4.000000 2.000000 -5.000000 64.917210 -5.676125 1081.975507 1447.261173 15.999320 0.000000 0.057861
85.000000 59.401000 -3.000000 2.000000 -5.000000 55.202523 -10.821324 1180.729287 1702.515426 16.857509 0.000000 0.062204
86.000000 51.370000 -2.000000 2.000000 -5.000000 43.085907 -16.422694 1292.233915 2140.664158 19.495130 0.000000 0.234043
87.000000 48.088000 -11.000000 3.000000 -5.000000 99.768534 13.310170 720.373095 750.585455 20.806209 0.000000 0.150320
88.000000 50.930000 -10.000000 3.000000 -5.000000 97.933492 10.530016 774.937369 788.441325 19.646219 0.000000 0.157738
89.000000 53.934000 -9.000000 3.000000 -5.000000 95.649571 7.441888 834.413564 833.623755 18.552954 0.000000 0.163055
90.000000 57.026000 -8.000000 3.000000 -5.000000 92.786123 4.012818 899.496201 888.493006 17.547947 0.000000 0.165170
91.000000 60.058000 -7.000000 3.000000 -5.000000 89.172457 0.212020 971.017216 956.546475 16.663112 0.000000 0.162456
92.000000 62.758000 -6.000000 3.000000 -5.000000 84.588874 -3.985161 1049.981713 1043.197740 15.947862 0.000000 0.152505
93.000000 64.649000 -5.000000 3.000000 -5.000000 78.761142 -8.591739 1137.615487 1157.297980 15.483001 0.000000 0.132018
94.000000 64.962000 -4.000000 3.000000 -5.000000 71.366764 -13.602320 1235.429121 1314.380999 15.410358 0.000000 0.098865
95.000000 62.562000 -3.000000 3.000000 -5.000000 62.069100 -18.986100 1345.305787 1544.440535 16.003820 0.000000 0.079784
96.000000 56.037000 -2.000000 3.000000 -5.000000 50.602899 -24.681702 1469.623675 1913.866433 17.869635 0.000000 0.178996
97.000000 46.058000 -12.000000 4.000000 -5.000000 105.657740 10.704169 771.550982 633.981364 21.720999 0.000000 0.145923
98.000000 48.692000 -11.000000 4.000000 -5.000000 104.251565 7.850724 826.595188 665.038269 20.546681 0.000000 0.153871
99.000000 51.499000 -10.000000 4.000000 -5.000000 102.482106 4.703969 886.437442 701.938709 19.427512 0.000000 0.160372
100.000000 54.440000 -9.000000 4.000000 -5.000000 100.247310 1.238374 951.733679 746.381025 18.378617 0.000000 0.164738
101.000000 57.435000 -8.000000 4.000000 -5.000000 97.416005 -2.567639 1023.265109 800.767257 17.421209 0.000000 0.166009
102.000000 60.332000 -7.000000 4.000000 -5.000000 93.821816 -6.728044 1101.969616 868.602418 16.585997 0.000000 0.162856
103.000000 62.864000 -6.000000 4.000000 -5.000000 89.258751 -11.244617 1188.983115 955.197592 15.919161 0.000000 0.153540
104.000000 64.598000 -5.000000 4.000000 -5.000000 83.482384 -16.101884 1285.694727 1068.984294 15.493508 0.000000 0.136348
105.000000 64.868000 -4.000000 4.000000 -5.000000 76.223921 -21.262648 1393.821498 1224.162295 15.430891 0.000000 0.113076
106.000000 62.758000 -3.000000 4.000000 -5.000000 67.228544 -26.665643 1515.511231 1446.574187 15.951867 0.000000 0.108829
107.000000 57.210000 -2.000000 4.000000 -5.000000 56.330295 -32.226977 1653.486608 1788.548622 17.501029 0.000000 0.189164
109.000000 46.213000 -12.000000 5.000000 -5.000000 109.441960 5.297254 875.207234 559.461268 21.646646 0.000000 0.144866
110.000000 48.746000 -11.000000 5.000000 -5.000000 108.026760 2.114338 935.264385 590.496327 20.522528 0.000000 0.150999
111.000000 51.413000 -4.000000 2.000000 -2.000000 106.223462 -1.363579 1000.619508 627.740909 7.783490 0.000000 0.155423
112.000000 54.165000 -9.000000 5.000000 -5.000000 103.928416 -5.150132 1072.005998 672.995574 18.470864 0.000000 0.157469
113.000000 56.911000 -8.000000 5.000000 -5.000000 101.012684 -9.250700 1150.299159 728.782293 17.580478 0.000000 0.156265
114.000000 59.495000 -7.000000 5.000000 -5.000000 97.319257 -13.658790 1236.552280 798.732390 16.818095 0.000000 0.150743
115.000000 61.661000 -6.000000 5.000000 -5.000000 92.663367 -18.352480 1332.044292 888.249909 16.228470 0.000000 0.139887
116.000000 63.018000 -4.000000 5.000000 -5.000000 79.639196 -28.418320 1557.394962 1164.737085 15.882573 0.000000 0.111339
117.000000 60.944000 -3.000000 5.000000 -5.000000 70.889643 -33.657251 1691.639430 1389.020904 16.425010 0.000000 0.132724
118.000000 56.052000 -2.000000 5.000000 -5.000000 60.510900 -38.923323 1844.183621 1723.361872 17.860921 0.000000 0.227776
120.000000 45.956000 -12.000000 6.000000 -5.000000 112.568360 -0.329000 981.180293 493.671728 21.766666 0.000000 0.137996
121.000000 48.321000 -11.000000 6.000000 -5.000000 111.063514 -3.798879 1046.466233 525.567033 20.701883 0.000000 0.141439
122.000000 50.771000 -10.000000 6.000000 -5.000000 109.140835 -7.546288 1117.581516 564.176783 19.703464 0.000000 0.142777
123.000000 53.248000 -9.000000 6.000000 -5.000000 106.698236 -11.569955 1195.343372 611.435804 18.787698 0.000000 0.141345
124.000000 55.653000 -8.000000 6.000000 -5.000000 103.613834 -15.857586 1280.729285 670.029837 17.976684 0.000000 0.136382
125.000000 57.830000 -7.000000 6.000000 -5.000000 99.746336 -20.383538 1374.918288 743.780197 17.301164 0.000000 0.127243
126.000000 59.541000 -6.000000 6.000000 -5.000000 94.939041 -25.107537 1479.345739 838.284978 16.805219 0.000000 0.114319
127.000000 60.449000 -5.000000 6.000000 -5.000000 89.029947 -29.975168 1595.776981 962.038091 16.554377 0.000000 0.102646
128.000000 60.107000 -4.000000 6.000000 -5.000000 81.871004 -34.920572 1726.407954 1128.494099 16.650459 0.000000 0.111000
129.000000 57.989000 -3.000000 6.000000 -5.000000 73.359138 -39.871267 1874.005004 1360.151549 17.260752 0.000000 0.167796
130.000000 53.588000 -2.000000 6.000000 -5.000000 63.478383 -44.754306 2042.102958 1697.376700 18.680696 0.000000 0.288220
132.000000 47.501000 -11.000000 7.000000 -5.000000 113.368691 -9.768052 1160.290317 469.102724 21.058387 0.000000 0.125139
133.000000 49.688000 -10.000000 7.000000 -5.000000 111.263474 -13.702712 1237.426238 509.890345 20.132075 0.000000 0.122502
134.000000 51.844000 -9.000000 7.000000 -5.000000 108.616310 -17.862918 1321.864481 560.083029 19.295506 0.000000 0.116643
135.000000 53.869000 -8.000000 7.000000 -5.000000 105.317533 -22.221260 1414.693516 622.554306 18.571372 0.000000 0.107106
136.000000 55.611000 -7.000000 7.000000 -5.000000 101.246750 -26.738642 1517.229447 701.348888 17.990724 0.000000 0.094448
137.000000 56.859000 -6.000000 7.000000 -5.000000 96.278859 -31.365314 1631.078810 802.310758 17.597204 0.000000 0.083413
138.000000 57.330000 -5.000000 7.000000 -5.000000 90.294853 -36.043522 1758.223357 934.149858 17.454152 0.000000 0.090170
139.000000 56.678000 -4.000000 7.000000 -5.000000 83.198780 -40.711541 1901.136392 1110.344399 17.657125 0.000000 0.135692
140.000000 54.522000 -3.000000 7.000000 -5.000000 74.941296 -45.308444 2062.945261 1352.742596 18.357377 0.000000 0.227056
142.000000 46.372000 -11.000000 8.000000 -5.000000 114.983323 -15.665351 1276.830493 420.150235 21.570041 0.000000 0.102113
143.000000 48.276000 -10.000000 8.000000 -5.000000 112.658636 -19.694924 1360.261577 463.771376 20.720154 0.000000 0.094721
144.000000 50.099000 -9.000000 8.000000 -5.000000 109.781535 -23.888707 1451.694209 517.633822 19.967061 0.000000 0.083817
145.000000 51.742000 -8.000000 8.000000 -5.000000 106.258366 -28.209655 1552.337462 584.811614 19.333985 0.000000 0.070184
146.000000 53.068000 -7.000000 8.000000 -5.000000 101.992059 -32.612769 1663.656928 669.589889 18.852221 0.000000 0.059683
147.000000 53.893000 -6.000000 8.000000 -5.000000 96.888585 -37.047527 1787.446552 778.084972 18.564978 0.000000 0.070325
148.000000 53.990000 -5.000000 8.000000 -5.000000 90.866707 -41.461197 1925.926049 919.273106 18.533655 0.000000 0.115728
149.000000 53.093000 -4.000000 8.000000 -5.000000 83.871424 -45.802522 2081.875180 1106.772594 18.848520 0.000000 0.194962
150.000000 50.939000 -3.000000 8.000000 -5.000000 75.890599 -50.025165 2258.822276 1362.096913 19.647959 0.000000 0.313271
152.000000 46.638000 -10.000000 9.000000 -5.000000 113.419303 -25.406029 1486.200892 424.903709 21.447429 0.000000 0.059646
153.000000 48.138000 -9.000000 9.000000 -5.000000 110.314115 -29.541360 1584.964060 483.028975 20.780079 0.000000 0.044474
154.000000 49.425000 -8.000000 9.000000 -5.000000 106.583553 -33.737412 1693.814847 555.569391 20.239931 0.000000 0.036570
155.000000 50.378000 -7.000000 9.000000 -5.000000 102.153375 -37.950008 1814.381946 647.059060 19.858401 0.000000 0.058011
156.000000 50.844000 -6.000000 9.000000 -5.000000 96.957035 -42.133922 1948.664606 763.900618 19.678179 0.000000 0.107251
157.000000 50.641000 -5.000000 9.000000 -5.000000 90.943633 -46.245741 2099.144373 915.365989 19.758782 0.000000 0.180325
158.000000 49.575000 -4.000000 9.000000 -5.000000 84.087857 -50.246444 2268.939861 1115.287800 20.185760 0.000000 0.282439
160.000000 46.062000 -9.000000 10.000000 -5.000000 110.338842 -34.755775 1721.812601 455.401001 21.716143 0.000000 0.024431
161.000000 47.033000 -8.000000 10.000000 -5.000000 106.434443 -38.765234 1839.288077 533.835120 21.269196 0.000000 0.059739
162.000000 47.668000 -7.000000 10.000000 -5.000000 101.883481 -42.740822 1969.596514 632.616182 20.987484 0.000000 0.110431
163.000000 47.841000 -6.000000 10.000000 -5.000000 96.641845 -46.645523 2114.962202 758.441648 20.913054 0.000000 0.178579
164.000000 47.414000 -2.000000 4.000000 -2.000000 90.681372 -50.446214 2278.154988 920.899419 8.441419 0.000000 0.269701
166.000000 45.882000 -10.000000 -1.000000 -4.000000 78.675277 34.057165 247.466907 1201.172876 21.814259 0.000000 0.123787
167.000000 48.318000 -9.000000 -1.000000 -4.000000 75.564840 32.618431 286.193169 1269.928429 20.715675 0.000000 0.126521
168.000000 50.722000 -8.000000 -1.000000 -4.000000 71.803861 30.976759 328.891204 1353.639415 19.735227 0.000000 0.128039
169.000000 52.874000 -7.000000 -1.000000 -4.000000 67.189658 29.089319 376.205054 1459.000123 18.933447 0.000000 0.128302
170.000000 54.351000 -6.000000 -1.000000 -4.000000 61.439142 26.901642 428.925971 1597.953739 18.420739 0.000000 0.130777
171.000000 54.354000 -5.000000 -1.000000 -4.000000 54.155458 24.344093 488.037011 1794.399448 18.422065 0.000000 0.151794
172.000000 51.415000 -4.000000 -1.000000 -4.000000 44.789440 21.327512 554.774914 2104.944994 19.477574 0.000000 0.233124
173.000000 46.653000 -11.000000 0.000000 -4.000000 88.204358 31.308933 320.372953 980.493029 21.450223 0.000000 0.105538
174.000000 49.575000 -5.000000 0.000000 -2.000000 86.058521 29.695413 361.206768 1026.368571 10.093422 0.000000 0.112246
175.000000 52.730000 -9.000000 0.000000 -4.000000 83.466601 27.860636 406.077922 1080.425011 18.979984 0.000000 0.117861
176.000000 56.064000 -4.000000 0.000000 -2.000000 80.290776 25.760404 455.616329 1145.473394 8.926131 0.000000 0.120899
177.000000 59.439000 -7.000000 0.000000 -4.000000 76.337680 23.339699 510.590132 1225.938427 16.840220 0.000000 0.119071
178.000000 62.539000 -3.000000 0.000000 -2.000000 71.332486 20.530084 571.945818 1329.286250 8.003498 0.000000 0.108931
179.000000 64.710000 -5.000000 0.000000 -4.000000 64.882116 17.247017 640.863174 1469.339381 15.471887 0.000000 0.087146
180.000000 64.641000 -2.000000 0.000000 -2.000000 56.429363 13.387841 718.831882 1675.246551 7.745331 0.000000 0.075048
181.000000 59.865000 -3.000000 0.000000 -4.000000 45.218285 8.832252 807.760427 2021.942159 16.728855 0.000000 0.180501
183.000000 46.178000 -12.000000 1.000000 -4.000000 96.245607 28.580557 388.659022 806.865166 21.667866 0.000000 0.099242
184.000000 49.193000 -11.000000 1.000000 -4.000000 94.810900 26.803152 431.250327 839.510963 20.340495 0.000000 0.110026
185.000000 52.533000 -10.000000 1.000000 -4.000000 93.069057 24.790157 477.906578 877.435433 19.047867 0.000000 0.120625
186.000000 56.214000 -9.000000 1.000000 -4.000000 90.925650 22.497521 529.238880 922.177825 17.801389 0.000000 0.130237
187.000000 60.220000 -8.000000 1.000000 -4.000000 88.248885 19.871737 585.987293 975.988057 16.618071 0.000000 0.137640
188.000000 64.467000 -7.000000 1.000000 -4.000000 84.852231 16.848329 649.056744 1042.309954 15.524458 0.000000 0.140865
189.000000 68.723000 -6.000000 1.000000 -4.000000 80.468857 13.350869 719.565644 1126.730860 14.564389 0.000000 0.136552
190.000000 72.455000 -5.000000 1.000000 -4.000000 74.715910 9.291563 798.912788 1239.029884 13.815834 0.000000 0.118655
191.000000 74.536000 -4.000000 1.000000 -4.000000 67.051412 4.575263 888.871095 1398.177306 13.432118 0.000000 0.075568
192.000000 72.762000 -3.000000 1.000000 -4.000000 56.745480 -0.890094 991.721652 1646.856025 13.761982 0.000000 0.017983
193.000000 63.360000 -2.000000 1.000000 -4.000000 42.941985 -7.172869 1110.449832 2106.652365 15.806485 0.000000 0.213101
194.000000 47.838000 -6.000000 1.000000 -2.000000 102.088146 23.955600 496.801945 688.768261 10.456806 0.000000 0.107955
195.000000 51.060000 -11.000000 2.000000 -4.000000 100.943536 21.781486 544.916367 716.889964 19.594729 0.000000 0.120592
196.000000 54.644000 -5.000000 1.000000 -2.000000 99.512289 19.319141 597.683405 749.891558 9.155049 0.000000 0.132905
197.000000 58.615000 -9.000000 2.000000 -4.000000 97.700084 16.518346 655.812201 789.213262 17.070222 0.000000 0.144273
198.000000 62.970000 -4.000000 1.000000 -2.000000 95.374809 13.320724 720.163724 836.937921 7.945197 0.000000 0.153740
199.000000 67.643000 -7.000000 2.000000 -4.000000 92.349777 9.660269 791.793704 896.199702 14.793769 0.000000 0.159777
200.000000 76.856000 -5.000000 2.000000 -4.000000 83.032875 0.667618 962.458307 1072.534435 13.022857 0.000000 0.149764
201.000000 79.713000 -3.000000 2.000000 -4.000000 66.170820 -10.938660 1183.014852 1425.153899 12.559881 0.000000 0.070801
203.000000 45.966000 -13.000000 3.000000 -4.000000 108.143793 21.165410 558.280303 562.788652 21.762941 0.000000 0.103736
204.000000 48.931000 -12.000000 3.000000 -4.000000 107.408106 18.848791 607.576485 584.420838 20.444806 0.000000 0.116407
205.000000 52.223000 -11.000000 3.000000 -4.000000 106.455048 16.240736 661.477619 609.892602 19.156516 0.000000 0.128897
206.000000 55.872000 -10.000000 3.000000 -4.000000 105.212252 13.295676 720.660571 640.269452 17.905907 0.000000 0.140821
207.000000 59.895000 -9.000000 3.000000 -4.000000 103.579774 9.962750 785.941694 677.038733 16.703828 0.000000 0.151613
208.000000 64.277000 -8.000000 3.000000 -4.000000 101.418917 6.187494 858.314711 722.337362 15.565731 0.000000 0.160412
209.000000 68.937000 -7.000000 3.000000 -4.000000 98.537128 1.915633 939.001654 779.343305 14.514405 0.000000 0.165902
210.000000 73.659000 -6.000000 3.000000 -4.000000 94.669003 -2.899985 1029.522430 852.985965 13.584925 0.000000 0.166049
211.000000 77.975000 -5.000000 3.000000 -4.000000 89.456146 -8.288382 1131.791470 951.324369 12.834210 0.000000 0.157763
212.000000 80.969000 -4.000000 3.000000 -4.000000 82.435825 -14.245534 1248.254620 1088.457738 12.361170 0.000000 0.137013
213.000000 81.028000 -3.000000 3.000000 -4.000000 73.064128 -20.718145 1382.087277 1291.398979 12.354188 0.000000 0.105481
214.000000 75.723000 -2.000000 3.000000 -4.000000 60.824629 -27.592277 1537.488333 1619.028392 13.221848 0.000000 0.128056
216.000000 46.527000 -13.000000 4.000000 -4.000000 112.736330 16.003957 666.297130 471.788880 21.498958 0.000000 0.109223
217.000000 49.465000 -3.000000 1.000000 -1.000000 112.097216 13.274533 721.079883 492.027028 5.055593 0.000000 0.120611
218.000000 52.703000 -11.000000 4.000000 -4.000000 111.222037 10.215364 781.046127 516.324742 18.980527 0.000000 0.131452
219.000000 56.256000 -5.000000 2.000000 -2.000000 110.030445 6.783812 846.968080 545.846633 8.891030 0.000000 0.141320
220.000000 60.124000 -9.000000 4.000000 -4.000000 108.413397 2.937057 919.779366 582.213721 16.638731 0.000000 0.149604
221.000000 68.571000 -7.000000 4.000000 -4.000000 103.263313 -6.145857 1090.894005 685.835835 14.590497 0.000000 0.157512
222.000000 76.472000 -5.000000 4.000000 -4.000000 93.928583 -17.154144 1307.225037 863.645015 13.085176 0.000000 0.143131
223.000000 78.404000 -3.000000 4.000000 -4.000000 77.602324 -29.720717 1589.423305 1213.430488 12.766062 0.000000 0.111636
225.000000 46.655000 -13.000000 5.000000 -4.000000 116.713843 10.429496 776.890237 390.255348 21.438854 0.000000 0.109904
226.000000 49.482000 -12.000000 5.000000 -4.000000 116.071444 7.284774 837.414234 410.108614 20.214057 0.000000 0.118943
227.000000 52.562000 -11.000000 5.000000 -4.000000 115.157229 3.787959 903.739792 434.408660 19.029929 0.000000 0.126938
228.000000 55.894000 -10.000000 5.000000 -4.000000 113.881909 -0.092791 976.743072 464.457920 17.896073 0.000000 0.133369
229.000000 59.453000 -9.000000 5.000000 -4.000000 112.128182 -4.382519 1057.486010 502.062006 16.825374 0.000000 0.137519
230.000000 63.171000 -8.000000 5.000000 -4.000000 109.743940 -9.093455 1147.268317 549.782508 15.835530 0.000000 0.138419
231.000000 66.910000 -7.000000 5.000000 -4.000000 106.536054 -14.217692 1247.697971 611.353049 14.951532 0.000000 0.134811
232.000000 70.407000 -6.000000 5.000000 -4.000000 102.267310 -19.719779 1360.788372 692.393330 14.209857 0.000000 0.125353
233.000000 73.217000 -5.000000 5.000000 -4.000000 96.661323 -25.531593 1489.094713 801.697814 13.665915 0.000000 0.110009
234.000000 74.633000 -4.000000 5.000000 -4.000000 89.423449 -31.552425 1635.909363 953.709805 13.408171 0.000000 0.097560
235.000000 73.660000 -3.000000 5.000000 -4.000000 80.288797 -37.656438 1805.548382 1173.655908 13.587108 0.000000 0.125354
236.000000 69.123000 -2.000000 5.000000 -4.000000 69.107135 -43.707060 2003.782918 1509.340670 14.481131 0.000000 0.235125
239.000000 46.393000 -13.000000 6.000000 -4.000000 120.021078 4.507454 890.152907 317.143653 21.558617 0.000000 0.104960
240.000000 49.045000 -6.000000 3.000000 -2.000000 119.279171 0.974797 956.686787 337.438859 10.196498 0.000000 0.110755
241.000000 51.893000 -11.000000 6.000000 -4.000000 118.219052 -2.908498 1029.682760 362.690249 19.274474 0.000000 0.114870
242.000000 54.916000 -5.000000 3.000000 -2.000000 116.745033 -7.156125 1110.130320 394.361918 9.106819 0.000000 0.116647
243.000000 58.072000 -9.000000 6.000000 -4.000000 114.736850 -11.768487 1199.231851 434.473698 17.224504 0.000000 0.115225
244.000000 61.270000 -4.000000 3.000000 -2.000000 112.046621 -16.727315 1298.463127 485.871225 8.163014 0.000000 0.109540
245.000000 64.355000 -7.000000 6.000000 -4.000000 108.498078 -21.991057 1409.655701 552.662597 15.544493 0.000000 0.098550
246.000000 67.065000 -3.000000 3.000000 -2.000000 103.890367 -27.492781 1535.110995 640.951339 7.458717 0.000000 0.082637
247.000000 69.000000 -5.000000 6.000000 -4.000000 98.009808 -33.142340 1677.761299 760.122797 14.500366 0.000000 0.071101
248.000000 68.111000 -3.000000 6.000000 -4.000000 81.673104 -44.455607 2031.033466 1161.694666 14.693214 0.000000 0.183518
249.000000 63.805000 -1.000000 3.000000 -2.000000 71.027862 -49.905345 2253.382594 1515.506965 7.843621 0.000000 0.338633
251.000000 45.798000 -13.000000 7.000000 -4.000000 122.631023 -1.659540 1006.182978 251.570530 21.837863 0.000000 0.094066
252.000000 48.231000 -12.000000 7.000000 -4.000000 121.706832 -5.519775 1079.010280 272.992295 20.736643 0.000000 0.095815
253.000000 50.798000 -11.000000 7.000000 -4.000000 120.416006 -9.701629 1159.005839 299.970088 19.689098 0.000000 0.095092
254.000000 53.467000 -10.000000 7.000000 -4.000000 118.661795 -14.196921 1247.282775 334.144294 18.706740 0.000000 0.091070
255.000000 56.178000 -9.000000 7.000000 -4.000000 116.328719 -18.980933 1345.197252 377.766012 17.804625 0.000000 0.082725
256.000000 58.830000 -8.000000 7.000000 -4.000000 113.282955 -24.009843 1454.418651 433.984785 17.002831 0.000000 0.069075
257.000000 61.262000 -7.000000 7.000000 -4.000000 109.375454 -29.220480 1577.025528 507.306649 16.328745 0.000000 0.050936
258.000000 63.234000 -6.000000 7.000000 -4.000000 104.449274 -34.533344 1715.639164 604.348565 15.820723 0.000000 0.043203
259.000000 64.406000 -5.000000 7.000000 -4.000000 98.352914 -39.858975 1873.613075 735.131538 15.534187 0.000000 0.080818
260.000000 64.338000 -4.000000 7.000000 -4.000000 90.961562 -45.106632 2055.307882 915.405224 15.552307 0.000000 0.161430
261.000000 62.523000 -3.000000 7.000000 -4.000000 82.207271 -50.193271 2266.500065 1171.076296 16.005854 0.000000 0.288137
264.000000 47.117000 -3.000000 2.000000 -1.000000 123.380166 -12.037170 1204.503290 215.906149 5.306483 0.000000 0.074142
265.000000 49.382000 -11.000000 8.000000 -4.000000 121.803756 -16.403739 1291.846956 245.251521 20.252852 0.000000 0.067668
266.000000 51.682000 -5.000000 4.000000 -2.000000 119.727228 -21.009811 1388.362141 282.646552 9.676140 0.000000 0.056690
267.000000 53.948000 -9.000000 8.000000 -4.000000 117.047129 -25.811757 1495.573475 330.583450 18.540172 0.000000 0.040013
268.000000 56.076000 -4.000000 4.000000 -2.000000 113.650659 -30.751397 1615.363339 392.526141 8.918771 0.000000 0.018948
269.000000 57.913000 -7.000000 8.000000 -4.000000 109.420524 -35.759197 1750.083344 473.389753 17.272624 0.000000 0.031607
270.000000 59.250000 -3.000000 4.000000 -2.000000 104.242836 -40.759646 1902.710244 580.317661 8.442142 0.000000 0.083150
271.000000 59.811000 -5.000000 8.000000 -4.000000 98.018881 -45.677887 2077.068471 723.987189 16.727523 0.000000 0.159646
274.000000 45.782000 -12.000000 9.000000 -4.000000 124.359899 -18.412230 1333.290623 165.450397 21.844624 0.000000 0.046400
275.000000 47.743000 -11.000000 9.000000 -4.000000 122.474837 -22.841572 1428.351644 197.701048 20.948090 0.000000 0.033616
276.000000 49.682000 -10.000000 9.000000 -4.000000 120.070745 -27.426913 1533.539520 238.912811 20.131040 0.000000 0.015226
277.000000 51.529000 -9.000000 9.000000 -4.000000 117.060733 -32.115484 1650.563516 291.824963 19.410181 0.000000 0.013027
278.000000 53.184000 -8.000000 9.000000 -4.000000 113.355570 -36.846716 1781.540495 360.221761 18.807254 0.000000 0.049545
279.000000 54.509000 -7.000000 9.000000 -4.000000 108.868612 -41.556668 1929.124115 449.433408 18.351087 0.000000 0.100825
280.000000 55.329000 -6.000000 9.000000 -4.000000 103.522698 -46.183092 2096.686502 567.136922 18.080740 0.000000 0.171715
281.000000 55.427000 -5.000000 9.000000 -4.000000 97.259337 -50.670177 2288.579049 724.679839 18.050478 0.000000 0.269918
284.000000 45.961000 -11.000000 10.000000 -4.000000 122.543576 -28.880706 1568.673578 156.617777 21.759848 0.000000 0.021112
285.000000 47.565000 -5.000000 5.000000 -2.000000 119.834986 -33.337280 1682.996100 202.149505 10.513452 0.000000 0.041809
286.000000 49.035000 -9.000000 10.000000 -4.000000 116.537600 -37.817399 1810.383026 260.590000 20.397292 0.000000 0.076536
287.000000 50.280000 -4.000000 5.000000 -2.000000 112.584557 -42.266698 1953.209502 336.048169 9.946644 0.000000 0.125116
288.000000 51.182000 -7.000000 10.000000 -4.000000 107.915388 -46.633009 2114.463565 434.274165 19.544072 0.000000 0.191178
289.000000 51.597000 -3.000000 5.000000 -2.000000 102.481446 -50.869863 2297.957454 563.485919 9.694309 0.000000 0.280675
292.000000 46.549000 -9.000000 11.000000 -4.000000 115.627801 -42.903055 1975.261305 236.137978 21.487013 0.000000 0.150863
293.000000 47.450000 -8.000000 11.000000 -4.000000 111.492192 -47.036197 2130.647181 319.178023 21.080259 0.000000 0.213558
297.000000 45.633000 -10.000000 -2.000000 -3.000000 75.683036 42.646300 -16.309668 1314.439476 21.933486 0.000000 0.193197
298.000000 48.036000 -9.000000 -2.000000 -3.000000 72.381744 41.784736 13.197681 1399.387337 20.837451 0.000000 0.199217
299.000000 50.378000 -8.000000 -2.000000 -3.000000 68.387392 40.793421 46.183358 1504.235896 19.869973 0.000000 0.208650
300.000000 52.404000 -7.000000 -2.000000 -3.000000 63.474855 39.641410 83.300922 1638.628455 19.103287 0.000000 0.223771
301.000000 53.608000 -6.000000 -2.000000 -3.000000 57.321306 38.287388 125.378604 1820.592776 18.676222 0.000000 0.250393
302.000000 52.996000 -5.000000 -2.000000 -3.000000 49.457425 36.675117 173.481845 2088.862701 18.893918 0.000000 0.303859
304.000000 47.209000 -11.000000 -1.000000 -3.000000 86.104021 39.879879 75.720332 1036.516565 21.197426 0.000000 0.124818
305.000000 50.327000 -10.000000 -1.000000 -3.000000 83.917606 38.820510 109.002659 1088.203408 19.885238 0.000000 0.126053
306.000000 53.746000 -9.000000 -1.000000 -3.000000 81.284133 37.603167 146.047034 1149.267578 18.620992 0.000000 0.128784
307.000000 57.438000 -8.000000 -1.000000 -3.000000 78.060164 36.191060 187.529528 1223.004512 17.425292 0.000000 0.132600
308.000000 61.286000 -7.000000 -1.000000 -3.000000 74.038470 34.535595 234.298527 1314.695255 16.332520 0.000000 0.136826
309.000000 64.983000 -6.000000 -1.000000 -3.000000 68.912004 32.571569 287.433371 1433.510599 15.404672 0.000000 0.141084
310.000000 67.802000 -5.000000 -1.000000 -3.000000 62.214782 30.210063 348.328677 1597.236616 14.766037 0.000000 0.148535
311.000000 68.081000 -4.000000 -1.000000 -3.000000 53.227608 27.327929 418.818533 1846.412254 14.707694 0.000000 0.180002
313.000000 46.320000 -13.000000 1.000000 -3.000000 102.439036 34.300433 240.789903 653.614454 21.598512 0.000000 0.054293
314.000000 49.576000 -12.000000 1.000000 -3.000000 101.698237 32.856896 279.862029 675.705003 20.180367 0.000000 0.062052
315.000000 53.281000 -11.000000 1.000000 -3.000000 100.792000 31.206149 323.015138 701.135280 18.777377 0.000000 0.073202
316.000000 57.520000 -10.000000 1.000000 -3.000000 99.666344 29.303562 370.923833 730.775747 17.393971 0.000000 0.086746
317.000000 62.391000 -9.000000 1.000000 -3.000000 98.243777 27.092082 424.420073 765.845401 16.036489 0.000000 0.101762
318.000000 68.000000 -8.000000 1.000000 -3.000000 96.410394 24.498349 484.541894 808.113173 14.714343 0.000000 0.117286
319.000000 74.440000 -7.000000 1.000000 -3.000000 93.994490 21.427842 552.601434 860.261403 13.442126 0.000000 0.132001
320.000000 81.732000 -6.000000 1.000000 -3.000000 90.730507 17.759352 630.281791 926.590081 12.243749 0.000000 0.143740
321.000000 89.667000 -5.000000 1.000000 -3.000000 86.197911 13.340161 719.778099 1014.510298 11.161291 0.000000 0.148466
323.000000 47.844000 -13.000000 2.000000 -3.000000 108.430666 29.889636 356.362362 527.296658 20.908347 0.000000 0.050386
324.000000 51.281000 -12.000000 2.000000 -3.000000 108.013589 28.038952 401.785265 544.466738 19.507431 0.000000 0.064634
325.000000 55.197000 -11.000000 2.000000 -3.000000 107.458954 25.915444 452.021008 564.647186 18.123746 0.000000 0.080298
326.000000 59.682000 -10.000000 2.000000 -3.000000 106.713729 23.461335 507.877307 588.689200 16.762033 0.000000 0.096886
327.000000 64.840000 -9.000000 2.000000 -3.000000 105.699946 20.604396 570.353330 617.793723 15.428945 0.000000 0.113934
328.000000 70.782000 -8.000000 2.000000 -3.000000 104.300822 17.254940 640.699992 653.709913 14.134125 0.000000 0.130822
329.000000 77.605000 -7.000000 2.000000 -3.000000 102.338252 13.303541 720.504571 699.085201 12.892093 0.000000 0.146557
330.000000 85.329000 -6.000000 2.000000 -3.000000 99.536372 8.621539 811.811917 758.121152 11.725781 0.000000 0.159436
331.000000 89.397000 -1.000000 2.000000 -3.000000 48.471386 -29.218155 1576.968189 2033.139040 11.201223 0.000000 0.235794
333.000000 45.757000 -14.000000 3.000000 -3.000000 114.040629 26.953035 427.711480 402.382618 21.859832 0.000000 0.044701
334.000000 48.850000 -13.000000 3.000000 -3.000000 113.945910 24.917820 474.993899 413.959272 20.475886 0.000000 0.059221
335.000000 52.343000 -4.000000 1.000000 -1.000000 113.756438 22.594629 527.100304 427.891832 6.369863 0.000000 0.074318
336.000000 56.305000 -11.000000 3.000000 -3.000000 113.430650 19.927213 584.808630 444.856201 17.765158 0.000000 0.089787
337.000000 60.814000 -10.000000 3.000000 -3.000000 112.907636 16.847507 649.073585 465.790226 16.448277 0.000000 0.105359
338.000000 71.802000 -8.000000 3.000000 -3.000000 110.864707 9.115032 802.315955 525.516041 13.931785 0.000000 0.134875
339.000000 78.401000 -7.000000 3.000000 -3.000000 109.007876 4.267978 894.677932 569.205627 12.759614 0.000000 0.147066
340.000000 89.485000 -1.000000 3.000000 -3.000000 56.698228 -40.669417 1899.760061 1873.178431 11.188326 0.000000 0.279513
342.000000 46.283000 -14.000000 4.000000 -3.000000 118.836500 21.859775 543.209952 302.499491 21.610216 0.000000 0.054641
343.000000 49.347000 -13.000000 4.000000 -3.000000 118.869718 19.360650 596.807599 312.027585 20.268466 0.000000 0.067768
344.000000 52.781000 -12.000000 4.000000 -3.000000 118.791060 16.511570 655.950678 324.080592 18.949514 0.000000 0.080911
345.000000 56.641000 -11.000000 4.000000 -3.000000 118.547779 13.250987 721.546769 339.440921 17.658546 0.000000 0.093798
346.000000 60.979000 -10.000000 4.000000 -3.000000 118.063462 9.509175 794.712930 359.199708 16.402447 0.000000 0.106019
347.000000 65.845000 -9.000000 4.000000 -3.000000 117.227340 5.211072 876.839834 384.912102 15.190568 0.000000 0.116955
348.000000 71.263000 -8.000000 4.000000 -3.000000 115.879395 0.283151 969.681008 418.851451 14.035926 0.000000 0.125670
349.000000 77.199000 -7.000000 4.000000 -3.000000 113.790760 -5.333494 1075.479435 464.441743 12.957208 0.000000 0.130749
350.000000 83.485000 -6.000000 4.000000 -3.000000 110.640739 -11.662289 1197.151144 527.027929 11.982225 0.000000 0.130101
351.000000 89.689000 -5.000000 4.000000 -3.000000 105.996246 -18.664296 1338.558128 615.326711 11.154265 0.000000 0.120931
354.000000 46.410000 -14.000000 5.000000 -3.000000 123.046128 16.229846 661.699537 211.751912 21.549745 0.000000 0.060640
355.000000 49.367000 -13.000000 5.000000 -3.000000 123.101919 13.231493 721.933240 220.185935 20.258719 0.000000 0.071028
356.000000 52.648000 -12.000000 5.000000 -3.000000 123.005983 9.831197 788.488133 231.467086 18.996344 0.000000 0.080876
357.000000 56.285000 -11.000000 5.000000 -3.000000 122.690393 5.971699 862.414382 246.517505 17.768834 0.000000 0.089724
358.000000 60.306000 -10.000000 5.000000 -3.000000 122.060116 1.596168 945.008412 266.623793 16.584342 0.000000 0.096924
359.000000 64.719000 -9.000000 5.000000 -3.000000 120.983482 -3.344082 1037.889594 293.617040 15.453775 0.000000 0.101549
360.000000 69.495000 -8.000000 5.000000 -3.000000 119.280996 -8.877359 1143.107470 330.163897 14.392069 0.000000 0.102261
361.000000 74.531000 -7.000000 5.000000 -3.000000 116.714092 -14.995161 1263.294768 380.253961 13.420236 0.000000 0.097157
362.000000 79.584000 -6.000000 5.000000 -3.000000 112.977622 -21.634767 1401.890701 450.050246 12.568807 0.000000 0.083823
363.000000 84.178000 -5.000000 5.000000 -3.000000 107.703067 -28.668105 1563.475403 549.448171 11.883904 0.000000 0.061678
364.000000 87.464000 -4.000000 5.000000 -3.000000 100.483825 -35.906241 1754.285817 695.110430 11.438659 0.000000 0.056731
365.000000 88.111000 -3.000000 5.000000 -3.000000 90.938775 -43.124426 1983.039351 916.836344 11.356365 0.000000 0.133764
366.000000 84.367000 -2.000000 5.000000 -3.000000 78.831248 -50.101525 2262.303129 1272.294652 11.862395 0.000000 0.300455
368.000000 46.176000 -14.000000 6.000000 -3.000000 126.596708 10.099218 783.297953 129.190746 21.657580 0.000000 0.060684
369.000000 48.966000 -13.000000 6.000000 -3.000000 126.566466 6.597938 850.507753 137.327486 20.423541 0.000000 0.067540
370.000000 52.021000 -4.000000 2.000000 -1.000000 126.326793 2.666537 924.873227 148.750266 6.408111 0.000000 0.073144
371.000000 55.353000 -11.000000 6.000000 -3.000000 125.794851 -1.734982 1007.601401 164.543151 18.067171 0.000000 0.076808
372.000000 58.963000 -10.000000 6.000000 -3.000000 124.860489 -6.634429 1100.186947 186.215205 16.961421 0.000000 0.077586
373.000000 66.864000 -8.000000 6.000000 -3.000000 121.172029 -17.914322 1322.930702 256.715142 14.957927 0.000000 0.064569
374.000000 70.936000 -7.000000 6.000000 -3.000000 118.014371 -24.192661 1458.540135 313.243648 14.099904 0.000000 0.046264
375.000000 77.902000 -5.000000 6.000000 -3.000000 107.805235 -37.430606 1798.800493 505.698291 12.840931 0.000000 0.046168
376.000000 79.639000 -4.000000 6.000000 -3.000000 100.214794 -44.051998 2016.254616 671.151152 12.562306 0.000000 0.130986
378.000000 45.630000 -14.000000 7.000000 -3.000000 129.438458 3.555252 908.129176 54.004322 21.915831 0.000000 0.054328
379.000000 48.209000 -13.000000 7.000000 -3.000000 129.221034 -0.408605 982.675725 62.515333 20.743296 0.000000 0.057057
380.000000 50.991000 -12.000000 7.000000 -3.000000 128.727655 -4.794556 1065.275976 74.841577 19.611835 0.000000 0.057709
381.000000 53.970000 -11.000000 7.000000 -3.000000 127.865622 -9.613871 1157.309589 92.244199 18.529603 0.000000 0.055369
382.000000 57.123000 -10.000000 7.000000 -3.000000 126.518957 -14.855778 1260.490435 116.472462 17.507060 0.000000 0.048810
383.000000 60.399000 -9.000000 7.000000 -3.000000 124.546759 -20.479652 1376.974325 149.995173 16.557862 0.000000 0.036391
384.000000 63.701000 -8.000000 7.000000 -3.000000 121.784154 -26.409999 1509.511265 196.367044 15.700171 0.000000 0.016819
385.000000 66.862000 -7.000000 7.000000 -3.000000 118.047191 -32.537482 1661.665335 260.826392 14.958685 0.000000 0.022729
386.000000 69.617000 -6.000000 7.000000 -3.000000 113.143087 -38.728057 1838.139994 351.304933 14.367870 0.000000 0.073248
387.000000 71.568000 -5.000000 7.000000 -3.000000 106.887366 -44.839280 2045.272925 480.204990 13.977317 0.000000 0.152143
388.000000 72.177000 -4.000000 7.000000 -3.000000 99.129818 -50.739234 2291.813330 667.682892 13.861059 0.000000 0.272643
390.000000 47.167000 -13.000000 8.000000 -3.000000 131.064557 -7.599039 1118.589938 -5.047947 21.201184 0.000000 0.040596
391.000000 49.651000 -12.000000 8.000000 -3.000000 130.237317 -12.310492 1209.876564 8.824639 20.140526 0.000000 0.036704
392.000000 52.258000 -11.000000 8.000000 -3.000000 128.975659 -17.373980 1311.753471 28.561859 19.136078 0.000000 0.030221
393.000000 54.950000 -10.000000 8.000000 -3.000000 127.169055 -22.743181 1426.177028 56.165464 18.199267 0.000000 0.024002
394.000000 57.658000 -9.000000 8.000000 -3.000000 124.692560 -28.345061 1555.617099 94.447166 17.344843 0.000000 0.031144
395.000000 60.276000 -8.000000 8.000000 -3.000000 121.410930 -34.082889 1703.237341 147.432400 16.592181 0.000000 0.060068
396.000000 62.639000 -7.000000 8.000000 -3.000000 117.185462 -39.844673 1873.157222 221.012598 15.967248 0.000000 0.109075
397.000000 64.509000 -6.000000 8.000000 -3.000000 111.883937 -45.515621 2070.842476 324.034194 15.505667 0.000000 0.182656
400.000000 45.907000 -13.000000 9.000000 -3.000000 132.139279 -14.752356 1258.411961 -66.044341 21.782750 0.000000 0.026223
401.000000 48.089000 -4.000000 3.000000 -1.000000 130.935462 -19.629048 1358.866111 -50.076113 6.931593 0.000000 0.028368
402.000000 50.328000 -11.000000 9.000000 -3.000000 129.252302 -24.749249 1471.161363 -27.389275 19.869686 0.000000 0.038696
403.000000 52.579000 -10.000000 9.000000 -3.000000 126.993574 -30.044845 1597.522509 4.279773 19.019717 0.000000 0.060003
404.000000 54.767000 -3.000000 3.000000 -1.000000 124.057693 -35.431340 1740.768924 48.096330 6.086842 0.000000 0.093948
405.000000 56.785000 -8.000000 9.000000 -3.000000 120.342336 -40.815101 1904.527422 108.568858 17.612436 0.000000 0.143644
406.000000 58.482000 -7.000000 9.000000 -3.000000 115.750484 -46.102773 2093.543598 192.256572 17.102333 0.000000 0.214495
409.000000 46.379000 -12.000000 10.000000 -3.000000 130.938906 -26.535248 1512.447519 -102.520066 21.561198 0.000000 0.060870
410.000000 48.272000 -11.000000 10.000000 -3.000000 128.852806 -31.547289 1635.776499 -76.353272 20.716063 0.000000 0.087498
411.000000 50.120000 -10.000000 10.000000 -3.000000 126.189002 -36.616985 1774.821825 -40.025655 19.953016 0.000000 0.124509
412.000000 51.849000 -9.000000 10.000000 -3.000000 122.870336 -41.665822 1932.792147 9.991491 19.288432 0.000000 0.175286
416.000000 46.163000 -11.000000 11.000000 -3.000000 127.938665 -37.666776 1805.858265 -118.957884 21.662929 0.000000 0.152134
427.000000 46.507000 -11.000000 -2.000000 -2.000000 82.572863 48.492302 -241.200084 1152.710026 21.518206 0.000000 0.254846
428.000000 49.497000 -5.000000 -1.000000 -1.000000 80.142681 48.046774 -222.310101 1220.746777 10.109510 0.000000 0.256063
429.000000 52.746000 -9.000000 -2.000000 -2.000000 77.224044 47.532995 -200.927933 1302.471548 18.974575 0.000000 0.259869
430.000000 56.198000 -4.000000 -1.000000 -1.000000 73.659452 46.934087 -176.525553 1403.125544 8.905135 0.000000 0.267513
431.000000 59.688000 -7.000000 -2.000000 -2.000000 69.219330 46.227150 -148.414430 1531.387020 16.770100 0.000000 0.281096
432.000000 62.812000 -3.000000 -1.000000 -1.000000 63.558872 45.380347 -115.679532 1703.019529 7.968738 0.000000 0.304737
436.000000 47.317000 -12.000000 -1.000000 -2.000000 92.268965 45.772825 -130.727927 879.861348 21.146463 0.000000 0.174309
437.000000 50.730000 -11.000000 -1.000000 -2.000000 90.814853 45.127884 -106.109598 919.302806 19.724252 0.000000 0.167286
438.000000 54.621000 -10.000000 -1.000000 -2.000000 89.080320 44.383876 -78.392033 965.175582 18.319892 0.000000 0.161199
439.000000 59.072000 -9.000000 -1.000000 -2.000000 86.977976 43.516397 -46.950669 1019.354708 16.939990 0.000000 0.156643
440.000000 64.171000 -8.000000 -1.000000 -2.000000 84.381141 42.492448 -10.981038 1084.604676 15.594871 0.000000 0.154338
441.000000 69.978000 -7.000000 -1.000000 -2.000000 81.099911 41.266372 30.571032 1165.232818 14.301621 0.000000 0.155024
442.000000 76.457000 -6.000000 -1.000000 -2.000000 76.838295 39.773311 79.114451 1268.465186 13.090715 0.000000 0.159312
443.000000 83.260000 -5.000000 -1.000000 -2.000000 71.113915 37.918291 136.575792 1407.740432 12.022306 0.000000 0.167918
444.000000 89.115000 -4.000000 -1.000000 -2.000000 63.101090 35.557317 205.661090 1612.157403 11.234002 0.000000 0.184986
445.000000 90.007000 -3.000000 -1.000000 -2.000000 51.318790 32.463275 290.294391 1962.285441 11.124699 0.000000 0.240024
447.000000 46.902000 -13.000000 0.000000 -2.000000 100.534278 43.006501 -28.889005 667.306671 21.330558 0.000000 0.119166
448.000000 50.358000 -12.000000 0.000000 -2.000000 99.808405 42.158532 0.494459 689.990606 19.867016 0.000000 0.107809
449.000000 54.342000 -11.000000 0.000000 -2.000000 98.941998 41.180721 33.415108 715.988925 18.410910 0.000000 0.097054
450.000000 58.976000 -10.000000 0.000000 -2.000000 97.891668 40.041501 70.552558 746.129574 16.964525 0.000000 0.087951
451.000000 64.421000 -9.000000 0.000000 -2.000000 96.594882 38.698484 112.772442 781.560492 15.531196 0.000000 0.082139
452.000000 70.882000 -8.000000 0.000000 -2.000000 94.958582 37.093575 161.194730 823.931818 14.115979 0.000000 0.081563
453.000000 78.621000 -7.000000 0.000000 -2.000000 92.838976 35.145342 217.294540 875.726839 12.726925 0.000000 0.087384
454.000000 87.950000 -6.000000 0.000000 -2.000000 90.003876 32.736789 283.055040 940.913434 11.377687 0.000000 0.098729
455.000000 45.719000 -14.000000 1.000000 -2.000000 107.546562 40.205285 65.290638 495.406344 21.880244 0.000000 0.082400
456.000000 49.005000 -13.000000 1.000000 -2.000000 107.343607 39.153681 98.643717 507.542095 20.412811 0.000000 0.068474
457.000000 52.785000 -12.000000 1.000000 -2.000000 107.085693 37.942546 135.843445 521.515396 18.951199 0.000000 0.054804
458.000000 57.173000 -11.000000 1.000000 -2.000000 106.752746 36.533976 177.596001 537.785995 17.496941 0.000000 0.043309
459.000000 62.320000 -10.000000 1.000000 -2.000000 106.315056 34.877615 224.791691 556.983706 16.052160 0.000000 0.038490
460.000000 68.426000 -9.000000 1.000000 -2.000000 105.727358 32.905436 278.569135 579.996294 14.619886 0.000000 0.045100
461.000000 75.762000 -8.000000 1.000000 -2.000000 104.918379 30.523939 340.408337 608.118866 13.204588 0.000000 0.061440
462.000000 84.688000 -7.000000 1.000000 -2.000000 103.771586 27.602423 412.268988 643.322157 11.813159 0.000000 0.083302
463.000000 47.115000 -7.000000 1.000000 -1.000000 113.645504 36.129428 189.305639 357.556650 10.614790 0.000000 0.045484
464.000000 50.560000 -13.000000 2.000000 -2.000000 113.797036 34.689670 230.025568 363.757366 19.783061 0.000000 0.029692
465.000000 54.523000 -6.000000 1.000000 -1.000000 113.930727 33.019823 275.516795 371.353135 9.172644 0.000000 0.014495
466.000000 59.121000 -11.000000 2.000000 -2.000000 114.030353 31.063596 326.670114 380.781465 16.918439 0.000000 0.013644
467.000000 64.509000 -5.000000 1.000000 -1.000000 114.069267 28.746397 384.612781 392.664463 7.752743 0.000000 0.030984
468.000000 70.887000 -9.000000 2.000000 -2.000000 114.003077 25.968325 450.792552 407.910987 14.110582 0.000000 0.051877
469.000000 87.729000 -7.000000 2.000000 -2.000000 113.198599 18.443650 616.053619 454.754986 11.401897 0.000000 0.097582
470.000000 48.050000 -14.000000 3.000000 -2.000000 119.333373 31.442968 316.918762 232.090879 20.814874 0.000000 0.023133
471.000000 51.545000 -13.000000 3.000000 -2.000000 119.754333 29.525339 365.433476 233.915637 19.403522 0.000000 0.010482
472.000000 55.546000 -12.000000 3.000000 -2.000000 120.169026 27.289826 419.725118 237.004861 18.005648 0.000000 0.013774
473.000000 60.161000 -11.000000 3.000000 -2.000000 120.555102 24.659084 480.890847 241.862275 16.624442 0.000000 0.029190
474.000000 65.522000 -10.000000 3.000000 -2.000000 120.874370 21.532803 550.324433 249.224202 15.264187 0.000000 0.046463
475.000000 71.794000 -9.000000 3.000000 -2.000000 121.061816 17.781464 629.823754 260.192305 13.930773 0.000000 0.064267
476.000000 79.173000 -8.000000 3.000000 -2.000000 121.006653 13.240802 721.748699 276.460964 12.632521 0.000000 0.081819
477.000000 87.875000 -7.000000 3.000000 -2.000000 120.519754 7.711497 829.259388 300.723808 11.381596 0.000000 0.097975
479.000000 45.480000 -15.000000 4.000000 -2.000000 123.912172 28.223084 397.337659 119.798078 21.989761 0.000000 0.028750
480.000000 48.528000 -7.000000 2.000000 -1.000000 124.495542 26.075952 448.288903 117.594000 10.304142 0.000000 0.022041
481.000000 51.971000 -13.000000 4.000000 -2.000000 125.076489 23.587626 505.055384 116.325062 19.242740 0.000000 0.022522
482.000000 55.881000 -6.000000 2.000000 -1.000000 125.631152 20.681801 568.692923 116.424792 8.948235 0.000000 0.030231
483.000000 60.340000 -11.000000 4.000000 -2.000000 126.120103 17.263222 640.529402 118.522762 16.573814 0.000000 0.041258
484.000000 65.447000 -5.000000 2.000000 -1.000000 126.478953 13.215088 722.258424 123.548678 7.640264 0.000000 0.053094
485.000000 71.309000 -9.000000 4.000000 -2.000000 126.603489 8.399591 816.074535 132.903489 14.024394 0.000000 0.064233
486.000000 85.686000 -7.000000 4.000000 -2.000000 125.386093 -4.121467 1052.555074 174.528419 11.671453 0.000000 0.077630
487.000000 45.623000 -15.000000 5.000000 -2.000000 128.372054 22.695148 524.883440 17.270394 21.919382 0.000000 0.029768
488.000000 48.577000 -14.000000 5.000000 -2.000000 129.021767 19.984790 583.584455 12.867877 20.586179 0.000000 0.027878
489.000000 51.883000 -13.000000 5.000000 -2.000000 129.633764 16.846653 649.091114 9.569688 19.274320 0.000000 0.030098
490.000000 55.593000 -12.000000 5.000000 -2.000000 130.165933 13.194836 722.659789 7.923498 17.988086 0.000000 0.035199
491.000000 59.762000 -11.000000 5.000000 -2.000000 130.553254 8.930157 805.876379 8.725619 16.732984 0.000000 0.041271
492.000000 64.449000 -10.000000 5.000000 -2.000000 130.696650 3.945233 900.771927 13.151595 15.516222 0.000000 0.046574
493.000000 69.699000 -9.000000 5.000000 -2.000000 130.447747 -1.862044 1009.990586 22.969332 14.347421 0.000000 0.049374
494.000000 75.532000 -8.000000 5.000000 -2.000000 129.589981 -8.561778 1137.039861 40.898095 13.239711 0.000000 0.047535
495.000000 81.893000 -7.000000 5.000000 -2.000000 127.819305 -16.150008 1286.674292 71.235859 12.211498 0.000000 0.038207
496.000000 88.586000 -6.000000 5.000000 -2.000000 124.732397 -24.500360 1465.503723 121.004273 11.289408 0.000000 0.020640
497.000000 48.241000 -7.000000 3.000000 -1.000000 132.813707 13.178474 722.984027 -83.108078 10.364189 0.000000 0.028008
498.000000 51.343000 -13.000000 6.000000 -2.000000 133.317629 9.351667 797.753327 -87.543596 19.475951 0.000000 0.028066
499.000000 54.775000 -6.000000 3.000000 -1.000000 133.659322 4.944778 881.881647 -89.904981 9.127857 0.000000 0.029087
500.000000 58.565000 -11.000000 6.000000 -2.000000 133.746404 -0.119433 977.243539 -89.200409 17.074283 0.000000 0.029775
501.000000 62.732000 -5.000000 3.000000 -1.000000 133.448851 -5.901358 1086.249981 -83.972563 7.970109 0.000000 0.028972
502.000000 67.271000 -9.000000 6.000000 -2.000000 132.589211 -12.421143 1212.055051 -72.041641 14.864796 0.000000 0.026690
503.000000 77.184000 -7.000000 6.000000 -2.000000 128.201155 -27.380090 1532.423539 -12.850022 12.956283 0.000000 0.047889
504.000000 86.528000 -5.000000 6.000000 -2.000000 118.161630 -43.476505 1995.526640 146.993202 11.558754 0.000000 0.175981
506.000000 47.576000 -14.000000 7.000000 -2.000000 135.795854 5.747135 866.677231 -171.207942 21.017539 0.000000 0.019890
507.000000 50.428000 -13.000000 7.000000 -2.000000 136.056955 1.263122 951.268568 -176.026234 19.828643 0.000000 0.016804
508.000000 53.534000 -12.000000 7.000000 -2.000000 136.057295 -3.807675 1046.632203 -178.238694 18.678489 0.000000 0.015782
509.000000 56.896000 -11.000000 7.000000 -2.000000 135.684766 -9.492536 1154.965764 -176.636903 17.574704 0.000000 0.019369
510.000000 60.503000 -10.000000 7.000000 -2.000000 134.794952 -15.777704 1279.108272 -169.455783 16.527054 0.000000 0.030422
511.000000 64.313000 -9.000000 7.000000 -2.000000 133.209862 -22.589767 1422.792551 -154.071439 15.548259 0.000000 0.051178
512.000000 68.234000 -8.000000 7.000000 -2.000000 130.721983 -29.785065 1591.027025 -126.499920 14.655195 0.000000 0.085189
513.000000 72.096000 -7.000000 7.000000 -2.000000 127.105025 -37.157408 1790.691485 -80.536608 13.870742 0.000000 0.138663
516.000000 46.640000 -7.000000 4.000000 -1.000000 137.928884 -2.121245 1014.865539 -252.183956 10.719338 0.000000 0.006074
517.000000 49.217000 -13.000000 8.000000 -2.000000 137.834985 -7.142923 1109.878419 -256.740285 20.316133 0.000000 0.014502
518.000000 51.974000 -6.000000 4.000000 -1.000000 137.384260 -12.682324 1217.204507 -258.070617 9.619359 0.000000 0.029428
519.000000 54.895000 -11.000000 8.000000 -2.000000 136.459671 -18.704668 1339.403245 -254.733562 18.214958 0.000000 0.050038
520.000000 57.948000 -5.000000 4.000000 -1.000000 134.923820 -25.127198 1479.796232 -244.635908 8.627833 0.000000 0.078690
521.000000 61.067000 -9.000000 8.000000 -2.000000 132.623650 -31.817031 1642.773731 -224.683862 16.374778 0.000000 0.119180
524.000000 45.493000 -14.000000 9.000000 -2.000000 139.221183 -10.153963 1167.763232 -326.686326 21.978778 0.000000 0.026998
525.000000 47.786000 -13.000000 9.000000 -2.000000 138.699021 -15.517693 1273.840766 -330.423958 20.924409 0.000000 0.046571
526.000000 50.192000 -12.000000 9.000000 -2.000000 137.744328 -21.266864 1393.912690 -330.242032 19.921299 0.000000 0.071789
527.000000 52.686000 -11.000000 9.000000 -2.000000 136.250237 -27.317947 1530.943916 -324.452439 18.978752 0.000000 0.105037
558.000000 46.523000 -13.000000 -1.000000 -1.000000 97.226446 51.612970 -383.577092 721.227305 21.505132 0.000000 0.302369
559.000000 49.946000 -12.000000 -1.000000 -1.000000 96.305276 51.390170 -372.776246 750.420339 20.031420 0.000000 0.295832
560.000000 53.897000 -11.000000 -1.000000 -1.000000 95.220127 51.133040 -360.441155 784.299674 18.563530 0.000000 0.288847
561.000000 58.499000 -10.000000 -1.000000 -1.000000 93.923283 50.832996 -346.219919 824.128880 17.103353 0.000000 0.281474
562.000000 63.919000 -9.000000 -1.000000 -1.000000 92.346708 50.478339 -329.644114 871.689214 15.653699 0.000000 0.273878
563.000000 70.371000 -8.000000 -1.000000 -1.000000 90.390063 50.052700 -310.076203 929.588084 14.218935 0.000000 0.266409
564.000000 78.137000 -7.000000 -1.000000 -1.000000 87.899257 49.532468 -286.625651 1001.830295 12.806226 0.000000 0.259781
565.000000 87.564000 -6.000000 -1.000000 -1.000000 84.625660 48.882287 -258.009602 1094.972329 11.428219 0.000000 0.255406
566.000000 47.753000 -14.000000 1.000000 -1.000000 111.796018 45.550687 -122.184873 326.386613 20.946484 0.000000 0.188994
567.000000 51.405000 -13.000000 1.000000 -1.000000 111.992423 44.828584 -94.873421 328.092718 19.458303 0.000000 0.175102
568.000000 55.654000 -12.000000 1.000000 -1.000000 112.210103 43.984528 -63.803776 330.253284 17.972569 0.000000 0.159586
569.000000 60.658000 -11.000000 1.000000 -1.000000 112.451444 42.985254 -28.142902 333.030505 16.489919 0.000000 0.142161
570.000000 66.633000 -10.000000 1.000000 -1.000000 112.718306 41.784428 13.208075 336.663582 15.011234 0.000000 0.122477
571.000000 73.885000 -9.000000 1.000000 -1.000000 113.010871 40.315694 61.729110 341.516510 13.537763 0.000000 0.100117
572.000000 82.861000 -8.000000 1.000000 -1.000000 113.324939 38.480913 119.462111 348.164222 12.071343 0.000000 0.074596
573.000000 45.860000 -15.000000 2.000000 -1.000000 117.769301 42.542953 -12.727381 171.793431 21.809061 0.000000 0.162802
574.000000 49.170000 -14.000000 2.000000 -1.000000 118.323261 41.579980 20.093530 165.511712 20.340753 0.000000 0.149362
575.000000 52.981000 -13.000000 2.000000 -1.000000 118.941472 40.455101 57.215528 158.831846 18.877415 0.000000 0.134638
576.000000 57.413000 -12.000000 2.000000 -1.000000 119.633788 39.124870 99.543365 151.773790 17.420182 0.000000 0.118482
577.000000 62.623000 -11.000000 2.000000 -1.000000 120.411035 37.529329 148.254682 144.400218 15.970559 0.000000 0.100747
578.000000 68.828000 -10.000000 2.000000 -1.000000 121.284036 35.583726 204.911292 136.851719 14.530592 0.000000 0.081339
579.000000 76.326000 -9.000000 2.000000 -1.000000 122.260944 33.165062 271.629743 129.412193 13.103134 0.000000 0.060349
580.000000 85.534000 -8.000000 2.000000 -1.000000 123.340526 30.089736 351.351611 122.634637 11.692281 0.000000 0.038645
581.000000 46.733000 -15.000000 3.000000 -1.000000 123.584622 38.292701 125.216601 30.422119 21.399865 0.000000 0.134266
582.000000 50.090000 -14.000000 3.000000 -1.000000 124.446970 36.888790 167.224651 17.958184 19.965452 0.000000 0.121239
583.000000 53.939000 -13.000000 3.000000 -1.000000 125.398157 35.232690 214.837883 4.644024 18.540374 0.000000 0.107333
584.000000 58.391000 -12.000000 3.000000 -1.000000 126.446784 33.253433 269.258348 -9.513345 17.126661 0.000000 0.092578
585.000000 63.587000 -11.000000 3.000000 -1.000000 127.598737 30.852664 332.058277 -24.441024 15.726977 0.000000 0.077123
586.000000 69.712000 -10.000000 3.000000 -1.000000 128.852628 27.891561 405.334457 -39.943485 14.344889 0.000000 0.061353
587.000000 77.010000 -9.000000 3.000000 -1.000000 130.190159 24.171085 491.946903 -55.597129 12.985284 0.000000 0.046189
588.000000 85.798000 -8.000000 3.000000 -1.000000 131.555767 19.403602 595.900899 -70.548049 11.655047 0.000000 0.033803
589.000000 47.204000 -15.000000 4.000000 -1.000000 128.958511 33.312867 267.660756 -100.393864 21.184946 0.000000 0.113237
590.000000 50.521000 -14.000000 4.000000 -1.000000 130.036689 31.344355 319.461069 -117.821455 19.793597 0.000000 0.101162
591.000000 54.297000 -13.000000 4.000000 -1.000000 131.199767 29.004036 378.301218 -136.329342 18.416773 0.000000 0.088521
592.000000 58.623000 -12.000000 4.000000 -1.000000 132.443462 26.186139 445.720937 -155.866693 17.057493 0.000000 0.075376
593.000000 63.611000 -11.000000 4.000000 -1.000000 133.751350 22.746743 523.744294 -176.274524 15.719671 0.000000 0.061821
594.000000 69.399000 -10.000000 4.000000 -1.000000 135.083728 18.489974 615.086377 -197.199345 14.408482 0.000000 0.047944
595.000000 76.150000 -9.000000 4.000000 -1.000000 136.357141 13.153657 723.475716 -217.935414 13.130909 0.000000 0.033715
596.000000 84.050000 -8.000000 4.000000 -1.000000 137.407604 6.405176 854.175791 -237.127101 11.896611 0.000000 0.018701
597.000000 47.293000 -15.000000 5.000000 -1.000000 133.780737 27.495297 414.828953 -221.771169 21.143618 0.000000 0.095897
598.000000 50.496000 -14.000000 5.000000 -1.000000 134.957670 24.826711 477.073196 -243.141280 19.802259 0.000000 0.084179
599.000000 54.105000 -13.000000 5.000000 -1.000000 136.180426 21.642722 547.936335 -265.648661 18.481063 0.000000 0.071704
600.000000 58.188000 -12.000000 5.000000 -1.000000 137.418947 17.804730 629.341706 -289.157788 17.184040 0.000000 0.058264
601.000000 62.822000 -11.000000 5.000000 -1.000000 138.617050 13.135727 723.830900 -313.370106 15.916339 0.000000 0.043451
602.000000 68.090000 -10.000000 5.000000 -1.000000 139.674892 7.419887 834.833887 -337.703159 14.684684 0.000000 0.026532
603.000000 74.075000 -9.000000 5.000000 -1.000000 140.422092 0.420845 967.094345 -361.073257 13.498025 0.000000 0.007564
604.000000 80.840000 -8.000000 5.000000 -1.000000 140.581407 -8.057515 1127.365200 -381.491327 12.368540 0.000000 0.024025
605.000000 88.381000 -7.000000 5.000000 -1.000000 139.732171 -18.042806 1325.598430 -395.279211 11.313242 0.000000 0.064616
606.000000 47.036000 -15.000000 6.000000 -1.000000 137.939917 20.762494 566.960156 -334.672879 21.258032 0.000000 0.078107
607.000000 50.065000 -14.000000 6.000000 -1.000000 139.076918 17.271888 640.350887 -359.124141 19.971831 0.000000 0.065273
608.000000 53.436000 -13.000000 6.000000 -1.000000 140.182763 13.122166 724.099496 -384.633223 18.711615 0.000000 0.050927
609.000000 57.193000 -12.000000 6.000000 -1.000000 141.191713 8.165494 820.565228 -410.949854 17.482341 0.000000 0.034575
610.000000 61.377000 -11.000000 6.000000 -1.000000 141.998970 2.240942 932.882697 -437.597108 16.290313 0.000000 0.016681
616.000000 46.478000 -15.000000 7.000000 -1.000000 141.331163 13.111551 724.309726 -439.933916 21.512706 0.000000 0.056363
#UB matrix in q= (UB) B0 G* 
#[[ 0.81101721  -0.533564531 -0.238521939]
# [-0.477614485 -0.840841997  0.256963323]
# [-0.337839443 -0.094572694 -0.937427999]]
#B0 matrix in q= UB (B0) G*
#[[ 0.19670273 -0.          0.03056101]
# [ 0.          0.19187965 -0.        ]
# [ 0.          0.          0.18806537]]
#UBB0 matrix in q= (UB B0) G* i.e. recip. basis vectors are columns in LT frame: astar = UBB0[:,0], bstar = UBB0[:,1], cstar = UBB0[:,2]. (abcstar as columns on xyzlab1, xlab1 = ui, ui = unit vector along incident beam)
#[[ 0.1595293  -0.10238018 -0.02007222]
# [-0.09394807 -0.16134047  0.03372952]
# [-0.06645394 -0.01814658 -0.18662246]]
#Euler angles phi theta psi (deg)
#[285.59  159.467  42.914]
#deviatoric strain in direct crystal frame (10-3 unit)
#[[ 1.75 -0.42 -0.22]
# [-0.42  1.36  0.01]
# [-0.22  0.01 -3.11]]
#deviatoric strain in sample2 frame (10-3 unit)
#[[-1.02  0.77 -2.38]
# [ 0.77  0.87  0.56]
# [-2.38  0.56  0.16]]
#new lattice parameters
#[ 5.1505     5.2095862  5.3124743 89.9917565 99.2516306 90.0476074]
#CCDLabel
#sCMOS
#DetectorParameters
#[79.0, 975.0, 941.0, 0.0, 0.0]
#pixelsize
#0.0734
#Frame dimensions
#[2018, 2016]
#
