#Strain and Orientation Refinement from experimental file: /home/micha/LaueProjects/DepthEffects/testZrO2_106.cor
#File created at Wed Jun 28 14:24:49 2023 with indexingSpotsSet.py
#Number of indexed spots: 528
#Element
#ZrO2
#grainIndex
#G_0
#Mean Deviation(pixel): 0.114
##spot_index intensity h k l 2theta Chi Xexp Yexp Energy GrainIndex PixDev
25.000000 47.851000 10.000000 9.000000 -9.000000 122.187838 42.482731 -10.645368 22.386881 20.885539 0.000000 0.190978
29.000000 49.275000 9.000000 10.000000 -9.000000 129.705016 34.170798 244.352807 -139.192920 20.279974 0.000000 0.128497
30.000000 46.379000 10.000000 10.000000 -9.000000 123.745155 36.612040 175.322356 45.232937 21.548022 0.000000 0.111489
34.000000 49.826000 8.000000 11.000000 -9.000000 135.919195 23.618941 504.354822 -272.007576 20.054254 0.000000 0.082143
35.000000 47.342000 9.000000 11.000000 -9.000000 130.235819 27.786267 407.864048 -88.389197 21.108120 0.000000 0.071084
38.000000 49.540000 7.000000 12.000000 -9.000000 140.293804 10.809064 769.509422 -378.529119 20.169197 0.000000 0.040164
39.000000 47.536000 8.000000 12.000000 -9.000000 135.320758 17.068612 644.533951 -197.562206 21.020842 0.000000 0.043869
42.000000 48.524000 6.000000 13.000000 -9.000000 142.434413 -3.454510 1039.971307 -460.881699 20.590830 0.000000 0.011022
43.000000 47.018000 7.000000 13.000000 -9.000000 138.606322 4.756548 885.442981 -284.307729 21.251289 0.000000 0.016577
46.000000 45.899000 6.000000 14.000000 -9.000000 139.898443 -8.231793 1130.706061 -350.375189 21.769018 0.000000 0.022866
52.000000 46.256000 11.000000 7.000000 -8.000000 105.935153 50.021445 -308.653011 462.705610 21.610963 0.000000 0.270560
55.000000 53.378000 9.000000 8.000000 -8.000000 121.426745 42.651288 -16.482886 46.818118 18.723305 0.000000 0.188413
56.000000 49.363000 5.000000 4.000000 -4.000000 114.883950 43.949130 -62.520167 247.579046 10.124106 0.000000 0.170540
57.000000 45.543000 11.000000 8.000000 -8.000000 108.879863 44.947716 -99.331788 420.937228 21.948540 0.000000 0.163026
61.000000 55.167000 8.000000 9.000000 -8.000000 129.804468 33.351033 266.633707 -132.695003 18.114064 0.000000 0.119945
62.000000 51.558000 9.000000 9.000000 -8.000000 123.181285 36.163396 188.327085 69.239091 19.383921 0.000000 0.101510
63.000000 47.990000 10.000000 9.000000 -8.000000 116.978491 38.271995 125.847847 243.120755 20.826804 0.000000 0.088449
66.000000 55.734000 7.000000 10.000000 -8.000000 136.510067 21.274294 555.926591 -276.547542 17.928244 0.000000 0.071233
67.000000 52.708000 4.000000 5.000000 -4.000000 130.281196 26.258773 444.025503 -76.118331 9.479651 0.000000 0.060401
68.000000 49.571000 9.000000 10.000000 -8.000000 124.222516 29.946585 354.938342 96.135856 20.160892 0.000000 0.044333
69.000000 46.426000 5.000000 5.000000 -4.000000 118.442230 32.763951 282.333704 247.730011 10.764253 0.000000 0.030344
72.000000 55.150000 6.000000 11.000000 -8.000000 140.817472 6.540549 851.600100 -388.139840 18.117380 0.000000 0.025446
73.000000 52.801000 7.000000 11.000000 -8.000000 135.587370 14.096814 704.717188 -191.701641 18.924467 0.000000 0.035064
74.000000 50.218000 8.000000 11.000000 -8.000000 130.127447 19.774913 588.042474 -23.056889 19.899525 0.000000 0.032315
75.000000 47.503000 9.000000 11.000000 -8.000000 124.672924 24.118824 493.125879 125.278202 21.038278 0.000000 0.024291
78.000000 51.942000 3.000000 6.000000 -4.000000 138.609416 0.236900 970.549844 -280.231196 9.618400 0.000000 0.007687
79.000000 49.966000 7.000000 12.000000 -8.000000 134.235543 7.920116 825.266652 -117.042811 19.998837 0.000000 0.027993
80.000000 47.764000 2.000000 3.000000 -2.000000 129.506245 13.967725 707.293569 26.535383 5.230547 0.000000 0.038430
83.000000 50.312000 5.000000 13.000000 -8.000000 139.209279 -13.916109 1241.677059 -344.024130 19.859676 0.000000 0.042745
84.000000 48.931000 6.000000 13.000000 -8.000000 136.266352 -4.870940 1066.721083 -188.031724 20.421083 0.000000 0.017458
85.000000 47.266000 7.000000 13.000000 -8.000000 132.624108 2.664132 924.918509 -50.611213 21.141389 0.000000 0.037631
88.000000 47.281000 5.000000 14.000000 -8.000000 136.265100 -17.411136 1312.519935 -237.920579 21.133606 0.000000 0.044389
89.000000 46.129000 3.000000 7.000000 -4.000000 133.906438 -9.032030 1146.085095 -107.980660 10.831118 0.000000 0.025841
98.000000 50.985000 10.000000 6.000000 -7.000000 103.002191 50.829947 -346.076363 547.529527 19.607360 0.000000 0.284826
99.000000 46.103000 11.000000 6.000000 -7.000000 96.926371 51.022822 -355.195735 733.136202 21.685860 0.000000 0.282457
101.000000 60.337000 8.000000 7.000000 -7.000000 120.458283 42.859959 -23.753612 77.541950 16.563936 0.000000 0.185271
102.000000 55.141000 9.000000 7.000000 -7.000000 113.114633 44.260079 -73.848542 299.535755 18.126801 0.000000 0.167320
103.000000 50.263000 10.000000 7.000000 -7.000000 106.464528 45.308383 -112.942949 488.714440 19.888487 0.000000 0.162885
104.000000 45.771000 11.000000 7.000000 -7.000000 100.459034 46.122171 -144.301813 654.350307 21.842517 0.000000 0.169906
107.000000 62.652000 7.000000 8.000000 -7.000000 129.917762 32.305465 294.451298 -124.401311 15.949896 0.000000 0.109565
108.000000 58.031000 8.000000 8.000000 -7.000000 122.467391 35.610148 204.160608 98.667649 17.222025 0.000000 0.089393
109.000000 53.479000 9.000000 8.000000 -7.000000 115.545643 38.007350 133.884374 288.127619 18.689940 0.000000 0.076883
110.000000 49.127000 10.000000 8.000000 -7.000000 109.178681 39.819905 77.631768 453.595614 20.347555 0.000000 0.077973
113.000000 63.185000 6.000000 9.000000 -7.000000 137.159118 18.231769 620.471048 -280.974495 15.814162 0.000000 0.058557
114.000000 59.424000 7.000000 9.000000 -7.000000 130.294123 24.339664 488.137232 -60.597981 16.816484 0.000000 0.048821
115.000000 55.487000 8.000000 9.000000 -7.000000 123.582497 28.713475 385.417042 126.191200 18.011406 0.000000 0.031031
116.000000 51.538000 9.000000 9.000000 -7.000000 117.195909 31.965005 303.370390 289.112337 19.393200 0.000000 0.014791
117.000000 47.699000 10.000000 9.000000 -7.000000 111.212465 34.462261 236.326747 434.345181 20.956364 0.000000 0.022073
119.000000 62.078000 5.000000 10.000000 -7.000000 141.182344 1.086004 954.597107 -397.036053 16.095246 0.000000 0.007339
120.000000 59.314000 6.000000 10.000000 -7.000000 135.766952 10.358150 778.275552 -182.815922 16.846623 0.000000 0.027240
121.000000 56.181000 7.000000 10.000000 -7.000000 129.909707 17.201961 641.790899 -1.386147 17.787320 0.000000 0.031956
122.000000 52.845000 8.000000 10.000000 -7.000000 123.978407 22.325823 533.012758 156.838503 18.911941 0.000000 0.030843
123.000000 49.442000 9.000000 10.000000 -7.000000 118.186124 26.247796 444.281873 297.923883 20.215292 0.000000 0.030007
124.000000 46.080000 10.000000 10.000000 -7.000000 112.649773 29.319749 370.523922 425.900591 21.692376 0.000000 0.033436
127.000000 57.894000 5.000000 11.000000 -7.000000 138.290192 -5.296491 1074.778311 -271.768054 17.259238 0.000000 0.012442
128.000000 55.630000 6.000000 11.000000 -7.000000 133.931285 3.819374 903.147069 -98.181672 17.962696 0.000000 0.030322
129.000000 53.023000 7.000000 11.000000 -7.000000 128.996162 10.955292 766.661015 53.377200 18.847055 0.000000 0.047141
130.000000 50.203000 8.000000 11.000000 -7.000000 123.824630 16.532268 655.527659 188.713784 19.907409 0.000000 0.056257
131.000000 47.282000 9.000000 11.000000 -7.000000 118.640050 20.933437 563.283317 311.670796 21.139030 0.000000 0.060976
133.000000 55.482000 4.000000 12.000000 -7.000000 137.894340 -20.520889 1377.857246 -330.612853 18.009447 0.000000 0.069713
134.000000 54.039000 5.000000 12.000000 -7.000000 135.375862 -10.250335 1169.632215 -167.195951 18.491074 0.000000 0.022372
135.000000 52.181000 6.000000 12.000000 -7.000000 131.872459 -1.565811 1004.420902 -24.130547 19.150541 0.000000 0.041875
136.000000 50.010000 7.000000 12.000000 -7.000000 127.740591 5.564438 870.142835 103.982380 19.983209 0.000000 0.062770
137.000000 47.626000 8.000000 12.000000 -7.000000 123.270382 11.355333 758.854052 220.703138 20.984601 0.000000 0.075766
140.000000 51.686000 4.000000 13.000000 -7.000000 134.481410 -23.428900 1441.398812 -210.959458 19.332930 0.000000 0.066049
141.000000 50.516000 5.000000 13.000000 -7.000000 132.555790 -14.152841 1246.401916 -78.104655 19.781502 0.000000 0.026855
142.000000 48.985000 6.000000 13.000000 -7.000000 129.734579 -6.004506 1088.208662 41.409987 20.400453 0.000000 0.050561
143.000000 47.173000 7.000000 13.000000 -7.000000 126.282981 0.942264 957.298084 150.768509 21.185537 0.000000 0.073996
145.000000 48.853000 3.000000 14.000000 -7.000000 131.871968 -34.640369 1718.605442 -231.616078 20.454428 0.000000 0.147644
146.000000 48.263000 4.000000 14.000000 -7.000000 131.363647 -25.688416 1492.717472 -110.603637 20.704880 0.000000 0.059832
147.000000 47.309000 5.000000 14.000000 -7.000000 129.885775 -17.279650 1309.809035 -0.982871 21.122881 0.000000 0.028261
148.000000 46.044000 6.000000 14.000000 -7.000000 127.606543 -9.684733 1158.679201 99.959789 21.704402 0.000000 0.056129
150.000000 45.651000 3.000000 15.000000 -7.000000 128.828335 -35.527224 1743.485091 -123.386181 21.890447 0.000000 0.134178
157.000000 56.605000 9.000000 5.000000 -6.000000 99.225166 51.793786 -392.420862 658.366842 17.661848 0.000000 0.306086
158.000000 50.301000 10.000000 5.000000 -6.000000 92.588915 51.885353 -396.926563 862.155771 19.877580 0.000000 0.308129
160.000000 69.363000 7.000000 6.000000 -6.000000 119.184611 43.124989 -33.059221 117.365638 14.408848 0.000000 0.181369
161.000000 62.388000 4.000000 3.000000 -3.000000 110.823003 44.641503 -87.909223 365.693649 8.010970 0.000000 0.164373
162.000000 55.960000 3.000000 2.000000 -2.000000 103.384703 45.739406 -129.438360 574.045664 5.954815 0.000000 0.165195
163.000000 50.172000 5.000000 3.000000 -3.000000 96.785163 46.570443 -161.973837 754.724079 9.963853 0.000000 0.179052
166.000000 72.474000 6.000000 7.000000 -6.000000 130.044144 30.926999 330.162133 -113.451012 13.788284 0.000000 0.096746
167.000000 66.348000 7.000000 7.000000 -6.000000 121.534874 34.911034 223.858538 135.607497 15.063352 0.000000 0.074380
168.000000 60.345000 8.000000 7.000000 -6.000000 113.709549 37.683452 143.641670 343.736876 16.563861 0.000000 0.063753
169.000000 54.681000 9.000000 7.000000 -6.000000 106.606424 39.715273 80.958517 523.713924 18.281751 0.000000 0.072466
170.000000 49.470000 10.000000 7.000000 -6.000000 100.202267 41.264698 30.626708 683.307527 20.209342 0.000000 0.093508
172.000000 72.843000 5.000000 8.000000 -6.000000 137.833921 14.153383 703.587253 -284.604036 13.717287 0.000000 0.043733
173.000000 68.062000 3.000000 4.000000 -3.000000 130.238282 21.862758 543.144902 -40.352925 7.341145 0.000000 0.037570
174.000000 62.981000 7.000000 8.000000 -6.000000 122.732151 27.173428 422.490725 163.347293 15.868522 0.000000 0.019622
175.000000 57.881000 4.000000 4.000000 -3.000000 115.604642 30.993754 328.456844 339.312032 8.634233 0.000000 0.003792
176.000000 52.961000 9.000000 8.000000 -6.000000 108.979208 33.850522 253.108608 495.287949 18.874943 0.000000 0.026266
177.000000 48.340000 5.000000 4.000000 -3.000000 102.893454 36.057331 191.379788 636.242197 10.340544 0.000000 0.049945
178.000000 70.786000 4.000000 9.000000 -6.000000 141.167265 -5.975207 1087.652237 -403.379025 14.115293 0.000000 0.017761
179.000000 67.539000 5.000000 9.000000 -6.000000 135.747255 5.560096 870.225168 -168.963342 14.795027 0.000000 0.022575
180.000000 59.496000 7.000000 9.000000 -6.000000 123.037219 20.122585 580.651094 195.548586 16.798111 0.000000 0.044585
181.000000 55.198000 8.000000 9.000000 -6.000000 116.680682 24.725091 479.388792 345.546883 18.107719 0.000000 0.047571
182.000000 50.964000 3.000000 3.000000 -2.000000 110.617573 28.254720 396.571961 481.298120 6.538008 0.000000 0.051150
183.000000 46.911000 10.000000 9.000000 -6.000000 104.934380 31.027987 327.581396 605.994536 21.310863 0.000000 0.057454
186.000000 65.166000 2.000000 5.000000 -3.000000 137.393395 -12.082223 1205.388240 -255.699491 7.666638 0.000000 0.028849
187.000000 62.602000 5.000000 10.000000 -6.000000 133.253865 -1.237130 998.242942 -71.849496 15.962263 0.000000 0.034102
188.000000 59.495000 3.000000 5.000000 -3.000000 128.187555 7.271052 837.676193 87.555431 8.398574 0.000000 0.058039
189.000000 56.048000 7.000000 10.000000 -6.000000 122.695102 13.853778 709.565365 229.462642 17.831632 0.000000 0.071385
190.000000 52.441000 4.000000 5.000000 -3.000000 117.112211 18.972824 604.973084 358.285725 9.529835 0.000000 0.077850
191.000000 48.820000 9.000000 10.000000 -6.000000 111.645235 23.007787 517.967540 476.968830 20.475456 0.000000 0.080476
193.000000 61.526000 3.000000 11.000000 -6.000000 135.610185 -28.068917 1548.937480 -305.020540 16.240783 0.000000 0.108986
194.000000 60.117000 4.000000 11.000000 -6.000000 133.802542 -16.584488 1295.539992 -136.025132 16.621819 0.000000 0.031037
195.000000 58.083000 5.000000 11.000000 -6.000000 130.630678 -6.607396 1099.672289 11.329202 17.204748 0.000000 0.044768
196.000000 55.571000 6.000000 11.000000 -6.000000 126.535294 1.663645 943.739840 143.221362 17.983657 0.000000 0.072412
197.000000 52.733000 7.000000 11.000000 -6.000000 121.911222 8.369138 816.659027 263.559146 18.952862 0.000000 0.089373
198.000000 49.711000 8.000000 11.000000 -6.000000 117.058107 13.776719 711.100440 374.940156 20.106896 0.000000 0.098383
199.000000 46.622000 9.000000 11.000000 -6.000000 112.182324 18.157184 622.023455 479.162629 21.440500 0.000000 0.102117
201.000000 56.708000 1.000000 4.000000 -2.000000 131.747206 -30.119471 1599.394744 -169.469666 5.873844 0.000000 0.098294
202.000000 55.609000 2.000000 6.000000 -3.000000 130.476741 -20.002159 1366.785001 -36.446639 8.985078 0.000000 0.028892
203.000000 53.986000 5.000000 12.000000 -6.000000 128.033786 -10.887458 1182.017290 83.652010 18.511108 0.000000 0.051129
204.000000 51.946000 2.000000 4.000000 -2.000000 124.722522 -3.016026 1031.708068 194.077821 6.413012 0.000000 0.081473
205.000000 49.604000 7.000000 12.000000 -6.000000 120.844544 3.613009 907.039969 296.985208 20.148787 0.000000 0.100979
206.000000 47.069000 4.000000 6.000000 -3.000000 116.652472 9.133116 801.967495 393.862071 10.617695 0.000000 0.112158
209.000000 52.456000 3.000000 13.000000 -6.000000 128.320051 -31.678138 1639.165696 -58.537242 19.050691 0.000000 0.087197
210.000000 51.593000 4.000000 13.000000 -6.000000 127.434925 -22.667501 1424.506498 48.100448 19.369606 0.000000 0.024692
211.000000 50.291000 5.000000 13.000000 -6.000000 125.544384 -14.342832 1250.200995 147.288773 19.872153 0.000000 0.054434
212.000000 48.626000 6.000000 13.000000 -6.000000 122.860661 -6.931574 1105.847756 240.642867 20.553466 0.000000 0.086738
213.000000 46.686000 7.000000 13.000000 -6.000000 119.611276 -0.497048 984.337230 329.276532 21.408847 0.000000 0.108153
215.000000 48.964000 1.000000 7.000000 -3.000000 124.912900 -41.192385 1916.971766 -57.260657 10.205100 0.000000 0.186502
216.000000 48.698000 3.000000 14.000000 -6.000000 125.271144 -32.901281 1671.320131 34.332171 20.521499 0.000000 0.076992
217.000000 48.017000 2.000000 7.000000 -3.000000 124.667938 -24.795763 1472.221205 121.035461 10.406545 0.000000 0.019632
218.000000 46.964000 5.000000 14.000000 -6.000000 123.200158 -17.171747 1307.587244 203.828411 21.280373 0.000000 0.055787
219.000000 45.598000 3.000000 7.000000 -3.000000 121.018049 -10.227128 1169.182040 283.387228 10.959451 0.000000 0.089410
220.000000 45.563000 2.000000 15.000000 -6.000000 122.128884 -41.360854 1922.574909 40.456414 21.934637 0.000000 0.168809
229.000000 81.519000 6.000000 5.000000 -5.000000 117.435143 43.472757 -45.392970 171.075055 12.260570 0.000000 0.176493
230.000000 71.692000 7.000000 5.000000 -5.000000 107.741231 45.120375 -105.826278 452.999220 13.943256 0.000000 0.162746
231.000000 62.890000 8.000000 5.000000 -5.000000 99.330280 46.263534 -149.843442 685.216390 15.897039 0.000000 0.172348
232.000000 55.213000 9.000000 5.000000 -5.000000 92.046516 47.102540 -183.333544 884.498496 18.109767 0.000000 0.195558
233.000000 48.614000 4.000000 2.000000 -2.000000 85.729915 47.744274 -209.669680 1060.507722 8.228003 0.000000 0.224542
234.000000 85.920000 5.000000 6.000000 -5.000000 130.175851 29.029276 377.681218 -98.331097 11.630639 0.000000 0.080655
235.000000 77.418000 6.000000 6.000000 -5.000000 120.266184 33.999930 249.032265 183.394739 12.909656 0.000000 0.055309
236.000000 69.154000 7.000000 6.000000 -5.000000 111.273896 37.277923 155.738668 414.342773 14.454358 0.000000 0.050080
237.000000 61.508000 8.000000 6.000000 -5.000000 103.258136 39.588156 84.986616 611.931512 16.253568 0.000000 0.071347
238.000000 54.646000 9.000000 6.000000 -5.000000 96.170333 41.298960 29.486992 786.118017 18.296729 0.000000 0.101653
239.000000 48.603000 10.000000 6.000000 -5.000000 89.920671 42.614680 -15.212392 943.024916 20.573860 0.000000 0.133453
241.000000 85.794000 4.000000 7.000000 -5.000000 138.426358 8.474427 814.637817 -285.777544 11.646558 0.000000 0.026306
242.000000 79.556000 5.000000 7.000000 -5.000000 130.035754 18.558508 613.654437 -12.865045 12.561140 0.000000 0.031336
243.000000 72.762000 6.000000 7.000000 -5.000000 121.554293 25.198900 468.559602 210.527043 13.735580 0.000000 0.024021
244.000000 65.936000 7.000000 7.000000 -5.000000 113.505659 29.788510 358.887046 401.616086 15.159579 0.000000 0.025323
245.000000 59.422000 8.000000 7.000000 -5.000000 106.097827 33.111066 273.076341 570.169949 16.823377 0.000000 0.041133
246.000000 53.415000 9.000000 7.000000 -5.000000 99.386187 35.612140 204.103989 722.159008 18.717715 0.000000 0.062835
247.000000 47.994000 10.000000 7.000000 -5.000000 93.353304 37.556039 147.456609 861.450543 20.833805 0.000000 0.086778
249.000000 81.912000 3.000000 8.000000 -5.000000 140.318888 -15.137955 1266.171511 -402.906416 12.198187 0.000000 0.053418
250.000000 78.173000 4.000000 8.000000 -5.000000 135.294420 -0.715901 988.448816 -146.497675 12.782375 0.000000 0.022979
251.000000 73.371000 5.000000 8.000000 -5.000000 128.767276 9.810960 788.879661 63.820346 13.620378 0.000000 0.050582
252.000000 67.977000 6.000000 8.000000 -5.000000 121.710902 17.359572 638.543658 244.247868 14.702688 0.000000 0.063255
253.000000 62.393000 7.000000 8.000000 -5.000000 114.694059 22.860811 521.222758 403.907235 16.020267 0.000000 0.068322
254.000000 56.914000 8.000000 8.000000 -5.000000 108.010559 26.978158 427.117390 548.342293 17.564514 0.000000 0.070925
255.000000 51.729000 9.000000 8.000000 -5.000000 101.793693 30.145280 349.957098 681.127553 19.327247 0.000000 0.074646
256.000000 46.941000 10.000000 8.000000 -5.000000 96.087647 32.642975 285.543089 804.680010 21.300669 0.000000 0.081753
258.000000 74.113000 3.000000 9.000000 -5.000000 135.471201 -20.333416 1373.847099 -225.855302 13.482541 0.000000 0.054239
259.000000 71.308000 4.000000 9.000000 -5.000000 131.914992 -7.514387 1116.971776 -33.581760 14.013693 0.000000 0.036626
260.000000 67.599000 5.000000 9.000000 -5.000000 126.883111 2.705493 924.139831 132.490193 14.783745 0.000000 0.070011
261.000000 63.320000 6.000000 9.000000 -5.000000 121.104750 10.575396 774.055331 280.395222 15.784311 0.000000 0.088595
262.000000 58.772000 7.000000 9.000000 -5.000000 115.095044 16.610787 653.922087 414.989370 17.007391 0.000000 0.096758
263.000000 54.196000 8.000000 9.000000 -5.000000 109.171331 21.289952 555.587817 539.390550 18.445356 0.000000 0.098871
264.000000 49.761000 9.000000 9.000000 -5.000000 103.511061 24.978265 473.612715 655.700194 20.090916 0.000000 0.098154
265.000000 45.578000 10.000000 9.000000 -5.000000 98.202380 27.937556 404.227940 765.392467 21.937111 0.000000 0.097180
268.000000 67.340000 3.000000 10.000000 -5.000000 131.141014 -23.952232 1453.122287 -87.870937 14.839434 0.000000 0.047565
269.000000 65.217000 4.000000 10.000000 -5.000000 128.601971 -12.614527 1215.866821 60.490713 15.323159 0.000000 0.043931
270.000000 58.931000 6.000000 10.000000 -5.000000 120.024261 4.800288 884.615587 316.803998 16.960096 0.000000 0.103793
271.000000 55.228000 7.000000 10.000000 -5.000000 114.932458 11.070140 764.421914 431.173121 18.098728 0.000000 0.114866
272.000000 51.418000 8.000000 10.000000 -5.000000 109.746811 16.098866 664.366701 538.868769 19.441607 0.000000 0.118603
273.000000 47.647000 9.000000 10.000000 -5.000000 104.659518 20.163463 579.779882 641.070344 20.982204 0.000000 0.117865
275.000000 62.318000 2.000000 11.000000 -5.000000 127.646940 -37.391353 1797.631771 -104.005910 16.035966 0.000000 0.149406
276.000000 61.474000 3.000000 11.000000 -5.000000 127.315241 -26.598134 1513.924182 23.534468 16.256303 0.000000 0.038614
277.000000 59.853000 4.000000 11.000000 -5.000000 125.491655 -16.524822 1294.320139 140.458143 16.697383 0.000000 0.046995
278.000000 57.597000 5.000000 11.000000 -5.000000 122.488991 -7.636110 1119.298774 249.483250 17.352252 0.000000 0.087448
279.000000 54.875000 6.000000 11.000000 -5.000000 118.675423 -0.081706 976.534829 352.345406 18.214246 0.000000 0.112445
280.000000 51.853000 7.000000 11.000000 -5.000000 114.385821 6.211264 857.862932 450.211309 19.276971 0.000000 0.126051
281.000000 48.682000 8.000000 11.000000 -5.000000 109.882617 11.416463 757.659154 543.899288 20.534300 0.000000 0.131832
282.000000 45.483000 9.000000 11.000000 -5.000000 105.352607 15.726820 671.923626 634.004365 21.980347 0.000000 0.132375
284.000000 57.009000 2.000000 12.000000 -5.000000 124.024436 -38.086736 1818.520224 17.790526 17.530152 0.000000 0.131570
285.000000 56.388000 3.000000 12.000000 -5.000000 123.942252 -28.609086 1562.036122 115.864343 17.723329 0.000000 0.029566
286.000000 55.138000 4.000000 12.000000 -5.000000 122.631414 -19.591727 1358.076047 209.499787 18.125868 0.000000 0.047733
287.000000 53.358000 5.000000 12.000000 -5.000000 120.296014 -11.399253 1192.004394 299.510657 18.731527 0.000000 0.089951
288.000000 51.168000 6.000000 12.000000 -5.000000 117.196491 -4.206505 1054.160970 386.449323 19.534308 0.000000 0.116843
289.000000 48.693000 7.000000 12.000000 -5.000000 113.590665 1.973555 937.912345 470.708436 20.528448 0.000000 0.132549
290.000000 46.050000 8.000000 12.000000 -5.000000 109.698504 7.225144 838.552525 552.578337 21.708406 0.000000 0.140320
292.000000 52.424000 2.000000 13.000000 -5.000000 120.875384 -38.626386 1835.006271 117.275311 19.064281 0.000000 0.117315
293.000000 51.965000 3.000000 13.000000 -5.000000 120.963124 -30.185573 1601.055482 193.939229 19.232725 0.000000 0.021652
294.000000 50.992000 4.000000 13.000000 -5.000000 120.026548 -22.048484 1410.910921 269.852769 19.600271 0.000000 0.047321
295.000000 49.575000 5.000000 13.000000 -5.000000 118.202241 -14.498677 1253.322112 344.856757 20.161283 0.000000 0.090300
296.000000 47.802000 6.000000 13.000000 -5.000000 115.676130 -7.703482 1120.587297 418.854339 20.910336 0.000000 0.118462
297.000000 45.765000 7.000000 13.000000 -5.000000 112.645024 -1.716639 1007.256504 491.787683 21.842208 0.000000 0.135845
299.000000 48.326000 1.000000 14.000000 -5.000000 117.016615 -46.605968 2113.386794 142.189115 20.681675 0.000000 0.238192
300.000000 48.442000 2.000000 14.000000 -5.000000 118.117324 -39.057281 1848.348993 200.377012 20.632402 0.000000 0.106353
301.000000 48.102000 3.000000 14.000000 -5.000000 118.322488 -31.452890 1633.337306 261.020485 20.778236 0.000000 0.016215
302.000000 47.339000 4.000000 14.000000 -5.000000 117.663678 -24.053840 1455.409459 323.150688 21.113874 0.000000 0.046476
303.000000 46.202000 5.000000 14.000000 -5.000000 116.234394 -17.081605 1305.733146 386.117463 21.634202 0.000000 0.089351
310.000000 71.284000 7.000000 4.000000 -4.000000 93.770677 46.914458 -175.735042 837.156868 14.026357 0.000000 0.188987
311.000000 52.139000 9.000000 4.000000 -4.000000 78.972090 48.361276 -235.610420 1256.690274 19.181615 0.000000 0.263201
312.000000 80.797000 6.000000 5.000000 -4.000000 107.892171 36.755515 171.131567 507.309524 12.372274 0.000000 0.041139
313.000000 69.979000 7.000000 5.000000 -4.000000 98.729812 39.430436 89.963985 727.030368 14.287194 0.000000 0.078501
314.000000 60.625000 8.000000 5.000000 -4.000000 90.848001 41.340288 28.110644 919.781612 16.493600 0.000000 0.117596
315.000000 52.698000 9.000000 5.000000 -4.000000 84.079240 42.769317 -20.589334 1093.049200 18.977093 0.000000 0.155952
316.000000 46.038000 10.000000 5.000000 -4.000000 78.252512 43.877528 -59.928384 1251.506609 21.724207 0.000000 0.193365
317.000000 86.023000 5.000000 6.000000 -4.000000 119.830753 22.583324 527.349421 272.579953 11.618621 0.000000 0.046196
318.000000 67.463000 7.000000 6.000000 -4.000000 102.246567 32.199581 297.232302 664.919083 14.819250 0.000000 0.061890
319.000000 59.393000 4.000000 3.000000 -2.000000 94.803149 35.077081 219.210717 830.490749 8.417575 0.000000 0.079985
320.000000 52.325000 9.000000 6.000000 -4.000000 88.247054 37.258663 156.309949 982.385504 19.111345 0.000000 0.103551
321.000000 46.223000 5.000000 3.000000 -2.000000 82.490293 38.964985 104.522627 1123.478183 10.818100 0.000000 0.130542
322.000000 86.245000 4.000000 7.000000 -4.000000 127.390625 4.340821 893.301842 116.023414 11.587398 0.000000 0.065981
323.000000 79.098000 5.000000 7.000000 -4.000000 119.747697 13.811855 710.400618 307.589402 12.635969 0.000000 0.085970
324.000000 71.584000 6.000000 7.000000 -4.000000 111.967989 20.531188 571.922164 477.401066 13.964029 0.000000 0.092195
325.000000 64.252000 7.000000 7.000000 -4.000000 104.555743 25.421841 463.435022 631.572612 15.559514 0.000000 0.092555
326.000000 57.426000 8.000000 7.000000 -4.000000 97.727092 29.091638 376.148016 773.877383 17.411041 0.000000 0.092698
327.000000 51.259000 9.000000 7.000000 -4.000000 91.545452 31.925539 304.400010 906.786563 19.507869 0.000000 0.096729
328.000000 45.790000 10.000000 7.000000 -4.000000 85.998494 34.169780 244.380737 1031.998731 21.839845 0.000000 0.106706
330.000000 82.285000 3.000000 8.000000 -4.000000 129.383577 -15.297652 1269.393388 24.982337 12.144620 0.000000 0.033569
331.000000 72.532000 5.000000 8.000000 -4.000000 118.774404 6.500889 852.354848 346.103056 13.780190 0.000000 0.107441
332.000000 66.658000 3.000000 4.000000 -2.000000 112.337172 13.721131 712.207161 485.772172 7.498021 0.000000 0.117454
333.000000 60.725000 7.000000 8.000000 -4.000000 105.914826 19.224600 599.676460 615.983899 16.463092 0.000000 0.118340
334.000000 55.022000 4.000000 4.000000 -2.000000 99.784197 23.485769 507.331754 738.633150 9.085706 0.000000 0.114867
335.000000 49.719000 9.000000 8.000000 -4.000000 94.076718 26.848162 430.188595 855.021974 20.111585 0.000000 0.110750
337.000000 75.780000 2.000000 9.000000 -4.000000 126.751716 -32.324577 1656.051355 -10.155403 13.187507 0.000000 0.081935
338.000000 73.823000 3.000000 9.000000 -4.000000 125.291801 -19.718670 1360.764873 131.716511 13.537570 0.000000 0.035087
339.000000 70.615000 4.000000 9.000000 -4.000000 121.933931 -8.648818 1138.712351 262.465256 14.153501 0.000000 0.088338
340.000000 66.524000 5.000000 9.000000 -4.000000 117.321434 0.497443 965.655358 384.952136 15.025111 0.000000 0.118327
341.000000 61.924000 6.000000 9.000000 -4.000000 112.050660 7.830150 826.988991 500.938492 16.142719 0.000000 0.132001
342.000000 57.136000 7.000000 9.000000 -4.000000 106.562924 13.661771 713.388409 611.580670 17.497133 0.000000 0.135433
343.000000 52.402000 8.000000 9.000000 -4.000000 101.143100 18.320593 618.620509 717.678973 19.079608 0.000000 0.132772
344.000000 47.884000 9.000000 9.000000 -4.000000 95.956568 22.081790 538.360645 819.812392 20.881827 0.000000 0.127119
346.000000 68.053000 1.000000 5.000000 -2.000000 122.548633 -33.885880 1697.854806 113.486464 7.342799 0.000000 0.068268
347.000000 66.655000 3.000000 10.000000 -4.000000 121.672214 -22.969529 1431.184441 219.806328 14.994255 0.000000 0.034302
348.000000 64.265000 2.000000 5.000000 -2.000000 119.234507 -13.021760 1223.912705 322.729397 7.776235 0.000000 0.090333
349.000000 61.130000 5.000000 10.000000 -4.000000 115.650303 -4.419379 1058.182522 422.622575 16.351292 0.000000 0.122972
350.000000 57.509000 3.000000 5.000000 -2.000000 111.351999 2.785008 922.642715 519.747180 8.691096 0.000000 0.139703
351.000000 53.642000 7.000000 10.000000 -4.000000 106.700490 8.729718 809.732463 614.301511 18.637040 0.000000 0.145921
352.000000 49.722000 4.000000 5.000000 -2.000000 101.958578 13.619908 714.221115 706.443836 10.054041 0.000000 0.145300
353.000000 45.892000 9.000000 10.000000 -4.000000 97.300017 17.658245 632.374735 796.305595 21.787919 0.000000 0.140523
355.000000 61.685000 1.000000 11.000000 -4.000000 118.023894 -44.785770 2043.275666 133.877559 16.202624 0.000000 0.205242
356.000000 61.577000 2.000000 11.000000 -4.000000 118.980429 -35.047828 1729.969080 212.847034 16.231021 0.000000 0.058495
357.000000 60.564000 3.000000 11.000000 -4.000000 118.492780 -25.445825 1487.117393 294.034646 16.502851 0.000000 0.033170
358.000000 58.762000 4.000000 11.000000 -4.000000 116.713857 -16.477701 1293.357300 376.156156 17.009818 0.000000 0.089676
359.000000 56.334000 5.000000 11.000000 -4.000000 113.916540 -8.464402 1135.169686 458.423815 17.743997 0.000000 0.123894
360.000000 53.464000 6.000000 11.000000 -4.000000 110.411792 -1.521188 1003.582041 540.336385 18.697816 0.000000 0.143014
361.000000 50.329000 7.000000 11.000000 -4.000000 106.484521 4.388268 892.405360 621.566936 19.864036 0.000000 0.151771
362.000000 47.081000 8.000000 11.000000 -4.000000 102.362728 9.378662 797.232439 701.899174 21.235733 0.000000 0.153422
364.000000 56.132000 1.000000 12.000000 -4.000000 114.972546 -44.570366 2035.272866 237.372532 17.806217 0.000000 0.183306
365.000000 56.104000 1.000000 6.000000 -2.000000 115.922734 -35.945587 1755.412959 294.798745 8.907709 0.000000 0.052815
366.000000 55.362000 3.000000 12.000000 -4.000000 115.700728 -27.388212 1532.617056 357.604980 18.054288 0.000000 0.032692
367.000000 53.985000 2.000000 6.000000 -2.000000 114.401210 -19.258916 1351.046704 423.800178 9.257727 0.000000 0.087659
368.000000 52.085000 5.000000 12.000000 -4.000000 112.207654 -11.819326 1200.228493 492.087015 19.191848 0.000000 0.122611
369.000000 49.793000 3.000000 6.000000 -2.000000 109.344332 -5.200491 1072.959745 561.590163 10.038352 0.000000 0.143503
370.000000 47.239000 7.000000 12.000000 -4.000000 106.032416 0.578945 964.124214 631.702683 21.163536 0.000000 0.154418
372.000000 51.416000 1.000000 13.000000 -4.000000 112.347466 -44.399003 2028.948545 321.725246 19.440465 0.000000 0.167264
373.000000 51.438000 2.000000 13.000000 -4.000000 113.278796 -36.659739 1776.069158 363.767276 19.432286 0.000000 0.050808
374.000000 50.891000 3.000000 13.000000 -4.000000 113.241919 -28.949233 1570.353608 412.763579 19.641493 0.000000 0.033283
375.000000 49.827000 4.000000 13.000000 -4.000000 112.296941 -21.535439 1399.732787 466.523827 20.061484 0.000000 0.085051
376.000000 48.325000 5.000000 13.000000 -4.000000 110.569848 -14.628821 1255.931878 523.561452 20.685923 0.000000 0.120056
377.000000 46.478000 6.000000 13.000000 -4.000000 108.223718 -8.355953 1133.087939 582.836537 21.508723 0.000000 0.142189
380.000000 47.373000 1.000000 14.000000 -4.000000 110.067483 -44.259430 2023.824766 392.015959 21.100474 0.000000 0.155614
381.000000 47.427000 1.000000 7.000000 -2.000000 110.973339 -37.241216 1793.172793 422.749973 10.538247 0.000000 0.051598
382.000000 47.021000 3.000000 14.000000 -4.000000 111.067421 -30.229395 1602.157680 461.142991 21.258868 0.000000 0.034954
383.000000 46.190000 2.000000 7.000000 -2.000000 110.388589 -23.427638 1441.370647 505.033969 10.820825 0.000000 0.082313
388.000000 66.169000 7.000000 3.000000 -3.000000 76.960831 48.533199 -242.950679 1317.415759 15.114874 0.000000 0.276174
389.000000 54.794000 8.000000 3.000000 -3.000000 69.915812 49.099673 -267.493757 1542.044576 18.254771 0.000000 0.327277
391.000000 80.423000 6.000000 4.000000 -3.000000 92.290138 39.229553 96.271008 885.433427 12.433212 0.000000 0.097328
392.000000 67.174000 7.000000 4.000000 -3.000000 83.537052 41.391118 26.415431 1103.518053 14.887652 0.000000 0.144365
393.000000 56.567000 8.000000 4.000000 -3.000000 76.299194 42.954560 -27.065979 1299.505704 17.681320 0.000000 0.190881
394.000000 48.105000 9.000000 4.000000 -3.000000 70.272774 44.136345 -69.326429 1478.765726 20.793508 0.000000 0.236586
395.000000 90.579000 5.000000 5.000000 -3.000000 106.412263 26.240295 444.457033 587.555786 11.036709 0.000000 0.081546
396.000000 77.525000 6.000000 5.000000 -3.000000 96.857195 31.048810 327.048595 789.925101 12.897329 0.000000 0.085884
397.000000 66.263000 7.000000 5.000000 -3.000000 88.586183 34.422017 237.438265 973.202561 15.091490 0.000000 0.099832
398.000000 56.823000 8.000000 5.000000 -3.000000 81.506133 36.903293 166.798654 1142.007262 17.600497 0.000000 0.124153
399.000000 49.013000 9.000000 5.000000 -3.000000 75.455973 38.798545 109.682177 1299.285462 20.407029 0.000000 0.155418
400.000000 83.585000 5.000000 6.000000 -3.000000 108.033162 17.548726 634.639149 573.498767 11.960091 0.000000 0.118735
401.000000 64.074000 7.000000 6.000000 -3.000000 92.277868 27.813058 407.220874 892.596097 15.606207 0.000000 0.109786
402.000000 55.941000 8.000000 6.000000 -3.000000 85.608017 31.072872 326.432619 1037.513395 17.877288 0.000000 0.110425
403.000000 48.963000 3.000000 2.000000 -1.000000 79.743180 33.601724 259.865098 1174.829913 6.809036 0.000000 0.120480
404.000000 84.378000 4.000000 7.000000 -3.000000 115.190261 1.360869 949.431437 434.614956 11.846331 0.000000 0.126805
405.000000 76.599000 5.000000 7.000000 -3.000000 108.399506 10.125894 782.780893 577.309945 13.050835 0.000000 0.138979
406.000000 68.679000 6.000000 7.000000 -3.000000 101.468273 16.701838 652.058612 713.028671 14.557667 0.000000 0.137509
407.000000 61.148000 7.000000 7.000000 -3.000000 94.846161 21.696048 546.776477 842.790377 16.352497 0.000000 0.129804
408.000000 54.285000 8.000000 7.000000 -3.000000 88.736699 25.563603 460.166603 967.310422 18.421884 0.000000 0.121460
409.000000 48.191000 9.000000 7.000000 -3.000000 83.203961 28.621298 387.666191 1087.119985 20.753213 0.000000 0.117154
411.000000 85.097000 1.000000 8.000000 -3.000000 119.647302 -41.498985 1927.190734 123.079149 11.744649 0.000000 0.154349
412.000000 83.953000 2.000000 8.000000 -3.000000 119.872362 -27.967843 1546.501209 241.047163 11.904914 0.000000 0.009970
413.000000 80.680000 3.000000 8.000000 -3.000000 117.531596 -15.410912 1271.681380 359.037508 12.388668 0.000000 0.090096
414.000000 75.836000 4.000000 8.000000 -3.000000 113.307504 -4.724931 1063.959006 475.726159 13.181131 0.000000 0.131449
415.000000 70.064000 5.000000 8.000000 -3.000000 108.001886 3.910120 901.434634 590.435593 14.268413 0.000000 0.148515
416.000000 63.937000 6.000000 8.000000 -3.000000 102.266590 10.742564 770.803859 702.812932 15.637444 0.000000 0.151134
417.000000 57.879000 7.000000 8.000000 -3.000000 96.533249 16.140593 663.517387 812.681013 17.275916 0.000000 0.145535
418.000000 52.159000 8.000000 8.000000 -3.000000 91.049246 20.442025 573.830890 919.963060 19.172225 0.000000 0.136189
419.000000 46.919000 9.000000 8.000000 -3.000000 85.936439 23.913800 497.741846 1024.641870 21.315428 0.000000 0.126769
420.000000 74.940000 1.000000 9.000000 -3.000000 115.420602 -41.712007 1934.347891 255.752466 13.337472 0.000000 0.133316
421.000000 74.246000 2.000000 9.000000 -3.000000 115.901367 -30.209501 1601.657171 336.212495 13.462206 0.000000 0.009246
422.000000 68.477000 4.000000 9.000000 -3.000000 111.316304 -9.518973 1155.476305 515.154010 14.597973 0.000000 0.130904
423.000000 64.148000 5.000000 9.000000 -3.000000 107.173650 -1.256549 998.607909 608.293586 15.584405 0.000000 0.151693
424.000000 59.390000 2.000000 3.000000 -1.000000 102.462805 5.572623 869.987614 701.994690 5.611530 0.000000 0.158223
425.000000 54.526000 7.000000 9.000000 -3.000000 97.556280 11.162728 762.615503 795.474333 18.337846 0.000000 0.155805
426.000000 49.790000 8.000000 9.000000 -3.000000 92.702317 15.741401 671.627984 888.220164 20.084054 0.000000 0.148185
428.000000 66.763000 1.000000 10.000000 -3.000000 111.961846 -41.868617 1939.640018 358.173492 14.971858 0.000000 0.120284
429.000000 66.348000 2.000000 10.000000 -3.000000 112.583284 -31.873061 1644.232271 413.869618 15.065639 0.000000 0.017544
430.000000 64.748000 3.000000 10.000000 -3.000000 111.639860 -22.204026 1414.315795 479.797654 15.438513 0.000000 0.084136
431.000000 62.170000 4.000000 10.000000 -3.000000 109.370685 -13.343339 1230.284941 552.097220 16.079527 0.000000 0.127720
432.000000 58.883000 5.000000 10.000000 -3.000000 106.126025 -5.553493 1079.649619 628.346430 16.978291 0.000000 0.151131
433.000000 55.162000 6.000000 10.000000 -3.000000 102.265657 1.113749 954.075729 706.961390 18.124948 0.000000 0.160958
434.000000 51.250000 7.000000 10.000000 -3.000000 98.093878 6.740700 847.789317 786.872558 19.510135 0.000000 0.161706
435.000000 47.336000 8.000000 10.000000 -3.000000 93.837231 11.467374 756.663628 867.339720 21.124955 0.000000 0.156587
437.000000 60.075000 1.000000 11.000000 -3.000000 109.084134 -41.988601 1943.712074 440.021085 16.639292 0.000000 0.112843
438.000000 59.836000 2.000000 11.000000 -3.000000 109.781269 -33.154618 1678.090319 478.633300 16.705880 0.000000 0.026575
439.000000 58.687000 3.000000 11.000000 -3.000000 109.216699 -24.519348 1465.934571 528.658444 17.033650 0.000000 0.080560
440.000000 56.759000 4.000000 11.000000 -3.000000 107.539664 -16.439545 1292.577990 586.326947 17.613023 0.000000 0.123306
441.000000 54.232000 5.000000 11.000000 -3.000000 104.986951 -9.145380 1148.268854 649.160740 18.434887 0.000000 0.148408
442.000000 51.298000 6.000000 11.000000 -3.000000 101.821546 -2.727303 1026.270794 715.472518 19.490561 0.000000 0.160859
443.000000 48.137000 7.000000 11.000000 -3.000000 98.285065 2.830774 921.780942 784.080685 20.771775 0.000000 0.164426
445.000000 53.904000 0.000000 4.000000 -1.000000 104.882874 -49.823691 2249.691003 497.631885 6.181734 0.000000 0.264079
446.000000 54.526000 1.000000 12.000000 -3.000000 106.655298 -42.083463 1946.942371 507.152020 18.333437 0.000000 0.109171
447.000000 54.400000 2.000000 12.000000 -3.000000 107.390053 -34.171259 1705.659860 533.578813 18.375955 0.000000 0.035034
448.000000 53.562000 1.000000 4.000000 -1.000000 107.089217 -26.381740 1508.849657 571.643104 6.221302 0.000000 0.077451
449.000000 52.099000 4.000000 12.000000 -3.000000 105.848596 -18.983626 1345.253813 617.879187 19.188845 0.000000 0.118457
450.000000 50.132000 5.000000 12.000000 -3.000000 103.831253 -12.170270 1207.118553 669.921823 19.942712 0.000000 0.144498
451.000000 47.798000 2.000000 4.000000 -1.000000 101.230027 -6.042447 1088.929312 726.107855 6.972603 0.000000 0.158953
453.000000 49.324000 0.000000 13.000000 -3.000000 102.970489 -49.180015 2221.019986 561.767767 20.267733 0.000000 0.243537
454.000000 49.861000 1.000000 13.000000 -3.000000 104.579679 -42.160343 1949.567466 563.342315 20.049480 0.000000 0.107944
455.000000 49.809000 2.000000 13.000000 -3.000000 105.329168 -34.996950 1728.543984 580.848531 20.070545 0.000000 0.042775
456.000000 49.191000 3.000000 13.000000 -3.000000 105.215371 -27.909261 1545.091247 609.738175 20.323088 0.000000 0.075045
457.000000 48.066000 4.000000 13.000000 -3.000000 104.301223 -21.103362 1390.379968 646.907490 20.799610 0.000000 0.113632
458.000000 46.517000 5.000000 13.000000 -3.000000 102.701080 -14.739137 1258.146444 690.171577 21.492929 0.000000 0.140002
459.000000 45.893000 1.000000 14.000000 -3.000000 102.786569 -42.223912 1951.742871 611.148857 21.783696 0.000000 0.108245
460.000000 45.889000 2.000000 14.000000 -3.000000 103.536830 -35.680605 1747.843568 621.988206 21.785526 0.000000 0.049827
464.000000 90.159000 5.000000 2.000000 -2.000000 73.252146 48.837925 -256.084274 1433.081643 11.093715 0.000000 0.301934
466.000000 73.040000 6.000000 3.000000 -2.000000 72.979026 41.455155 24.276027 1380.624323 13.694356 0.000000 0.189587
467.000000 58.823000 7.000000 3.000000 -2.000000 65.548362 43.180490 -35.018127 1612.143320 17.006206 0.000000 0.250566
468.000000 48.288000 8.000000 3.000000 -2.000000 59.644675 44.444344 -80.618291 1823.901233 20.717903 0.000000 0.310419
469.000000 89.789000 5.000000 4.000000 -2.000000 88.838581 29.551720 364.778786 966.083156 11.137340 0.000000 0.109061
470.000000 60.636000 7.000000 4.000000 -2.000000 72.276731 36.471169 179.421954 1368.741610 16.496460 0.000000 0.151574
471.000000 50.667000 4.000000 2.000000 -1.000000 66.134428 38.600763 115.782098 1550.298837 9.872027 0.000000 0.193903
472.000000 84.494000 5.000000 5.000000 -2.000000 92.830195 21.018224 561.456500 883.999382 11.834741 0.000000 0.133723
473.000000 71.408000 6.000000 5.000000 -2.000000 84.654518 26.230704 444.680941 1053.267745 14.005541 0.000000 0.121267
474.000000 60.469000 7.000000 5.000000 -2.000000 77.575371 30.043273 352.516903 1214.926392 16.541176 0.000000 0.120186
475.000000 51.513000 8.000000 5.000000 -2.000000 71.520594 32.929582 277.925486 1369.542911 19.418516 0.000000 0.135730
476.000000 78.197000 5.000000 6.000000 -2.000000 95.111476 13.564773 715.317363 841.963420 12.787461 0.000000 0.152449
477.000000 67.990000 3.000000 3.000000 -1.000000 88.049274 19.515307 593.540573 979.892614 7.354544 0.000000 0.138301
478.000000 58.947000 7.000000 6.000000 -2.000000 81.604527 24.027994 495.172682 1114.916903 16.967212 0.000000 0.124805
479.000000 51.183000 4.000000 3.000000 -1.000000 75.868270 27.527673 414.055784 1246.575032 9.771340 0.000000 0.119655
480.000000 86.985000 3.000000 7.000000 -2.000000 107.096639 -11.076429 1185.700757 603.673981 11.492897 0.000000 0.139749
481.000000 79.775000 4.000000 7.000000 -2.000000 102.067326 -0.878106 991.496415 710.877381 12.532856 0.000000 0.161189
482.000000 71.830000 5.000000 7.000000 -2.000000 96.243207 7.203232 838.970724 822.319067 13.920667 0.000000 0.162087
483.000000 63.950000 6.000000 7.000000 -2.000000 90.287174 13.530087 716.006773 935.451439 15.637722 0.000000 0.152004
484.000000 56.611000 7.000000 7.000000 -2.000000 84.578779 18.505141 614.769575 1048.711163 17.666719 0.000000 0.137655
485.000000 50.032000 8.000000 7.000000 -2.000000 79.297823 22.464375 529.968150 1161.113049 19.991545 0.000000 0.124701
486.000000 81.834000 1.000000 8.000000 -2.000000 107.154614 -38.130574 1819.850340 518.634998 12.215649 0.000000 0.057794
487.000000 76.755000 3.000000 8.000000 -2.000000 104.925219 -15.495418 1273.390129 643.291743 13.025101 0.000000 0.133147
488.000000 65.844000 5.000000 8.000000 -2.000000 96.640992 1.835033 940.517331 815.623802 15.186165 0.000000 0.165461
489.000000 59.766000 3.000000 4.000000 -1.000000 91.683529 8.271758 818.527420 909.033458 8.366160 0.000000 0.160270
490.000000 53.859000 7.000000 8.000000 -2.000000 86.716296 13.506253 716.480375 1004.507948 18.569013 0.000000 0.148718
491.000000 48.359000 4.000000 4.000000 -1.000000 81.951712 17.779939 629.855349 1100.822081 10.341255 0.000000 0.135032
493.000000 70.949000 0.000000 9.000000 -2.000000 102.113139 -48.900875 2208.817317 589.602972 14.090534 0.000000 0.235330
494.000000 71.778000 1.000000 9.000000 -2.000000 104.127192 -38.778567 1839.700138 593.515204 13.927680 0.000000 0.066060
495.000000 70.863000 2.000000 9.000000 -2.000000 104.361626 -28.573855 1561.177728 627.202736 14.107987 0.000000 0.074134
496.000000 68.406000 3.000000 9.000000 -2.000000 102.939642 -18.902141 1343.542835 679.616272 14.615328 0.000000 0.125850
497.000000 64.780000 4.000000 9.000000 -2.000000 100.204920 -10.207272 1168.796936 744.132895 15.434576 0.000000 0.154143
498.000000 60.413000 5.000000 9.000000 -2.000000 96.587724 -2.681003 1025.399101 816.565992 16.551519 0.000000 0.164957
499.000000 55.702000 6.000000 9.000000 -2.000000 92.486849 3.688915 905.608271 894.158428 17.952798 0.000000 0.164213
500.000000 50.958000 7.000000 9.000000 -2.000000 88.211159 9.025623 804.038307 975.035496 19.625840 0.000000 0.156262
501.000000 46.392000 8.000000 9.000000 -2.000000 83.971429 13.488867 716.825787 1057.890133 21.558802 0.000000 0.144469
503.000000 63.108000 0.000000 5.000000 -1.000000 99.863860 -48.194352 2178.530847 660.258522 7.920934 0.000000 0.216614
504.000000 63.816000 1.000000 10.000000 -2.000000 101.672300 -39.271596 1855.046013 653.786856 15.666025 0.000000 0.074260
505.000000 63.250000 1.000000 5.000000 -1.000000 102.083973 -30.260576 1602.942548 674.227643 7.903328 0.000000 0.072552
506.000000 61.526000 3.000000 10.000000 -2.000000 101.163902 -21.591083 1400.941304 712.564105 16.250046 0.000000 0.118862
507.000000 58.873000 2.000000 5.000000 -1.000000 99.127173 -13.603699 1235.456544 763.090924 8.491631 0.000000 0.148213
508.000000 55.570000 5.000000 10.000000 -2.000000 96.267159 -6.488386 1097.407250 822.038426 17.994096 0.000000 0.162162
509.000000 51.891000 3.000000 5.000000 -1.000000 92.881291 -0.292412 980.492967 886.828921 9.635509 0.000000 0.165127
510.000000 48.073000 7.000000 10.000000 -2.000000 89.223145 5.033345 880.205235 955.650526 20.803127 0.000000 0.160659
512.000000 56.767000 0.000000 11.000000 -2.000000 98.003118 -47.636212 2155.189758 716.430339 17.611997 0.000000 0.204067
513.000000 57.377000 1.000000 11.000000 -2.000000 99.643729 -39.659259 1867.264687 703.439758 17.424833 0.000000 0.081774
514.000000 57.029000 2.000000 11.000000 -2.000000 100.160859 -31.596476 1637.049416 714.531122 17.531312 0.000000 0.072499
515.000000 55.795000 3.000000 11.000000 -2.000000 99.588766 -23.758611 1448.773911 742.339200 17.919627 0.000000 0.112640
516.000000 53.819000 4.000000 11.000000 -2.000000 98.066021 -16.408018 1291.934301 781.996285 18.578596 0.000000 0.141974
517.000000 51.285000 5.000000 11.000000 -2.000000 95.795621 -9.714984 1159.264063 830.167717 19.497621 0.000000 0.158086
518.000000 48.387000 6.000000 11.000000 -2.000000 92.998469 -3.751695 1045.576034 884.501563 20.666647 0.000000 0.164019
520.000000 51.545000 0.000000 6.000000 -1.000000 96.439453 -47.184233 2136.650706 762.264684 9.698490 0.000000 0.195459
521.000000 52.074000 1.000000 12.000000 -2.000000 97.940520 -39.972046 1877.223667 745.107117 19.199866 0.000000 0.088490
522.000000 51.867000 1.000000 6.000000 -1.000000 98.519495 -32.679602 1665.427681 749.450667 9.638321 0.000000 0.073631
523.000000 50.969000 3.000000 12.000000 -2.000000 98.193777 -25.538239 1489.248045 769.241784 19.617035 0.000000 0.107367
524.000000 49.472000 2.000000 6.000000 -1.000000 97.054912 -18.752140 1340.397510 800.333664 10.105641 0.000000 0.135876
525.000000 47.503000 5.000000 12.000000 -2.000000 95.245642 -12.467833 1212.974817 839.798410 21.050092 0.000000 0.153368
527.000000 47.176000 0.000000 13.000000 -2.000000 95.107690 -46.810800 2121.570004 800.437529 21.193907 0.000000 0.189441
528.000000 47.638000 1.000000 13.000000 -2.000000 96.490934 -40.229725 1885.496748 780.604476 20.987985 0.000000 0.094454
529.000000 47.524000 2.000000 13.000000 -2.000000 97.104486 -33.574901 1689.408795 779.993056 21.038691 0.000000 0.075598
530.000000 46.861000 3.000000 13.000000 -2.000000 96.956285 -27.022864 1523.940445 793.587433 21.337008 0.000000 0.103081
531.000000 45.711000 4.000000 13.000000 -2.000000 96.108103 -20.734529 1382.439118 817.846842 21.874335 0.000000 0.130169
535.000000 73.441000 5.000000 2.000000 -1.000000 56.776034 41.538311 21.491526 1882.801782 13.623018 0.000000 0.288167
537.000000 78.229000 5.000000 3.000000 -1.000000 66.392455 32.545175 288.131294 1499.016990 12.788014 0.000000 0.147045
538.000000 61.225000 6.000000 3.000000 -1.000000 59.093640 35.934482 194.905299 1736.751723 16.341090 0.000000 0.206270
539.000000 49.105000 7.000000 3.000000 -1.000000 53.404268 38.361871 123.105252 1960.252017 20.375740 0.000000 0.273794
540.000000 77.879000 5.000000 4.000000 -1.000000 73.398342 24.225283 490.723204 1292.877842 12.844589 0.000000 0.116500
541.000000 63.201000 6.000000 4.000000 -1.000000 66.256844 28.776226 383.883650 1481.129907 15.829183 0.000000 0.128080
542.000000 51.964000 7.000000 4.000000 -1.000000 60.377021 32.122106 299.263059 1663.610901 19.253467 0.000000 0.166771
543.000000 88.586000 4.000000 5.000000 -1.000000 85.484598 9.585802 793.232774 1027.200922 11.290055 0.000000 0.151530
544.000000 74.562000 5.000000 5.000000 -1.000000 78.247080 16.808680 649.869668 1174.920873 13.415073 0.000000 0.128309
545.000000 62.622000 6.000000 5.000000 -1.000000 71.719265 22.162789 536.587632 1324.914055 15.974479 0.000000 0.112482
546.000000 52.833000 7.000000 5.000000 -1.000000 66.035871 26.224833 444.818010 1474.282284 18.935787 0.000000 0.117808
547.000000 90.396000 3.000000 6.000000 -1.000000 92.930511 -6.764481 1102.663664 885.516412 11.062313 0.000000 0.161607
548.000000 80.177000 4.000000 6.000000 -1.000000 87.405426 2.860516 921.220870 989.832955 12.473793 0.000000 0.158941
549.000000 69.902000 5.000000 6.000000 -1.000000 81.486479 10.362428 778.192511 1104.784306 14.308711 0.000000 0.142080
550.000000 60.484000 6.000000 6.000000 -1.000000 75.764728 16.188251 662.546924 1225.322570 16.538519 0.000000 0.121893
551.000000 52.275000 7.000000 6.000000 -1.000000 70.511696 20.755638 567.107449 1348.323734 19.137176 0.000000 0.108670
553.000000 86.942000 0.000000 7.000000 -1.000000 93.960239 -46.497099 2109.062510 832.760253 11.500290 0.000000 0.185168
554.000000 87.652000 1.000000 7.000000 -1.000000 95.873413 -34.326987 1709.941267 806.929942 11.407225 0.000000 0.078104
555.000000 84.874000 2.000000 7.000000 -1.000000 95.229716 -22.429101 1419.256158 834.424497 11.781207 0.000000 0.124983
556.000000 79.413000 3.000000 7.000000 -1.000000 92.474256 -11.710791 1198.101242 893.503826 12.592344 0.000000 0.154726
557.000000 72.401000 4.000000 7.000000 -1.000000 88.356612 -2.617016 1024.194548 971.911553 13.813246 0.000000 0.160115
558.000000 64.868000 5.000000 7.000000 -1.000000 83.593570 4.840438 883.856017 1062.280594 15.418761 0.000000 0.150567
559.000000 57.534000 6.000000 7.000000 -1.000000 78.701552 10.875178 768.221915 1159.967032 17.385756 0.000000 0.133766
560.000000 50.797000 7.000000 7.000000 -1.000000 73.987543 15.757738 671.296704 1261.936952 19.692917 0.000000 0.116400
562.000000 75.076000 0.000000 8.000000 -1.000000 92.084744 -45.999522 2089.516741 884.600163 13.318387 0.000000 0.179865
563.000000 75.755000 1.000000 8.000000 -1.000000 93.838986 -35.519350 1743.261794 852.265171 13.199148 0.000000 0.083904
564.000000 74.075000 2.000000 8.000000 -1.000000 93.671281 -25.165815 1480.681519 864.698426 13.498940 0.000000 0.116353
565.000000 70.454000 3.000000 8.000000 -1.000000 91.818404 -15.560886 1274.714887 905.529895 14.193710 0.000000 0.146904
566.000000 65.531000 4.000000 8.000000 -1.000000 88.738171 -7.088194 1108.834328 964.889724 15.261209 0.000000 0.157761
567.000000 59.958000 5.000000 8.000000 -1.000000 84.928613 0.139736 972.375078 1036.515232 16.680827 0.000000 0.154416
568.000000 54.262000 6.000000 8.000000 -1.000000 80.803769 6.196302 858.147307 1116.272928 18.433450 0.000000 0.142502
569.000000 48.792000 7.000000 8.000000 -1.000000 76.653050 11.238956 761.127412 1201.349353 20.501320 0.000000 0.126780
571.000000 66.010000 0.000000 9.000000 -1.000000 90.617431 -45.622624 2074.944030 924.415613 15.147966 0.000000 0.177044
572.000000 66.629000 1.000000 9.000000 -1.000000 92.229345 -36.421617 1769.139541 888.930041 15.007409 0.000000 0.089940
573.000000 65.585000 2.000000 9.000000 -1.000000 92.348391 -27.273186 1529.879161 891.340479 15.246823 0.000000 0.110009
574.000000 63.106000 3.000000 9.000000 -1.000000 91.105916 -18.617252 1337.573869 919.075677 15.846431 0.000000 0.139281
575.000000 59.571000 4.000000 9.000000 -1.000000 88.789725 -10.765181 1179.636330 964.145595 16.787807 0.000000 0.153592
576.000000 55.398000 5.000000 9.000000 -1.000000 85.745170 -3.859455 1047.609238 1021.255718 18.053760 0.000000 0.155080
577.000000 50.958000 6.000000 9.000000 -1.000000 82.291561 2.096503 935.599853 1086.779702 19.628232 0.000000 0.147797
578.000000 46.533000 7.000000 9.000000 -1.000000 78.679617 7.181975 839.376408 1158.166892 21.496207 0.000000 0.135340
581.000000 58.869000 0.000000 10.000000 -1.000000 89.438627 -45.327273 2063.660624 955.999736 16.985938 0.000000 0.175535
582.000000 59.423000 1.000000 10.000000 -1.000000 90.925555 -37.127851 1789.817708 919.191189 16.827686 0.000000 0.095727
583.000000 58.763000 2.000000 10.000000 -1.000000 91.221763 -28.941739 1570.169758 914.770045 17.017005 0.000000 0.105689
584.000000 57.022000 3.000000 10.000000 -1.000000 90.402269 -21.089333 1390.077193 932.900826 17.537351 0.000000 0.132376
585.000000 54.431000 4.000000 10.000000 -1.000000 88.653109 -13.818795 1239.737626 967.060135 18.373212 0.000000 0.148630
586.000000 51.262000 5.000000 10.000000 -1.000000 86.215689 -7.271923 1112.340431 1012.768647 19.510030 0.000000 0.153722
587.000000 47.778000 6.000000 10.000000 -1.000000 83.332310 -1.490558 1003.006274 1066.862832 20.934132 0.000000 0.150378
589.000000 51.709000 -1.000000 11.000000 -1.000000 86.173880 -52.237718 2364.437955 1058.540468 19.338589 0.000000 0.335016
590.000000 53.104000 0.000000 11.000000 -1.000000 88.471123 -45.089600 2054.665787 981.689203 18.830232 0.000000 0.174756
591.000000 53.597000 1.000000 11.000000 -1.000000 89.848795 -37.695521 1806.720346 944.589629 18.657058 0.000000 0.101085
592.000000 53.179000 2.000000 11.000000 -1.000000 90.255874 -30.293484 1603.771401 935.433287 18.804147 0.000000 0.103041
593.000000 51.929000 3.000000 11.000000 -1.000000 89.735923 -23.123000 1434.589159 946.394015 19.257453 0.000000 0.126395
594.000000 49.994000 4.000000 11.000000 -1.000000 88.412273 -16.381530 1291.393664 972.095206 20.003742 0.000000 0.143469
595.000000 47.556000 5.000000 11.000000 -1.000000 86.455762 -10.198382 1168.624531 1008.733269 21.030528 0.000000 0.151150
597.000000 47.225000 -1.000000 12.000000 -1.000000 85.616060 -51.427195 2324.563814 1073.336381 21.175033 0.000000 0.314242
598.000000 48.356000 0.000000 12.000000 -1.000000 87.662927 -44.894217 2047.327356 1003.006368 20.679406 0.000000 0.174395
599.000000 48.795000 1.000000 12.000000 -1.000000 88.944949 -38.161676 1820.794986 966.209197 20.493479 0.000000 0.105970
600.000000 48.533000 2.000000 12.000000 -1.000000 89.421369 -31.409668 1632.222146 953.736205 20.604485 0.000000 0.101708
601.000000 47.620000 3.000000 12.000000 -1.000000 89.117553 -24.821381 1472.805243 959.265298 21.000353 0.000000 0.121383
602.000000 46.151000 4.000000 12.000000 -1.000000 88.117100 -18.554780 1336.267644 978.322842 21.669656 0.000000 0.138450
606.000000 154.079000 2.000000 2.000000 0.000000 63.320429 13.377725 719.032666 1496.923354 6.493662 0.000000 0.072678
607.000000 101.276000 3.000000 2.000000 0.000000 52.449549 24.648224 481.137827 1851.319787 9.880320 0.000000 0.158076
609.000000 168.943000 1.000000 3.000000 0.000000 79.142031 -18.384522 1332.712560 1158.546190 5.920579 0.000000 0.126066
610.000000 136.100000 2.000000 3.000000 0.000000 72.058113 0.734647 961.198981 1289.531368 7.350490 0.000000 0.106691
611.000000 77.282000 4.000000 3.000000 0.000000 55.680760 21.608579 548.678523 1731.266791 12.947610 0.000000 0.118262
612.000000 59.365000 5.000000 3.000000 0.000000 49.586581 27.180691 422.318320 1971.197267 16.855911 0.000000 0.199953
614.000000 133.254000 0.000000 4.000000 0.000000 78.686651 -42.894606 1974.965559 1234.916935 7.505544 0.000000 0.183118
615.000000 130.846000 1.000000 4.000000 0.000000 79.975300 -24.204818 1458.814621 1149.596816 7.644124 0.000000 0.120453
616.000000 115.327000 2.000000 4.000000 0.000000 76.128515 -7.937873 1125.073385 1209.358826 8.673761 0.000000 0.124126
617.000000 95.412000 3.000000 4.000000 0.000000 69.860078 4.432684 891.566049 1336.902565 10.485465 0.000000 0.095293
618.000000 62.144000 5.000000 4.000000 0.000000 57.443674 19.854715 586.348787 1671.592217 16.101286 0.000000 0.100614
620.000000 106.102000 1.000000 5.000000 0.000000 80.197564 -27.844114 1543.525064 1151.304087 9.426615 0.000000 0.116889
621.000000 98.037000 2.000000 5.000000 0.000000 78.119135 -13.999482 1243.339967 1174.366878 10.202971 0.000000 0.127603
622.000000 85.960000 3.000000 5.000000 0.000000 73.761396 -2.522818 1022.421489 1254.783062 11.637607 0.000000 0.114940
623.000000 73.205000 4.000000 5.000000 0.000000 68.528803 6.465152 853.034830 1367.048136 13.666630 0.000000 0.088530
624.000000 51.868000 6.000000 5.000000 0.000000 58.549508 18.715213 610.375952 1636.024769 19.291092 0.000000 0.091372
626.000000 88.988000 1.000000 6.000000 0.000000 80.218452 -30.316453 1604.350266 1155.944937 11.239464 0.000000 0.115944
627.000000 59.304000 5.000000 6.000000 0.000000 67.642921 7.747435 828.571861 1387.751514 16.870271 0.000000 0.084321
629.000000 76.524000 1.000000 7.000000 0.000000 80.168259 -32.099465 1650.144134 1161.182365 13.069997 0.000000 0.116801
630.000000 73.850000 2.000000 7.000000 0.000000 79.684923 -21.668638 1402.627228 1151.783467 13.543969 0.000000 0.123205
631.000000 68.905000 3.000000 7.000000 0.000000 77.599780 -12.202532 1207.752855 1183.113142 14.516883 0.000000 0.127294
632.000000 62.707000 4.000000 7.000000 0.000000 74.465743 -4.004197 1050.341048 1240.908032 15.952820 0.000000 0.118030
633.000000 56.143000 5.000000 7.000000 0.000000 70.807669 2.896860 920.536423 1316.123154 17.819227 0.000000 0.100235
634.000000 49.809000 6.000000 7.000000 0.000000 67.012718 8.629350 811.661807 1402.805687 20.086534 0.000000 0.081559
636.000000 67.072000 1.000000 8.000000 0.000000 80.094215 -33.443777 1685.865801 1166.250858 14.911733 0.000000 0.118691
637.000000 62.091000 3.000000 8.000000 0.000000 78.535592 -15.613099 1275.772015 1167.641190 16.109632 0.000000 0.127395
638.000000 52.719000 5.000000 8.000000 0.000000 73.131143 -1.268994 998.841803 1267.444357 18.975916 0.000000 0.111995
640.000000 57.259000 -1.000000 9.000000 0.000000 76.180132 -51.070000 2307.437929 1362.342212 17.467051 0.000000 0.344000
641.000000 59.672000 1.000000 9.000000 0.000000 80.014801 -34.492496 1714.509050 1170.911390 16.761014 0.000000 0.121095
642.000000 58.625000 2.000000 9.000000 0.000000 80.126318 -26.215160 1504.956210 1149.812112 17.060720 0.000000 0.118311
643.000000 53.091000 4.000000 9.000000 0.000000 77.292887 -11.226465 1188.628689 1188.428259 18.841100 0.000000 0.126876
644.000000 49.333000 5.000000 9.000000 0.000000 74.848441 -4.849781 1066.320758 1233.492965 20.277572 0.000000 0.119601
645.000000 51.768000 -1.000000 10.000000 0.000000 76.479337 -50.271912 2270.110336 1345.925307 19.319876 0.000000 0.322674
646.000000 53.727000 1.000000 10.000000 0.000000 79.937433 -35.332939 1737.988152 1175.114470 18.615616 0.000000 0.123700
647.000000 51.409000 3.000000 10.000000 0.000000 79.540021 -20.671094 1381.077310 1153.374006 19.456327 0.000000 0.124191
648.000000 47.228000 -1.000000 11.000000 0.000000 76.716567 -49.615133 2240.318435 1333.173566 21.177058 0.000000 0.306170
649.000000 48.850000 1.000000 11.000000 0.000000 79.864951 -36.021270 1757.584203 1178.879402 20.474113 0.000000 0.126331
650.000000 48.410000 2.000000 11.000000 0.000000 80.221965 -29.188783 1576.244054 1153.462399 20.660492 0.000000 0.116135
651.000000 47.219000 3.000000 11.000000 0.000000 79.802630 -22.584114 1422.667982 1150.684178 21.182378 0.000000 0.122239
657.000000 95.327000 1.000000 3.000000 1.000000 44.940052 -17.886942 1322.362716 2074.328967 10.498124 0.000000 0.198647
658.000000 79.651000 2.000000 3.000000 1.000000 42.812189 -2.370402 1019.553138 2103.791180 12.565012 0.000000 0.189912
659.000000 62.732000 3.000000 3.000000 1.000000 39.411543 8.924798 805.979538 2266.815925 15.954011 0.000000 0.250538
662.000000 89.325000 0.000000 4.000000 1.000000 51.935643 -38.202875 1822.047530 2013.555477 11.201454 0.000000 0.290114
663.000000 88.015000 1.000000 4.000000 1.000000 53.306848 -22.783740 1427.073086 1810.922286 11.369003 0.000000 0.140724
664.000000 78.527000 2.000000 4.000000 1.000000 51.762188 -9.233868 1149.974591 1800.245271 12.743519 0.000000 0.083266
665.000000 66.155000 3.000000 4.000000 1.000000 48.666821 1.605368 944.835457 1888.024203 15.127364 0.000000 0.104345
666.000000 54.497000 4.000000 4.000000 1.000000 45.169525 9.916020 786.846468 2027.170103 18.363817 0.000000 0.164632
668.000000 78.900000 0.000000 5.000000 1.000000 57.158598 -39.012521 1846.955439 1835.103051 12.680639 0.000000 0.256601
669.000000 78.545000 1.000000 5.000000 1.000000 58.507771 -26.123892 1502.827770 1675.373875 12.738563 0.000000 0.133247
670.000000 72.894000 2.000000 5.000000 1.000000 57.565386 -14.286091 1249.065734 1646.775191 13.726997 0.000000 0.068480
671.000000 64.443000 3.000000 5.000000 1.000000 55.106676 -4.208901 1054.206214 1693.676769 15.528168 0.000000 0.033868
672.000000 55.462000 4.000000 5.000000 1.000000 51.963894 3.992834 899.873449 1785.034724 18.043374 0.000000 0.066250
673.000000 47.229000 5.000000 5.000000 1.000000 48.707047 10.546590 774.615256 1902.557258 21.189272 0.000000 0.120843
676.000000 69.845000 0.000000 6.000000 1.000000 60.691782 -39.584119 1864.885695 1724.961463 14.323725 0.000000 0.238755
677.000000 69.918000 1.000000 6.000000 1.000000 62.004213 -28.532817 1560.178548 1592.275874 14.309537 0.000000 0.135672
678.000000 66.470000 2.000000 6.000000 1.000000 61.512669 -18.105685 1326.905401 1555.498995 15.052684 0.000000 0.082755
679.000000 60.735000 3.000000 6.000000 1.000000 59.662805 -8.850044 1142.581879 1578.462629 16.475050 0.000000 0.041602
680.000000 54.063000 4.000000 6.000000 1.000000 57.022424 -0.972164 993.263744 1639.455487 18.508900 0.000000 0.007671
681.000000 47.437000 5.000000 6.000000 1.000000 54.064136 5.580205 869.843826 1724.848939 21.095221 0.000000 0.048647
684.000000 62.344000 0.000000 7.000000 1.000000 63.235912 -40.009120 1878.410123 1649.707473 16.046615 0.000000 0.227803
685.000000 62.599000 1.000000 7.000000 1.000000 64.497855 -30.346408 1605.105594 1535.928684 15.981764 0.000000 0.139113
686.000000 60.433000 2.000000 7.000000 1.000000 64.320631 -21.070368 1389.668009 1495.588218 16.555488 0.000000 0.095852
687.000000 56.489000 3.000000 7.000000 1.000000 62.967356 -12.594836 1215.478429 1503.712851 17.712206 0.000000 0.065430
688.000000 51.570000 4.000000 7.000000 1.000000 60.819744 -5.135330 1071.725706 1544.456127 19.402601 0.000000 0.034423
689.000000 46.363000 5.000000 7.000000 1.000000 58.242850 1.273513 951.073279 1607.381461 21.582769 0.000000 0.009164
692.000000 56.156000 0.000000 8.000000 1.000000 65.153270 -40.337478 1888.974942 1594.836180 17.814341 0.000000 0.220416
693.000000 56.482000 1.000000 8.000000 1.000000 66.358263 -31.758477 1641.251358 1495.121577 17.712051 0.000000 0.142113
694.000000 55.085000 2.000000 8.000000 1.000000 66.396516 -23.426590 1441.347278 1453.548623 18.161799 0.000000 0.105066
695.000000 52.322000 3.000000 8.000000 1.000000 65.427835 -15.655711 1276.635174 1452.094964 19.122026 0.000000 0.082025
696.000000 48.676000 4.000000 8.000000 1.000000 63.709960 -8.641612 1138.573841 1478.810471 20.555239 0.000000 0.059624
699.000000 51.013000 0.000000 9.000000 1.000000 66.649163 -40.598775 1897.455834 1552.967760 19.609762 0.000000 0.215099
700.000000 51.357000 1.000000 9.000000 1.000000 67.795815 -32.887808 1670.961172 1464.163905 19.478714 0.000000 0.144583
701.000000 50.440000 2.000000 9.000000 1.000000 67.981526 -25.338230 1484.640851 1422.584625 19.833834 0.000000 0.111472
702.000000 48.465000 3.000000 9.000000 1.000000 67.305870 -18.190834 1328.676765 1414.772277 20.642877 0.000000 0.093099
703.000000 45.734000 4.000000 9.000000 1.000000 65.945024 -11.614178 1196.209052 1431.477333 21.876385 0.000000 0.076559
704.000000 46.693000 0.000000 10.000000 1.000000 67.848348 -40.811643 1904.414034 1519.927609 21.423487 0.000000 0.211088
705.000000 47.032000 1.000000 10.000000 1.000000 68.938094 -33.810925 1695.813448 1439.852160 21.269671 0.000000 0.146641
706.000000 46.421000 2.000000 10.000000 1.000000 69.224820 -26.916990 1521.436609 1398.922175 21.550204 0.000000 0.116082
713.000000 49.642000 1.000000 6.000000 2.000000 44.796238 -27.141294 1526.746809 2159.110008 20.158409 0.000000 0.255658
715.000000 47.587000 1.000000 7.000000 2.000000 49.467433 -28.933267 1569.961975 1992.551360 21.028025 0.000000 0.218484
716.000000 46.182000 2.000000 7.000000 2.000000 49.662673 -20.587500 1379.284458 1917.321606 21.668620 0.000000 0.158319
#UB matrix in q= (UB) B0 G* 
#[[-0.114813095 -0.633417849  0.763894547]
# [ 0.788482772 -0.526311748 -0.317910536]
# [ 0.604245705  0.566568233  0.560690727]]
#B0 matrix in q= UB (B0) G*
#[[ 0.19670273 -0.          0.03056101]
# [ 0.          0.19187965 -0.        ]
# [ 0.          0.          0.18806537]]
#UBB0 matrix in q= (UB B0) G* i.e. recip. basis vectors are columns in LT frame: astar = UBB0[:,0], bstar = UBB0[:,1], cstar = UBB0[:,2]. (abcstar as columns on xyzlab1, xlab1 = ui, ui = unit vector along incident beam)
#[[-0.02258405 -0.12154     0.14015331]
# [ 0.15509672 -0.10098852 -0.03569114]
# [ 0.11885678  0.10871292  0.12391287]]
#Euler angles phi theta psi (deg)
#[133.165  55.938 112.559]
#deviatoric strain in direct crystal frame (10-3 unit)
#[[ 2.95  0.05 -0.53]
# [ 0.05  3.26 -1.06]
# [-0.53 -1.06 -6.22]]
#deviatoric strain in sample2 frame (10-3 unit)
#[[-5.31  2.91 -0.59]
# [ 2.91  1.98  0.07]
# [-0.6   0.07  3.33]]
#new lattice parameters
#[ 5.1505     5.2132138  5.319601  90.0645233 99.2582649 89.9943337]
#CCDLabel
#sCMOS
#DetectorParameters
#[79.0, 975.0, 941.0, 0.0, 0.0]
#pixelsize
#0.0734
#Frame dimensions
#[2018, 2016]
#
