#Strain and Orientation Refinement from experimental file: /home/micha/LaueProjects/DepthEffects/testZrO2_51.cor
#File created at Wed Jun 28 14:21:26 2023 with indexingSpotsSet.py
#Number of indexed spots: 538
#Element
#ZrO2
#grainIndex
#G_0
#Mean Deviation(pixel): 0.117
##spot_index intensity h k l 2theta Chi Xexp Yexp Energy GrainIndex PixDev
7.000000 46.947000 -1.000000 7.000000 -14.000000 123.084504 -39.988173 1877.739607 25.790334 21.284470 0.000000 0.145003
9.000000 46.198000 -1.000000 8.000000 -14.000000 125.983292 -33.932767 1699.133558 -0.907408 21.628676 0.000000 0.085992
12.000000 46.901000 0.000000 9.000000 -14.000000 134.991757 -29.556318 1585.335355 -295.947010 21.302341 0.000000 0.110096
14.000000 45.592000 0.000000 5.000000 -7.000000 136.455280 -22.352214 1417.566703 -283.403406 10.956713 0.000000 0.064835
18.000000 47.672000 -2.000000 4.000000 -13.000000 104.834223 -50.171587 2265.506659 495.939493 20.966531 0.000000 0.262813
20.000000 48.055000 -2.000000 5.000000 -13.000000 109.579630 -45.072205 2054.010438 398.927151 20.797880 0.000000 0.160195
22.000000 47.957000 -2.000000 6.000000 -13.000000 113.655067 -39.657460 1867.207654 328.621833 20.839480 0.000000 0.084119
23.000000 50.677000 -1.000000 6.000000 -13.000000 120.727282 -42.877081 1974.352363 67.996546 19.718634 0.000000 0.177269
25.000000 47.448000 -2.000000 7.000000 -13.000000 117.032794 -34.001556 1701.012187 278.562504 21.061790 0.000000 0.028150
26.000000 49.991000 -1.000000 7.000000 -13.000000 124.214448 -36.547333 1772.792695 30.024938 19.988108 0.000000 0.104345
28.000000 46.609000 -2.000000 8.000000 -13.000000 119.714175 -28.203655 1552.192322 243.985388 21.440557 0.000000 0.013396
29.000000 48.964000 -1.000000 8.000000 -13.000000 126.903555 -29.971834 1595.693536 8.025291 20.407042 0.000000 0.053725
32.000000 45.514000 -2.000000 9.000000 -13.000000 121.728241 -22.379157 1418.158517 221.331936 21.955680 0.000000 0.042242
33.000000 47.679000 -1.000000 9.000000 -13.000000 128.823376 -23.314880 1438.856957 -2.095813 20.956570 0.000000 0.024899
34.000000 49.550000 0.000000 9.000000 -13.000000 136.082269 -24.564091 1466.950295 -287.968266 20.163257 0.000000 0.077204
36.000000 46.213000 -1.000000 10.000000 -13.000000 130.035556 -16.753214 1298.993653 -3.339213 21.620874 0.000000 0.026105
37.000000 47.922000 0.000000 10.000000 -13.000000 137.106200 -16.895274 1301.906243 -269.740480 20.848035 0.000000 0.039016
39.000000 46.187000 0.000000 11.000000 -13.000000 137.409197 -9.570625 1156.474013 -246.364816 21.631053 0.000000 0.013257
45.000000 46.463000 -1.000000 1.000000 -4.000000 92.971284 -49.291828 2225.946584 855.344158 7.172096 0.000000 0.233068
47.000000 47.480000 -3.000000 4.000000 -12.000000 98.221967 -44.465198 2031.387118 723.089359 21.054106 0.000000 0.133651
48.000000 51.281000 -1.000000 2.000000 -6.000000 105.374574 -47.912807 2166.693876 499.459828 9.745412 0.000000 0.208016
50.000000 47.905000 -3.000000 5.000000 -12.000000 102.828027 -39.367481 1858.055549 623.985677 20.865776 0.000000 0.064549
51.000000 51.537000 -2.000000 5.000000 -12.000000 110.208564 -42.331929 1955.449378 405.080250 19.392660 0.000000 0.112698
52.000000 54.883000 -1.000000 5.000000 -12.000000 117.744410 -46.074589 2092.442907 124.920498 18.208281 0.000000 0.221628
54.000000 47.807000 -1.000000 2.000000 -4.000000 106.747473 -34.061707 1702.657419 550.050688 6.969176 0.000000 0.037415
55.000000 51.224000 -1.000000 3.000000 -6.000000 114.255282 -36.435146 1769.532124 338.219736 9.755099 0.000000 0.043662
56.000000 54.356000 -1.000000 6.000000 -12.000000 121.972296 -39.481971 1861.659859 70.569326 18.383660 0.000000 0.129405
57.000000 47.269000 -3.000000 7.000000 -12.000000 109.970012 -28.630020 1562.546448 495.418393 21.144447 0.000000 0.057658
58.000000 50.443000 -2.000000 7.000000 -12.000000 117.498069 -30.328136 1604.644796 291.936994 19.811376 0.000000 0.006053
59.000000 53.339000 -1.000000 7.000000 -12.000000 125.273340 -32.534353 1661.582644 37.981295 18.733363 0.000000 0.065933
62.000000 46.382000 -3.000000 8.000000 -12.000000 112.515149 -23.167264 1435.572598 455.717859 21.548341 0.000000 0.082059
63.000000 49.300000 -1.000000 4.000000 -6.000000 119.958254 -24.142593 1457.410217 261.183039 10.135096 0.000000 0.040684
64.000000 51.952000 -1.000000 8.000000 -12.000000 127.663992 -25.417515 1486.465362 21.191528 19.233179 0.000000 0.027539
65.000000 54.228000 0.000000 4.000000 -6.000000 135.561137 -27.153003 1527.024587 -292.531506 9.211830 0.000000 0.093326
67.000000 47.893000 -2.000000 9.000000 -12.000000 121.690584 -18.020624 1325.137584 242.233586 20.865324 0.000000 0.064299
68.000000 50.303000 -1.000000 9.000000 -12.000000 129.207242 -18.346115 1331.911562 15.951293 19.863180 0.000000 0.025317
69.000000 52.370000 0.000000 3.000000 -4.000000 136.922544 -18.789537 1341.181144 -274.855891 6.359129 0.000000 0.047285
71.000000 46.308000 -1.000000 5.000000 -6.000000 122.774942 -12.095879 1205.656527 232.307515 10.789568 0.000000 0.079383
72.000000 48.487000 -1.000000 10.000000 -12.000000 130.003153 -11.526861 1194.500055 19.189053 20.606817 0.000000 0.039127
73.000000 50.354000 0.000000 5.000000 -6.000000 137.403380 -10.758209 1179.500619 -250.542773 9.920404 0.000000 0.016743
75.000000 46.581000 -1.000000 11.000000 -12.000000 130.173826 -5.124927 1071.528695 28.655995 21.450232 0.000000 0.048808
76.000000 48.263000 0.000000 11.000000 -12.000000 137.164650 -3.326503 1037.558253 -221.813828 20.700769 0.000000 0.007606
79.000000 46.155000 0.000000 3.000000 -3.000000 136.376626 3.352724 911.947495 -190.233682 5.411534 0.000000 0.019505
84.000000 48.076000 -3.000000 2.000000 -11.000000 86.486807 -52.025234 2353.845124 1048.388580 20.796428 0.000000 0.315922
86.000000 49.874000 -3.000000 3.000000 -11.000000 92.603127 -47.106336 2133.487485 869.107199 20.045166 0.000000 0.187176
87.000000 54.541000 -2.000000 3.000000 -11.000000 100.125366 -50.998627 2304.047626 635.586119 18.327211 0.000000 0.276303
89.000000 46.279000 -4.000000 4.000000 -11.000000 90.508607 -39.111160 1850.028793 928.686463 21.603855 0.000000 0.096434
90.000000 50.891000 -3.000000 4.000000 -11.000000 98.036691 -41.856672 1939.235478 736.968227 19.642871 0.000000 0.097476
91.000000 55.398000 -2.000000 4.000000 -11.000000 105.890048 -45.274394 2061.652894 505.611290 18.042490 0.000000 0.153482
93.000000 46.797000 -4.000000 5.000000 -11.000000 95.011024 -34.114751 1704.110206 827.012327 21.363442 0.000000 0.079896
94.000000 51.191000 -3.000000 5.000000 -11.000000 102.710165 -36.337764 1766.709453 639.643546 19.526481 0.000000 0.049489
95.000000 55.454000 -2.000000 5.000000 -11.000000 110.775518 -39.144958 1851.083816 414.510421 18.022877 0.000000 0.066574
96.000000 59.380000 -1.000000 5.000000 -11.000000 119.082443 -42.780726 1970.987121 125.387265 16.828808 0.000000 0.164674
98.000000 46.757000 -4.000000 6.000000 -11.000000 98.832946 -29.005946 1571.745685 749.759681 21.380368 0.000000 0.093608
99.000000 50.874000 -3.000000 6.000000 -11.000000 106.588283 -30.637016 1612.457554 568.367769 19.647265 0.000000 0.057937
100.000000 54.839000 -2.000000 6.000000 -11.000000 114.733686 -32.718467 1666.458611 351.691385 18.224230 0.000000 0.009094
101.000000 58.469000 -1.000000 6.000000 -11.000000 123.175120 -35.458045 1741.524760 77.151120 17.090305 0.000000 0.083368
103.000000 46.253000 -4.000000 7.000000 -11.000000 101.977871 -23.863617 1451.130535 691.315790 21.612179 0.000000 0.113264
104.000000 50.057000 -3.000000 7.000000 -11.000000 109.677304 -24.861587 1473.722393 516.799460 19.966972 0.000000 0.083635
105.000000 53.695000 -2.000000 7.000000 -11.000000 117.769037 -26.142471 1503.260762 309.695869 18.611688 0.000000 0.038304
106.000000 57.008000 -1.000000 7.000000 -11.000000 126.184001 -27.844384 1543.531539 50.647573 17.527740 0.000000 0.032377
107.000000 59.833000 0.000000 7.000000 -11.000000 134.821895 -30.210507 1601.682483 -296.728803 16.698099 0.000000 0.114996
109.000000 48.861000 -3.000000 8.000000 -11.000000 112.019838 -19.127302 1348.274768 480.280339 20.455156 0.000000 0.104328
110.000000 52.164000 -2.000000 8.000000 -11.000000 119.934360 -19.586462 1357.964615 283.180569 19.157358 0.000000 0.066254
111.000000 55.158000 -1.000000 8.000000 -11.000000 128.166965 -20.197657 1370.949224 39.615588 18.115280 0.000000 0.023863
112.000000 57.705000 0.000000 8.000000 -11.000000 136.644690 -21.051140 1389.253245 -280.448220 17.313642 0.000000 0.058105
114.000000 47.395000 -3.000000 9.000000 -11.000000 113.686134 -13.545169 1234.292971 455.342182 21.087282 0.000000 0.118187
115.000000 50.372000 -2.000000 9.000000 -11.000000 121.320343 -13.216914 1227.777779 268.259366 19.838657 0.000000 0.083929
116.000000 53.058000 -1.000000 9.000000 -11.000000 129.238014 -12.782423 1219.180866 39.668634 18.831914 0.000000 0.040499
117.000000 55.340000 0.000000 9.000000 -11.000000 137.374478 -12.180253 1207.314807 -255.346677 18.053262 0.000000 0.021299
119.000000 45.754000 -3.000000 10.000000 -11.000000 114.763591 -8.209250 1130.273746 439.371847 21.843361 0.000000 0.126135
120.000000 48.423000 -2.000000 10.000000 -11.000000 122.041100 -7.173398 1110.459920 262.068548 20.637103 0.000000 0.093743
121.000000 50.822000 -1.000000 10.000000 -11.000000 129.547012 -5.818403 1084.675267 47.685070 19.660376 0.000000 0.051943
122.000000 52.859000 0.000000 10.000000 -11.000000 137.211566 -3.972464 1049.742055 -224.563139 18.900665 0.000000 0.006688
124.000000 46.398000 -2.000000 11.000000 -11.000000 122.218995 -1.553675 1004.192758 262.473441 21.537427 0.000000 0.097590
125.000000 48.536000 -1.000000 11.000000 -11.000000 129.255621 0.551192 964.645612 61.413905 20.586348 0.000000 0.056913
128.000000 46.264000 -1.000000 12.000000 -11.000000 128.516919 6.263271 856.874310 79.213914 21.597858 0.000000 0.056765
129.000000 47.880000 0.000000 12.000000 -11.000000 135.073953 9.730948 790.427253 -153.828300 20.866767 0.000000 0.029012
132.000000 45.488000 0.000000 13.000000 -11.000000 133.471478 15.205867 682.458959 -116.366111 21.964474 0.000000 0.035943
133.000000 46.630000 1.000000 13.000000 -11.000000 139.306292 20.218333 578.609765 -392.769063 21.424820 0.000000 0.092800
137.000000 46.027000 -2.000000 1.000000 -5.000000 78.115858 -46.393140 2104.949416 1269.400223 10.862953 0.000000 0.222605
138.000000 51.769000 -3.000000 2.000000 -10.000000 85.642376 -49.964868 2256.081478 1068.500519 19.313430 0.000000 0.264895
140.000000 48.044000 -4.000000 3.000000 -10.000000 84.135716 -41.438734 1925.174954 1088.460959 20.812261 0.000000 0.134004
141.000000 53.728000 -3.000000 3.000000 -10.000000 92.069985 -44.580663 2035.654085 886.383453 18.607474 0.000000 0.145281
142.000000 59.378000 -2.000000 3.000000 -10.000000 100.399448 -48.509218 2191.923851 642.846969 16.834359 0.000000 0.213369
144.000000 49.228000 -2.000000 2.000000 -5.000000 89.462919 -36.252437 1764.242017 953.511234 10.155080 0.000000 0.092825
145.000000 54.709000 -3.000000 4.000000 -10.000000 97.676300 -38.854618 1842.053356 754.715328 18.272444 0.000000 0.072731
146.000000 60.110000 -1.000000 2.000000 -5.000000 106.341365 -42.166434 1949.775705 515.237746 8.313992 0.000000 0.100418
147.000000 65.127000 -1.000000 4.000000 -10.000000 115.288526 -46.489455 2108.759556 202.427567 15.344685 0.000000 0.216201
148.000000 49.647000 -4.000000 5.000000 -10.000000 94.033229 -30.907336 1619.336028 852.551060 20.137394 0.000000 0.095111
149.000000 54.814000 -3.000000 5.000000 -10.000000 102.383036 -32.876609 1670.662879 659.631935 18.236238 0.000000 0.060694
150.000000 59.860000 -2.000000 5.000000 -10.000000 111.221036 -35.417784 1740.385432 428.179878 16.696367 0.000000 0.026216
151.000000 64.511000 -1.000000 5.000000 -10.000000 120.417961 -38.806131 1840.552463 130.098783 15.490111 0.000000 0.108972
152.000000 49.412000 -2.000000 3.000000 -5.000000 97.827702 -25.491776 1488.176414 777.077500 10.116141 0.000000 0.114034
153.000000 54.193000 -3.000000 6.000000 -10.000000 106.169888 -26.765747 1517.867990 591.470666 18.444302 0.000000 0.084911
154.000000 58.820000 -1.000000 3.000000 -5.000000 115.009194 -28.423753 1557.526925 370.082063 8.495293 0.000000 0.035232
155.000000 63.055000 -1.000000 6.000000 -10.000000 124.252465 -30.665660 1613.184586 88.958423 15.847016 0.000000 0.040984
157.000000 48.651000 -4.000000 7.000000 -10.000000 100.868368 -20.101311 1368.895698 720.950565 20.547642 0.000000 0.132249
158.000000 53.012000 -3.000000 7.000000 -10.000000 109.069944 -20.658078 1380.798034 543.364902 18.854602 0.000000 0.108165
159.000000 57.195000 -2.000000 7.000000 -10.000000 117.747407 -21.384436 1396.457886 332.934003 17.472683 0.000000 0.068039
160.000000 60.999000 -1.000000 7.000000 -10.000000 126.831202 -22.371401 1417.988112 69.307528 16.380662 0.000000 0.021411
161.000000 64.211000 0.000000 7.000000 -10.000000 136.220436 -23.788801 1449.451054 -286.435649 15.559207 0.000000 0.072730
163.000000 47.496000 -2.000000 4.000000 -5.000000 103.209614 -14.828897 1259.950014 679.662938 10.523382 0.000000 0.145552
164.000000 51.429000 -3.000000 8.000000 -10.000000 111.158610 -14.689231 1257.144306 510.351627 19.434225 0.000000 0.124128
165.000000 55.173000 -1.000000 4.000000 -5.000000 119.535563 -14.507685 1253.502653 311.094674 9.056376 0.000000 0.088954
166.000000 58.557000 -1.000000 8.000000 -10.000000 128.279501 -14.262108 1248.586061 64.607665 17.063524 0.000000 0.041815
167.000000 61.408000 0.000000 4.000000 -5.000000 137.306916 -13.911387 1241.582925 -260.904873 8.134653 0.000000 0.027344
169.000000 46.063000 -4.000000 9.000000 -10.000000 104.927457 -9.755726 1160.051926 649.857701 21.700660 0.000000 0.153724
170.000000 49.584000 -3.000000 9.000000 -10.000000 112.538832 -8.977185 1145.028963 488.790136 20.157030 0.000000 0.133283
171.000000 52.911000 -2.000000 9.000000 -10.000000 120.511658 -7.974157 1125.768282 300.526295 18.886919 0.000000 0.100387
172.000000 55.904000 -1.000000 9.000000 -10.000000 128.782022 -6.634189 1100.182378 70.363300 17.873511 0.000000 0.055624
173.000000 58.421000 0.000000 9.000000 -10.000000 137.261708 -4.755824 1064.543313 -227.830212 17.101345 0.000000 0.005922
175.000000 47.589000 -3.000000 10.000000 -10.000000 113.325899 -3.610302 1042.908989 475.974712 21.001997 0.000000 0.136918
176.000000 50.532000 -1.000000 5.000000 -5.000000 120.829216 -1.912888 1010.946729 298.297609 9.887943 0.000000 0.104718
177.000000 53.170000 -1.000000 10.000000 -10.000000 128.546651 0.314046 969.100619 83.432246 18.792689 0.000000 0.061275
179.000000 45.529000 -3.000000 11.000000 -10.000000 113.634643 1.356968 949.504758 469.871295 21.952025 0.000000 0.136239
180.000000 48.128000 -2.000000 11.000000 -10.000000 120.637939 3.605894 907.174146 302.254479 20.763891 0.000000 0.103760
181.000000 50.449000 -1.000000 11.000000 -10.000000 127.772260 6.494561 852.475252 101.588042 19.806343 0.000000 0.060727
182.000000 52.401000 0.000000 11.000000 -10.000000 134.924784 10.317737 779.059967 -150.115877 19.066716 0.000000 0.029787
185.000000 45.761000 -1.000000 6.000000 -5.000000 120.070956 8.563403 812.928925 310.797049 10.918965 0.000000 0.098877
186.000000 47.805000 -1.000000 12.000000 -10.000000 126.628844 11.907618 748.039767 123.235319 20.902291 0.000000 0.055669
187.000000 49.524000 0.000000 6.000000 -5.000000 133.126882 16.200656 662.294241 -108.813529 10.087300 0.000000 0.037194
190.000000 46.793000 0.000000 13.000000 -10.000000 131.144614 21.137445 558.884277 -67.223423 21.352422 0.000000 0.044114
191.000000 47.978000 1.000000 13.000000 -10.000000 136.766977 26.863432 429.828204 -342.299893 20.823505 0.000000 0.123020
194.000000 45.666000 -4.000000 1.000000 -9.000000 69.250356 -49.053753 2215.483436 1563.206967 21.900470 0.000000 0.323689
197.000000 48.960000 -4.000000 2.000000 -9.000000 76.265434 -43.973643 2013.408879 1306.534472 20.425171 0.000000 0.194611
198.000000 55.959000 -3.000000 2.000000 -9.000000 84.547108 -47.560128 2152.046596 1093.252302 17.867836 0.000000 0.217198
199.000000 63.083000 -2.000000 2.000000 -9.000000 93.315234 -52.058338 2355.488803 839.601340 15.847356 0.000000 0.304942
201.000000 51.196000 -4.000000 3.000000 -9.000000 82.582127 -38.601896 1834.252742 1120.306028 19.531498 0.000000 0.119937
202.000000 58.083000 -1.000000 1.000000 -3.000000 91.301212 -41.641203 1931.963776 908.286701 5.737588 0.000000 0.111718
203.000000 65.023000 -2.000000 3.000000 -9.000000 100.586065 -45.536616 2071.646018 653.825865 15.372920 0.000000 0.151730
205.000000 46.106000 -5.000000 4.000000 -9.000000 79.804257 -31.145884 1625.438354 1167.175903 21.689483 0.000000 0.113226
206.000000 52.394000 -4.000000 4.000000 -9.000000 88.079082 -33.013913 1674.325299 984.048415 19.083666 0.000000 0.099721
207.000000 58.966000 -3.000000 4.000000 -9.000000 97.060170 -35.383540 1739.417277 777.500982 16.953602 0.000000 0.070122
208.000000 65.516000 -2.000000 4.000000 -9.000000 106.663166 -38.475518 1830.372496 529.503803 15.255972 0.000000 0.053013
209.000000 71.624000 -1.000000 4.000000 -9.000000 116.708594 -42.649680 1966.427039 204.746259 13.952559 0.000000 0.147970
211.000000 46.740000 -5.000000 5.000000 -9.000000 84.341379 -26.048527 1501.072672 1059.700811 21.394056 0.000000 0.121875
212.000000 52.662000 -4.000000 5.000000 -9.000000 92.695988 -27.307214 1530.688518 883.962499 18.985103 0.000000 0.113453
213.000000 58.777000 -3.000000 5.000000 -9.000000 101.752786 -28.916198 1569.543430 685.182563 17.007092 0.000000 0.086065
214.000000 64.801000 -2.000000 5.000000 -9.000000 111.452058 -31.041322 1622.759785 447.389161 15.423457 0.000000 0.032971
215.000000 70.363000 -1.000000 5.000000 -9.000000 121.665702 -33.968354 1700.105045 140.558539 14.201654 0.000000 0.055853
217.000000 46.697000 -5.000000 6.000000 -9.000000 88.143582 -20.964684 1387.389682 978.357845 21.412633 0.000000 0.138128
218.000000 52.165000 -4.000000 6.000000 -9.000000 96.432202 -21.592584 1400.973909 810.504015 19.165250 0.000000 0.133078
219.000000 57.740000 -1.000000 2.000000 -3.000000 105.387039 -22.397443 1418.560291 620.633636 5.770596 0.000000 0.111481
220.000000 63.170000 -2.000000 6.000000 -9.000000 114.963406 -23.465830 1442.223035 394.778616 15.820958 0.000000 0.069499
221.000000 68.139000 -1.000000 6.000000 -9.000000 125.070213 -24.951215 1475.769023 107.621919 14.664691 0.000000 0.017625
223.000000 46.110000 -5.000000 7.000000 -9.000000 91.239929 -15.972805 1283.069641 916.768953 21.684182 0.000000 0.152582
224.000000 51.080000 -4.000000 7.000000 -9.000000 99.336838 -15.981723 1283.250899 756.924845 19.571355 0.000000 0.148581
225.000000 56.087000 -3.000000 7.000000 -9.000000 108.037136 -15.993129 1283.482745 576.407747 17.821362 0.000000 0.130015
226.000000 60.911000 -2.000000 7.000000 -9.000000 117.299670 -16.008233 1283.789794 363.080441 16.407107 0.000000 0.094452
227.000000 65.291000 -1.000000 7.000000 -9.000000 127.048824 -16.029180 1284.215717 95.648968 15.304126 0.000000 0.042926
228.000000 68.948000 0.000000 7.000000 -9.000000 137.173211 -16.060176 1284.846121 -267.362932 14.490276 0.000000 0.035587
230.000000 49.579000 -4.000000 8.000000 -9.000000 101.493945 -10.574646 1175.930090 718.362777 20.163188 0.000000 0.158409
231.000000 54.027000 -3.000000 8.000000 -9.000000 109.822650 -9.852451 1161.923152 547.221955 18.500210 0.000000 0.140746
232.000000 58.272000 -2.000000 8.000000 -9.000000 118.626923 -8.904768 1143.634948 346.361874 17.149894 0.000000 0.107957
233.000000 62.098000 -1.000000 8.000000 -9.000000 127.828492 -7.607332 1118.748509 97.862220 16.090716 0.000000 0.059990
234.000000 65.286000 0.000000 8.000000 -9.000000 137.313566 -5.725223 1082.906997 -231.773287 15.303085 0.000000 0.005804
236.000000 47.808000 -4.000000 9.000000 -9.000000 103.006687 -5.450190 1077.691086 691.256526 20.909535 0.000000 0.163100
237.000000 51.732000 -1.000000 3.000000 -3.000000 110.885552 -4.089368 1051.948987 529.265861 6.440177 0.000000 0.145017
238.000000 55.445000 -2.000000 9.000000 -9.000000 119.140364 -2.328668 1018.767852 340.452834 18.024164 0.000000 0.112906
239.000000 58.773000 -1.000000 9.000000 -9.000000 127.681443 0.033089 974.378420 109.701803 17.001343 0.000000 0.066544
241.000000 45.884000 -4.000000 10.000000 -9.000000 103.983550 -0.661561 987.427888 672.960035 21.785805 0.000000 0.163574
242.000000 49.332000 -3.000000 10.000000 -9.000000 111.370330 1.225302 951.979335 519.751380 20.260297 0.000000 0.144276
243.000000 52.570000 -2.000000 10.000000 -9.000000 119.033604 3.624855 906.816546 342.377257 19.009875 0.000000 0.111612
244.000000 55.459000 -1.000000 10.000000 -9.000000 126.872334 6.765736 847.312423 128.046484 18.017489 0.000000 0.065484
245.000000 57.861000 0.000000 10.000000 -9.000000 134.738654 11.022723 765.346577 -145.565656 17.267467 0.000000 0.030703
247.000000 46.920000 -3.000000 11.000000 -9.000000 111.410127 6.061518 860.708403 516.612704 21.301823 0.000000 0.139751
248.000000 49.742000 -2.000000 11.000000 -9.000000 118.478302 8.930196 805.875630 349.983351 20.090861 0.000000 0.105804
249.000000 52.250000 -1.000000 11.000000 -9.000000 125.625222 12.590082 734.615338 150.729691 19.124149 0.000000 0.059073
250.000000 54.338000 0.000000 11.000000 -9.000000 132.697696 17.374079 638.244481 -99.571153 18.387543 0.000000 0.038705
252.000000 47.021000 -2.000000 12.000000 -9.000000 117.615035 13.611067 714.396931 361.697915 21.253937 0.000000 0.096767
253.000000 49.203000 -1.000000 12.000000 -9.000000 124.112522 17.580605 633.980295 176.230792 20.309034 0.000000 0.048960
254.000000 51.021000 0.000000 4.000000 -3.000000 130.463275 22.599471 526.993590 -53.406437 6.527736 0.000000 0.046603
257.000000 46.345000 -1.000000 13.000000 -9.000000 122.458348 21.843303 543.569150 203.473605 21.561982 0.000000 0.036388
258.000000 47.935000 0.000000 13.000000 -9.000000 128.171574 26.906861 428.802691 -7.810870 20.844820 0.000000 0.056109
261.000000 46.162000 1.000000 14.000000 -9.000000 130.693807 36.463641 179.640599 -209.854800 21.644121 0.000000 0.175584
264.000000 48.211000 -4.000000 1.000000 -8.000000 66.475604 -46.733533 2118.475841 1624.595512 20.745588 0.000000 0.294515
265.000000 56.705000 -3.000000 1.000000 -8.000000 74.962616 -50.814236 2295.336809 1398.626121 17.635391 0.000000 0.331204
267.000000 52.055000 -2.000000 1.000000 -4.000000 73.948091 -41.187048 1916.794728 1352.497308 9.605961 0.000000 0.172521
268.000000 60.701000 -3.000000 2.000000 -8.000000 83.100771 -44.727827 2041.117063 1124.306083 16.472622 0.000000 0.175699
270.000000 46.743000 -5.000000 3.000000 -8.000000 71.872535 -33.134239 1677.544282 1361.780523 21.397077 0.000000 0.126390
271.000000 54.542000 -4.000000 3.000000 -8.000000 80.581194 -35.354059 1738.584415 1159.911331 18.334401 0.000000 0.114587
272.000000 62.982000 -3.000000 3.000000 -8.000000 90.191833 -38.197183 1821.874384 936.414642 15.874604 0.000000 0.093882
273.000000 71.644000 -2.000000 3.000000 -8.000000 100.608943 -41.946782 1942.291072 669.951200 13.952455 0.000000 0.095299
274.000000 79.877000 -1.000000 3.000000 -8.000000 111.583723 -47.064142 2131.777906 315.934826 12.511804 0.000000 0.210374
275.000000 48.264000 -5.000000 4.000000 -8.000000 77.324523 -27.781905 1542.031267 1214.608739 20.721176 0.000000 0.115740
276.000000 55.723000 -2.000000 2.000000 -4.000000 86.241465 -29.339857 1579.973048 1022.109035 8.972263 0.000000 0.112010
277.000000 63.672000 -3.000000 4.000000 -8.000000 96.070247 -31.356621 1630.854865 806.966284 15.701286 0.000000 0.088296
278.000000 79.252000 -1.000000 4.000000 -8.000000 118.094974 -37.858552 1811.622482 213.266323 12.609444 0.000000 0.081288
279.000000 48.837000 -5.000000 5.000000 -8.000000 81.948890 -22.414296 1418.930687 1105.684227 20.476802 0.000000 0.128918
280.000000 55.774000 -4.000000 5.000000 -8.000000 90.880721 -23.271724 1437.896010 922.989119 17.926944 0.000000 0.130853
281.000000 63.049000 -3.000000 5.000000 -8.000000 100.687025 -24.387176 1462.938307 717.986368 15.855389 0.000000 0.113654
282.000000 70.295000 -2.000000 5.000000 -8.000000 111.324985 -25.896347 1497.535633 473.928979 14.218044 0.000000 0.070487
283.000000 77.009000 -1.000000 5.000000 -8.000000 122.673798 -28.048538 1548.445912 158.864009 12.976075 0.000000 0.013463
284.000000 82.603000 0.000000 5.000000 -8.000000 134.509410 -31.353164 1630.765810 -297.932303 12.095142 0.000000 0.123926
285.000000 48.621000 -5.000000 6.000000 -8.000000 85.753340 -17.124336 1306.611834 1024.626727 20.566378 0.000000 0.145594
286.000000 54.934000 -2.000000 3.000000 -4.000000 94.527948 -17.283870 1309.895968 851.734710 9.100013 0.000000 0.148969
287.000000 61.449000 -3.000000 6.000000 -8.000000 104.098802 -17.491193 1314.172416 657.572697 16.267237 0.000000 0.135252
288.000000 67.846000 -1.000000 3.000000 -4.000000 114.427501 -17.771555 1319.970960 427.651788 7.365400 0.000000 0.100333
289.000000 73.703000 -1.000000 6.000000 -8.000000 125.420378 -18.171776 1328.280157 135.360576 13.557638 0.000000 0.043544
291.000000 47.798000 -5.000000 7.000000 -8.000000 88.790216 -11.997161 1203.717663 964.236562 20.919682 0.000000 0.158727
292.000000 53.450000 -4.000000 7.000000 -8.000000 97.269819 -11.500256 1193.979550 800.886789 18.704379 0.000000 0.161177
293.000000 59.197000 -3.000000 7.000000 -8.000000 106.439183 -10.858733 1181.457770 617.639523 16.885614 0.000000 0.148127
294.000000 64.763000 -2.000000 7.000000 -8.000000 116.250665 -9.998966 1164.759700 402.028368 15.431546 0.000000 0.116542
295.000000 69.809000 -1.000000 7.000000 -8.000000 126.608737 -8.787455 1141.377865 131.921573 14.313651 0.000000 0.065230
296.000000 73.971000 0.000000 7.000000 -8.000000 137.363221 -6.955044 1106.295183 -236.619896 13.506306 0.000000 0.007151
298.000000 46.539000 -5.000000 8.000000 -8.000000 91.140775 -7.102630 1109.109701 919.402110 21.484890 0.000000 0.167067
299.000000 51.543000 -2.000000 4.000000 -4.000000 99.227064 -6.020518 1088.512782 765.186884 9.697881 0.000000 0.167406
300.000000 56.561000 -3.000000 8.000000 -8.000000 107.883229 -4.638766 1062.329545 592.572976 17.672030 0.000000 0.153360
301.000000 61.364000 -1.000000 4.000000 -4.000000 117.045686 -2.815463 1027.930745 390.855151 8.143064 0.000000 0.122312
302.000000 65.682000 -1.000000 8.000000 -8.000000 126.602186 -0.305038 980.730149 141.598297 15.213198 0.000000 0.073010
304.000000 49.391000 -4.000000 9.000000 -8.000000 100.532840 -0.912550 992.143583 740.857104 20.240542 0.000000 0.168651
305.000000 53.748000 -3.000000 9.000000 -8.000000 108.615349 1.075047 954.803004 578.402120 18.597000 0.000000 0.152680
306.000000 57.874000 -2.000000 9.000000 -8.000000 117.068519 3.646886 906.401027 389.862360 17.268196 0.000000 0.120614
307.000000 61.559000 -1.000000 9.000000 -8.000000 125.763170 7.088072 841.168004 159.833369 16.232260 0.000000 0.071272
308.000000 64.587000 0.000000 9.000000 -8.000000 134.500459 11.885322 748.477182 -139.860117 15.469304 0.000000 0.031804
310.000000 47.127000 -2.000000 5.000000 -4.000000 101.316638 3.787763 903.743488 725.138611 10.606346 0.000000 0.165991
311.000000 50.899000 -3.000000 10.000000 -8.000000 108.806687 6.242876 857.262042 572.272756 19.637557 0.000000 0.147614
312.000000 54.442000 -1.000000 5.000000 -4.000000 116.545760 9.352335 797.740428 396.062276 9.178544 0.000000 0.113670
313.000000 57.588000 -1.000000 10.000000 -8.000000 124.395427 13.389661 718.795756 183.583773 17.351895 0.000000 0.063122
314.000000 60.174000 0.000000 5.000000 -4.000000 132.150816 18.777686 609.067221 -88.011260 8.302125 0.000000 0.040597
316.000000 48.111000 -3.000000 11.000000 -8.000000 108.603190 10.867196 768.377396 572.104781 20.775542 0.000000 0.139382
317.000000 51.156000 -2.000000 11.000000 -8.000000 115.659777 14.332407 700.007614 407.334971 19.536382 0.000000 0.103113
318.000000 53.849000 -1.000000 11.000000 -8.000000 122.725646 18.703475 610.621725 210.789016 18.556963 0.000000 0.050695
319.000000 56.066000 0.000000 11.000000 -8.000000 129.605169 24.311706 488.769758 -36.211541 17.821378 0.000000 0.049933
321.000000 48.066000 -1.000000 6.000000 -4.000000 114.547867 18.655161 611.633031 422.158639 10.396428 0.000000 0.090164
322.000000 50.380000 -1.000000 12.000000 -8.000000 120.910236 23.172529 514.310383 240.039353 19.835216 0.000000 0.035487
323.000000 52.289000 0.000000 6.000000 -4.000000 127.031887 28.775289 383.906568 14.619937 9.554569 0.000000 0.061635
325.000000 47.190000 -1.000000 13.000000 -8.000000 119.051221 26.940330 428.011815 270.363674 21.176641 0.000000 0.018644
326.000000 48.843000 0.000000 13.000000 -8.000000 124.526096 32.410493 291.686365 63.941909 20.458046 0.000000 0.075790
328.000000 45.712000 0.000000 7.000000 -4.000000 122.137447 35.405829 209.952670 111.451979 10.930122 0.000000 0.091779
332.000000 50.648000 -4.000000 1.000000 -7.000000 63.019194 -44.032977 2015.563143 1703.157277 19.748772 0.000000 0.271740
333.000000 61.301000 -3.000000 1.000000 -7.000000 72.409271 -48.144634 2176.431122 1452.394066 16.314101 0.000000 0.284814
335.000000 45.647000 -5.000000 2.000000 -7.000000 62.008604 -35.328410 1737.860339 1642.192429 21.913809 0.000000 0.174529
336.000000 55.189000 -4.000000 2.000000 -7.000000 71.004783 -37.959645 1814.673135 1410.909416 18.122163 0.000000 0.156299
337.000000 66.014000 -3.000000 2.000000 -7.000000 81.152851 -41.361126 1922.583999 1164.201723 15.147558 0.000000 0.144459
338.000000 77.613000 -2.000000 2.000000 -7.000000 92.360954 -45.890251 2085.271440 877.245522 12.881080 0.000000 0.165527
340.000000 48.585000 -5.000000 3.000000 -7.000000 68.565077 -29.708163 1589.110653 1427.496769 20.587208 0.000000 0.119258
341.000000 57.968000 -4.000000 3.000000 -7.000000 77.976794 -31.625008 1637.788397 1210.206773 17.251778 0.000000 0.114769
342.000000 68.422000 -3.000000 3.000000 -7.000000 88.584340 -34.138991 1704.774684 973.136170 14.612950 0.000000 0.096530
343.000000 79.418000 -2.000000 3.000000 -7.000000 100.336590 -37.564328 1802.791173 693.348261 12.586840 0.000000 0.059491
344.000000 90.016000 -1.000000 3.000000 -7.000000 112.987642 -42.461097 1959.898421 322.098462 11.102514 0.000000 0.125723
345.000000 50.225000 -5.000000 4.000000 -7.000000 74.220843 -24.033616 1454.953929 1274.007260 19.913632 0.000000 0.114349
346.000000 59.094000 -4.000000 4.000000 -7.000000 83.793953 -25.173108 1480.848762 1070.319826 16.921849 0.000000 0.123999
347.000000 68.775000 -3.000000 4.000000 -7.000000 94.534176 -26.679515 1515.837570 845.477748 14.536820 0.000000 0.113803
348.000000 78.754000 -2.000000 4.000000 -7.000000 106.417319 -28.760475 1565.731271 579.249904 12.691923 0.000000 0.071242
349.000000 88.201000 -1.000000 4.000000 -7.000000 119.284096 -31.811562 1642.631455 230.709210 11.329942 0.000000 0.018325
350.000000 50.723000 -5.000000 5.000000 -7.000000 78.937079 -18.414746 1333.343133 1162.794341 19.716572 0.000000 0.130514
351.000000 58.847000 -4.000000 5.000000 -7.000000 88.433152 -18.764708 1340.660826 972.093056 16.991561 0.000000 0.144313
352.000000 67.530000 -3.000000 5.000000 -7.000000 99.001934 -19.227691 1350.388670 760.421339 14.803873 0.000000 0.138584
353.000000 76.301000 -2.000000 5.000000 -7.000000 110.622894 -19.868884 1363.952116 510.319494 13.099286 0.000000 0.106284
354.000000 84.465000 -1.000000 5.000000 -7.000000 123.183064 -20.815392 1384.176725 187.998842 11.830638 0.000000 0.043127
355.000000 50.309000 -5.000000 6.000000 -7.000000 82.745933 -12.955258 1222.596993 1081.577915 19.877875 0.000000 0.147392
356.000000 57.578000 -4.000000 6.000000 -7.000000 91.967991 -12.554264 1214.678373 903.111075 17.365112 0.000000 0.160002
357.000000 65.190000 -3.000000 6.000000 -7.000000 102.121704 -12.027038 1204.304310 704.647939 15.334480 0.000000 0.154509
358.000000 72.735000 -2.000000 6.000000 -7.000000 113.169176 -11.302986 1190.123144 471.274318 13.740975 0.000000 0.126115
359.000000 79.653000 -1.000000 6.000000 -7.000000 124.996763 -10.247036 1169.568204 175.247409 12.545023 0.000000 0.071589
360.000000 85.306000 0.000000 6.000000 -7.000000 137.401092 -8.564744 1137.096834 -242.706441 11.711689 0.000000 0.010585
362.000000 49.223000 -5.000000 7.000000 -7.000000 85.729350 -7.741877 1121.321801 1022.111875 20.315469 0.000000 0.159439
363.000000 55.622000 -4.000000 7.000000 -7.000000 94.534139 -6.669060 1100.846326 855.067046 17.975053 0.000000 0.168804
364.000000 62.197000 -3.000000 7.000000 -7.000000 104.106758 -5.275083 1074.372735 669.368180 16.071881 0.000000 0.161314
365.000000 68.605000 -2.000000 7.000000 -7.000000 114.381686 -3.393073 1038.813088 452.329368 14.567984 0.000000 0.133048
366.000000 74.406000 -1.000000 7.000000 -7.000000 125.218697 -0.719728 988.520718 181.171845 13.429665 0.000000 0.081083
368.000000 47.683000 -5.000000 8.000000 -7.000000 87.996378 -2.837858 1028.352450 978.699372 20.970563 0.000000 0.166200
369.000000 53.258000 -4.000000 8.000000 -7.000000 96.294514 -1.196947 997.487777 822.254409 18.772523 0.000000 0.171563
370.000000 58.889000 -3.000000 8.000000 -7.000000 105.195442 0.901968 958.055240 648.633027 16.974521 0.000000 0.160993
371.000000 64.297000 -2.000000 8.000000 -7.000000 114.607264 3.672798 905.912277 447.054456 15.544082 0.000000 0.130890
372.000000 69.143000 -1.000000 8.000000 -7.000000 124.362657 7.477525 833.732647 198.763845 14.452153 0.000000 0.078424
373.000000 73.074000 0.000000 8.000000 -7.000000 134.185900 12.964478 727.220626 -132.499441 13.672664 0.000000 0.033158
375.000000 45.868000 -5.000000 9.000000 -7.000000 89.664245 1.718558 942.707415 947.310035 21.799944 0.000000 0.168433
376.000000 50.694000 -4.000000 9.000000 -7.000000 97.412452 3.815465 903.220825 800.664864 19.721262 0.000000 0.169594
377.000000 55.498000 -3.000000 9.000000 -7.000000 105.612260 6.450234 853.318642 638.328994 18.011282 0.000000 0.155475
378.000000 60.055000 -2.000000 9.000000 -7.000000 114.153537 9.843312 788.253708 451.131492 16.641904 0.000000 0.122557
379.000000 64.107000 -1.000000 9.000000 -7.000000 122.854880 14.338923 699.877231 223.565990 15.587814 0.000000 0.067997
380.000000 67.391000 0.000000 9.000000 -7.000000 131.434407 20.484262 572.926993 -73.157181 14.826143 0.000000 0.043087
382.000000 48.079000 -4.000000 10.000000 -7.000000 98.035331 8.356767 816.896437 787.429273 20.793788 0.000000 0.164103
383.000000 52.175000 -3.000000 10.000000 -7.000000 105.547453 11.372660 758.515416 635.559797 19.158396 0.000000 0.146322
384.000000 56.022000 -2.000000 10.000000 -7.000000 113.263183 15.161319 683.357421 461.608032 17.840398 0.000000 0.110166
385.000000 59.421000 -1.000000 10.000000 -7.000000 121.001608 20.013336 582.977183 252.691135 16.817531 0.000000 0.052652
386.000000 62.179000 0.000000 10.000000 -7.000000 128.498851 26.340372 442.118269 -14.269708 16.069568 0.000000 0.054626
388.000000 45.507000 -4.000000 11.000000 -7.000000 98.287253 12.441124 737.551378 780.460376 21.968900 0.000000 0.156095
389.000000 49.006000 -3.000000 11.000000 -7.000000 105.151201 15.708432 672.296398 638.254477 20.397399 0.000000 0.134753
390.000000 52.265000 -2.000000 11.000000 -7.000000 112.113147 19.717791 589.253774 476.435120 19.123098 0.000000 0.095284
391.000000 55.132000 -1.000000 11.000000 -7.000000 119.003150 24.698117 480.002804 284.244218 18.126263 0.000000 0.034268
392.000000 57.463000 0.000000 11.000000 -7.000000 125.587773 30.940723 329.811733 43.012416 17.388868 0.000000 0.069458
394.000000 46.035000 -3.000000 12.000000 -7.000000 104.536401 19.515043 593.546167 644.912649 21.713728 0.000000 0.121741
395.000000 48.810000 -2.000000 12.000000 -7.000000 110.825614 23.618772 504.358602 494.173511 20.476948 0.000000 0.079169
396.000000 51.244000 -1.000000 12.000000 -7.000000 116.982147 28.582749 388.605637 316.970764 19.502014 0.000000 0.014115
397.000000 53.229000 0.000000 12.000000 -7.000000 122.806278 34.606246 232.341119 98.073521 18.772759 0.000000 0.087066
399.000000 45.657000 -2.000000 13.000000 -7.000000 109.481637 26.966914 427.383316 513.802573 21.891454 0.000000 0.063046
400.000000 47.738000 -1.000000 13.000000 -7.000000 115.009506 31.828142 306.937189 350.037511 20.935098 0.000000 0.007131
401.000000 49.441000 0.000000 13.000000 -7.000000 120.200868 37.573024 146.948790 150.615978 20.212092 0.000000 0.106415
403.000000 46.054000 0.000000 4.000000 -2.000000 117.786329 40.011282 71.520670 200.532294 6.199818 0.000000 0.126631
408.000000 52.656000 -4.000000 1.000000 -6.000000 58.646040 -40.865733 1906.189228 1808.161280 18.997286 0.000000 0.257372
409.000000 66.186000 -3.000000 1.000000 -6.000000 69.048091 -44.921814 2048.360864 1523.024216 15.110987 0.000000 0.246634
410.000000 81.611000 -2.000000 1.000000 -6.000000 80.841185 -50.363466 2274.328511 1213.023293 12.252211 0.000000 0.291812
411.000000 46.534000 -5.000000 2.000000 -6.000000 57.517117 -31.856218 1643.793647 1747.737806 21.497826 0.000000 0.169894
412.000000 58.103000 -2.000000 1.000000 -3.000000 67.213363 -34.204025 1706.559362 1487.692423 8.607394 0.000000 0.144038
413.000000 71.818000 -3.000000 2.000000 -6.000000 78.473411 -37.324292 1795.637899 1217.018849 13.924308 0.000000 0.126761
414.000000 49.944000 -5.000000 3.000000 -6.000000 64.441395 -25.851195 1496.487932 1512.953712 20.028706 0.000000 0.108573
415.000000 61.239000 -4.000000 3.000000 -6.000000 74.554556 -27.338835 1531.441079 1275.771369 16.331686 0.000000 0.114360
416.000000 88.489000 -2.000000 3.000000 -6.000000 99.541028 -32.166652 1651.904152 727.294623 11.297016 0.000000 0.074306
417.000000 51.746000 -5.000000 4.000000 -6.000000 70.327509 -19.869191 1363.958630 1350.142055 19.329918 0.000000 0.104917
418.000000 62.273000 -2.000000 2.000000 -3.000000 80.529305 -20.461275 1376.581015 1132.634517 8.029646 0.000000 0.130573
419.000000 74.107000 -3.000000 4.000000 -6.000000 92.203372 -21.260362 1393.772062 896.565394 13.491738 0.000000 0.137422
420.000000 52.177000 -5.000000 5.000000 -6.000000 75.154675 -14.036995 1244.088570 1235.061141 19.168761 0.000000 0.123600
421.000000 61.649000 -4.000000 5.000000 -6.000000 85.158268 -13.764492 1238.656085 1034.864055 16.220531 0.000000 0.150932
422.000000 72.002000 -3.000000 5.000000 -6.000000 96.449449 -13.398669 1231.383043 815.929312 13.885161 0.000000 0.157807
423.000000 82.644000 -2.000000 5.000000 -6.000000 109.029359 -12.881738 1221.143285 560.201321 12.094347 0.000000 0.136283
424.000000 51.558000 -5.000000 6.000000 -6.000000 78.987783 -8.463200 1135.146609 1152.754465 19.397687 0.000000 0.141332
425.000000 59.873000 -2.000000 3.000000 -3.000000 88.577366 -7.412884 1115.032329 967.954777 8.350375 0.000000 0.164206
426.000000 85.752000 -1.000000 6.000000 -6.000000 123.382231 -1.240244 998.301477 231.627301 11.653125 0.000000 0.091364
427.000000 50.207000 -5.000000 7.000000 -6.000000 81.944084 -3.228088 1035.703488 1093.576655 19.918612 0.000000 0.153101
428.000000 57.391000 -4.000000 7.000000 -6.000000 90.981421 -1.521882 1003.595089 922.555816 17.422439 0.000000 0.169973
429.000000 64.858000 -3.000000 7.000000 -6.000000 100.846034 0.700442 961.841626 734.774128 15.413662 0.000000 0.168147
430.000000 72.185000 -2.000000 7.000000 -6.000000 111.438215 3.703716 905.329067 517.492034 13.846203 0.000000 0.142420
431.000000 78.811000 -1.000000 7.000000 -6.000000 122.539595 7.957447 824.551760 247.602183 12.679618 0.000000 0.087408
432.000000 84.113000 0.000000 7.000000 -6.000000 133.753494 14.352291 699.609676 -122.650021 11.878255 0.000000 0.034882
434.000000 48.395000 -5.000000 8.000000 -6.000000 84.162454 1.619554 944.568774 1051.082588 20.663793 0.000000 0.159060
435.000000 54.543000 -2.000000 4.000000 -3.000000 92.577451 3.846934 902.627035 892.440788 9.165662 0.000000 0.169745
436.000000 60.804000 -3.000000 8.000000 -6.000000 101.607218 6.689611 848.762323 718.411784 16.440953 0.000000 0.162525
437.000000 66.838000 -1.000000 4.000000 -3.000000 111.119343 10.421364 777.048167 518.302310 7.476918 0.000000 0.132422
438.000000 72.228000 -1.000000 8.000000 -6.000000 120.871756 15.483532 676.850296 273.340340 13.835548 0.000000 0.073933
440.000000 46.328000 -5.000000 9.000000 -6.000000 85.781245 6.059698 860.742976 1020.838440 21.584939 0.000000 0.160327
441.000000 51.569000 -4.000000 9.000000 -6.000000 93.555412 8.678401 810.719037 873.351637 19.388257 0.000000 0.165109
442.000000 56.812000 -1.000000 3.000000 -2.000000 101.764882 11.950481 747.198647 711.872904 5.865362 0.000000 0.152599
443.000000 61.792000 -2.000000 9.000000 -6.000000 110.262102 16.123366 663.868072 527.407525 16.175227 0.000000 0.117845
444.000000 66.199000 -1.000000 9.000000 -6.000000 118.806395 21.559355 549.747891 304.623178 15.096011 0.000000 0.054893
446.000000 48.619000 -2.000000 5.000000 -3.000000 94.074878 12.990594 726.703995 862.310699 10.282150 0.000000 0.157401
447.000000 53.019000 -3.000000 10.000000 -6.000000 101.516045 16.534759 655.476756 712.252203 18.854731 0.000000 0.139964
448.000000 57.150000 -1.000000 5.000000 -3.000000 109.100227 20.934029 563.270576 541.954913 8.744639 0.000000 0.100750
449.000000 60.781000 -1.000000 10.000000 -6.000000 116.604620 26.464314 439.216203 338.822502 16.442107 0.000000 0.032893
450.000000 63.687000 0.000000 5.000000 -3.000000 123.715326 33.472151 263.368441 79.989838 7.844952 0.000000 0.080952
452.000000 45.784000 -4.000000 11.000000 -6.000000 94.262470 16.821493 649.607012 857.196094 21.837591 0.000000 0.147704
453.000000 49.492000 -3.000000 11.000000 -6.000000 101.004944 20.516711 572.232218 717.517719 20.198359 0.000000 0.125881
454.000000 52.942000 -2.000000 11.000000 -6.000000 107.787763 24.993346 473.267898 560.016799 18.879809 0.000000 0.082833
455.000000 55.960000 -1.000000 11.000000 -6.000000 114.413637 30.452600 342.212985 374.283026 17.859233 0.000000 0.011205
456.000000 58.383000 0.000000 11.000000 -6.000000 120.621983 37.119186 160.438346 142.040090 17.116019 0.000000 0.103109
458.000000 46.254000 -1.000000 4.000000 -2.000000 100.333243 23.976060 496.341672 726.227447 7.204205 0.000000 0.111419
459.000000 49.156000 -1.000000 6.000000 -3.000000 106.421790 28.432113 392.270018 580.274487 10.167097 0.000000 0.065862
460.000000 51.688000 -1.000000 12.000000 -6.000000 112.310465 33.729584 256.397753 409.958327 19.335927 0.000000 0.018711
462.000000 45.763000 -2.000000 13.000000 -6.000000 105.061185 31.362646 318.989918 601.817766 21.842446 0.000000 0.052396
463.000000 47.906000 -1.000000 13.000000 -6.000000 110.331229 36.453315 179.940472 445.190075 20.863069 0.000000 0.042463
464.000000 49.642000 0.000000 13.000000 -6.000000 115.207830 42.349793 -6.063609 255.460335 20.131618 0.000000 0.150516
466.000000 46.044000 0.000000 7.000000 -3.000000 112.870553 44.273809 -74.351496 306.942425 10.852774 0.000000 0.174151
469.000000 53.621000 -4.000000 1.000000 -5.000000 53.027220 -37.124744 1789.725890 1957.205702 18.657114 0.000000 0.256384
470.000000 70.938000 -3.000000 1.000000 -5.000000 64.506659 -40.982278 1910.024041 1620.830472 14.100070 0.000000 0.219033
471.000000 46.345000 -5.000000 2.000000 -5.000000 51.929596 -27.901392 1544.901967 1894.913490 21.587398 0.000000 0.177984
472.000000 60.285000 -4.000000 2.000000 -5.000000 62.266144 -29.820461 1591.910063 1593.243587 16.593223 0.000000 0.132985
473.000000 77.787000 -3.000000 2.000000 -5.000000 74.707424 -32.449801 1659.350119 1289.742986 12.856973 0.000000 0.119582
474.000000 50.394000 -5.000000 3.000000 -5.000000 59.282638 -21.518784 1399.371242 1628.412431 19.851788 0.000000 0.095116
475.000000 63.899000 -4.000000 3.000000 -5.000000 70.025916 -22.420673 1419.070871 1364.176405 15.653450 0.000000 0.105679
476.000000 80.255000 -3.000000 3.000000 -5.000000 82.808420 -23.665338 1446.683775 1089.276087 12.460352 0.000000 0.127041
477.000000 52.453000 -5.000000 4.000000 -5.000000 65.447967 -15.267012 1268.774857 1450.662902 19.071051 0.000000 0.082663
478.000000 64.838000 -4.000000 4.000000 -5.000000 76.181617 -15.167084 1266.758812 1215.283542 15.425455 0.000000 0.126324
479.000000 79.266000 -3.000000 4.000000 -5.000000 88.729326 -15.029688 1263.989997 965.718967 12.614710 0.000000 0.153182
480.000000 52.873000 -2.000000 2.000000 -2.000000 70.430947 -9.283213 1150.926170 1328.673574 7.567319 0.000000 0.104171
481.000000 63.794000 -4.000000 5.000000 -5.000000 80.821365 -8.274336 1131.522029 1116.739182 15.676592 0.000000 0.147223
482.000000 76.047000 -3.000000 5.000000 -5.000000 92.710736 -6.905436 1105.349538 889.668769 13.147756 0.000000 0.168159
483.000000 88.907000 -2.000000 5.000000 -5.000000 106.108833 -4.944828 1068.119306 629.002664 11.243068 0.000000 0.157450
484.000000 52.093000 -5.000000 6.000000 -5.000000 74.336859 -3.670562 1044.045554 1243.406056 19.200569 0.000000 0.124644
485.000000 61.481000 -4.000000 6.000000 -5.000000 84.160703 -1.896660 1010.641539 1051.132178 16.265645 0.000000 0.159125
486.000000 71.659000 -3.000000 6.000000 -5.000000 95.148465 0.462834 966.305530 844.022403 13.952250 0.000000 0.171680
487.000000 81.999000 -2.000000 6.000000 -5.000000 107.212623 3.741247 904.621083 606.859311 12.190058 0.000000 0.154739
488.000000 50.521000 -5.000000 7.000000 -5.000000 77.321907 1.507784 946.669913 1183.204878 19.796610 0.000000 0.137834
489.000000 58.471000 -4.000000 7.000000 -5.000000 86.459078 3.882995 901.946538 1007.753839 17.101925 0.000000 0.162937
490.000000 66.839000 -3.000000 7.000000 -5.000000 96.453328 6.969032 843.438144 818.353662 14.957953 0.000000 0.166955
491.000000 75.113000 -2.000000 7.000000 -5.000000 107.152790 11.111755 763.610140 602.456199 13.307568 0.000000 0.142884
492.000000 82.583000 -1.000000 7.000000 -5.000000 118.229477 16.889431 648.213646 337.136620 12.101281 0.000000 0.081224
493.000000 88.454000 0.000000 7.000000 -5.000000 129.088831 25.281524 466.662571 -25.946105 11.296006 0.000000 0.052063
494.000000 48.487000 -5.000000 8.000000 -5.000000 79.554421 6.225870 857.585297 1140.599347 20.626401 0.000000 0.144441
495.000000 55.171000 -4.000000 8.000000 -5.000000 87.964088 9.044077 803.682884 979.742119 18.124533 0.000000 0.160785
496.000000 62.032000 -3.000000 8.000000 -5.000000 96.974995 12.617246 734.079548 806.065936 16.116934 0.000000 0.156848
497.000000 68.669000 -2.000000 8.000000 -5.000000 106.405001 17.252721 640.745692 609.198150 14.556274 0.000000 0.125800
498.000000 74.575000 -1.000000 8.000000 -5.000000 115.927572 23.408722 509.051349 370.809345 13.401081 0.000000 0.057537
499.000000 79.211000 0.000000 8.000000 -5.000000 125.018990 31.739946 309.230057 54.215415 12.614856 0.000000 0.072790
501.000000 46.225000 -5.000000 9.000000 -5.000000 81.191161 10.486855 775.776040 1110.622440 21.634999 0.000000 0.146040
502.000000 51.833000 -4.000000 9.000000 -5.000000 88.885028 13.610023 714.417704 962.552458 19.291052 0.000000 0.154574
503.000000 57.472000 -3.000000 9.000000 -5.000000 96.979655 17.477130 636.117972 802.858570 17.395367 0.000000 0.143562
504.000000 62.835000 -2.000000 9.000000 -5.000000 105.287849 22.338400 532.736635 622.935435 15.908082 0.000000 0.106318
505.000000 67.556000 -1.000000 9.000000 -5.000000 113.512184 28.528609 389.923850 408.027568 14.793929 0.000000 0.032145
506.000000 71.268000 0.000000 9.000000 -5.000000 121.220463 36.458026 179.803663 129.911300 14.021584 0.000000 0.098528
508.000000 48.607000 -4.000000 10.000000 -5.000000 89.386507 17.629513 632.969066 953.092763 20.571033 0.000000 0.145830
509.000000 53.267000 -3.000000 10.000000 -5.000000 96.656718 21.646233 547.860014 805.858371 18.768695 0.000000 0.128812
510.000000 57.639000 -2.000000 10.000000 -5.000000 103.999859 26.556981 437.042339 640.999504 17.342383 0.000000 0.086809
511.000000 61.461000 -1.000000 10.000000 -5.000000 111.158345 32.595691 286.795145 446.554193 16.261728 0.000000 0.017147
513.000000 45.569000 -4.000000 11.000000 -5.000000 89.592349 21.162029 558.353347 949.211559 21.942050 0.000000 0.135779
514.000000 49.447000 -3.000000 11.000000 -5.000000 96.135442 25.226251 467.931919 813.106981 20.218663 0.000000 0.114039
515.000000 53.048000 -2.000000 11.000000 -5.000000 102.658790 30.077034 351.670275 661.645505 18.843718 0.000000 0.069907
516.000000 56.180000 -1.000000 11.000000 -5.000000 108.945391 35.873716 196.645085 485.062741 17.790788 0.000000 0.035396
517.000000 58.662000 0.000000 11.000000 -5.000000 114.721727 42.764135 -20.408737 266.027259 17.036051 0.000000 0.155277
519.000000 46.005000 -3.000000 12.000000 -5.000000 95.501700 28.311046 395.207560 823.247571 21.731415 0.000000 0.100618
520.000000 49.001000 -2.000000 12.000000 -5.000000 101.331568 33.037822 275.035771 683.718877 20.400265 0.000000 0.059235
521.000000 51.600000 -1.000000 12.000000 -5.000000 106.902478 38.555652 117.168688 522.773980 19.370561 0.000000 0.062154
522.000000 53.671000 0.000000 12.000000 -5.000000 111.998397 44.950313 -99.429179 326.609756 18.621253 0.000000 0.183448
524.000000 47.614000 -1.000000 13.000000 -5.000000 105.033601 40.781430 46.576275 559.243262 20.992789 0.000000 0.089299
525.000000 49.362000 0.000000 13.000000 -5.000000 109.578060 46.723666 -168.081337 382.609138 20.247400 0.000000 0.210610
527.000000 45.621000 0.000000 14.000000 -5.000000 107.422067 48.188422 -228.280212 434.394266 21.908298 0.000000 0.236507
532.000000 74.467000 -3.000000 1.000000 -4.000000 58.201783 -36.109984 1760.134598 1766.962274 13.433499 0.000000 0.204561
533.000000 60.790000 -2.000000 1.000000 -2.000000 55.749697 -24.703256 1470.114155 1747.652254 8.228660 0.000000 0.127870
534.000000 83.033000 -3.000000 2.000000 -4.000000 69.309210 -26.543880 1512.650118 1395.396917 12.046233 0.000000 0.110409
535.000000 49.298000 -5.000000 3.000000 -4.000000 52.836098 -16.676634 1297.425387 1792.706662 20.295393 0.000000 0.099201
536.000000 65.136000 -4.000000 3.000000 -4.000000 64.019785 -16.809699 1300.151210 1488.895044 15.358053 0.000000 0.080320
537.000000 85.450000 -3.000000 3.000000 -4.000000 77.770019 -16.997777 1304.010531 1184.949307 11.704161 0.000000 0.129327
538.000000 51.811000 -5.000000 4.000000 -4.000000 59.366542 -10.223239 1169.106608 1588.649547 19.309600 0.000000 0.045398
539.000000 83.439000 -3.000000 4.000000 -4.000000 83.650358 -7.972460 1125.735770 1061.936848 11.985031 0.000000 0.154889
540.000000 52.369000 -5.000000 5.000000 -4.000000 64.590549 -4.176460 1053.593542 1453.640998 19.102347 0.000000 0.066678
541.000000 64.699000 -4.000000 5.000000 -4.000000 75.162849 -2.333661 1018.861790 1226.352602 15.459068 0.000000 0.128634
542.000000 78.942000 -3.000000 5.000000 -4.000000 87.408648 0.178512 971.646665 989.711689 12.667048 0.000000 0.165639
543.000000 51.557000 -5.000000 6.000000 -4.000000 68.658505 1.380612 949.060355 1361.649941 19.401907 0.000000 0.094212
544.000000 61.932000 -2.000000 3.000000 -2.000000 78.521982 3.924732 901.158848 1160.058282 8.074471 0.000000 0.141864
545.000000 73.401000 -3.000000 6.000000 -4.000000 89.607604 7.299444 837.134139 948.431453 13.622538 0.000000 0.164628
546.000000 49.888000 -5.000000 7.000000 -4.000000 71.765869 6.413757 854.012567 1297.811378 20.049824 0.000000 0.112131
547.000000 58.502000 -4.000000 7.000000 -4.000000 80.830057 9.463466 795.595532 1117.139409 17.094745 0.000000 0.146026
548.000000 67.684000 -3.000000 7.000000 -4.000000 90.742512 13.394974 718.690304 926.661152 14.772810 0.000000 0.156149
549.000000 76.831000 -2.000000 7.000000 -4.000000 101.286057 18.596028 612.870010 714.375610 13.011268 0.000000 0.133034
550.000000 85.074000 -1.000000 7.000000 -4.000000 112.010172 25.655146 458.051898 458.344611 11.748102 0.000000 0.060879
551.000000 47.748000 -5.000000 8.000000 -4.000000 74.107572 10.926856 767.215145 1253.095011 20.947464 0.000000 0.121983
552.000000 54.867000 -2.000000 4.000000 -2.000000 82.366422 14.313504 700.385862 1089.871699 9.113372 0.000000 0.144081
553.000000 62.232000 -3.000000 8.000000 -4.000000 91.186285 18.561202 613.598128 917.489685 16.066722 0.000000 0.143539
554.000000 75.714000 -1.000000 8.000000 -4.000000 109.403442 30.966424 329.155292 498.889855 13.200819 0.000000 0.034620
556.000000 51.287000 -4.000000 9.000000 -4.000000 83.350754 18.538251 614.077817 1073.335753 19.498434 0.000000 0.138426
557.000000 57.234000 -3.000000 9.000000 -4.000000 91.197012 22.928681 519.720456 916.581729 17.469595 0.000000 0.129319
558.000000 62.893000 -2.000000 9.000000 -4.000000 99.170760 28.348672 394.295334 743.564401 15.894913 0.000000 0.091263
559.000000 67.848000 -1.000000 9.000000 -4.000000 106.930909 35.069094 219.434713 540.690122 14.731711 0.000000 0.033755
560.000000 71.679000 0.000000 9.000000 -4.000000 114.010329 43.356720 -41.261946 281.621774 13.942496 0.000000 0.162391
562.000000 47.898000 -2.000000 5.000000 -2.000000 83.946420 22.213401 535.478763 1064.291207 10.438801 0.000000 0.130923
563.000000 52.742000 -3.000000 10.000000 -4.000000 90.945187 26.628885 435.353146 921.136185 18.957081 0.000000 0.115558
564.000000 57.284000 -1.000000 5.000000 -2.000000 97.944997 31.933621 304.189231 764.003850 8.725703 0.000000 0.076457
565.000000 61.231000 -1.000000 10.000000 -4.000000 104.666028 38.302846 124.907192 582.057489 16.324328 0.000000 0.059375
566.000000 64.298000 0.000000 5.000000 -2.000000 110.752822 45.881171 -134.919428 355.159627 7.771851 0.000000 0.197176
568.000000 48.745000 -3.000000 11.000000 -4.000000 90.540577 29.779142 359.120686 929.299987 20.511585 0.000000 0.104128
569.000000 52.440000 -2.000000 11.000000 -4.000000 96.733550 34.904410 224.043537 786.051478 19.063742 0.000000 0.071215
570.000000 55.636000 -1.000000 11.000000 -4.000000 102.623373 40.901924 42.621381 622.091191 17.966532 0.000000 0.090044
571.000000 58.136000 0.000000 11.000000 -4.000000 107.938288 47.846774 -213.936270 421.822643 17.192085 0.000000 0.230159
573.000000 48.246000 -1.000000 6.000000 -2.000000 95.575217 37.393874 152.293204 808.760507 10.360673 0.000000 0.077124
574.000000 50.873000 -1.000000 12.000000 -4.000000 100.792552 43.028332 -29.656130 660.337178 19.649173 0.000000 0.120620
575.000000 52.943000 0.000000 6.000000 -2.000000 105.495067 49.417184 -281.496561 482.334792 9.439578 0.000000 0.261037
577.000000 46.788000 -1.000000 13.000000 -4.000000 99.153921 44.795716 -93.646605 696.597897 21.365221 0.000000 0.150010
578.000000 48.526000 0.000000 13.000000 -4.000000 103.361568 50.698907 -339.923491 537.387061 20.598348 0.000000 0.289758
583.000000 74.212000 -3.000000 1.000000 -3.000000 49.233776 -30.031273 1597.182321 2012.814159 13.481587 0.000000 0.220628
584.000000 58.005000 -4.000000 2.000000 -3.000000 47.149131 -18.756169 1340.481919 1995.430856 17.249884 0.000000 0.167261
585.000000 85.480000 -3.000000 2.000000 -3.000000 61.472055 -19.412987 1354.297286 1561.327246 11.703228 0.000000 0.083681
586.000000 45.794000 -5.000000 3.000000 -3.000000 44.845397 -11.311065 1190.280985 2044.552947 21.850565 0.000000 0.168210
587.000000 63.635000 -4.000000 3.000000 -3.000000 56.103100 -10.480079 1174.092311 1676.423387 15.722475 0.000000 0.047896
588.000000 49.127000 -5.000000 4.000000 -3.000000 51.879868 -4.760370 1064.629314 1788.456677 20.366667 0.000000 0.061267
589.000000 64.993000 -4.000000 4.000000 -3.000000 62.937232 -2.849718 1028.575789 1491.566189 15.392544 0.000000 0.053665
590.000000 85.185000 -3.000000 4.000000 -3.000000 76.418744 -0.167783 978.151796 1201.011414 11.741182 0.000000 0.134241
591.000000 50.130000 -5.000000 5.000000 -3.000000 57.483639 1.234618 951.804268 1627.266545 19.957763 0.000000 0.009926
592.000000 63.573000 -4.000000 5.000000 -3.000000 67.937510 3.973602 900.236469 1378.268363 15.735093 0.000000 0.090223
593.000000 79.581000 -3.000000 5.000000 -3.000000 80.159053 7.696178 829.552415 1129.397592 12.566954 0.000000 0.145454
594.000000 49.551000 -5.000000 6.000000 -3.000000 61.851745 6.627909 849.937196 1520.727575 20.189659 0.000000 0.052400
595.000000 60.647000 -4.000000 6.000000 -3.000000 71.501099 9.949287 786.202389 1306.598280 16.492886 0.000000 0.110706
596.000000 86.222000 -2.000000 6.000000 -3.000000 94.214933 20.218444 578.607396 856.471361 11.595656 0.000000 0.136905
597.000000 48.015000 -5.000000 7.000000 -3.000000 65.215644 11.424316 757.505616 1448.006415 20.834247 0.000000 0.079751
598.000000 57.072000 -4.000000 7.000000 -3.000000 74.002115 15.119127 684.208027 1260.643682 17.525047 0.000000 0.119838
599.000000 66.842000 -3.000000 7.000000 -3.000000 83.585854 19.820548 587.074147 1069.614014 14.960628 0.000000 0.136050
600.000000 76.641000 -2.000000 7.000000 -3.000000 93.683453 25.906918 452.218985 863.970190 13.045078 0.000000 0.114957
601.000000 85.447000 -1.000000 7.000000 -3.000000 103.740134 33.877460 252.374693 624.014843 11.698277 0.000000 0.046309
602.000000 45.969000 -5.000000 8.000000 -3.000000 67.792729 15.661052 673.256603 1397.327866 21.760200 0.000000 0.096448
603.000000 53.347000 -4.000000 8.000000 -3.000000 75.741314 19.567234 592.442262 1231.281642 18.747951 0.000000 0.122229
604.000000 61.034000 -3.000000 8.000000 -3.000000 84.187275 24.395779 486.866867 1061.309422 16.383837 0.000000 0.125640
605.000000 68.516000 -2.000000 8.000000 -3.000000 92.852786 30.417827 343.091672 878.805781 14.592214 0.000000 0.097081
606.000000 75.110000 -1.000000 8.000000 -3.000000 101.281444 37.943818 135.805032 668.747238 13.308765 0.000000 0.062080
607.000000 80.095000 0.000000 8.000000 -3.000000 108.831855 47.242098 -189.006480 400.320618 12.478464 0.000000 0.219391
608.000000 49.735000 -4.000000 9.000000 -3.000000 76.942242 23.391300 509.439887 1212.977697 20.108823 0.000000 0.121185
609.000000 55.850000 -1.000000 3.000000 -1.000000 84.408421 28.211620 397.615007 1060.576668 5.968114 0.000000 0.116065
610.000000 61.670000 -2.000000 9.000000 -3.000000 91.915523 34.040773 247.915416 897.559776 16.211950 0.000000 0.088429
611.000000 66.737000 -1.000000 9.000000 -3.000000 99.099900 41.067111 37.176106 712.344734 14.978879 0.000000 0.095025
612.000000 46.359000 -4.000000 10.000000 -3.000000 77.764646 26.686300 434.002791 1202.224248 21.572713 0.000000 0.119080
613.000000 51.284000 -3.000000 10.000000 -3.000000 84.398534 31.415979 317.615090 1064.691945 19.498328 0.000000 0.109804
614.000000 55.895000 -2.000000 10.000000 -3.000000 90.967978 36.992476 164.175653 918.232061 17.887101 0.000000 0.091786
615.000000 59.879000 -1.000000 10.000000 -3.000000 97.186401 43.527795 -47.357910 753.826893 16.694951 0.000000 0.130462
616.000000 62.932000 0.000000 10.000000 -3.000000 102.710130 51.075141 -357.682558 554.635032 15.883218 0.000000 0.298864
617.000000 47.280000 -3.000000 11.000000 -3.000000 84.250597 34.128994 245.499408 1071.911923 21.149170 0.000000 0.108478
618.000000 50.996000 -2.000000 11.000000 -3.000000 90.056207 39.431583 89.927877 939.633012 19.605509 0.000000 0.105162
619.000000 54.192000 -1.000000 11.000000 -3.000000 95.511714 45.509725 -120.616943 792.799085 18.447196 0.000000 0.164848
621.000000 46.812000 -2.000000 12.000000 -3.000000 89.200295 41.474025 23.644760 961.050998 21.358329 0.000000 0.124336
622.000000 49.421000 -1.000000 12.000000 -3.000000 94.043001 47.136610 -184.715718 829.168626 20.228421 0.000000 0.197289
628.000000 80.963000 -3.000000 2.000000 -2.000000 50.138771 -10.929982 1182.845767 1856.288601 12.358294 0.000000 0.098862
629.000000 57.587000 -4.000000 3.000000 -2.000000 45.870720 -3.468305 1040.231382 1986.984607 17.375798 0.000000 0.138444
630.000000 85.174000 -3.000000 3.000000 -2.000000 60.000188 -0.598756 986.247960 1562.428008 11.746037 0.000000 0.028421
631.000000 60.236000 -2.000000 2.000000 -1.000000 53.426952 4.031601 899.141629 1741.522366 8.305210 0.000000 0.045192
632.000000 82.341000 -3.000000 4.000000 -2.000000 66.520262 8.181377 820.260706 1413.340798 12.148745 0.000000 0.083571
633.000000 45.623000 -5.000000 5.000000 -2.000000 49.034138 6.874237 845.245088 1882.249458 21.931773 0.000000 0.101823
634.000000 59.518000 -4.000000 5.000000 -2.000000 58.987191 10.518589 775.159431 1599.089070 16.809385 0.000000 0.051871
635.000000 76.551000 -3.000000 5.000000 -2.000000 70.680701 15.414247 678.251213 1332.398810 13.066444 0.000000 0.107550
636.000000 45.702000 -5.000000 6.000000 -2.000000 53.885275 11.991185 746.399658 1743.788248 21.892059 0.000000 0.072966
637.000000 57.036000 -2.000000 3.000000 -1.000000 63.027524 16.050478 665.351133 1510.966371 8.769636 0.000000 0.080788
638.000000 70.035000 -3.000000 6.000000 -2.000000 73.306429 21.299839 555.373890 1287.436425 14.281228 0.000000 0.115796
639.000000 53.802000 -4.000000 7.000000 -2.000000 65.963612 20.741201 567.417573 1454.282385 18.592550 0.000000 0.099485
640.000000 63.772000 -3.000000 7.000000 -2.000000 74.963313 26.088085 448.006388 1262.929420 15.682930 0.000000 0.117817
641.000000 73.824000 -2.000000 7.000000 -2.000000 84.337566 32.827421 280.646405 1067.996151 13.544985 0.000000 0.108466
642.000000 82.822000 -1.000000 7.000000 -2.000000 93.475615 41.307510 29.202391 853.977684 12.070954 0.000000 0.109759
644.000000 50.372000 -2.000000 4.000000 -1.000000 68.112544 24.718829 479.531347 1417.010264 9.928691 0.000000 0.111195
645.000000 58.112000 -3.000000 8.000000 -2.000000 76.010624 30.008571 353.386509 1250.646230 17.209863 0.000000 0.119269
646.000000 65.656000 -1.000000 4.000000 -1.000000 84.022528 36.445851 180.157171 1081.095258 7.614968 0.000000 0.112532
647.000000 72.270000 -1.000000 8.000000 -2.000000 91.675587 44.225077 -72.567398 897.064132 13.833772 0.000000 0.150764
648.000000 47.029000 -4.000000 9.000000 -2.000000 69.702123 28.103755 400.221714 1392.297841 21.268168 0.000000 0.119506
649.000000 53.125000 -3.000000 9.000000 -2.000000 76.670992 33.249231 269.371208 1245.917617 18.824792 0.000000 0.123282
650.000000 58.926000 -2.000000 9.000000 -2.000000 83.605414 39.337260 92.893892 1096.958584 16.969321 0.000000 0.127021
651.000000 63.947000 -1.000000 9.000000 -2.000000 90.143426 46.473167 -158.114274 937.087889 15.634694 0.000000 0.191397
653.000000 48.774000 -3.000000 10.000000 -2.000000 77.082399 35.956567 194.272315 1245.958346 20.503914 0.000000 0.131041
654.000000 53.332000 -1.000000 5.000000 -1.000000 83.156385 41.689615 16.406675 1113.976020 9.374474 0.000000 0.147874
655.000000 57.249000 -1.000000 10.000000 -2.000000 88.836128 48.253425 -231.030973 973.840164 17.464131 0.000000 0.229460
657.000000 48.636000 -2.000000 11.000000 -2.000000 82.709817 43.634690 -51.184487 1131.242813 20.559162 0.000000 0.171651
658.000000 51.762000 -1.000000 11.000000 -2.000000 87.713887 49.695538 -293.922296 1007.425322 19.315463 0.000000 0.264488
660.000000 47.197000 -1.000000 12.000000 -2.000000 86.743408 50.886085 -348.722843 1038.074219 21.183970 0.000000 0.296533
663.000000 72.580000 -3.000000 3.000000 -1.000000 45.924280 8.788243 808.606975 1995.497734 13.786463 0.000000 0.147189
664.000000 50.672000 -4.000000 4.000000 -1.000000 41.843984 11.194767 761.990150 2166.223947 19.747343 0.000000 0.213097
665.000000 72.555000 -3.000000 4.000000 -1.000000 53.732146 16.756273 650.943672 1765.704557 13.789623 0.000000 0.098293
666.000000 51.836000 -4.000000 5.000000 -1.000000 48.340856 17.138850 643.089624 1943.065703 19.302514 0.000000 0.147915
667.000000 68.557000 -3.000000 5.000000 -1.000000 58.959048 23.059602 516.818255 1645.001505 14.592311 0.000000 0.110953
668.000000 87.798000 -2.000000 5.000000 -1.000000 70.892034 31.000216 328.291631 1376.001127 11.391946 0.000000 0.126811
669.000000 50.696000 -4.000000 6.000000 -1.000000 53.180443 22.091887 538.139734 1810.587599 19.735013 0.000000 0.132979
670.000000 63.354000 -3.000000 6.000000 -1.000000 62.518544 28.058002 401.325825 1575.400570 15.789512 0.000000 0.129192
671.000000 76.842000 -2.000000 6.000000 -1.000000 72.484363 35.657961 202.800940 1359.058398 13.015399 0.000000 0.143255
672.000000 89.306000 -1.000000 6.000000 -1.000000 82.281994 45.266311 -111.346320 1148.249993 11.196585 0.000000 0.196308
673.000000 48.469000 -4.000000 7.000000 -1.000000 56.816670 26.224692 444.821287 1725.622890 20.640353 0.000000 0.138600
674.000000 58.121000 -3.000000 7.000000 -1.000000 65.006748 32.062016 300.835767 1533.029887 17.210248 0.000000 0.145241
675.000000 67.879000 -2.000000 7.000000 -1.000000 73.437718 39.206280 96.999359 1354.080584 14.733553 0.000000 0.164363
676.000000 76.581000 -1.000000 7.000000 -1.000000 81.505854 47.843420 -213.796386 1180.497401 13.057074 0.000000 0.244466
678.000000 45.826000 -4.000000 8.000000 -1.000000 59.587675 29.691581 361.302166 1668.254769 21.829573 0.000000 0.149492
679.000000 53.289000 -3.000000 8.000000 -1.000000 66.795175 35.311983 212.603169 1506.438920 18.769870 0.000000 0.160596
680.000000 60.566000 -2.000000 8.000000 -1.000000 74.029578 41.979710 6.590212 1355.351329 16.512330 0.000000 0.189099
681.000000 66.917000 -1.000000 8.000000 -1.000000 80.839854 49.781389 -297.783457 1209.780989 14.942787 0.000000 0.288750
683.000000 48.977000 -3.000000 9.000000 -1.000000 68.115128 37.986527 134.514256 1489.543350 20.421680 0.000000 0.176495
684.000000 54.552000 -2.000000 9.000000 -1.000000 74.407300 44.197464 -71.557755 1359.944874 18.332254 0.000000 0.215554
685.000000 59.357000 -1.000000 9.000000 -1.000000 80.272162 51.288574 -367.885936 1236.032154 16.845965 0.000000 0.328533
687.000000 49.553000 -2.000000 10.000000 -1.000000 74.653024 46.006295 -139.780418 1366.278253 20.181384 0.000000 0.242286
694.000000 159.173000 -1.000000 2.000000 0.000000 50.361726 34.424493 237.369909 2021.894815 6.285346 0.000000 0.254886
696.000000 130.471000 -1.000000 3.000000 0.000000 58.940550 42.390976 -7.480918 1818.684126 7.666882 0.000000 0.283147
698.000000 106.665000 -1.000000 4.000000 0.000000 63.184065 46.987635 -178.685057 1738.546284 9.377221 0.000000 0.330304
699.000000 55.271000 -3.000000 5.000000 0.000000 45.397818 30.373907 344.200590 2171.319912 18.102416 0.000000 0.267911
700.000000 72.433000 -2.000000 5.000000 0.000000 55.493597 39.012121 103.057003 1893.228421 13.810883 0.000000 0.263583
703.000000 49.938000 -3.000000 7.000000 0.000000 54.017484 37.643715 144.832860 1927.926366 20.032739 0.000000 0.258782
704.000000 58.832000 -2.000000 7.000000 0.000000 61.380940 44.966682 -100.043255 1771.055722 17.001873 0.000000 0.306210
706.000000 46.648000 -3.000000 8.000000 0.000000 56.787387 40.248418 63.900649 1864.217011 21.444600 0.000000 0.269448
#UB matrix in q= (UB) B0 G* 
#[[-0.244184732 -0.60285001   0.758025947]
# [ 0.265577247  0.710856293  0.65087865 ]
# [-0.932653496  0.360759583 -0.013456258]]
#B0 matrix in q= UB (B0) G*
#[[ 0.19670273 -0.          0.03056101]
# [ 0.          0.19187965 -0.        ]
# [ 0.          0.          0.18806537]]
#UBB0 matrix in q= (UB B0) G* i.e. recip. basis vectors are columns in LT frame: astar = UBB0[:,0], bstar = UBB0[:,1], cstar = UBB0[:,2]. (abcstar as columns on xyzlab1, xlab1 = ui, ui = unit vector along incident beam)
#[[-0.0480318  -0.11567465  0.1350959 ]
# [ 0.05223977  0.13639886  0.13052404]
# [-0.18345549  0.06922242 -0.03103349]]
#Euler angles phi theta psi (deg)
#[248.866  90.773  49.401]
#deviatoric strain in direct crystal frame (10-3 unit)
#[[ 2.67  0.3  -0.51]
# [ 0.3   3.16 -0.72]
# [-0.51 -0.72 -5.83]]
#deviatoric strain in sample2 frame (10-3 unit)
#[[ 0.67 -3.43  1.84]
# [-3.44 -1.42  3.12]
# [ 1.84  3.12  0.75]]
#new lattice parameters
#[ 5.1505     5.214128   5.3211173 90.0488188 99.2544952 89.9655749]
#CCDLabel
#sCMOS
#DetectorParameters
#[79.0, 975.0, 941.0, 0.0, 0.0]
#pixelsize
#0.0734
#Frame dimensions
#[2018, 2016]
#
