#Strain and Orientation Refinement from experimental file: /home/micha/LaueProjects/DepthEffects/testZrO2_125.cor
#File created at Wed Jun 28 14:25:56 2023 with indexingSpotsSet.py
#Number of indexed spots: 519
#Element
#ZrO2
#grainIndex
#G_0
#Mean Deviation(pixel): 0.114
##spot_index intensity h k l 2theta Chi Xexp Yexp Energy GrainIndex PixDev
6.000000 45.666000 13.000000 -3.000000 -5.000000 96.965115 -51.323690 2319.573778 730.593566 21.899202 0.000000 0.284892
18.000000 46.785000 7.000000 -3.000000 -2.000000 118.887664 -45.565908 2072.768087 92.758415 10.684115 0.000000 0.223928
21.000000 49.751000 13.000000 -5.000000 -4.000000 114.235458 -47.080966 2132.459261 229.499053 20.095686 0.000000 0.228540
22.000000 46.101000 14.000000 -5.000000 -4.000000 111.956683 -44.694359 2039.872235 330.613216 21.687483 0.000000 0.166148
25.000000 52.774000 6.000000 -2.000000 -2.000000 108.629360 -48.660064 2198.399243 391.698993 9.473040 0.000000 0.239588
26.000000 48.592000 13.000000 -4.000000 -4.000000 106.581195 -46.084699 2092.837588 478.953707 20.577749 0.000000 0.174700
29.000000 55.627000 11.000000 -3.000000 -4.000000 101.797571 -50.304794 2271.623473 589.033874 17.976453 0.000000 0.262381
30.000000 50.896000 12.000000 -3.000000 -4.000000 100.128584 -47.530824 2150.838448 656.235338 19.648249 0.000000 0.194381
31.000000 46.808000 13.000000 -3.000000 -4.000000 98.588418 -45.220306 2059.603119 710.228184 21.364797 0.000000 0.150154
33.000000 57.858000 5.000000 -1.000000 -2.000000 93.381409 -52.016453 2353.409529 837.669535 8.642799 0.000000 0.304940
34.000000 52.665000 11.000000 -2.000000 -4.000000 92.312154 -49.034204 2214.628756 874.714811 18.990646 0.000000 0.230784
35.000000 48.217000 6.000000 -1.000000 -2.000000 91.286020 -46.552943 2111.278485 905.864988 10.371481 0.000000 0.183793
38.000000 53.288000 10.000000 -1.000000 -4.000000 82.772098 -50.596113 2285.120870 1156.034327 18.771450 0.000000 0.291355
39.000000 48.707000 11.000000 -1.000000 -4.000000 82.513175 -47.935862 2167.658308 1152.123986 20.537323 0.000000 0.235783
43.000000 47.560000 5.000000 0.000000 -2.000000 71.937098 -49.370258 2229.415658 1480.055809 10.518045 0.000000 0.314413
52.000000 47.472000 14.000000 -7.000000 -3.000000 126.515696 -38.774090 1839.561759 -81.127418 21.056640 0.000000 0.159659
55.000000 50.972000 13.000000 -6.000000 -3.000000 122.813175 -40.285129 1887.283758 31.270393 19.612027 0.000000 0.154009
56.000000 47.246000 14.000000 -6.000000 -3.000000 119.851034 -38.342821 1826.312877 153.465765 21.159634 0.000000 0.103819
59.000000 54.813000 12.000000 -5.000000 -3.000000 118.327679 -41.878096 1939.961173 161.760812 18.238831 0.000000 0.149200
60.000000 50.418000 13.000000 -5.000000 -3.000000 115.431194 -39.722896 1869.283510 275.610654 19.829865 0.000000 0.097641
61.000000 46.578000 14.000000 -5.000000 -3.000000 112.838816 -37.973819 1815.101532 365.971062 21.465637 0.000000 0.061474
63.000000 64.998000 10.000000 -4.000000 -3.000000 115.880880 -46.568917 2111.913186 181.449982 15.381208 0.000000 0.226486
64.000000 58.925000 11.000000 -4.000000 -3.000000 112.815740 -43.557170 1998.408121 316.205677 16.967516 0.000000 0.148479
65.000000 53.734000 12.000000 -4.000000 -3.000000 110.088457 -41.172413 1916.309415 418.075604 18.607698 0.000000 0.097541
66.000000 49.274000 13.000000 -4.000000 -3.000000 107.665104 -39.243517 1854.166257 498.413815 20.292888 0.000000 0.066039
68.000000 63.091000 10.000000 -3.000000 -3.000000 105.937104 -45.326399 2063.627387 503.852297 15.848749 0.000000 0.158030
69.000000 57.001000 11.000000 -3.000000 -3.000000 103.546934 -42.694747 1967.993084 588.161584 17.543057 0.000000 0.109543
70.000000 51.862000 4.000000 -1.000000 -1.000000 101.433041 -40.572794 1896.609638 654.440429 6.427366 0.000000 0.083464
71.000000 47.490000 13.000000 -3.000000 -3.000000 99.562432 -38.829989 1841.290724 708.248489 21.057941 0.000000 0.073447
73.000000 75.295000 8.000000 -2.000000 -3.000000 99.188798 -50.867857 2297.862804 665.128282 13.281343 0.000000 0.273880
74.000000 66.789000 9.000000 -2.000000 -3.000000 97.214603 -47.189587 2136.868433 740.512405 14.973470 0.000000 0.187192
75.000000 59.806000 10.000000 -2.000000 -3.000000 95.432946 -44.293209 2025.062578 797.988380 16.722405 0.000000 0.139341
76.000000 54.016000 11.000000 -2.000000 -3.000000 93.845778 -41.964409 1942.889810 843.696316 18.515631 0.000000 0.114520
77.000000 49.163000 12.000000 -2.000000 -3.000000 92.437602 -40.057107 1879.947706 881.139134 20.344054 0.000000 0.103536
80.000000 68.874000 8.000000 -1.000000 -3.000000 85.989070 -49.150158 2219.708225 1056.380822 14.522825 0.000000 0.247961
81.000000 61.330000 9.000000 -1.000000 -3.000000 85.248631 -45.970975 2088.406038 1069.713855 16.309648 0.000000 0.192202
82.000000 55.134000 10.000000 -1.000000 -3.000000 84.519845 -43.421091 1993.551659 1083.167199 18.143100 0.000000 0.160995
83.000000 49.987000 11.000000 -1.000000 -3.000000 83.833474 -41.338163 1921.818558 1095.878825 20.011812 0.000000 0.143530
84.000000 45.661000 12.000000 -1.000000 -3.000000 83.200233 -39.608948 1865.671236 1107.580495 21.907835 0.000000 0.133848
89.000000 45.763000 9.000000 1.000000 -3.000000 60.701534 -44.071124 2016.950413 1781.598040 21.866546 0.000000 0.289959
95.000000 47.382000 7.000000 -4.000000 -1.000000 132.999309 -30.530074 1609.746969 -224.172875 10.547562 0.000000 0.113132
98.000000 51.167000 13.000000 -7.000000 -2.000000 130.164850 -31.935068 1645.848509 -129.417697 19.535236 0.000000 0.104360
99.000000 47.542000 14.000000 -7.000000 -2.000000 126.684632 -30.760793 1615.602342 7.930494 21.026075 0.000000 0.066022
101.000000 60.440000 11.000000 -6.000000 -2.000000 130.766182 -35.247938 1735.591512 -195.239842 16.537936 0.000000 0.146803
102.000000 55.487000 6.000000 -3.000000 -1.000000 126.728335 -33.436472 1685.668737 -21.343846 9.007623 0.000000 0.092978
103.000000 51.140000 13.000000 -6.000000 -2.000000 123.164001 -32.049809 1648.845022 111.183413 19.547544 0.000000 0.052057
104.000000 47.319000 7.000000 -3.000000 -1.000000 120.006017 -30.955387 1620.562769 216.218452 10.563638 0.000000 0.020227
107.000000 66.522000 10.000000 -5.000000 -2.000000 126.621291 -37.178620 1791.319003 -63.006155 15.026589 0.000000 0.137782
108.000000 60.400000 11.000000 -5.000000 -2.000000 122.494205 -35.042274 1729.813426 103.699305 16.550905 0.000000 0.079334
109.000000 55.136000 12.000000 -5.000000 -2.000000 118.898080 -33.419167 1685.202032 229.217135 18.131982 0.000000 0.036942
110.000000 50.594000 13.000000 -5.000000 -2.000000 115.750461 -32.146069 1651.364679 327.846749 19.761104 0.000000 0.007867
111.000000 46.653000 14.000000 -5.000000 -2.000000 112.980567 -31.121721 1624.818859 407.832837 21.431252 0.000000 0.021557
112.000000 73.578000 9.000000 -4.000000 -2.000000 121.293674 -39.261875 1854.741354 96.021347 13.586628 0.000000 0.127097
113.000000 65.914000 5.000000 -2.000000 -1.000000 117.180030 -36.760949 1779.027476 251.150084 7.583754 0.000000 0.066007
114.000000 59.491000 11.000000 -4.000000 -2.000000 113.649262 -34.874899 1725.132526 366.496799 16.806248 0.000000 0.027878
115.000000 54.068000 6.000000 -2.000000 -1.000000 110.601884 -33.404729 1684.812786 456.343019 9.246388 0.000000 0.023442
116.000000 49.454000 13.000000 -4.000000 -2.000000 107.954078 -32.227979 1653.512919 528.726439 20.219225 0.000000 0.040820
117.000000 45.496000 7.000000 -2.000000 -1.000000 105.637500 -31.265533 1628.510685 588.547489 10.989684 0.000000 0.057024
118.000000 81.552000 8.000000 -3.000000 -2.000000 114.263935 -41.510324 1927.570520 293.127916 12.259508 0.000000 0.119796
119.000000 71.889000 9.000000 -3.000000 -2.000000 110.368677 -38.601393 1834.237289 429.678318 13.908422 0.000000 0.062301
120.000000 64.036000 10.000000 -3.000000 -2.000000 107.080380 -36.423376 1769.190586 530.004789 15.615015 0.000000 0.040895
121.000000 57.577000 11.000000 -3.000000 -2.000000 104.285796 -34.736035 1721.263397 607.506980 17.367689 0.000000 0.048141
122.000000 52.199000 12.000000 -3.000000 -2.000000 101.891180 -33.392500 1684.483195 669.551515 19.157763 0.000000 0.062258
123.000000 47.671000 13.000000 -3.000000 -2.000000 99.821861 -32.298525 1655.366229 720.561541 20.978605 0.000000 0.074920
124.000000 89.871000 7.000000 -2.000000 -2.000000 104.705559 -43.936622 2012.066967 548.736290 11.126486 0.000000 0.130503
125.000000 68.318000 9.000000 -2.000000 -2.000000 98.708076 -38.071261 1818.051083 731.596889 14.638455 0.000000 0.072511
126.000000 60.744000 5.000000 -1.000000 -1.000000 96.424090 -36.144894 1761.139794 790.932136 8.232231 0.000000 0.077547
127.000000 54.583000 11.000000 -2.000000 -2.000000 94.491976 -34.618969 1718.011720 838.254138 18.323433 0.000000 0.086045
128.000000 49.493000 6.000000 -1.000000 -1.000000 92.841508 -33.382009 1684.200519 877.024121 10.104301 0.000000 0.093962
129.000000 82.136000 7.000000 -1.000000 -2.000000 89.427757 -42.684449 1967.635033 955.623728 12.177629 0.000000 0.135547
130.000000 71.262000 8.000000 -1.000000 -2.000000 87.842279 -39.825440 1872.544495 993.801739 14.036268 0.000000 0.118334
131.000000 62.784000 9.000000 -1.000000 -2.000000 86.500430 -37.636425 1804.948748 1024.117494 15.932120 0.000000 0.113785
132.000000 56.024000 10.000000 -1.000000 -2.000000 85.361670 -35.911246 1754.429132 1048.813860 17.855311 0.000000 0.113817
133.000000 50.524000 11.000000 -1.000000 -2.000000 84.388779 -34.518943 1715.240614 1069.340100 19.799177 0.000000 0.115259
134.000000 45.975000 12.000000 -1.000000 -2.000000 83.550956 -33.372910 1683.955408 1086.680198 21.759055 0.000000 0.116962
135.000000 81.263000 6.000000 0.000000 -2.000000 72.982356 -44.945492 2049.248373 1406.425741 12.311735 0.000000 0.230736
136.000000 70.563000 7.000000 0.000000 -2.000000 73.535611 -41.692915 1933.704498 1366.976532 14.178786 0.000000 0.188869
137.000000 62.175000 8.000000 0.000000 -2.000000 73.836184 -39.215916 1853.302165 1343.643231 16.091682 0.000000 0.166014
138.000000 55.476000 9.000000 0.000000 -2.000000 73.999349 -37.273348 1794.125609 1328.852484 18.035140 0.000000 0.152673
139.000000 50.026000 10.000000 0.000000 -2.000000 74.084411 -35.712419 1748.749694 1318.984428 19.999990 0.000000 0.144426
140.000000 45.519000 11.000000 0.000000 -2.000000 74.123604 -34.432490 1712.850873 1312.136959 21.980396 0.000000 0.139065
145.000000 56.269000 7.000000 1.000000 -2.000000 57.630838 -40.888760 1906.945849 1843.435372 17.784850 0.000000 0.266670
146.000000 51.231000 8.000000 1.000000 -2.000000 59.825489 -38.709421 1837.564904 1742.941913 19.533347 0.000000 0.227043
147.000000 46.849000 9.000000 1.000000 -2.000000 61.496862 -36.965645 1785.034542 1672.488375 21.360353 0.000000 0.200554
152.000000 46.638000 14.000000 -9.000000 -1.000000 138.086302 -20.772288 1383.250268 -341.327509 21.430355 0.000000 0.075230
155.000000 50.486000 13.000000 -8.000000 -1.000000 135.970777 -21.918377 1408.068572 -259.149243 19.797241 0.000000 0.068622
156.000000 47.096000 14.000000 -8.000000 -1.000000 132.212201 -21.900755 1407.684004 -111.283676 21.223533 0.000000 0.045134
159.000000 59.559000 11.000000 -7.000000 -1.000000 137.900963 -23.401427 1440.785946 -356.963023 16.781184 0.000000 0.091255
160.000000 54.962000 12.000000 -7.000000 -1.000000 133.416950 -23.160532 1435.422979 -166.675672 18.185579 0.000000 0.059283
161.000000 50.874000 13.000000 -7.000000 -1.000000 129.463939 -22.981848 1431.457444 -21.485207 19.648296 0.000000 0.034834
162.000000 47.238000 14.000000 -7.000000 -1.000000 125.960918 -22.844034 1428.406105 93.688752 21.161778 0.000000 0.024805
165.000000 65.938000 10.000000 -6.000000 -1.000000 135.050698 -25.009834 1477.109180 -248.758075 15.158113 0.000000 0.082631
166.000000 60.203000 11.000000 -6.000000 -1.000000 130.281654 -24.510031 1465.723154 -61.509034 16.603250 0.000000 0.046610
167.000000 55.199000 12.000000 -6.000000 -1.000000 126.141923 -24.144000 1457.441961 79.589932 18.109384 0.000000 0.024408
168.000000 50.829000 13.000000 -6.000000 -1.000000 122.524035 -23.864394 1451.148003 190.528898 19.667739 0.000000 0.027839
169.000000 47.000000 14.000000 -6.000000 -1.000000 119.341414 -23.643846 1446.202598 280.547481 21.271141 0.000000 0.043129
171.000000 73.674000 9.000000 -5.000000 -1.000000 131.400157 -26.788090 1518.394580 -121.964106 13.567230 0.000000 0.069016
172.000000 66.365000 10.000000 -5.000000 -1.000000 126.355364 -25.979708 1499.472016 59.727703 15.062532 0.000000 0.030238
173.000000 60.146000 11.000000 -5.000000 -1.000000 122.059213 -25.395611 1485.961066 194.802625 16.621139 0.000000 0.021280
174.000000 54.833000 12.000000 -5.000000 -1.000000 118.367486 -24.953913 1475.830679 299.999947 18.232804 0.000000 0.039442
175.000000 50.268000 13.000000 -5.000000 -1.000000 115.167843 -24.608237 1467.953161 384.751419 19.889381 0.000000 0.057237
176.000000 46.323000 14.000000 -5.000000 -1.000000 112.372467 -24.330358 1461.652201 454.807306 21.584309 0.000000 0.071734
177.000000 83.126000 8.000000 -4.000000 -1.000000 126.586316 -28.760567 1565.733525 29.645619 12.025379 0.000000 0.048711
178.000000 73.596000 9.000000 -4.000000 -1.000000 121.321360 -27.584145 1537.293875 202.058981 13.583672 0.000000 0.013281
179.000000 65.746000 10.000000 -4.000000 -1.000000 116.944328 -26.746079 1517.404618 328.372095 15.206589 0.000000 0.033892
180.000000 59.224000 11.000000 -4.000000 -1.000000 113.260473 -26.118995 1502.713641 425.736580 16.882185 0.000000 0.056377
181.000000 53.754000 12.000000 -4.000000 -1.000000 110.124404 -25.632235 1491.418540 503.563938 18.601286 0.000000 0.073465
182.000000 49.121000 13.000000 -4.000000 -1.000000 107.426768 -25.243490 1482.463849 567.488530 20.356734 0.000000 0.086419
183.000000 81.934000 8.000000 -3.000000 -1.000000 114.683674 -29.339871 1579.973408 373.542883 12.202588 0.000000 0.025610
184.000000 71.907000 9.000000 -3.000000 -1.000000 110.392823 -28.205905 1552.246748 486.969200 13.905219 0.000000 0.055531
185.000000 63.863000 10.000000 -3.000000 -1.000000 106.873394 -27.366710 1532.104825 573.402053 15.657808 0.000000 0.075984
186.000000 57.306000 11.000000 -3.000000 -1.000000 103.941530 -26.720824 1516.809853 641.871498 17.450312 0.000000 0.090366
187.000000 51.883000 12.000000 -3.000000 -1.000000 101.465388 -26.208474 1504.800175 697.688342 19.275211 0.000000 0.100721
188.000000 47.338000 13.000000 -3.000000 -1.000000 99.348726 -25.792188 1495.119947 744.204962 21.126762 0.000000 0.108320
189.000000 78.184000 8.000000 -2.000000 -1.000000 101.788263 -29.786786 1591.069940 682.186019 12.790844 0.000000 0.080606
190.000000 68.336000 9.000000 -2.000000 -1.000000 98.729010 -28.704855 1564.372440 752.591731 14.634923 0.000000 0.095846
191.000000 60.572000 10.000000 -2.000000 -1.000000 96.245142 -27.879451 1544.374353 807.753483 16.511713 0.000000 0.105982
192.000000 54.317000 11.000000 -2.000000 -1.000000 94.191358 -27.229259 1528.835098 852.295073 18.414007 0.000000 0.112914
193.000000 49.183000 12.000000 -2.000000 -1.000000 92.466552 -26.703968 1516.413014 889.102060 20.336570 0.000000 0.117760
194.000000 83.220000 7.000000 -1.000000 -1.000000 90.180136 -31.501698 1634.597851 937.031265 12.019308 0.000000 0.105752
195.000000 71.637000 8.000000 -1.000000 -1.000000 88.135011 -30.141999 1599.960473 981.525717 13.963409 0.000000 0.113215
196.000000 62.802000 9.000000 -1.000000 -1.000000 86.518393 -29.114053 1574.403511 1015.952170 15.928137 0.000000 0.117959
197.000000 55.861000 10.000000 -1.000000 -1.000000 85.210287 -28.310121 1554.770034 1043.436413 17.908020 0.000000 0.121031
198.000000 50.272000 11.000000 -1.000000 -1.000000 84.131044 -27.664408 1539.214534 1065.914821 19.899362 0.000000 0.123052
199.000000 45.681000 12.000000 -1.000000 -1.000000 83.225967 -27.134516 1526.586018 1084.656741 21.899580 0.000000 0.124393
202.000000 71.100000 5.000000 1.000000 -1.000000 51.743870 -35.392140 1739.660332 1982.046578 14.076495 0.000000 0.246978
203.000000 63.550000 6.000000 1.000000 -1.000000 55.430055 -33.351655 1683.383029 1828.875030 15.748450 0.000000 0.201730
204.000000 57.014000 7.000000 1.000000 -1.000000 58.050013 -31.837559 1643.307894 1731.112422 17.553388 0.000000 0.174812
205.000000 51.502000 8.000000 1.000000 -1.000000 60.001884 -30.670934 1613.318506 1663.408497 19.431691 0.000000 0.157821
206.000000 46.863000 9.000000 1.000000 -1.000000 61.509570 -29.745190 1590.032990 1613.794435 21.354743 0.000000 0.146610
212.000000 49.126000 13.000000 -9.000000 0.000000 139.993953 -10.468201 1173.861560 -363.108416 20.344353 0.000000 0.034904
213.000000 46.056000 14.000000 -9.000000 0.000000 136.255815 -11.935265 1202.502728 -208.387726 21.701589 0.000000 0.028492
216.000000 53.502000 6.000000 -4.000000 0.000000 138.079367 -11.252039 1189.128066 -281.173090 9.340495 0.000000 0.031324
217.000000 49.807000 13.000000 -8.000000 0.000000 134.097194 -12.674894 1217.057873 -127.948962 20.068031 0.000000 0.027560
218.000000 46.472000 7.000000 -4.000000 0.000000 130.522618 -13.761075 1238.588054 -6.164510 10.754655 0.000000 0.034086
221.000000 63.755000 10.000000 -7.000000 0.000000 140.558352 -10.222634 1169.094888 -388.466434 15.676156 0.000000 0.035891
222.000000 58.679000 11.000000 -7.000000 0.000000 135.750859 -12.114628 1206.024935 -189.046626 17.033215 0.000000 0.027978
223.000000 54.159000 12.000000 -7.000000 0.000000 131.505342 -13.477932 1232.957003 -38.375891 18.455827 0.000000 0.031384
224.000000 50.143000 13.000000 -7.000000 0.000000 127.745039 -14.505912 1253.467121 80.357250 19.935115 0.000000 0.044005
225.000000 46.575000 4.000000 -2.000000 0.000000 124.401367 -15.308260 1269.607574 176.897373 6.132496 0.000000 0.058000
227.000000 64.875000 5.000000 -3.000000 0.000000 132.862947 -13.068007 1224.828068 -84.413863 7.703538 0.000000 0.028710
228.000000 59.243000 11.000000 -6.000000 0.000000 128.341089 -14.352539 1250.395281 62.315238 16.872822 0.000000 0.041675
229.000000 50.055000 13.000000 -6.000000 0.000000 120.948777 -16.046718 1284.572381 269.439807 19.972592 0.000000 0.072730
230.000000 46.305000 7.000000 -3.000000 0.000000 117.904980 -16.634256 1296.558059 346.116819 10.795605 0.000000 0.085098
231.000000 90.777000 7.000000 -5.000000 0.000000 141.594285 -9.753057 1160.000309 -436.577285 11.009659 0.000000 0.037466
232.000000 80.825000 8.000000 -5.000000 0.000000 134.859342 -12.421673 1212.065486 -155.695266 12.366287 0.000000 0.027489
233.000000 72.370000 9.000000 -5.000000 0.000000 129.195537 -14.126682 1245.879340 35.965777 13.812213 0.000000 0.038497
234.000000 59.118000 11.000000 -5.000000 0.000000 120.309554 -16.174692 1287.176916 285.892397 16.910861 0.000000 0.075393
235.000000 53.922000 12.000000 -5.000000 0.000000 116.787149 -16.836945 1300.709816 373.291607 18.541272 0.000000 0.089410
236.000000 49.461000 13.000000 -5.000000 0.000000 113.729691 -17.359457 1311.453968 445.296003 20.214675 0.000000 0.100441
237.000000 45.606000 14.000000 -5.000000 0.000000 111.055079 -17.782170 1320.190873 505.873376 21.924789 0.000000 0.109079
238.000000 72.177000 9.000000 -4.000000 0.000000 119.380088 -16.356313 1290.879099 309.473520 13.851229 0.000000 0.079208
239.000000 64.511000 5.000000 -2.000000 0.000000 115.205891 -17.112757 1306.373683 410.931744 7.749209 0.000000 0.095261
240.000000 58.149000 11.000000 -4.000000 0.000000 111.691641 -17.684249 1318.163329 491.637772 17.195292 0.000000 0.107113
241.000000 52.814000 6.000000 -2.000000 0.000000 108.698455 -18.131150 1327.434974 557.694450 9.466601 0.000000 0.115847
242.000000 48.296000 13.000000 -4.000000 0.000000 106.122211 -18.490158 1334.917466 612.957412 20.705392 0.000000 0.122307
243.000000 80.191000 8.000000 -3.000000 0.000000 112.799130 -17.509945 1314.559675 466.605591 12.468544 0.000000 0.103558
244.000000 62.589000 10.000000 -3.000000 0.000000 105.341875 -18.594631 1337.100761 629.450118 15.977087 0.000000 0.124065
245.000000 56.211000 11.000000 -3.000000 0.000000 102.548710 -18.953646 1344.624123 687.697496 17.790890 0.000000 0.129596
246.000000 50.936000 4.000000 -1.000000 0.000000 100.190979 -19.239917 1350.646297 736.073261 6.544804 0.000000 0.133329
247.000000 46.513000 13.000000 -3.000000 0.000000 98.175972 -19.473508 1355.575836 776.981789 21.502381 0.000000 0.135837
248.000000 88.865000 7.000000 -2.000000 0.000000 103.883857 -18.784860 1341.083115 659.998157 11.253258 0.000000 0.127103
249.000000 66.842000 9.000000 -2.000000 0.000000 97.274837 -19.574891 1357.719762 795.175938 14.962813 0.000000 0.136755
250.000000 59.309000 5.000000 -1.000000 0.000000 94.916755 -19.831757 1363.163799 842.574654 8.432055 0.000000 0.138564
251.000000 53.240000 11.000000 -2.000000 0.000000 92.972173 -20.034975 1367.483284 881.518343 18.787310 0.000000 0.139414
252.000000 48.257000 6.000000 -1.000000 0.000000 91.342033 -20.199759 1370.994039 914.133001 10.363958 0.000000 0.139684
253.000000 81.165000 7.000000 -1.000000 0.000000 88.764265 -20.450694 1376.354589 965.778441 12.324389 0.000000 0.139303
254.000000 69.934000 8.000000 -1.000000 0.000000 86.819345 -20.632751 1380.254712 1004.908900 14.304152 0.000000 0.138376
255.000000 61.382000 9.000000 -1.000000 0.000000 85.300554 -20.770864 1383.219674 1035.627212 16.297621 0.000000 0.137283
256.000000 54.663000 10.000000 -1.000000 0.000000 84.082089 -20.879229 1385.549813 1060.405145 18.301160 0.000000 0.136181
257.000000 49.252000 11.000000 -1.000000 0.000000 83.083105 -20.966523 1387.429295 1080.825859 20.312313 0.000000 0.135135
258.000000 162.668000 3.000000 0.000000 0.000000 73.026516 -21.776989 1404.985672 1294.757545 6.151204 0.000000 0.119202
260.000000 77.497000 4.000000 1.000000 0.000000 45.789506 -23.543331 1443.954241 2083.104880 12.916264 0.000000 0.205980
261.000000 69.426000 5.000000 1.000000 0.000000 51.090458 -23.234517 1437.068030 1886.432614 14.417211 0.000000 0.155249
262.000000 61.965000 6.000000 1.000000 0.000000 54.679408 -23.017602 1432.250084 1769.609650 16.152351 0.000000 0.130906
263.000000 55.608000 7.000000 1.000000 0.000000 57.265658 -22.856880 1428.690263 1691.837243 17.998258 0.000000 0.118831
264.000000 50.279000 8.000000 1.000000 0.000000 59.216044 -22.733022 1425.952674 1636.197830 19.905278 0.000000 0.112756
265.000000 45.804000 9.000000 1.000000 0.000000 60.738565 -22.634650 1423.781936 1594.359243 21.849577 0.000000 0.109723
270.000000 47.290000 13.000000 -10.000000 1.000000 142.165458 1.695149 943.147541 -445.431030 21.133657 0.000000 0.007088
273.000000 51.391000 12.000000 -9.000000 1.000000 140.610322 1.506654 946.691167 -370.236786 19.447798 0.000000 0.004441
274.000000 48.153000 13.000000 -9.000000 1.000000 136.973545 -1.627740 1005.585124 -212.581889 20.756201 0.000000 0.014628
277.000000 56.239000 11.000000 -8.000000 1.000000 138.740435 1.298157 950.610107 -286.180161 17.771739 0.000000 0.006948
278.000000 52.312000 12.000000 -8.000000 1.000000 134.854909 -1.951720 1011.677020 -130.478582 19.106821 0.000000 0.025158
279.000000 48.752000 13.000000 -8.000000 1.000000 131.300933 -4.424228 1058.274160 -7.404732 20.502880 0.000000 0.043553
280.000000 45.535000 14.000000 -8.000000 1.000000 128.064151 -6.361825 1094.999671 92.942017 21.952438 0.000000 0.059670
282.000000 67.451000 9.000000 -7.000000 1.000000 141.004505 5.744851 866.720577 -395.036642 14.817078 0.000000 0.019336
283.000000 62.045000 10.000000 -7.000000 1.000000 136.450970 1.066303 954.967323 -191.431607 16.109022 0.000000 0.016878
284.000000 57.195000 11.000000 -7.000000 1.000000 132.293521 -2.306686 1018.354242 -38.923999 17.476231 0.000000 0.039118
285.000000 52.867000 12.000000 -7.000000 1.000000 128.538385 -4.837542 1066.089193 80.634174 18.908031 0.000000 0.058743
286.000000 49.013000 13.000000 -7.000000 1.000000 125.159088 -6.799585 1103.332422 177.538392 20.395676 0.000000 0.075013
287.000000 45.582000 14.000000 -7.000000 1.000000 122.118615 -8.361814 1133.200423 258.094858 21.931929 0.000000 0.088319
289.000000 76.064000 8.000000 -6.000000 1.000000 138.534298 5.767391 866.292852 -283.194578 13.139799 0.000000 0.015958
290.000000 69.099000 9.000000 -6.000000 1.000000 133.585656 0.806942 959.840691 -83.529131 14.465132 0.000000 0.032090
291.000000 62.980000 10.000000 -6.000000 1.000000 129.138400 -2.697273 1025.705407 64.149517 15.871721 0.000000 0.056915
292.000000 57.628000 11.000000 -6.000000 1.000000 125.184262 -5.286622 1074.591342 178.959024 17.346630 0.000000 0.076830
293.000000 52.952000 12.000000 -6.000000 1.000000 121.677723 -7.270547 1112.314161 271.461714 18.879533 0.000000 0.092392
294.000000 48.859000 13.000000 -6.000000 1.000000 118.564613 -8.835688 1142.305684 348.010294 20.462084 0.000000 0.104506
296.000000 97.774000 6.000000 -5.000000 1.000000 141.198428 13.931184 708.022337 -438.131233 10.221762 0.000000 0.054244
297.000000 87.057000 7.000000 -5.000000 1.000000 135.284432 5.793410 865.799077 -151.614433 11.480980 0.000000 0.022458
298.000000 77.794000 8.000000 -5.000000 1.000000 129.901670 0.514884 965.327700 40.988665 12.849032 0.000000 0.053097
299.000000 69.882000 9.000000 -5.000000 1.000000 125.163664 -3.129084 1033.837971 181.647562 14.304909 0.000000 0.078828
300.000000 63.143000 10.000000 -5.000000 1.000000 121.034758 -5.776257 1083.875394 290.103238 15.832678 0.000000 0.097651
301.000000 57.393000 11.000000 -5.000000 1.000000 117.439499 -7.778564 1122.023776 376.970461 17.420044 0.000000 0.111377
302.000000 52.465000 12.000000 -5.000000 1.000000 114.299127 -9.342535 1152.070480 448.521761 19.057363 0.000000 0.121434
303.000000 48.218000 13.000000 -5.000000 1.000000 111.542944 -10.596175 1176.348624 508.733083 20.736964 0.000000 0.128837
305.000000 116.899000 5.000000 -4.000000 1.000000 137.376490 14.843028 689.765905 -268.869530 8.549907 0.000000 0.041652
306.000000 101.458000 6.000000 -4.000000 1.000000 130.825524 5.823780 865.222672 6.306420 9.852001 0.000000 0.044383
307.000000 88.650000 7.000000 -4.000000 1.000000 125.002375 0.183549 971.552038 187.300288 11.276452 0.000000 0.080558
308.000000 78.132000 8.000000 -4.000000 1.000000 120.017956 -3.608951 1042.883516 317.915765 12.795519 0.000000 0.104627
309.000000 69.484000 9.000000 -4.000000 1.000000 115.786237 -6.312118 1094.054410 417.846432 14.389257 0.000000 0.120432
310.000000 62.325000 10.000000 -4.000000 1.000000 112.185383 -8.328100 1132.553486 497.415057 16.042959 0.000000 0.130924
311.000000 56.349000 11.000000 -4.000000 1.000000 109.102411 -9.885831 1162.569162 562.630871 17.745541 0.000000 0.137938
312.000000 51.312000 12.000000 -4.000000 1.000000 106.443043 -11.123918 1186.627177 617.268375 19.488493 0.000000 0.142623
313.000000 47.027000 13.000000 -4.000000 1.000000 104.131354 -12.130719 1206.341151 663.838520 21.265172 0.000000 0.145719
315.000000 144.596000 4.000000 -3.000000 1.000000 131.512832 15.971518 666.956516 -49.904862 6.912755 0.000000 0.029089
316.000000 120.791000 5.000000 -3.000000 1.000000 124.354271 5.859693 864.541003 201.442718 8.276011 0.000000 0.079753
317.000000 102.250000 6.000000 -3.000000 1.000000 118.199675 -0.195531 978.673031 363.900568 9.777752 0.000000 0.114030
318.000000 87.862000 7.000000 -3.000000 1.000000 113.130001 -4.145290 1053.004926 480.049479 11.379945 0.000000 0.132655
319.000000 76.581000 8.000000 -3.000000 1.000000 108.971519 -6.900967 1105.264352 568.300411 13.057318 0.000000 0.142988
320.000000 67.603000 9.000000 -3.000000 1.000000 105.535085 -8.924346 1144.011773 638.140902 14.792418 0.000000 0.148704
321.000000 60.344000 10.000000 -3.000000 1.000000 102.664486 -10.469546 1173.887694 695.052903 16.572808 0.000000 0.151734
322.000000 54.385000 11.000000 -3.000000 1.000000 100.239208 -11.686529 1197.625942 742.468167 18.389384 0.000000 0.153157
323.000000 49.426000 12.000000 -3.000000 1.000000 98.167828 -12.669007 1216.941706 782.665560 20.235328 0.000000 0.153598
324.000000 186.754000 3.000000 -2.000000 1.000000 121.472359 17.402979 637.648352 250.554751 5.353085 0.000000 0.061955
325.000000 146.854000 4.000000 -2.000000 1.000000 114.202510 5.902816 863.722336 454.658796 6.808458 0.000000 0.125835
326.000000 118.759000 5.000000 -2.000000 1.000000 108.211745 -0.633434 986.899471 586.866308 8.420088 0.000000 0.148880
327.000000 98.687000 6.000000 -2.000000 1.000000 103.525479 -4.748579 1064.406280 681.206610 10.133567 0.000000 0.157319
328.000000 83.923000 7.000000 -2.000000 1.000000 99.848884 -7.550927 1117.670191 752.511383 11.917121 0.000000 0.159785
329.000000 72.735000 8.000000 -2.000000 1.000000 96.919117 -9.573375 1156.527132 808.545048 13.750947 0.000000 0.159632
330.000000 64.026000 9.000000 -2.000000 1.000000 94.542966 -11.098230 1186.126014 853.851858 15.622062 0.000000 0.158314
331.000000 57.087000 10.000000 -2.000000 1.000000 92.583388 -12.287461 1209.423364 891.299931 17.521599 0.000000 0.156508
332.000000 51.446000 11.000000 -2.000000 1.000000 90.942940 -13.240128 1228.237949 922.801651 19.443296 0.000000 0.154541
333.000000 46.782000 12.000000 -2.000000 1.000000 89.551345 -14.020033 1243.750045 949.686877 21.382604 0.000000 0.152575
334.000000 177.856000 3.000000 -1.000000 1.000000 96.426205 5.955566 862.720758 819.117935 5.623588 0.000000 0.161586
335.000000 135.402000 4.000000 -1.000000 1.000000 92.462765 -1.144940 996.510430 894.699510 7.387396 0.000000 0.164744
336.000000 108.237000 5.000000 -1.000000 1.000000 89.470706 -5.432025 1077.346756 950.987865 9.242065 0.000000 0.161261
337.000000 89.717000 6.000000 -1.000000 1.000000 87.215116 -8.271836 1131.474081 993.905330 11.150297 0.000000 0.156680
338.000000 76.409000 7.000000 -1.000000 1.000000 85.477588 -10.282328 1170.252918 1027.519320 13.092753 0.000000 0.152359
339.000000 66.436000 8.000000 -1.000000 1.000000 84.106670 -11.777116 1199.400987 1054.486575 15.058402 0.000000 0.148600
340.000000 58.710000 9.000000 -1.000000 1.000000 83.001095 -12.930619 1222.109711 1076.569243 17.040494 0.000000 0.145407
341.000000 52.560000 10.000000 -1.000000 1.000000 82.092384 -13.847056 1240.300686 1094.968628 19.034667 0.000000 0.142710
342.000000 47.556000 11.000000 -1.000000 1.000000 81.333167 -14.592345 1255.200105 1110.527060 21.037977 0.000000 0.140427
344.000000 68.678000 4.000000 1.000000 1.000000 42.972071 -9.977367 1164.341378 2114.053817 14.576111 0.000000 0.189284
345.000000 63.354000 5.000000 1.000000 1.000000 48.656942 -11.915423 1202.113373 1908.835193 15.800180 0.000000 0.121412
346.000000 57.604000 6.000000 1.000000 1.000000 52.569948 -13.310654 1229.636517 1787.524951 17.376402 0.000000 0.090428
347.000000 52.351000 7.000000 1.000000 1.000000 55.416927 -14.361958 1250.583806 1706.954036 19.119205 0.000000 0.078853
348.000000 47.766000 8.000000 1.000000 1.000000 57.576754 -15.182039 1267.060419 1649.372991 20.953924 0.000000 0.076666
352.000000 46.117000 13.000000 -10.000000 2.000000 138.194162 9.391760 796.979672 -278.874470 21.672403 0.000000 0.025406
355.000000 53.259000 11.000000 -9.000000 2.000000 139.470615 14.364088 699.373564 -358.494456 18.765632 0.000000 0.048807
356.000000 49.944000 12.000000 -9.000000 2.000000 136.301475 9.570218 793.533862 -201.232611 20.012077 0.000000 0.023375
357.000000 46.875000 13.000000 -9.000000 2.000000 133.244025 5.807986 865.522447 -76.488169 21.323435 0.000000 0.031653
359.000000 54.419000 11.000000 -8.000000 2.000000 134.034649 9.765480 789.759428 -114.923961 18.367043 0.000000 0.026293
360.000000 47.371000 13.000000 -8.000000 2.000000 127.808013 2.702509 924.196014 104.969629 21.101774 0.000000 0.064127
362.000000 70.153000 8.000000 -7.000000 2.000000 138.298717 22.546793 528.154152 -366.920463 14.246932 0.000000 0.088291
363.000000 64.690000 9.000000 -7.000000 2.000000 134.788339 15.375684 679.030532 -167.030048 15.450679 0.000000 0.033552
364.000000 59.701000 10.000000 -7.000000 2.000000 131.273130 9.980033 785.607005 -18.167602 16.742825 0.000000 0.036404
365.000000 55.196000 11.000000 -7.000000 2.000000 127.916010 5.840953 864.896719 98.269376 18.110214 0.000000 0.060453
366.000000 51.154000 12.000000 -7.000000 2.000000 124.784996 2.596601 926.189745 192.605513 19.542174 0.000000 0.080803
367.000000 47.537000 13.000000 -7.000000 2.000000 121.899755 0.000598 974.988764 271.072197 21.029962 0.000000 0.096669
368.000000 79.318000 7.000000 -6.000000 2.000000 135.167093 23.729961 501.868424 -241.574259 12.601096 0.000000 0.075714
369.000000 65.990000 9.000000 -6.000000 2.000000 127.839887 10.216875 781.016819 91.469183 15.147980 0.000000 0.053128
370.000000 55.464000 11.000000 -6.000000 2.000000 121.134938 2.482144 928.344033 290.231754 18.024652 0.000000 0.099536
371.000000 47.304000 13.000000 -6.000000 2.000000 115.538494 -2.361656 1019.388560 426.308900 21.136197 0.000000 0.124719
373.000000 90.978000 6.000000 -5.000000 2.000000 130.972453 25.081940 471.240554 -91.016870 10.986765 0.000000 0.056415
374.000000 81.691000 7.000000 -5.000000 2.000000 127.244148 16.642325 653.276827 86.965897 12.236565 0.000000 0.038134
375.000000 73.525000 8.000000 -5.000000 2.000000 123.465339 10.479662 775.915794 217.483734 13.596491 0.000000 0.075424
376.000000 66.449000 9.000000 -5.000000 2.000000 119.903223 5.880224 864.151252 318.748628 15.045282 0.000000 0.101926
377.000000 60.350000 10.000000 -5.000000 2.000000 116.650592 2.358061 930.679089 400.384986 16.566820 0.000000 0.119772
378.000000 55.093000 11.000000 -5.000000 2.000000 113.721861 -0.406308 982.632583 468.038083 18.148663 0.000000 0.131928
379.000000 50.549000 12.000000 -5.000000 2.000000 111.098900 -2.624114 1024.328162 525.280425 19.781052 0.000000 0.140287
380.000000 46.604000 13.000000 -5.000000 2.000000 108.752006 -4.437814 1058.530901 574.506514 21.456226 0.000000 0.146053
381.000000 120.272000 4.000000 -4.000000 2.000000 127.695751 39.516052 87.264899 -137.140142 8.311039 0.000000 0.185224
382.000000 106.060000 5.000000 -4.000000 2.000000 125.095119 26.639748 435.097754 94.883857 9.425255 0.000000 0.028430
383.000000 82.538000 7.000000 -4.000000 2.000000 117.721359 10.772890 770.213626 365.274248 12.112898 0.000000 0.102140
384.000000 65.793000 9.000000 -4.000000 2.000000 111.029013 2.223084 933.218661 526.912240 15.197716 0.000000 0.140138
385.000000 53.959000 11.000000 -4.000000 2.000000 105.723405 -2.904741 1029.612002 637.603060 18.532898 0.000000 0.154192
386.000000 145.786000 3.000000 -3.000000 2.000000 117.712528 42.815396 -22.196766 170.269353 6.857503 0.000000 0.169839
387.000000 125.558000 4.000000 -3.000000 2.000000 116.355154 28.451331 391.803105 334.523549 7.962712 0.000000 0.018127
388.000000 107.745000 5.000000 -3.000000 2.000000 113.292376 18.272499 619.622724 453.039333 9.279743 0.000000 0.094514
389.000000 93.063000 6.000000 -3.000000 2.000000 109.894986 11.102156 763.797400 544.064958 10.744564 0.000000 0.130409
390.000000 81.190000 7.000000 -3.000000 2.000000 106.684742 5.927797 863.248039 616.674409 12.316590 0.000000 0.148391
391.000000 71.591000 8.000000 -3.000000 2.000000 103.815840 2.075717 935.990847 676.147466 13.968851 0.000000 0.157497
392.000000 63.770000 9.000000 -3.000000 2.000000 101.303200 -0.878879 991.510923 725.847353 15.682722 0.000000 0.161883
393.000000 57.331000 10.000000 -3.000000 2.000000 99.114909 -3.205475 1035.277361 768.047731 17.444930 0.000000 0.163646
394.000000 51.969000 11.000000 -3.000000 2.000000 97.207491 -5.079327 1070.665285 804.352842 19.245758 0.000000 0.163913
395.000000 47.453000 12.000000 -3.000000 2.000000 95.538623 -6.617805 1099.870455 835.932273 21.077931 0.000000 0.163319
396.000000 176.003000 2.000000 -2.000000 2.000000 100.323162 46.699349 -167.109732 655.147407 5.681779 0.000000 0.189529
397.000000 148.788000 3.000000 -2.000000 2.000000 102.283567 30.579511 339.000733 668.796235 6.721119 0.000000 0.066598
398.000000 123.986000 4.000000 -2.000000 2.000000 100.981098 19.275552 598.602604 719.755499 8.066064 0.000000 0.125865
399.000000 104.222000 5.000000 -2.000000 2.000000 98.738867 11.474512 756.524026 772.182441 9.596247 0.000000 0.151571
400.000000 77.053000 7.000000 -2.000000 2.000000 94.314727 1.914171 939.029142 859.749480 12.981182 0.000000 0.164732
401.000000 60.213000 9.000000 -2.000000 2.000000 90.858500 -3.528539 1041.367111 924.841347 16.612611 0.000000 0.163316
402.000000 49.080000 11.000000 -2.000000 2.000000 88.266163 -6.983999 1106.847219 973.823406 20.381921 0.000000 0.158981
404.000000 162.344000 2.000000 -1.000000 2.000000 77.262287 33.107478 273.172411 1231.453831 6.162727 0.000000 0.121701
405.000000 135.071000 3.000000 -1.000000 2.000000 81.056353 20.444674 573.774214 1121.770014 7.406938 0.000000 0.124004
406.000000 111.724000 4.000000 -1.000000 2.000000 81.990357 11.898969 748.209452 1095.773695 8.954850 0.000000 0.138283
407.000000 93.836000 5.000000 -1.000000 2.000000 81.894837 5.986617 862.131087 1095.118838 10.662052 0.000000 0.143724
408.000000 80.276000 6.000000 -1.000000 2.000000 81.451532 1.736302 942.373794 1102.858483 12.463165 0.000000 0.144791
409.000000 69.847000 7.000000 -1.000000 2.000000 80.914453 -1.434318 1001.949128 1113.169898 14.324281 0.000000 0.144015
410.000000 61.661000 8.000000 -1.000000 2.000000 80.378804 -3.876494 1047.930792 1123.869518 16.226063 0.000000 0.142528
411.000000 55.105000 9.000000 -1.000000 2.000000 79.878680 -5.808903 1084.494960 1134.122119 18.156679 0.000000 0.140828
412.000000 49.756000 10.000000 -1.000000 2.000000 79.423958 -7.372768 1114.266071 1143.632531 20.108478 0.000000 0.139138
414.000000 108.560000 2.000000 0.000000 2.000000 46.781965 21.823561 543.999530 2030.420803 9.220579 0.000000 0.200099
415.000000 100.196000 3.000000 0.000000 2.000000 55.688589 12.387228 738.612865 1693.019230 9.989620 0.000000 0.065890
416.000000 87.802000 4.000000 0.000000 2.000000 60.641651 6.021569 861.467259 1549.789274 11.399112 0.000000 0.034501
417.000000 76.603000 5.000000 0.000000 2.000000 63.631998 1.539506 946.073599 1474.720787 13.064894 0.000000 0.052056
418.000000 67.353000 6.000000 0.000000 2.000000 65.572722 -1.750201 1007.887547 1430.074886 14.858853 0.000000 0.068014
419.000000 59.832000 7.000000 0.000000 2.000000 66.908082 -4.252302 1055.025969 1401.165727 16.726065 0.000000 0.079001
420.000000 53.690000 8.000000 0.000000 2.000000 67.870816 -6.212501 1092.160573 1381.262024 18.639067 0.000000 0.086649
421.000000 48.620000 9.000000 0.000000 2.000000 68.591445 -7.786227 1122.170408 1366.907188 20.582597 0.000000 0.092150
423.000000 56.674000 4.000000 1.000000 2.000000 38.873602 1.320600 950.188297 2276.479089 17.664150 0.000000 0.249731
424.000000 54.928000 5.000000 1.000000 2.000000 45.117160 -2.096383 1014.397878 2013.619497 18.224798 0.000000 0.150289
425.000000 51.545000 6.000000 1.000000 2.000000 49.533435 -4.659411 1062.719925 1862.200862 19.420226 0.000000 0.093094
426.000000 47.857000 7.000000 1.000000 2.000000 52.794007 -6.645718 1100.401882 1763.656927 20.915975 0.000000 0.061936
431.000000 47.298000 12.000000 -10.000000 3.000000 136.178540 20.225292 578.461297 -254.203805 21.131800 0.000000 0.060853
432.000000 54.535000 10.000000 -9.000000 3.000000 136.313157 26.894097 429.104175 -322.444454 18.327376 0.000000 0.107461
433.000000 51.268000 11.000000 -9.000000 3.000000 133.972190 20.875305 564.534629 -170.304252 19.495715 0.000000 0.051373
435.000000 59.845000 9.000000 -8.000000 3.000000 133.666853 27.975815 403.306801 -222.271858 16.701772 0.000000 0.097092
436.000000 55.900000 10.000000 -8.000000 3.000000 131.310381 21.583471 549.224072 -76.217830 17.881134 0.000000 0.039974
437.000000 52.221000 11.000000 -8.000000 3.000000 128.803190 16.409547 658.034474 38.788662 19.141661 0.000000 0.033235
438.000000 48.828000 12.000000 -8.000000 3.000000 126.285883 12.200061 742.295742 132.532767 20.472513 0.000000 0.056281
439.000000 45.721000 13.000000 -8.000000 3.000000 123.838865 8.743179 809.473625 210.942485 21.864698 0.000000 0.077456
441.000000 66.176000 8.000000 -7.000000 3.000000 130.364604 29.165748 374.323569 -106.684483 15.104638 0.000000 0.082709
442.000000 61.339000 9.000000 -7.000000 3.000000 128.041575 22.357711 532.312567 30.395492 16.296258 0.000000 0.028268
443.000000 56.870000 10.000000 -7.000000 3.000000 125.521127 16.885051 648.303499 138.073155 17.577541 0.000000 0.044716
444.000000 52.795000 11.000000 -7.000000 3.000000 122.978056 12.465146 737.078116 225.772537 18.935141 0.000000 0.072471
445.000000 49.107000 12.000000 -7.000000 3.000000 120.509389 8.860875 807.209716 299.115926 20.358236 0.000000 0.093828
446.000000 45.782000 13.000000 -7.000000 3.000000 118.164519 5.887511 864.012914 361.698216 21.837957 0.000000 0.109798
448.000000 73.777000 7.000000 -6.000000 3.000000 126.142742 30.479790 341.525478 28.873764 13.549250 0.000000 0.063260
449.000000 67.755000 8.000000 -6.000000 3.000000 123.941724 23.207399 513.535155 152.848301 14.754064 0.000000 0.024559
450.000000 57.299000 10.000000 -6.000000 3.000000 118.956578 12.751719 731.425519 330.406331 17.447951 0.000000 0.091057
451.000000 52.880000 11.000000 -6.000000 3.000000 116.513810 8.987230 804.777627 397.381622 18.906862 0.000000 0.111431
452.000000 45.460000 13.000000 -6.000000 3.000000 112.046621 3.343319 912.124788 504.386710 21.994912 0.000000 0.136131
454.000000 91.001000 5.000000 -5.000000 3.000000 121.609917 41.656250 17.530024 54.429570 10.985238 0.000000 0.174543
455.000000 82.903000 6.000000 -5.000000 3.000000 120.583687 31.936801 304.106286 191.434771 12.058652 0.000000 0.038353
456.000000 75.303000 7.000000 -5.000000 3.000000 118.667740 24.143692 492.564999 296.121112 13.276372 0.000000 0.038973
457.000000 68.439000 8.000000 -5.000000 3.000000 116.368921 17.969177 625.930813 380.090683 14.608624 0.000000 0.083115
458.000000 62.360000 9.000000 -5.000000 3.000000 113.977042 13.062487 725.281194 449.604297 16.033300 0.000000 0.111102
459.000000 57.027000 10.000000 -5.000000 3.000000 111.643504 9.123235 802.157897 508.447382 17.533635 0.000000 0.129304
460.000000 52.362000 11.000000 -5.000000 3.000000 109.439992 5.919182 863.411617 559.096165 19.096690 0.000000 0.141360
461.000000 48.279000 12.000000 -5.000000 3.000000 107.394769 3.277492 913.365464 603.265323 20.712315 0.000000 0.149408
463.000000 103.833000 4.000000 -4.000000 3.000000 113.033725 44.039341 -65.794435 304.428234 9.628945 0.000000 0.167937
464.000000 93.646000 5.000000 -4.000000 3.000000 112.994954 33.559225 261.015337 392.890294 10.676679 0.000000 0.019771
465.000000 84.002000 6.000000 -4.000000 3.000000 111.673467 25.179955 468.994192 468.355104 11.902938 0.000000 0.063810
466.000000 75.386000 7.000000 -4.000000 3.000000 109.770272 18.590594 612.983654 532.843628 13.263939 0.000000 0.105927
467.000000 67.890000 8.000000 -4.000000 3.000000 107.679126 13.400629 718.578058 588.340946 14.729135 0.000000 0.130651
468.000000 61.438000 9.000000 -4.000000 3.000000 105.601087 9.270038 799.327938 636.494419 16.276565 0.000000 0.145498
469.000000 55.900000 10.000000 -4.000000 3.000000 103.629843 5.936721 863.078589 678.616293 17.890032 0.000000 0.154477
470.000000 51.136000 11.000000 -4.000000 3.000000 101.802764 3.207380 914.686740 715.743367 19.557333 0.000000 0.159827
471.000000 47.022000 12.000000 -4.000000 3.000000 100.128868 0.941104 957.319885 748.697302 21.269095 0.000000 0.162871
472.000000 105.284000 4.000000 -3.000000 3.000000 102.172200 35.373821 210.857357 656.282501 9.498221 0.000000 0.052502
473.000000 93.334000 5.000000 -3.000000 3.000000 102.054278 26.332304 442.306967 684.550610 10.714631 0.000000 0.090793
474.000000 73.509000 7.000000 -3.000000 3.000000 99.518960 13.769899 711.236247 755.183476 13.605471 0.000000 0.145438
475.000000 65.786000 8.000000 -3.000000 3.000000 97.955323 9.428975 796.261387 788.532524 15.203086 0.000000 0.156056
476.000000 53.794000 10.000000 -3.000000 3.000000 94.990363 3.132550 916.096731 846.878235 18.593409 0.000000 0.164157
477.000000 49.128000 11.000000 -3.000000 3.000000 93.668419 0.803436 959.906557 871.988089 20.359975 0.000000 0.164974
478.000000 124.402000 2.000000 -2.000000 3.000000 80.419398 49.673820 -292.947706 1221.723278 8.041260 0.000000 0.296402
479.000000 114.006000 3.000000 -2.000000 3.000000 85.947309 37.412508 151.738532 1037.006866 8.774088 0.000000 0.111923
480.000000 100.988000 4.000000 -2.000000 3.000000 88.265577 27.620291 411.841515 977.782644 9.905126 0.000000 0.110070
481.000000 88.700000 5.000000 -2.000000 3.000000 88.878674 20.034093 582.535497 963.423527 11.277545 0.000000 0.132329
482.000000 78.106000 6.000000 -2.000000 3.000000 88.662985 14.174770 703.159913 966.909072 12.807315 0.000000 0.145889
483.000000 69.251000 7.000000 -2.000000 3.000000 88.075257 9.601613 792.927279 977.683558 14.445353 0.000000 0.152709
484.000000 61.900000 8.000000 -2.000000 3.000000 87.343112 5.975866 862.335246 991.218008 16.161067 0.000000 0.155642
485.000000 55.780000 9.000000 -2.000000 3.000000 86.577342 3.052508 917.604685 1005.462262 17.934398 0.000000 0.156410
486.000000 50.649000 10.000000 -2.000000 3.000000 85.830280 0.657078 962.656330 1019.471416 19.751648 0.000000 0.155987
487.000000 46.309000 11.000000 -2.000000 3.000000 85.125070 -1.335083 1000.083909 1032.821516 21.603141 0.000000 0.154920
489.000000 105.845000 2.000000 -1.000000 3.000000 60.548789 39.713273 81.022006 1731.025987 9.454579 0.000000 0.245774
490.000000 99.244000 3.000000 -1.000000 3.000000 67.704032 29.067797 376.734366 1445.930260 10.082907 0.000000 0.124151
491.000000 88.970000 4.000000 -1.000000 3.000000 71.666415 20.878432 564.467354 1322.714172 11.246874 0.000000 0.104987
492.000000 78.839000 5.000000 -1.000000 3.000000 73.846781 14.620603 694.233023 1263.172099 12.691811 0.000000 0.110704
493.000000 69.961000 6.000000 -1.000000 3.000000 75.049357 9.789801 789.289001 1232.645563 14.302405 0.000000 0.117480
494.000000 62.464000 7.000000 -1.000000 3.000000 75.707746 5.997799 861.918714 1216.698219 16.018852 0.000000 0.122104
495.000000 56.191000 8.000000 -1.000000 3.000000 76.056160 2.966693 919.221177 1208.588653 17.807042 0.000000 0.124907
496.000000 50.931000 9.000000 -1.000000 3.000000 76.223994 0.501181 965.585134 1204.895449 19.646098 0.000000 0.126497
497.000000 46.490000 10.000000 -1.000000 3.000000 76.284779 -1.536494 1003.869777 1203.769676 21.522527 0.000000 0.127319
498.000000 46.153000 5.000000 1.000000 3.000000 41.180486 6.047416 860.976297 2178.171046 21.690459 0.000000 0.217995
502.000000 48.000000 11.000000 -10.000000 4.000000 132.644067 30.437055 342.605869 -208.672942 20.823475 0.000000 0.111624
505.000000 51.956000 10.000000 -9.000000 4.000000 129.917856 31.460314 316.471028 -114.673837 19.238474 0.000000 0.100682
506.000000 49.012000 11.000000 -9.000000 4.000000 128.299399 25.832415 453.947606 -3.354773 20.394801 0.000000 0.043553
507.000000 46.223000 12.000000 -9.000000 4.000000 126.487465 21.058301 560.592301 87.979759 21.626348 0.000000 0.027123
509.000000 56.513000 9.000000 -8.000000 4.000000 126.610856 32.564306 287.625468 -7.807106 17.688196 0.000000 0.086892
510.000000 49.746000 11.000000 -8.000000 4.000000 123.338630 21.631460 548.181178 179.326073 20.095575 0.000000 0.033423
512.000000 66.075000 7.000000 -7.000000 4.000000 123.320474 41.099674 36.099442 2.073879 15.128849 0.000000 0.177260
513.000000 61.759000 8.000000 -7.000000 4.000000 122.528400 33.758051 255.624384 115.365741 16.186652 0.000000 0.070298
514.000000 57.607000 9.000000 -7.000000 4.000000 121.193327 27.510295 414.470831 206.266438 17.353792 0.000000 0.013097
515.000000 53.711000 10.000000 -7.000000 4.000000 119.551573 22.247005 534.742068 281.704704 18.613148 0.000000 0.046580
516.000000 50.111000 11.000000 -7.000000 4.000000 117.764379 17.822743 628.968380 345.825641 19.950993 0.000000 0.077561
517.000000 46.816000 12.000000 -7.000000 4.000000 115.935759 14.093501 704.783339 401.304175 21.356199 0.000000 0.099998
519.000000 67.749000 7.000000 -6.000000 4.000000 117.384508 35.051784 219.920026 259.951726 14.756561 0.000000 0.052894
520.000000 58.132000 9.000000 -6.000000 4.000000 114.923644 22.909656 520.141734 398.031413 17.198929 0.000000 0.063867
521.000000 50.011000 11.000000 -6.000000 4.000000 111.590144 14.382969 698.995583 501.297530 19.993239 0.000000 0.115613
523.000000 80.450000 5.000000 -5.000000 4.000000 110.332175 44.676971 -89.226062 380.135683 12.428168 0.000000 0.169114
524.000000 74.409000 6.000000 -5.000000 4.000000 110.747038 36.457117 179.830078 434.091042 13.437370 0.000000 0.044714
525.000000 68.484000 7.000000 -5.000000 4.000000 110.228770 29.471201 366.775942 485.438912 14.600354 0.000000 0.040759
526.000000 62.946000 8.000000 -5.000000 4.000000 109.164057 23.624837 504.222875 532.734465 15.885393 0.000000 0.083054
527.000000 57.905000 9.000000 -5.000000 4.000000 107.813200 18.755516 609.531753 575.772272 17.268927 0.000000 0.111449
528.000000 53.381000 10.000000 -5.000000 4.000000 106.340100 14.692275 692.794567 614.785082 18.733092 0.000000 0.130274
529.000000 49.349000 11.000000 -5.000000 4.000000 104.843013 11.282437 760.278244 650.145364 20.264098 0.000000 0.142877
530.000000 45.767000 12.000000 -5.000000 4.000000 103.378160 8.399306 816.080008 682.248695 21.851129 0.000000 0.151348
532.000000 81.274000 5.000000 -4.000000 4.000000 101.945672 37.987208 134.493643 652.086102 12.304099 0.000000 0.064078
533.000000 67.894000 7.000000 -4.000000 4.000000 101.847106 24.398800 486.798433 693.086142 14.729518 0.000000 0.101419
534.000000 56.741000 9.000000 -4.000000 4.000000 99.901884 15.023512 686.134393 746.471021 17.625763 0.000000 0.141590
535.000000 48.041000 11.000000 -4.000000 4.000000 97.566585 8.488997 814.358049 796.446821 20.818814 0.000000 0.157811
537.000000 93.104000 3.000000 -3.000000 4.000000 86.315930 48.898558 -258.716610 1046.416727 10.743315 0.000000 0.256648
538.000000 86.831000 4.000000 -3.000000 4.000000 89.924615 39.656943 82.808716 942.839366 11.519148 0.000000 0.111002
539.000000 79.505000 5.000000 -3.000000 4.000000 91.706531 31.787336 307.998572 903.275158 12.580571 0.000000 0.092559
540.000000 72.264000 6.000000 -3.000000 4.000000 92.340984 25.238783 467.644213 892.356881 13.841266 0.000000 0.114288
541.000000 65.605000 7.000000 -3.000000 4.000000 92.299185 19.836933 586.726323 895.060965 15.246518 0.000000 0.132969
542.000000 59.682000 8.000000 -3.000000 4.000000 91.880007 15.379071 678.962101 904.359610 16.759964 0.000000 0.145109
543.000000 54.492000 9.000000 -3.000000 4.000000 91.264202 11.679570 752.510380 916.746084 18.356491 0.000000 0.152486
544.000000 49.970000 10.000000 -3.000000 4.000000 90.558166 8.584269 812.528043 930.395793 20.018203 0.000000 0.156733
545.000000 46.030000 11.000000 -3.000000 4.000000 89.823290 5.970646 862.434393 944.337591 21.731998 0.000000 0.158959
546.000000 86.912000 3.000000 -2.000000 4.000000 73.054374 41.483089 23.341430 1378.748211 11.511731 0.000000 0.195159
547.000000 74.308000 5.000000 -2.000000 4.000000 79.712244 26.153197 446.489182 1158.640545 13.463840 0.000000 0.114997
548.000000 61.342000 7.000000 -2.000000 4.000000 81.726030 15.761704 671.216263 1103.629930 16.309544 0.000000 0.132503
549.000000 51.078000 9.000000 -2.000000 4.000000 82.013430 8.685661 810.579492 1093.757909 19.587362 0.000000 0.141795
552.000000 73.313000 3.000000 -1.000000 4.000000 57.215480 34.554748 233.768234 1782.702038 13.651051 0.000000 0.210994
553.000000 70.164000 4.000000 -1.000000 4.000000 62.653139 27.151859 423.002563 1566.569866 14.263174 0.000000 0.125342
554.000000 65.274000 5.000000 -1.000000 4.000000 66.275183 21.104608 559.593157 1448.025209 15.331133 0.000000 0.095684
555.000000 60.038000 6.000000 -1.000000 4.000000 68.704507 16.174587 662.825215 1377.822680 16.667866 0.000000 0.092049
556.000000 55.054000 7.000000 -1.000000 4.000000 70.356947 12.134261 743.589254 1333.941909 18.176349 0.000000 0.096386
557.000000 50.536000 8.000000 -1.000000 4.000000 71.499172 8.793780 808.500489 1305.424133 19.801242 0.000000 0.101746
558.000000 46.524000 9.000000 -1.000000 4.000000 72.301046 6.003560 861.809290 1286.361849 21.508673 0.000000 0.106340
560.000000 52.809000 5.000000 0.000000 4.000000 51.924676 16.621406 653.704838 1820.941932 18.954074 0.000000 0.116402
561.000000 46.996000 7.000000 0.000000 4.000000 58.498739 8.909318 806.277483 1608.641860 21.297211 0.000000 0.039139
564.000000 45.783000 11.000000 -10.000000 5.000000 126.869558 33.869903 252.580634 -31.185647 21.833497 0.000000 0.103001
566.000000 51.854000 9.000000 -9.000000 5.000000 124.280814 40.772800 46.858973 -27.790672 19.277753 0.000000 0.178911
567.000000 49.180000 10.000000 -9.000000 5.000000 123.641394 34.875151 224.860451 67.999462 20.326321 0.000000 0.090876
568.000000 46.577000 11.000000 -9.000000 5.000000 122.637254 29.679234 361.609478 147.610721 21.462874 0.000000 0.032130
570.000000 56.050000 8.000000 -8.000000 5.000000 120.132736 42.112402 2.070224 98.856604 17.835795 0.000000 0.172486
571.000000 52.972000 9.000000 -8.000000 5.000000 119.761813 35.947020 194.545990 180.775717 18.872318 0.000000 0.077820
572.000000 49.967000 10.000000 -8.000000 5.000000 118.946674 30.517184 340.579328 249.988059 20.007925 0.000000 0.014951
573.000000 47.094000 11.000000 -8.000000 5.000000 117.841121 25.779684 455.169747 309.717190 21.228769 0.000000 0.031625
575.000000 60.679000 7.000000 -7.000000 5.000000 115.012168 43.541712 -47.855346 248.240680 16.476526 0.000000 0.168169
576.000000 57.154000 8.000000 -7.000000 5.000000 115.029498 37.091528 161.255182 310.968690 17.492945 0.000000 0.066509
577.000000 53.686000 9.000000 -7.000000 5.000000 114.496436 31.410974 317.744184 366.374498 18.623255 0.000000 0.007567
578.000000 50.370000 10.000000 -7.000000 5.000000 113.600355 26.462673 439.254659 415.736037 19.849622 0.000000 0.046662
579.000000 47.257000 11.000000 -7.000000 5.000000 112.481099 22.174309 536.335315 460.027458 21.157750 0.000000 0.078429
581.000000 65.603000 6.000000 -6.000000 5.000000 108.575611 45.068084 -103.855209 428.865659 15.241280 0.000000 0.170856
582.000000 61.634000 7.000000 -6.000000 5.000000 109.159678 38.315306 124.527060 464.386322 16.222994 0.000000 0.063827
583.000000 57.666000 8.000000 -6.000000 5.000000 109.048278 32.365894 292.861245 501.037903 17.339562 0.000000 0.029167
584.000000 53.855000 9.000000 -6.000000 5.000000 108.472593 27.190806 422.078176 536.778752 18.566972 0.000000 0.063878
585.000000 50.282000 10.000000 -6.000000 5.000000 107.605205 22.717342 524.393538 570.748044 19.886597 0.000000 0.093422
586.000000 46.983000 11.000000 -6.000000 5.000000 106.568373 18.856433 607.416211 602.629684 21.283759 0.000000 0.114644
588.000000 66.126000 6.000000 -5.000000 5.000000 101.743363 39.625643 83.800286 650.515227 15.122866 0.000000 0.078952
589.000000 61.697000 7.000000 -5.000000 5.000000 102.265945 33.387850 265.642119 660.748529 16.208466 0.000000 0.054337
590.000000 57.385000 8.000000 -5.000000 5.000000 102.179203 27.968451 403.484148 677.987565 17.426758 0.000000 0.081415
591.000000 53.330000 9.000000 -5.000000 5.000000 101.699777 23.295593 511.572591 698.331426 18.752130 0.000000 0.107171
592.000000 46.192000 11.000000 -5.000000 5.000000 100.127612 15.812687 670.182005 741.186170 21.650860 0.000000 0.138985
594.000000 74.007000 4.000000 -4.000000 5.000000 89.526259 48.443770 -239.126293 954.415697 13.514783 0.000000 0.237772
595.000000 69.906000 5.000000 -4.000000 5.000000 92.189217 41.030532 38.384254 886.458114 14.307438 0.000000 0.115222
596.000000 65.268000 6.000000 -4.000000 5.000000 93.670903 34.483432 235.741594 857.228530 15.324006 0.000000 0.082294
597.000000 60.582000 7.000000 -4.000000 5.000000 94.331363 28.800518 383.289539 847.973334 16.509580 0.000000 0.097159
598.000000 56.109000 8.000000 -4.000000 5.000000 94.446691 23.912473 497.771676 849.442572 17.825850 0.000000 0.117118
599.000000 51.972000 9.000000 -4.000000 5.000000 94.214058 19.721119 589.183209 856.755094 19.245269 0.000000 0.132485
600.000000 48.209000 10.000000 -4.000000 5.000000 93.768301 16.123782 663.859603 867.207998 20.747525 0.000000 0.143249
602.000000 74.000000 3.000000 -3.000000 5.000000 75.155260 50.309951 -321.860948 1387.685293 13.519271 0.000000 0.337632
603.000000 71.327000 4.000000 -3.000000 5.000000 79.654786 42.538705 -12.580383 1207.650099 14.025365 0.000000 0.177166
604.000000 67.241000 5.000000 -3.000000 5.000000 82.586922 35.660000 202.742919 1113.354010 14.877460 0.000000 0.115938
605.000000 62.636000 6.000000 -3.000000 5.000000 84.388504 29.692536 361.278388 1062.733735 15.970989 0.000000 0.109176
606.000000 58.027000 7.000000 -3.000000 5.000000 85.412378 24.571829 482.873973 1035.962284 17.239663 0.000000 0.119357
607.000000 53.670000 8.000000 -3.000000 5.000000 85.917160 20.195661 579.093346 1022.858468 18.639427 0.000000 0.130257
608.000000 49.672000 9.000000 -3.000000 5.000000 86.082598 16.453859 657.129698 1017.849941 20.139858 0.000000 0.138582
609.000000 46.060000 10.000000 -3.000000 5.000000 86.030111 13.243649 721.692261 1017.734215 21.719270 0.000000 0.144352
612.000000 67.006000 3.000000 -2.000000 5.000000 63.019522 44.159648 -70.176617 1704.780854 14.933787 0.000000 0.292452
613.000000 65.285000 4.000000 -2.000000 5.000000 68.099485 36.925767 166.138262 1482.244544 15.326861 0.000000 0.173191
614.000000 61.937000 5.000000 -2.000000 5.000000 71.621798 30.650744 337.194050 1356.650959 16.154990 0.000000 0.124098
615.000000 57.948000 6.000000 -2.000000 5.000000 74.019646 25.278009 466.743325 1281.861762 17.266745 0.000000 0.111754
616.000000 53.870000 7.000000 -2.000000 5.000000 75.632160 20.702026 568.258788 1235.731928 18.573667 0.000000 0.113627
617.000000 49.976000 8.000000 -2.000000 5.000000 76.704252 16.804684 649.951579 1206.686766 20.020618 0.000000 0.118768
618.000000 46.383000 9.000000 -2.000000 5.000000 77.406049 13.474492 717.111336 1188.267307 21.571442 0.000000 0.123643
621.000000 55.591000 4.000000 -1.000000 5.000000 55.137741 31.682192 310.729144 1822.083832 18.003460 0.000000 0.198455
622.000000 53.865000 5.000000 -1.000000 5.000000 59.552112 26.035947 449.220066 1645.123154 18.579811 0.000000 0.128990
623.000000 51.166000 6.000000 -1.000000 5.000000 62.791315 21.243439 556.593932 1534.687844 19.559391 0.000000 0.094887
624.000000 48.121000 7.000000 -1.000000 5.000000 65.183355 17.178250 642.278928 1461.935933 20.796650 0.000000 0.082822
629.000000 46.304000 10.000000 -9.000000 6.000000 117.589660 37.508081 148.889149 232.001122 21.590897 0.000000 0.085237
631.000000 49.363000 9.000000 -8.000000 6.000000 113.233412 38.527473 118.033935 350.385420 20.254115 0.000000 0.078224
633.000000 55.358000 7.000000 -7.000000 6.000000 107.342716 45.332459 -113.857712 462.888114 18.062329 0.000000 0.172549
634.000000 52.561000 8.000000 -7.000000 6.000000 107.985128 39.605721 84.430895 487.498060 19.023489 0.000000 0.078641
635.000000 49.735000 9.000000 -7.000000 6.000000 108.093501 34.440638 236.924104 514.606501 20.104623 0.000000 0.031233
636.000000 46.974000 10.000000 -7.000000 6.000000 107.815565 29.830297 357.844439 542.288951 21.286943 0.000000 0.049205
638.000000 55.715000 7.000000 -6.000000 6.000000 101.577820 40.747240 47.695860 649.951474 17.948511 0.000000 0.091818
640.000000 61.307000 5.000000 -5.000000 6.000000 91.542095 48.144813 -226.438677 897.575424 16.314017 0.000000 0.226932
641.000000 58.436000 6.000000 -5.000000 6.000000 93.647649 41.956775 7.369545 848.734254 17.115089 0.000000 0.120889
642.000000 55.254000 7.000000 -5.000000 6.000000 94.926347 36.362932 182.561715 825.798042 18.100664 0.000000 0.079038
643.000000 52.002000 8.000000 -5.000000 6.000000 95.590591 31.372919 318.725230 817.606338 19.232681 0.000000 0.083997
644.000000 48.829000 9.000000 -5.000000 6.000000 95.813795 26.957964 427.594952 818.052665 20.482874 0.000000 0.102223
645.000000 45.817000 10.000000 -5.000000 6.000000 95.729662 23.068094 516.629819 823.623316 21.829812 0.000000 0.118918
647.000000 59.947000 5.000000 -4.000000 6.000000 83.704513 43.239413 -37.101748 1103.990509 16.686616 0.000000 0.169030
648.000000 53.768000 7.000000 -4.000000 6.000000 87.397314 32.214217 296.848300 998.826569 18.604072 0.000000 0.101186
649.000000 47.329000 9.000000 -4.000000 6.000000 88.717890 23.580603 505.212445 967.282970 21.135043 0.000000 0.122063
651.000000 58.797000 4.000000 -3.000000 6.000000 71.115488 44.600577 -86.391712 1458.082968 17.016738 0.000000 0.247608
652.000000 56.830000 5.000000 -3.000000 6.000000 74.702415 38.527494 118.033308 1317.311531 17.605194 0.000000 0.158816
653.000000 51.084000 7.000000 -3.000000 6.000000 79.045698 28.322414 394.932021 1177.648430 19.584837 0.000000 0.113809
654.000000 48.004000 8.000000 -3.000000 6.000000 80.257790 24.122695 493.038594 1143.471928 20.841419 0.000000 0.117586
656.000000 51.713000 5.000000 -2.000000 6.000000 64.642203 34.057192 247.466155 1556.695658 19.350853 0.000000 0.164782
657.000000 47.117000 7.000000 -2.000000 6.000000 69.979270 24.696899 480.030507 1372.664118 21.237632 0.000000 0.108127
662.000000 49.822000 7.000000 -8.000000 7.000000 105.241626 50.880730 -348.470097 476.195104 20.069662 0.000000 0.300010
663.000000 47.869000 8.000000 -8.000000 7.000000 106.429940 45.523102 -121.128734 487.999600 20.888339 0.000000 0.174053
664.000000 45.797000 9.000000 -8.000000 7.000000 107.083056 40.553220 54.027481 505.672376 21.833564 0.000000 0.090400
667.000000 48.128000 8.000000 -7.000000 7.000000 101.443556 41.562661 20.674807 649.818940 20.778257 0.000000 0.102363
668.000000 45.877000 9.000000 -7.000000 7.000000 102.058777 36.849256 168.384983 653.668036 21.797869 0.000000 0.057022
671.000000 52.289000 6.000000 -6.000000 7.000000 92.924640 47.933321 -217.551951 858.929579 19.127136 0.000000 0.219963
672.000000 50.174000 7.000000 -6.000000 7.000000 94.664176 42.623285 -15.510899 821.664012 19.933073 0.000000 0.126523
673.000000 47.862000 8.000000 -6.000000 7.000000 95.792536 37.745307 141.784933 802.921268 20.896030 0.000000 0.080444
674.000000 45.485000 9.000000 -6.000000 7.000000 96.445010 33.310739 267.717984 795.515588 21.988053 0.000000 0.075340
677.000000 53.329000 5.000000 -5.000000 7.000000 83.876359 49.228141 -273.137755 1117.819660 18.756812 0.000000 0.272296
678.000000 51.523000 6.000000 -5.000000 7.000000 86.435252 43.738303 -54.906610 1033.801960 19.413986 0.000000 0.165312
679.000000 49.330000 7.000000 -5.000000 7.000000 88.250884 38.687966 113.096763 983.107040 20.276903 0.000000 0.110477
680.000000 46.953000 8.000000 -5.000000 7.000000 89.478466 34.095280 246.423302 952.830879 21.303123 0.000000 0.094804
683.000000 51.459000 5.000000 -4.000000 7.000000 76.367741 44.911094 -97.959287 1309.572951 19.441555 0.000000 0.224562
684.000000 49.736000 6.000000 -4.000000 7.000000 79.098538 39.680416 82.064548 1210.341583 20.114684 0.000000 0.150788
685.000000 47.609000 7.000000 -4.000000 7.000000 81.099609 34.921190 223.574798 1146.564642 21.012936 0.000000 0.117799
688.000000 48.827000 4.000000 -3.000000 7.000000 64.004937 46.145207 -145.202908 1698.511449 20.493138 0.000000 0.320352
689.000000 48.190000 5.000000 -3.000000 7.000000 67.931742 40.726062 48.388765 1516.774204 20.763671 0.000000 0.212758
690.000000 46.772000 6.000000 -3.000000 7.000000 70.960385 35.791459 198.995966 1398.905412 21.392759 0.000000 0.152715
691.000000 45.503000 7.000000 -8.000000 8.000000 98.825691 51.515564 -378.842058 672.459384 21.977196 0.000000 0.306977
694.000000 45.567000 7.000000 -7.000000 8.000000 93.931504 47.775811 -210.980643 830.932590 21.948189 0.000000 0.215130
698.000000 46.459000 5.000000 -5.000000 8.000000 77.190017 50.069719 -310.851941 1322.278156 21.532773 0.000000 0.321024
#UB matrix in q= (UB) B0 G* 
#[[-0.594693489  0.79721188   0.096194638]
# [-0.298207378 -0.330511681  0.89562211 ]
# [ 0.746600304  0.504548441  0.434785845]]
#B0 matrix in q= UB (B0) G*
#[[ 0.19670273 -0.          0.03056101]
# [ 0.          0.19187965 -0.        ]
# [ 0.          0.          0.18806537]]
#UBB0 matrix in q= (UB B0) G* i.e. recip. basis vectors are columns in LT frame: astar = UBB0[:,0], bstar = UBB0[:,1], cstar = UBB0[:,2]. (abcstar as columns on xyzlab1, xlab1 = ui, ui = unit vector along incident beam)
#[[-1.1697783e-01  1.5296874e-01 -8.3550000e-05]
# [-5.8658210e-02 -6.3418470e-02  1.5932199e-01]
# [ 1.4685832e-01  9.6812580e-02  1.0458502e-01]]
#Euler angles phi theta psi (deg)
#[124.014  64.251   6.14 ]
#deviatoric strain in direct crystal frame (10-3 unit)
#[[ 1.35 -0.57 -0.23]
# [-0.57  1.62 -0.22]
# [-0.23 -0.22 -2.97]]
#deviatoric strain in sample2 frame (10-3 unit)
#[[ 0.88 -1.42 -1.07]
# [-1.42 -1.95 -1.01]
# [-1.08 -1.01  1.07]]
#new lattice parameters
#[ 5.1505     5.2130461  5.3159079 90.002526  99.2461072 90.0652334]
#CCDLabel
#sCMOS
#DetectorParameters
#[79.0, 975.0, 941.0, 0.0, 0.0]
#pixelsize
#0.0734
#Frame dimensions
#[2018, 2016]
#
