#Strain and Orientation Refinement from experimental file: /home/micha/LaueProjects/DepthEffects/testZrO2_123.cor
#File created at Wed Jun 28 14:25:50 2023 with indexingSpotsSet.py
#Number of indexed spots: 507
#Element
#ZrO2
#grainIndex
#G_0
#Mean Deviation(pixel): 0.114
##spot_index intensity h k l 2theta Chi Xexp Yexp Energy GrainIndex PixDev
5.000000 47.794000 -3.000000 0.000000 -2.000000 83.889662 -51.140568 2310.800336 1124.641897 6.977817 0.000000 0.304461
8.000000 45.609000 -11.000000 1.000000 -6.000000 95.167392 -48.082180 2173.799268 795.306063 21.932674 0.000000 0.207444
9.000000 48.449000 -10.000000 1.000000 -6.000000 94.042778 -50.956253 2302.039725 820.238388 20.646886 0.000000 0.276210
12.000000 47.875000 -11.000000 2.000000 -6.000000 102.741388 -50.768038 2293.165147 556.201111 20.891699 0.000000 0.274948
18.000000 47.025000 -9.000000 -1.000000 -5.000000 77.585309 -43.724053 2004.393952 1268.847646 21.278835 0.000000 0.194314
19.000000 49.657000 -8.000000 -1.000000 -5.000000 74.888878 -46.473329 2108.120662 1363.003678 20.151755 0.000000 0.248225
20.000000 52.206000 -7.000000 -1.000000 -5.000000 71.520011 -49.616566 2240.382577 1496.186390 19.168378 0.000000 0.329487
24.000000 45.484000 -12.000000 1.000000 -5.000000 98.662666 -40.771278 1903.091155 724.476005 21.992180 0.000000 0.090538
25.000000 48.620000 -11.000000 1.000000 -5.000000 98.174762 -43.197586 1985.622280 728.910828 20.573486 0.000000 0.119556
26.000000 52.117000 -10.000000 1.000000 -5.000000 97.485364 -45.969929 2088.365384 737.532583 19.192940 0.000000 0.164135
27.000000 56.005000 -9.000000 1.000000 -5.000000 96.515634 -49.151825 2219.781426 753.056487 17.860933 0.000000 0.229978
30.000000 47.623000 -12.000000 2.000000 -5.000000 106.298996 -42.926332 1976.076529 511.203330 21.001534 0.000000 0.114797
31.000000 51.022000 -11.000000 2.000000 -5.000000 106.258682 -45.709839 2078.298710 491.491826 19.601951 0.000000 0.164530
32.000000 54.829000 -10.000000 2.000000 -5.000000 106.051365 -48.910964 2209.256015 469.830969 18.240869 0.000000 0.234502
35.000000 46.049000 -13.000000 3.000000 -5.000000 113.259421 -42.649527 1966.421732 312.019975 21.716447 0.000000 0.131005
36.000000 49.212000 -12.000000 3.000000 -5.000000 113.694448 -45.443919 2068.102778 267.780185 20.320553 0.000000 0.185856
39.000000 47.056000 -13.000000 4.000000 -5.000000 120.026270 -45.171982 2057.775081 58.626091 21.249737 0.000000 0.217781
43.000000 46.721000 -4.000000 -1.000000 -2.000000 66.550390 -38.602635 1834.275483 1538.397149 10.710815 0.000000 0.192042
44.000000 48.705000 -7.000000 -2.000000 -4.000000 62.593472 -41.144691 1915.390742 1682.057376 20.550187 0.000000 0.243895
48.000000 47.388000 -10.000000 -1.000000 -4.000000 81.793609 -36.078219 1759.220732 1133.051808 21.115320 0.000000 0.121231
49.000000 50.644000 -9.000000 -1.000000 -4.000000 79.906474 -38.274030 1824.214180 1185.048120 19.758195 0.000000 0.135960
50.000000 54.167000 -8.000000 -1.000000 -4.000000 77.545905 -40.818342 1904.633734 1255.096988 18.473551 0.000000 0.163199
51.000000 57.869000 -7.000000 -1.000000 -4.000000 74.543131 -43.788402 2006.710970 1353.259787 17.292354 0.000000 0.209696
52.000000 61.523000 -6.000000 -1.000000 -4.000000 70.654743 -47.280094 2140.556186 1497.985906 16.266144 0.000000 0.286670
56.000000 48.284000 -11.000000 0.000000 -4.000000 92.155656 -35.745916 1749.704526 891.083688 20.719387 0.000000 0.091474
57.000000 51.947000 -5.000000 0.000000 -2.000000 91.292956 -37.938745 1814.041761 910.198536 9.629197 0.000000 0.097046
58.000000 56.094000 -9.000000 0.000000 -4.000000 90.167248 -40.484655 1893.743741 936.869271 17.835129 0.000000 0.113553
59.000000 60.772000 -4.000000 0.000000 -2.000000 88.674408 -43.463444 1995.060822 975.313959 8.231152 0.000000 0.147034
60.000000 65.998000 -7.000000 0.000000 -4.000000 86.659640 -46.974759 2128.165364 1033.067367 15.159060 0.000000 0.205695
62.000000 47.865000 -12.000000 1.000000 -4.000000 101.029573 -35.407439 1740.092880 683.609262 20.897606 0.000000 0.061136
63.000000 51.538000 -11.000000 1.000000 -4.000000 100.934991 -37.596598 1803.756378 678.553225 19.408234 0.000000 0.063558
64.000000 55.737000 -10.000000 1.000000 -4.000000 100.721055 -40.143403 1882.718284 674.426590 17.945749 0.000000 0.080328
65.000000 60.556000 -9.000000 1.000000 -4.000000 100.326307 -43.130285 1983.245964 672.287909 16.517626 0.000000 0.116121
66.000000 66.091000 -8.000000 1.000000 -4.000000 99.655730 -46.660809 2115.571653 674.186224 15.134401 0.000000 0.176142
67.000000 72.422000 -7.000000 1.000000 -4.000000 98.560697 -50.862640 2297.616821 684.308312 13.811401 0.000000 0.272664
69.000000 46.641000 -13.000000 2.000000 -4.000000 108.627647 -35.062641 1730.384349 497.774033 21.443025 0.000000 0.032702
70.000000 50.112000 -6.000000 1.000000 -2.000000 109.095286 -37.247401 1793.356136 472.925444 9.978795 0.000000 0.044476
71.000000 54.071000 -11.000000 2.000000 -4.000000 109.535554 -39.794351 1871.554819 443.974873 18.495913 0.000000 0.074320
72.000000 58.609000 -5.000000 1.000000 -2.000000 109.912112 -42.788633 1971.262877 409.743387 8.531811 0.000000 0.120800
73.000000 63.828000 -9.000000 2.000000 -4.000000 110.165028 -46.337895 2102.770031 368.504148 15.668268 0.000000 0.189153
75.000000 48.146000 -13.000000 3.000000 -4.000000 116.024133 -36.890960 1782.839101 283.937435 20.770133 0.000000 0.057935
76.000000 51.743000 -12.000000 3.000000 -4.000000 116.925112 -39.437255 1860.250738 233.225968 19.325993 0.000000 0.097650
77.000000 55.833000 -11.000000 3.000000 -4.000000 117.832067 -42.438186 1959.107943 171.039026 17.909845 0.000000 0.151338
78.000000 60.500000 -10.000000 3.000000 -4.000000 118.704171 -46.005650 2089.755303 92.502427 16.527888 0.000000 0.226627
80.000000 45.941000 -7.000000 2.000000 -2.000000 121.939329 -36.527077 1772.203296 106.032398 10.882615 0.000000 0.088751
81.000000 49.146000 -13.000000 4.000000 -4.000000 123.160026 -39.071863 1848.803368 35.184564 20.345308 0.000000 0.132521
82.000000 52.754000 -6.000000 2.000000 -2.000000 124.426011 -42.078626 1946.777439 -52.864544 9.476560 0.000000 0.190678
85.000000 46.506000 -14.000000 5.000000 -4.000000 128.461177 -38.697914 1837.209967 -154.431565 21.498531 0.000000 0.168323
89.000000 47.263000 -9.000000 -2.000000 -3.000000 71.037813 -30.634654 1612.397614 1370.787174 21.175563 0.000000 0.126843
90.000000 50.135000 -8.000000 -2.000000 -3.000000 68.011318 -32.502760 1660.747962 1456.320797 19.963335 0.000000 0.140929
91.000000 52.962000 -7.000000 -2.000000 -3.000000 64.230927 -34.701300 1720.297617 1572.997040 18.898450 0.000000 0.169042
92.000000 55.391000 -6.000000 -2.000000 -3.000000 59.415271 -37.317878 1795.447369 1740.879332 18.070882 0.000000 0.220394
93.000000 56.675000 -5.000000 -2.000000 -3.000000 53.149508 -40.469486 1893.251268 2001.334438 17.662591 0.000000 0.311344
96.000000 46.598000 -11.000000 -1.000000 -3.000000 84.726027 -28.648619 1563.000021 1054.211439 21.472400 0.000000 0.118316
97.000000 50.093000 -10.000000 -1.000000 -3.000000 83.440117 -30.237051 1602.350348 1084.258269 19.974730 0.000000 0.116324
98.000000 54.055000 -9.000000 -1.000000 -3.000000 81.849739 -32.090650 1649.913410 1122.941911 18.511202 0.000000 0.116557
99.000000 58.535000 -8.000000 -1.000000 -3.000000 79.845166 -34.276804 1708.559870 1174.297801 17.094958 0.000000 0.121813
100.000000 63.548000 -7.000000 -1.000000 -3.000000 77.262958 -36.885362 1782.674699 1245.167406 15.746871 0.000000 0.137285
101.000000 69.005000 -6.000000 -1.000000 -3.000000 73.853026 -40.037131 1879.307392 1348.002674 14.502223 0.000000 0.171711
102.000000 74.542000 -5.000000 -1.000000 -3.000000 69.222847 -43.894948 2010.558344 1507.677582 13.425724 0.000000 0.239792
105.000000 46.403000 -13.000000 1.000000 -3.000000 102.694404 -27.865095 1544.029251 666.758971 21.555857 0.000000 0.090819
106.000000 50.025000 -12.000000 1.000000 -3.000000 102.983417 -29.420092 1581.958026 656.106570 19.994721 0.000000 0.080851
107.000000 54.221000 -11.000000 1.000000 -3.000000 103.267668 -31.241358 1627.889305 644.173202 18.447388 0.000000 0.069219
108.000000 59.124000 -10.000000 1.000000 -3.000000 103.529667 -33.398854 1684.654420 630.786046 16.917439 0.000000 0.057095
109.000000 64.907000 -9.000000 1.000000 -3.000000 103.738354 -35.986945 1756.598941 615.800246 15.409814 0.000000 0.050695
110.000000 71.794000 -8.000000 1.000000 -3.000000 103.838431 -39.134306 1850.751211 599.193177 13.931515 0.000000 0.065820
111.000000 80.061000 -7.000000 1.000000 -3.000000 103.730403 -43.017359 1979.270471 581.322154 12.492821 0.000000 0.113739
112.000000 90.030000 -6.000000 1.000000 -3.000000 103.232548 -47.876440 2165.174300 563.669244 11.109447 0.000000 0.204339
113.000000 48.490000 -13.000000 2.000000 -3.000000 110.604841 -29.000422 1571.610012 478.332786 20.625101 0.000000 0.052937
114.000000 52.374000 -12.000000 2.000000 -3.000000 111.448509 -30.803758 1616.695852 448.703231 19.095203 0.000000 0.035880
115.000000 56.877000 -11.000000 2.000000 -3.000000 112.360069 -32.944840 1672.481436 413.423618 17.582849 0.000000 0.019253
116.000000 62.144000 -10.000000 2.000000 -3.000000 113.333085 -35.520290 1743.288460 370.589770 16.092269 0.000000 0.031760
117.000000 68.358000 -9.000000 2.000000 -3.000000 114.347259 -38.662818 1836.128140 317.265132 14.629170 0.000000 0.073867
118.000000 75.749000 -8.000000 2.000000 -3.000000 115.354777 -42.555998 1963.178910 248.616234 13.201447 0.000000 0.139481
120.000000 46.535000 -14.000000 3.000000 -3.000000 117.103998 -28.573076 1561.158743 313.742585 21.489304 0.000000 0.023185
121.000000 50.031000 -13.000000 3.000000 -3.000000 118.336837 -30.357238 1605.378795 268.356987 19.987143 0.000000 0.001832
122.000000 54.040000 -4.000000 1.000000 -1.000000 119.686959 -32.480415 1660.157982 213.639970 6.167997 0.000000 0.027628
123.000000 58.668000 -11.000000 3.000000 -3.000000 121.158789 -35.041478 1729.791140 146.154174 17.043825 0.000000 0.065186
124.000000 64.047000 -10.000000 3.000000 -3.000000 122.747086 -38.177227 1821.267613 60.430040 15.611824 0.000000 0.116612
126.000000 47.506000 -14.000000 4.000000 -3.000000 124.175862 -29.901577 1593.936075 97.995646 21.047483 0.000000 0.035016
127.000000 51.021000 -13.000000 4.000000 -3.000000 125.816106 -32.005281 1647.681251 25.070020 19.596927 0.000000 0.065812
128.000000 55.024000 -12.000000 4.000000 -3.000000 127.605990 -34.550099 1716.103022 -65.564619 18.170711 0.000000 0.106847
129.000000 59.605000 -11.000000 4.000000 -3.000000 129.545534 -37.676966 1806.163798 -181.805462 16.773636 0.000000 0.162582
132.000000 48.041000 -14.000000 5.000000 -3.000000 130.990225 -31.519129 1635.048366 -156.153883 20.810836 0.000000 0.101116
139.000000 46.352000 -5.000000 -1.000000 -1.000000 74.145126 -23.098229 1434.039098 1273.314684 10.795590 0.000000 0.117020
140.000000 49.564000 -9.000000 -2.000000 -2.000000 71.801271 -24.287357 1460.679615 1329.199006 20.192875 0.000000 0.113892
141.000000 53.043000 -4.000000 -1.000000 -1.000000 68.912689 -25.690343 1492.762047 1401.559866 9.434601 0.000000 0.113731
142.000000 56.679000 -7.000000 -2.000000 -2.000000 65.278152 -27.368334 1532.143522 1498.993869 17.659533 0.000000 0.121352
143.000000 60.167000 -3.000000 -1.000000 -1.000000 60.592356 -29.407030 1581.634658 1637.375330 8.318421 0.000000 0.146162
144.000000 62.750000 -5.000000 -2.000000 -2.000000 54.377535 -31.929435 1645.701602 1849.671400 15.953282 0.000000 0.204180
147.000000 48.414000 -11.000000 -1.000000 -2.000000 85.623861 -22.653380 1424.195012 1030.251027 20.667334 0.000000 0.133080
148.000000 52.378000 -10.000000 -1.000000 -2.000000 84.535517 -23.815371 1450.047286 1053.545078 19.103609 0.000000 0.129601
149.000000 56.985000 -9.000000 -1.000000 -2.000000 83.193621 -25.188793 1481.208528 1082.960877 17.559511 0.000000 0.125803
150.000000 62.374000 -8.000000 -1.000000 -2.000000 81.503491 -26.835016 1519.501229 1121.190969 16.042820 0.000000 0.122096
151.000000 68.699000 -7.000000 -1.000000 -2.000000 79.319737 -28.840539 1567.689842 1172.725942 14.566050 0.000000 0.119767
152.000000 76.096000 -6.000000 -1.000000 -2.000000 76.409680 -31.330403 1630.179668 1245.607452 13.150708 0.000000 0.122476
153.000000 84.545000 -5.000000 -1.000000 -2.000000 72.382998 -34.490230 1714.446389 1355.660000 11.837122 0.000000 0.139623
154.000000 48.708000 -12.000000 0.000000 -2.000000 95.444391 -22.201650 1414.263723 830.204434 20.538824 0.000000 0.132543
155.000000 52.838000 -11.000000 0.000000 -2.000000 95.297615 -23.335305 1439.311958 832.309802 18.933517 0.000000 0.128331
156.000000 57.705000 -10.000000 0.000000 -2.000000 95.094308 -24.677652 1469.531533 835.407413 17.336346 0.000000 0.123158
157.000000 63.518000 -9.000000 0.000000 -2.000000 94.807424 -26.290181 1506.708270 840.037258 15.749892 0.000000 0.116761
158.000000 70.560000 -8.000000 0.000000 -2.000000 94.393054 -28.260055 1553.557219 847.125843 14.177959 0.000000 0.108911
159.000000 79.231000 -7.000000 0.000000 -2.000000 93.776853 -30.714193 1614.417427 858.356586 12.626395 0.000000 0.099828
160.000000 90.089000 -6.000000 0.000000 -2.000000 92.826568 -33.842747 1696.679673 877.019961 11.104668 0.000000 0.092004
161.000000 47.876000 -13.000000 1.000000 -2.000000 103.824133 -21.742936 1404.244067 655.870570 20.892276 0.000000 0.119393
162.000000 51.844000 -12.000000 1.000000 -2.000000 104.360452 -22.847019 1428.472127 641.987244 19.293273 0.000000 0.112786
163.000000 56.502000 -11.000000 1.000000 -2.000000 104.962008 -24.156726 1457.729071 625.767509 17.702184 0.000000 0.104433
164.000000 62.043000 -10.000000 1.000000 -2.000000 105.637713 -25.733552 1493.761936 606.560724 16.121107 0.000000 0.093649
165.000000 68.727000 -9.000000 1.000000 -2.000000 106.395417 -27.665178 1539.232970 583.445882 14.552946 0.000000 0.079428
166.000000 76.925000 -8.000000 1.000000 -2.000000 107.238120 -30.080204 1598.409256 555.071332 13.001853 0.000000 0.060492
167.000000 87.166000 -7.000000 1.000000 -2.000000 108.154514 -33.173130 1678.586564 519.360671 11.473972 0.000000 0.037943
168.000000 46.388000 -7.000000 1.000000 -1.000000 110.984939 -21.277134 1394.134858 497.975646 10.779918 0.000000 0.098799
169.000000 50.039000 -13.000000 2.000000 -2.000000 112.005518 -22.350373 1417.526261 470.697155 19.986216 0.000000 0.089174
170.000000 54.284000 -6.000000 1.000000 -1.000000 113.160777 -23.625819 1445.799111 438.448854 9.211518 0.000000 0.077059
171.000000 59.270000 -11.000000 2.000000 -2.000000 114.475727 -25.164853 1480.659454 399.676983 16.872662 0.000000 0.061475
172.000000 65.198000 -5.000000 1.000000 -1.000000 115.979870 -27.055499 1524.713171 352.076135 7.669121 0.000000 0.040881
173.000000 72.337000 -9.000000 2.000000 -2.000000 117.706237 -29.427819 1582.149353 292.053280 13.824040 0.000000 0.012777
174.000000 47.841000 -14.000000 3.000000 -2.000000 118.485728 -21.845226 1406.472795 311.784525 20.902298 0.000000 0.062495
175.000000 51.612000 -13.000000 3.000000 -2.000000 120.013568 -23.084737 1433.739574 265.142709 19.374357 0.000000 0.047533
176.000000 55.980000 -12.000000 3.000000 -2.000000 121.742125 -24.583802 1467.397979 208.802500 17.862294 0.000000 0.029742
177.000000 61.083000 -11.000000 3.000000 -2.000000 123.707123 -26.430601 1509.993790 139.198657 16.369488 0.000000 0.016539
178.000000 67.103000 -10.000000 3.000000 -2.000000 125.949076 -28.756402 1565.631733 50.687491 14.900348 0.000000 0.038756
179.000000 74.276000 -9.000000 3.000000 -2.000000 128.509594 -31.763602 1641.384510 -66.280584 13.460742 0.000000 0.084001
180.000000 82.909000 -8.000000 3.000000 -2.000000 131.419520 -35.776156 1750.567232 -229.374123 12.058652 0.000000 0.152779
181.000000 45.501000 -15.000000 4.000000 -2.000000 124.013954 -21.331441 1395.310134 161.228098 21.975126 0.000000 0.037816
182.000000 48.813000 -7.000000 2.000000 -1.000000 125.786486 -22.533282 1421.548337 101.010700 10.241881 0.000000 0.025714
183.000000 52.593000 -13.000000 4.000000 -2.000000 127.774772 -23.990115 1453.974602 28.033300 19.010824 0.000000 0.025983
184.000000 56.937000 -6.000000 2.000000 -1.000000 130.013768 -25.790062 1495.070683 -62.514787 8.779885 0.000000 0.047070
185.000000 61.963000 -11.000000 4.000000 -2.000000 132.542179 -28.065300 1548.850221 -178.319148 16.134982 0.000000 0.082058
188.000000 46.060000 -15.000000 5.000000 -2.000000 130.691452 -21.971260 1409.223232 -56.959968 21.706305 0.000000 0.032674
189.000000 49.321000 -14.000000 5.000000 -2.000000 132.835487 -23.383507 1440.386338 -146.190524 20.270680 0.000000 0.051694
190.000000 53.011000 -13.000000 5.000000 -2.000000 135.227274 -25.133453 1479.939592 -257.323023 18.858810 0.000000 0.079702
194.000000 46.258000 -15.000000 6.000000 -2.000000 137.124582 -22.763693 1426.630132 -316.148725 21.611557 0.000000 0.076903
200.000000 45.800000 -7.000000 -3.000000 -1.000000 51.568758 -18.835847 1342.152050 1843.338839 21.859670 0.000000 0.134474
201.000000 45.853000 -6.000000 -3.000000 -1.000000 45.258935 -19.865792 1363.886451 2075.098732 21.835833 0.000000 0.214746
202.000000 47.625000 -10.000000 -2.000000 -1.000000 74.175579 -16.770088 1299.339380 1259.606369 21.014763 0.000000 0.118190
203.000000 51.155000 -9.000000 -2.000000 -1.000000 71.873084 -17.448692 1313.294952 1310.341872 19.565391 0.000000 0.110192
204.000000 55.063000 -8.000000 -2.000000 -1.000000 69.029643 -18.257097 1330.056454 1375.378371 18.177454 0.000000 0.101028
205.000000 59.282000 -7.000000 -2.000000 -1.000000 65.436945 -19.236046 1350.564718 1462.015425 16.884702 0.000000 0.092847
206.000000 63.553000 -6.000000 -2.000000 -1.000000 60.769750 -20.445063 1376.234113 1583.755217 15.751152 0.000000 0.094596
207.000000 67.122000 -5.000000 -2.000000 -1.000000 54.497058 -21.974471 1409.293367 1768.946372 14.914817 0.000000 0.129251
208.000000 67.933000 -4.000000 -2.000000 -1.000000 45.709104 -23.967699 1453.470214 2090.055535 14.738061 0.000000 0.232131
210.000000 46.028000 -12.000000 -1.000000 -1.000000 86.702383 -15.722566 1277.990122 1005.424258 21.738561 0.000000 0.149600
211.000000 49.716000 -11.000000 -1.000000 -1.000000 85.885392 -16.266059 1289.038493 1021.654022 20.126238 0.000000 0.147491
212.000000 54.025000 -10.000000 -1.000000 -1.000000 84.903496 -16.905445 1302.114937 1041.326005 18.521515 0.000000 0.144877
213.000000 59.115000 -9.000000 -1.000000 -1.000000 83.701974 -17.668349 1317.834308 1065.667106 16.927122 0.000000 0.141585
214.000000 65.201000 -8.000000 -1.000000 -1.000000 82.199336 -18.594017 1337.087936 1096.567008 15.347283 0.000000 0.137373
215.000000 72.573000 -7.000000 -1.000000 -1.000000 80.269047 -19.740077 1361.218722 1137.096553 13.788877 0.000000 0.131926
216.000000 81.600000 -6.000000 -1.000000 -1.000000 77.704318 -21.194518 1392.348574 1192.604034 12.263940 0.000000 0.124971
217.000000 48.968000 -13.000000 1.000000 -1.000000 104.311507 -15.236813 1268.165396 656.422294 20.426751 0.000000 0.142770
218.000000 53.193000 -12.000000 1.000000 -1.000000 104.999158 -15.793719 1279.433144 641.310858 18.803681 0.000000 0.139490
219.000000 58.204000 -11.000000 1.000000 -1.000000 105.801603 -16.460323 1293.002334 623.390017 17.184701 0.000000 0.135343
220.000000 64.235000 -10.000000 1.000000 -1.000000 106.749538 -17.272333 1309.658274 601.784486 15.570913 0.000000 0.129980
221.000000 71.626000 -9.000000 1.000000 -1.000000 107.885270 -18.282681 1330.589407 575.206857 13.963859 0.000000 0.122842
222.000000 80.880000 -8.000000 1.000000 -1.000000 109.268427 -19.573206 1357.684100 541.677645 12.365757 0.000000 0.112998
223.000000 47.339000 -14.000000 2.000000 -1.000000 111.509204 -14.711469 1257.590793 502.459987 21.126596 0.000000 0.123916
224.000000 51.196000 -13.000000 2.000000 -1.000000 112.680200 -15.225061 1267.928262 474.852336 19.534470 0.000000 0.117928
225.000000 55.713000 -12.000000 2.000000 -1.000000 114.032826 -15.840792 1280.388386 442.118275 17.950305 0.000000 0.110467
226.000000 61.068000 -11.000000 2.000000 -1.000000 115.611755 -16.592299 1295.699753 402.637778 16.375941 0.000000 0.100999
227.000000 67.505000 -10.000000 2.000000 -1.000000 117.477004 -17.529686 1314.967478 354.006190 14.813829 0.000000 0.088739
228.000000 75.371000 -9.000000 2.000000 -1.000000 119.710665 -18.730897 1339.952516 292.479623 13.267312 0.000000 0.072518
229.000000 85.164000 -8.000000 2.000000 -1.000000 122.426929 -20.323859 1373.642941 211.860031 11.741074 0.000000 0.050817
230.000000 48.820000 -14.000000 3.000000 -1.000000 119.159754 -14.647762 1256.311941 320.297608 20.482940 0.000000 0.091962
231.000000 52.798000 -13.000000 3.000000 -1.000000 120.872431 -15.210755 1267.639643 274.194312 18.939046 0.000000 0.081417
232.000000 57.436000 -12.000000 3.000000 -1.000000 122.844830 -15.899232 1281.574901 218.545684 17.409127 0.000000 0.068552
233.000000 62.901000 -11.000000 3.000000 -1.000000 125.138241 -16.760122 1299.135184 149.887926 15.896204 0.000000 0.052984
234.000000 69.413000 -10.000000 3.000000 -1.000000 127.833449 -17.866871 1321.946459 62.778841 14.404238 0.000000 0.035646
235.000000 77.272000 -9.000000 3.000000 -1.000000 131.037934 -19.341015 1352.778059 -51.895041 12.938523 0.000000 0.028150
236.000000 86.886000 -8.000000 3.000000 -1.000000 134.894872 -21.398474 1396.762042 -210.746951 11.506302 0.000000 0.053987
237.000000 46.327000 -15.000000 4.000000 -1.000000 124.664596 -14.061742 1244.582551 173.730383 21.583544 0.000000 0.065447
238.000000 49.794000 -14.000000 4.000000 -1.000000 126.605588 -14.570098 1254.753933 114.944999 20.079949 0.000000 0.053182
239.000000 53.773000 -13.000000 4.000000 -1.000000 128.813323 -15.192962 1267.280727 43.869141 18.593568 0.000000 0.039818
240.000000 58.373000 -12.000000 4.000000 -1.000000 131.343797 -15.973721 1283.088247 -44.040668 17.127679 0.000000 0.028850
241.000000 63.733000 -11.000000 4.000000 -1.000000 134.268388 -16.980686 1303.659506 -155.977520 15.686447 0.000000 0.032344
242.000000 70.031000 -10.000000 4.000000 -1.000000 137.678398 -18.327810 1331.529936 -304.096490 14.275250 0.000000 0.054916
245.000000 46.874000 -15.000000 5.000000 -1.000000 131.456185 -13.918716 1241.729036 -38.519125 21.329252 0.000000 0.031615
246.000000 50.281000 -14.000000 5.000000 -1.000000 133.794803 -14.473329 1252.814168 -124.764724 19.883430 0.000000 0.026957
247.000000 54.155000 -13.000000 5.000000 -1.000000 136.442011 -15.170231 1266.822272 -231.748238 18.460511 0.000000 0.035057
248.000000 58.582000 -12.000000 5.000000 -1.000000 139.458224 -16.071920 1285.085032 -368.501621 17.064625 0.000000 0.053677
251.000000 47.045000 -15.000000 6.000000 -1.000000 137.998642 -13.740183 1238.172086 -289.502472 21.249700 0.000000 0.036482
252.000000 50.322000 -14.000000 6.000000 -1.000000 140.686965 -14.349414 1250.332744 -415.689971 19.865377 0.000000 0.051686
259.000000 45.892000 -7.000000 -3.000000 0.000000 50.242388 -11.045583 1185.099172 1853.286485 21.816519 0.000000 0.112033
260.000000 45.656000 -2.000000 -1.000000 0.000000 43.630328 -11.261259 1189.308119 2092.186960 7.310268 0.000000 0.205734
261.000000 48.158000 -5.000000 -1.000000 0.000000 73.489141 -10.172331 1168.119371 1265.129778 10.391235 0.000000 0.117216
262.000000 51.789000 -9.000000 -2.000000 0.000000 71.111896 -10.272416 1170.060588 1315.247052 19.326406 0.000000 0.105794
263.000000 55.819000 -4.000000 -1.000000 0.000000 68.170212 -10.392229 1172.386070 1379.326557 8.965929 0.000000 0.090311
264.000000 60.178000 -7.000000 -2.000000 0.000000 64.441753 -10.538240 1175.222449 1464.540294 16.634080 0.000000 0.069788
265.000000 64.579000 -3.000000 -1.000000 0.000000 59.574538 -10.720093 1178.758863 1584.328815 7.750814 0.000000 0.050968
266.000000 68.164000 -5.000000 -2.000000 0.000000 52.982295 -10.952828 1183.290955 1767.625325 14.687841 0.000000 0.082319
268.000000 46.563000 -12.000000 -1.000000 0.000000 86.240142 -9.575035 1156.559206 1012.729328 21.489239 0.000000 0.158136
269.000000 50.367000 -11.000000 -1.000000 0.000000 85.401755 -9.617954 1157.388479 1028.797497 19.866807 0.000000 0.156513
270.000000 54.830000 -10.000000 -1.000000 0.000000 84.397100 -9.668626 1158.367823 1048.107977 18.249946 0.000000 0.154374
271.000000 60.134000 -9.000000 -1.000000 0.000000 83.171486 -9.729359 1159.542026 1071.764384 16.640713 0.000000 0.151474
272.000000 66.525000 -8.000000 -1.000000 0.000000 81.643419 -9.803482 1160.975671 1101.442860 15.042324 0.000000 0.147410
273.000000 74.348000 -7.000000 -1.000000 0.000000 79.686010 -9.895970 1162.765423 1139.825561 13.460097 0.000000 0.141470
274.000000 84.075000 -6.000000 -1.000000 0.000000 77.090583 -10.014613 1165.062780 1191.507344 11.903507 0.000000 0.132315
275.000000 46.702000 -4.000000 0.000000 0.000000 95.506466 -9.056946 1146.565005 835.932114 6.591292 0.000000 0.166424
276.000000 45.878000 -14.000000 1.000000 0.000000 103.449577 -8.533200 1136.490892 680.724948 21.802954 0.000000 0.159859
277.000000 49.594000 -13.000000 1.000000 0.000000 104.058188 -8.489298 1135.647746 668.502770 20.168954 0.000000 0.158848
278.000000 53.959000 -12.000000 1.000000 0.000000 104.767577 -8.437365 1134.650575 654.177952 18.537100 0.000000 0.157577
279.000000 59.157000 -11.000000 1.000000 0.000000 105.604961 -8.374971 1133.452932 637.152563 16.907933 0.000000 0.155952
280.000000 65.450000 -10.000000 1.000000 0.000000 106.608293 -8.298606 1131.987607 616.576154 15.282195 0.000000 0.153827
281.000000 73.215000 -9.000000 1.000000 0.000000 107.832110 -8.202983 1130.153565 591.195321 13.660927 0.000000 0.150971
282.000000 83.031000 -8.000000 1.000000 0.000000 109.357644 -8.079767 1127.791606 559.079859 12.045637 0.000000 0.147010
283.000000 95.810000 -7.000000 1.000000 0.000000 111.311318 -7.915005 1124.635476 517.087014 10.438602 0.000000 0.141291
284.000000 113.087000 -6.000000 1.000000 0.000000 113.900894 -7.683427 1120.203688 459.710877 8.843419 0.000000 0.132602
285.000000 137.627000 -5.000000 1.000000 0.000000 117.492372 -7.334066 1113.526952 376.278622 7.266133 0.000000 0.118511
286.000000 174.881000 -4.000000 1.000000 0.000000 122.792068 -6.746487 1102.320904 242.751623 5.717739 0.000000 0.093669
287.000000 51.877000 -13.000000 2.000000 0.000000 112.508814 -7.809874 1122.622941 490.814605 19.278455 0.000000 0.137428
288.000000 62.099000 -11.000000 2.000000 0.000000 115.538622 -7.528450 1117.240566 422.271639 16.104026 0.000000 0.126465
289.000000 77.071000 -9.000000 2.000000 0.000000 119.861740 -7.083059 1108.736376 318.307219 12.974635 0.000000 0.107971
290.000000 100.782000 -7.000000 2.000000 0.000000 126.503213 -6.271650 1093.284983 139.695021 9.921114 0.000000 0.073822
291.000000 118.443000 -6.000000 2.000000 0.000000 131.341891 -5.551459 1079.611057 -10.405138 8.441123 0.000000 0.046134
292.000000 142.596000 -5.000000 2.000000 0.000000 137.881238 -4.330085 1056.495338 -252.782158 7.010746 0.000000 0.013121
294.000000 49.411000 -14.000000 3.000000 0.000000 119.017986 -7.174475 1110.480482 339.247127 20.238059 0.000000 0.111834
295.000000 53.505000 -13.000000 3.000000 0.000000 120.767232 -6.982315 1106.815108 295.446220 18.688902 0.000000 0.103695
296.000000 63.956000 -11.000000 3.000000 0.000000 125.161429 -6.450211 1096.680907 178.012660 15.633963 0.000000 0.081193
297.000000 70.735000 -10.000000 3.000000 0.000000 127.968509 -6.066852 1089.392920 96.328208 14.135040 0.000000 0.065572
298.000000 89.094000 -8.000000 3.000000 0.000000 135.462893 -4.821782 1065.791024 -156.711916 11.221097 0.000000 0.023339
299.000000 101.764000 -7.000000 3.000000 0.000000 140.592707 -3.709597 1044.781862 -371.712520 9.823469 0.000000 0.011398
300.000000 46.835000 -15.000000 4.000000 0.000000 124.532195 -6.531177 1098.221547 195.554772 21.349389 0.000000 0.084578
301.000000 54.481000 -13.000000 4.000000 0.000000 128.752749 -5.952739 1087.225572 72.414007 18.352084 0.000000 0.061088
302.000000 64.764000 -11.000000 4.000000 0.000000 134.349965 -5.031226 1069.754650 -115.215097 15.436905 0.000000 0.029163
303.000000 79.067000 -9.000000 4.000000 0.000000 142.074168 -3.334191 1037.703172 -442.617722 12.643175 0.000000 0.013978
304.000000 50.866000 -14.000000 5.000000 0.000000 133.710256 -5.147251 1071.951448 -92.063724 19.654717 0.000000 0.032665
305.000000 54.841000 -13.000000 5.000000 0.000000 136.397978 -4.637886 1062.312912 -192.853107 18.229567 0.000000 0.018850
306.000000 59.394000 -12.000000 5.000000 0.000000 139.469850 -3.976316 1049.814773 -320.874294 16.831550 0.000000 0.010544
314.000000 47.836000 -10.000000 -2.000000 1.000000 72.029972 -3.469078 1040.245951 1290.727695 20.923438 0.000000 0.110677
315.000000 51.294000 -9.000000 -2.000000 1.000000 69.444445 -2.968011 1030.803650 1345.141969 19.513510 0.000000 0.095591
316.000000 55.051000 -8.000000 -2.000000 1.000000 66.236596 -2.368679 1019.520721 1415.286625 18.182768 0.000000 0.074062
317.000000 58.960000 -7.000000 -2.000000 1.000000 62.160025 -1.639214 1005.800840 1509.658337 16.978642 0.000000 0.041958
318.000000 62.587000 -6.000000 -2.000000 1.000000 56.825799 -0.732406 988.758899 1644.672790 15.995892 0.000000 0.010916
319.000000 64.782000 -5.000000 -2.000000 1.000000 49.591055 0.424689 967.022124 1857.313191 15.455267 0.000000 0.097738
320.000000 62.516000 -4.000000 -2.000000 1.000000 39.340681 1.950787 938.340544 2254.832862 16.017136 0.000000 0.265319
321.000000 46.512000 -12.000000 -1.000000 1.000000 85.089749 -3.350092 1038.002888 1033.623234 21.513676 0.000000 0.160499
322.000000 50.263000 -11.000000 -1.000000 1.000000 84.112492 -2.878099 1029.110259 1052.127211 19.908351 0.000000 0.158360
323.000000 54.644000 -10.000000 -1.000000 1.000000 82.935119 -2.321385 1018.630808 1074.499203 18.312585 0.000000 0.155444
324.000000 59.815000 -9.000000 -1.000000 1.000000 81.490013 -1.655030 1006.098194 1102.112268 16.730013 0.000000 0.151357
325.000000 65.984000 -8.000000 -1.000000 1.000000 79.675734 -0.843357 990.843496 1137.087993 15.166378 0.000000 0.145443
326.000000 73.418000 -7.000000 -1.000000 1.000000 77.333297 0.166526 971.871812 1182.897248 13.631324 0.000000 0.136526
327.000000 82.426000 -6.000000 -1.000000 1.000000 74.199789 1.456382 947.636138 1245.663286 12.142381 0.000000 0.122349
328.000000 93.238000 -5.000000 -1.000000 1.000000 69.810317 3.159300 915.592708 1337.381590 10.735097 0.000000 0.098223
329.000000 105.436000 -4.000000 -1.000000 1.000000 63.270368 5.506361 871.244053 1485.529944 9.494205 0.000000 0.054683
330.000000 115.295000 -3.000000 -1.000000 1.000000 52.666866 8.933208 805.817648 1771.980336 8.683646 0.000000 0.073411
332.000000 45.977000 -14.000000 1.000000 1.000000 102.503289 -2.247322 1017.237342 702.142766 21.756215 0.000000 0.167760
333.000000 49.693000 -13.000000 1.000000 1.000000 103.009090 -1.679229 1006.553140 692.231192 20.129202 0.000000 0.167249
334.000000 54.053000 -12.000000 1.000000 1.000000 103.592237 -1.008401 993.944650 680.731058 18.505476 0.000000 0.166534
335.000000 59.236000 -11.000000 1.000000 1.000000 104.271402 -0.204449 978.840558 667.226322 16.885885 0.000000 0.165518
336.000000 65.497000 -10.000000 1.000000 1.000000 105.071493 0.776186 960.418551 651.141322 15.271592 0.000000 0.164049
337.000000 73.200000 -9.000000 1.000000 1.000000 106.026250 1.998113 937.450466 631.655768 13.664244 0.000000 0.161877
338.000000 82.893000 -8.000000 1.000000 1.000000 107.181965 3.561219 908.016659 607.558593 12.066247 0.000000 0.158557
339.000000 95.425000 -7.000000 1.000000 1.000000 108.602411 5.627880 868.939648 576.981903 10.481265 0.000000 0.153261
340.000000 112.184000 -6.000000 1.000000 1.000000 110.373452 8.478895 814.552038 536.880400 8.915163 0.000000 0.144304
341.000000 135.552000 -5.000000 1.000000 1.000000 112.597579 12.638340 733.663425 481.911840 7.377956 0.000000 0.127837
342.000000 169.837000 -4.000000 1.000000 1.000000 115.326923 19.177647 600.665429 401.689919 5.888257 0.000000 0.093520
343.000000 48.038000 -14.000000 2.000000 1.000000 110.341795 -1.071442 995.129260 541.904085 20.819682 0.000000 0.150956
344.000000 52.016000 -13.000000 2.000000 1.000000 111.426111 -0.342194 981.428144 518.631434 19.227303 0.000000 0.147757
345.000000 56.685000 -12.000000 2.000000 1.000000 112.676777 0.532264 965.001199 491.269432 17.643114 0.000000 0.143648
346.000000 62.236000 -11.000000 2.000000 1.000000 114.133516 1.599535 944.945114 458.606565 16.069074 0.000000 0.138259
347.000000 68.931000 -10.000000 2.000000 1.000000 115.848776 2.930233 919.907887 418.885517 14.507822 0.000000 0.131029
348.000000 77.143000 -9.000000 2.000000 1.000000 117.892393 4.633463 887.770723 369.446540 12.962998 0.000000 0.121043
349.000000 87.411000 -8.000000 2.000000 1.000000 120.357279 6.886330 845.014626 306.039551 11.439769 0.000000 0.106772
350.000000 100.537000 -7.000000 2.000000 1.000000 123.363882 9.994086 785.334819 221.367788 9.945721 0.000000 0.085535
351.000000 117.734000 -6.000000 2.000000 1.000000 127.052359 14.522326 696.203893 101.591882 8.492466 0.000000 0.053123
352.000000 140.840000 -5.000000 2.000000 1.000000 131.514239 21.608504 548.680144 -83.716901 7.098717 0.000000 0.035980
354.000000 46.021000 -15.000000 3.000000 1.000000 116.582728 -0.458169 983.606826 402.420502 21.729711 0.000000 0.128689
355.000000 49.567000 -14.000000 3.000000 1.000000 118.003802 0.330377 968.793845 368.623048 20.174860 0.000000 0.122608
356.000000 53.670000 -13.000000 3.000000 1.000000 119.622571 1.276423 951.018574 328.866902 18.632065 0.000000 0.115054
357.000000 58.463000 -12.000000 3.000000 1.000000 121.480686 2.431682 929.293700 281.350980 17.103836 0.000000 0.105533
358.000000 64.124000 -11.000000 3.000000 1.000000 123.630916 3.872832 902.138311 223.435760 15.593427 0.000000 0.093340
359.000000 70.887000 -10.000000 3.000000 1.000000 126.139910 5.718245 867.225391 151.073013 14.105143 0.000000 0.077493
360.000000 79.070000 -9.000000 3.000000 1.000000 129.090194 8.159671 820.676844 57.682819 12.644793 0.000000 0.056830
361.000000 89.103000 -8.000000 3.000000 1.000000 132.577625 11.526206 755.512745 -68.281662 11.220420 0.000000 0.032822
362.000000 101.561000 -7.000000 3.000000 1.000000 136.691189 16.422255 657.775051 -249.344942 9.843477 0.000000 0.040868
364.000000 46.992000 -15.000000 4.000000 1.000000 123.568424 1.009214 956.040081 226.655663 21.278495 0.000000 0.095057
365.000000 50.558000 -14.000000 4.000000 1.000000 125.416003 2.027888 936.890447 175.185326 19.777108 0.000000 0.084559
366.000000 54.656000 -13.000000 4.000000 1.000000 127.507934 3.272411 913.461218 113.544296 18.293683 0.000000 0.071821
367.000000 59.401000 -12.000000 4.000000 1.000000 129.890288 4.825570 884.137304 38.188148 16.831741 0.000000 0.056378
368.000000 64.938000 -11.000000 4.000000 1.000000 132.617977 6.814996 846.373970 -56.373704 15.395788 0.000000 0.038308
369.000000 71.452000 -10.000000 4.000000 1.000000 135.753468 9.446891 795.915526 -179.172366 13.991684 0.000000 0.023575
370.000000 79.169000 -9.000000 4.000000 1.000000 139.359021 13.073315 725.066836 -346.282487 12.627193 0.000000 0.039568
373.000000 47.537000 -15.000000 5.000000 1.000000 130.296128 2.786505 922.614535 27.280732 21.032293 0.000000 0.055373
374.000000 51.034000 -14.000000 5.000000 1.000000 132.512742 4.121489 897.444510 -48.240709 19.590452 0.000000 0.041172
375.000000 55.014000 -13.000000 5.000000 1.000000 135.001691 5.788076 865.900314 -140.873500 18.172580 0.000000 0.026259
376.000000 59.566000 -12.000000 5.000000 1.000000 137.804883 7.923097 825.209569 -257.632698 16.783120 0.000000 0.019696
377.000000 64.797000 -11.000000 5.000000 1.000000 140.965151 10.746898 770.719520 -410.159715 15.427682 0.000000 0.036766
380.000000 47.687000 -15.000000 6.000000 1.000000 136.717316 4.978662 881.240340 -206.155672 20.964054 0.000000 0.018406
381.000000 51.042000 -14.000000 6.000000 1.000000 139.235345 6.759949 847.422672 -316.195079 19.585580 0.000000 0.018103
389.000000 49.629000 -9.000000 -2.000000 2.000000 66.893489 4.231829 895.360736 1401.478417 20.169305 0.000000 0.079623
390.000000 55.608000 -7.000000 -2.000000 2.000000 58.668121 7.044190 842.004990 1601.200965 18.002783 0.000000 0.031949
391.000000 57.348000 -5.000000 -2.000000 2.000000 44.601417 11.303269 759.871312 2053.961696 17.459446 0.000000 0.184704
392.000000 45.841000 -12.000000 -1.000000 2.000000 83.252455 2.807442 922.220287 1068.494079 21.829281 0.000000 0.156509
393.000000 49.363000 -11.000000 -1.000000 2.000000 82.022292 3.770143 904.075934 1092.163429 20.271987 0.000000 0.152821
394.000000 53.413000 -10.000000 -1.000000 2.000000 80.528460 4.899505 882.738399 1121.218869 18.735588 0.000000 0.147847
395.000000 58.088000 -9.000000 -1.000000 2.000000 78.679855 6.241751 857.283413 1157.743228 17.228262 0.000000 0.140996
396.000000 63.490000 -8.000000 -1.000000 2.000000 76.340051 7.861343 826.391904 1205.056958 15.763095 0.000000 0.131347
397.000000 69.686000 -7.000000 -1.000000 2.000000 73.296808 9.850531 788.114003 1268.801767 14.362411 0.000000 0.117510
398.000000 76.595000 -6.000000 -1.000000 2.000000 69.205174 12.345176 739.440765 1359.409387 13.067676 0.000000 0.097968
399.000000 83.657000 -5.000000 -1.000000 2.000000 63.476355 15.551646 675.472149 1498.589010 11.965613 0.000000 0.077241
400.000000 88.806000 -4.000000 -1.000000 2.000000 55.053836 19.793205 587.654390 1740.347947 11.273095 0.000000 0.106796
402.000000 46.261000 -13.000000 0.000000 2.000000 92.743101 3.373833 911.549600 889.342244 21.626833 0.000000 0.171691
403.000000 49.972000 -12.000000 0.000000 2.000000 92.390520 4.385253 892.462320 895.936377 20.020851 0.000000 0.170991
404.000000 54.308000 -11.000000 0.000000 2.000000 91.951028 5.571941 870.000544 904.161950 18.422803 0.000000 0.169953
405.000000 59.430000 -10.000000 0.000000 2.000000 91.391833 6.982434 843.182618 914.654053 16.835181 0.000000 0.168415
406.000000 65.558000 -9.000000 0.000000 2.000000 90.662836 8.684321 810.605243 928.403729 15.261645 0.000000 0.166118
407.000000 72.990000 -8.000000 0.000000 2.000000 89.684460 10.774111 770.189865 947.033805 13.707793 0.000000 0.162643
408.000000 82.130000 -7.000000 0.000000 2.000000 88.324392 13.393429 718.720967 973.365323 12.182643 0.000000 0.157296
409.000000 93.498000 -6.000000 0.000000 2.000000 86.350576 16.756182 650.945534 1012.690810 10.701717 0.000000 0.148950
410.000000 107.662000 -5.000000 0.000000 2.000000 83.330078 21.194331 557.655467 1075.993783 9.294187 0.000000 0.136179
411.000000 124.743000 -4.000000 0.000000 2.000000 78.398313 27.231899 421.102162 1189.508797 8.022111 0.000000 0.121402
412.000000 142.060000 -3.000000 0.000000 2.000000 69.718075 35.682382 202.105845 1430.678138 7.044982 0.000000 0.149311
414.000000 45.630000 -14.000000 1.000000 2.000000 100.875830 3.943978 900.795603 733.718322 21.922439 0.000000 0.169264
415.000000 49.232000 -13.000000 1.000000 2.000000 101.164997 5.004533 880.750640 727.758295 20.318503 0.000000 0.168188
416.000000 53.431000 -12.000000 1.000000 2.000000 101.477667 6.249002 857.145579 721.156052 18.721628 0.000000 0.166671
417.000000 58.382000 -11.000000 1.000000 2.000000 101.812416 7.728216 828.939548 713.843740 17.133667 0.000000 0.164511
418.000000 64.298000 -10.000000 1.000000 2.000000 102.163740 9.512843 794.642097 705.775147 15.557185 0.000000 0.161382
419.000000 71.470000 -9.000000 1.000000 2.000000 102.517702 11.703526 752.041089 696.969084 13.995833 0.000000 0.156745
420.000000 80.311000 -8.000000 1.000000 2.000000 102.842819 14.447378 697.705730 687.613132 12.454993 0.000000 0.149663
421.000000 91.407000 -7.000000 1.000000 2.000000 103.070167 17.965202 626.013342 678.322042 10.942949 0.000000 0.138430
422.000000 105.589000 -6.000000 1.000000 2.000000 103.048019 22.596177 527.066183 670.828087 9.473135 0.000000 0.119788
423.000000 123.964000 -5.000000 1.000000 2.000000 102.433575 28.866484 381.674834 670.031452 8.068877 0.000000 0.088052
424.000000 147.650000 -4.000000 1.000000 2.000000 100.426668 37.567596 147.111110 691.130977 6.774566 0.000000 0.060631
425.000000 175.915000 -3.000000 1.000000 2.000000 95.134759 49.718373 -294.947983 791.412793 5.686347 0.000000 0.233154
426.000000 51.579000 -13.000000 2.000000 2.000000 109.437852 6.930544 844.171881 558.381817 19.390718 0.000000 0.149404
427.000000 61.417000 -11.000000 2.000000 2.000000 111.422684 10.346614 778.499489 511.733040 16.284136 0.000000 0.137409
428.000000 75.472000 -9.000000 2.000000 2.000000 113.903545 15.506351 676.388689 445.953052 13.250881 0.000000 0.114099
429.000000 96.676000 -7.000000 2.000000 2.000000 116.805303 23.997067 495.868938 345.749913 10.343877 0.000000 0.060919
430.000000 111.479000 -6.000000 2.000000 2.000000 118.156496 30.489585 341.277718 272.509943 8.970088 0.000000 0.006300
431.000000 130.149000 -5.000000 2.000000 2.000000 118.910293 39.418424 90.342164 171.581213 7.683109 0.000000 0.103774
433.000000 45.792000 -15.000000 3.000000 2.000000 114.934387 6.255183 857.028073 437.618589 21.839162 0.000000 0.131617
434.000000 49.261000 -14.000000 3.000000 2.000000 116.125349 7.616417 831.077797 408.439840 20.300950 0.000000 0.124850
435.000000 53.257000 -13.000000 3.000000 2.000000 117.454584 9.234258 800.017879 374.458446 18.777164 0.000000 0.116234
436.000000 57.900000 -12.000000 3.000000 2.000000 118.941099 11.185329 762.174375 334.321999 17.270853 0.000000 0.105060
437.000000 63.345000 -11.000000 3.000000 2.000000 120.603432 13.578096 715.052516 286.090119 15.785990 0.000000 0.090260
438.000000 69.789000 -10.000000 3.000000 2.000000 122.454935 16.569657 654.763297 226.858837 14.327850 0.000000 0.070247
439.000000 77.489000 -9.000000 3.000000 2.000000 124.492656 20.392444 574.891310 152.040843 12.903595 0.000000 0.043339
440.000000 86.769000 -8.000000 3.000000 2.000000 126.671849 25.395329 464.045424 53.852451 11.523193 0.000000 0.026454
441.000000 98.012000 -7.000000 3.000000 2.000000 128.848393 32.098750 299.874587 -82.286821 10.200951 0.000000 0.087563
443.000000 46.777000 -15.000000 4.000000 2.000000 121.784282 8.306463 817.861645 267.007464 21.376985 0.000000 0.097256
444.000000 54.265000 -13.000000 4.000000 2.000000 125.114333 12.028670 745.663643 167.174878 18.426087 0.000000 0.070987
445.000000 64.202000 -11.000000 4.000000 2.000000 129.188124 17.636584 632.822815 20.291543 15.573136 0.000000 0.034027
446.000000 77.700000 -9.000000 4.000000 2.000000 133.982240 26.789313 431.576593 -222.611283 12.866789 0.000000 0.081357
447.000000 47.333000 -15.000000 5.000000 2.000000 128.342704 10.758148 770.500557 74.460291 21.123287 0.000000 0.056084
448.000000 50.760000 -14.000000 5.000000 2.000000 130.242828 12.876305 728.964110 6.583542 19.696845 0.000000 0.041092
449.000000 54.643000 -13.000000 5.000000 2.000000 132.323212 15.470544 677.112972 -75.997950 18.296506 0.000000 0.029750
450.000000 59.061000 -12.000000 5.000000 2.000000 134.587515 18.706409 610.560305 -179.076539 16.927179 0.000000 0.039798
451.000000 64.104000 -11.000000 5.000000 2.000000 137.020259 22.824734 522.020720 -312.128028 15.595079 0.000000 0.075492
454.000000 47.493000 -15.000000 6.000000 2.000000 134.552284 13.727896 712.072517 -149.762843 21.050246 0.000000 0.027939
455.000000 54.462000 -13.000000 6.000000 2.000000 138.991265 19.778394 587.968625 -374.348217 18.355553 0.000000 0.069750
457.000000 47.300000 -15.000000 7.000000 2.000000 140.357164 17.376948 638.185306 -420.160206 21.134782 0.000000 0.064390
461.000000 46.903000 -9.000000 -2.000000 3.000000 63.579913 11.113439 763.577272 1485.967014 21.342268 0.000000 0.066600
462.000000 49.033000 -8.000000 -2.000000 3.000000 59.452375 12.957811 727.352507 1592.788939 20.416490 0.000000 0.058619
463.000000 50.543000 -7.000000 -2.000000 3.000000 54.243668 15.151309 683.559266 1743.911663 19.807644 0.000000 0.086998
464.000000 50.610000 -6.000000 -2.000000 3.000000 47.534445 17.794729 629.548924 1975.547635 19.783077 0.000000 0.166246
466.000000 47.698000 -11.000000 -1.000000 3.000000 79.203827 10.157716 782.163992 1149.507749 20.980856 0.000000 0.140900
467.000000 51.196000 -10.000000 -1.000000 3.000000 77.283311 11.780428 750.534082 1189.108703 19.547913 0.000000 0.133270
468.000000 55.072000 -9.000000 -1.000000 3.000000 74.900505 13.686755 712.891323 1239.883447 18.172740 0.000000 0.123444
469.000000 59.285000 -8.000000 -1.000000 3.000000 71.883700 15.952595 667.341063 1307.229847 16.882252 0.000000 0.111286
470.000000 63.659000 -7.000000 -1.000000 3.000000 67.974493 18.680667 611.099223 1400.622208 15.723158 0.000000 0.098866
471.000000 67.707000 -6.000000 -1.000000 3.000000 62.774188 22.011344 539.900985 1538.289873 14.784254 0.000000 0.098116
472.000000 70.213000 -5.000000 -1.000000 3.000000 55.656475 26.137059 446.865385 1760.162068 14.257614 0.000000 0.142355
473.000000 68.337000 -4.000000 -1.000000 3.000000 45.641010 31.318530 320.125954 2172.989399 14.650294 0.000000 0.275466
475.000000 48.213000 -13.000000 1.000000 3.000000 98.583995 11.393099 758.115901 775.267544 20.748621 0.000000 0.162258
476.000000 52.104000 -12.000000 1.000000 3.000000 98.507600 13.122501 724.092874 775.683876 19.199323 0.000000 0.158834
477.000000 56.621000 -11.000000 1.000000 3.000000 98.351776 15.152374 683.537787 777.301063 17.667612 0.000000 0.154172
478.000000 61.909000 -10.000000 1.000000 3.000000 98.073439 17.561762 634.369756 780.866182 16.158658 0.000000 0.147728
479.000000 68.145000 -9.000000 1.000000 3.000000 97.603294 20.456600 573.519030 787.658559 14.679878 0.000000 0.138686
480.000000 75.543000 -8.000000 1.000000 3.000000 96.827098 23.979672 496.260390 799.971135 13.242304 0.000000 0.125909
481.000000 84.327000 -7.000000 1.000000 3.000000 95.551596 28.322774 394.923292 822.159862 11.863097 0.000000 0.108401
482.000000 94.641000 -6.000000 1.000000 3.000000 93.442068 33.737845 256.173389 863.152832 10.570475 0.000000 0.090236
483.000000 106.267000 -5.000000 1.000000 3.000000 89.910064 40.535574 54.601516 943.222945 9.414350 0.000000 0.108363
484.000000 117.816000 -4.000000 1.000000 3.000000 83.930059 49.041412 -264.943807 1115.598431 8.492111 0.000000 0.243432
486.000000 46.926000 -14.000000 2.000000 3.000000 106.146672 12.014553 745.940846 622.414947 21.314750 0.000000 0.148778
487.000000 50.569000 -13.000000 2.000000 3.000000 106.620545 13.797246 710.691625 610.176807 19.779031 0.000000 0.143154
488.000000 54.774000 -12.000000 2.000000 3.000000 107.102889 15.888595 668.641130 596.674576 18.260442 0.000000 0.135681
489.000000 59.665000 -11.000000 2.000000 3.000000 107.574476 18.369022 617.610739 581.804735 16.763238 0.000000 0.125545
490.000000 65.400000 -10.000000 2.000000 3.000000 107.999918 21.345747 554.380112 565.535997 15.293204 0.000000 0.111460
491.000000 72.169000 -9.000000 2.000000 3.000000 108.315057 24.962196 473.980023 548.026873 13.858419 0.000000 0.091372
492.000000 80.201000 -8.000000 2.000000 3.000000 108.404004 29.408917 368.318635 529.906409 12.470522 0.000000 0.062363
493.000000 89.723000 -7.000000 2.000000 3.000000 108.057345 34.932040 223.271591 512.984729 11.146904 0.000000 0.031495
494.000000 100.874000 -6.000000 2.000000 3.000000 106.897908 41.826886 11.772661 502.223225 9.914776 0.000000 0.090792
495.000000 113.407000 -5.000000 2.000000 3.000000 104.259098 50.386962 -325.413666 512.006650 8.819226 0.000000 0.258028
496.000000 48.490000 -14.000000 3.000000 3.000000 113.453893 14.474232 697.167741 458.736458 20.624366 0.000000 0.119272
497.000000 52.268000 -13.000000 3.000000 3.000000 114.366605 16.626778 653.594936 432.256364 19.133345 0.000000 0.108184
498.000000 61.639000 -11.000000 3.000000 3.000000 116.313935 22.235111 535.002856 365.977127 16.223839 0.000000 0.073622
499.000000 67.488000 -10.000000 3.000000 3.000000 117.284699 25.942860 451.384259 323.635730 14.817474 0.000000 0.045760
500.000000 82.301000 -8.000000 3.000000 3.000000 118.775534 36.114732 189.728740 209.294921 12.150057 0.000000 0.058465
501.000000 91.558000 -7.000000 3.000000 3.000000 118.863854 43.097325 -32.084111 128.530164 10.921403 0.000000 0.163760
502.000000 46.186000 -15.000000 4.000000 3.000000 119.247232 15.153280 683.519531 316.604297 21.651293 0.000000 0.091706
503.000000 49.521000 -14.000000 4.000000 3.000000 120.443839 17.366686 638.396943 278.221009 20.192454 0.000000 0.077311
504.000000 53.309000 -13.000000 4.000000 3.000000 121.714666 19.987317 583.530700 233.257951 18.757457 0.000000 0.059015
505.000000 57.628000 -12.000000 4.000000 3.000000 123.043716 23.124263 515.382780 179.712805 17.351118 0.000000 0.036217
506.000000 62.572000 -11.000000 4.000000 3.000000 124.395762 26.921097 428.466353 114.607425 15.979644 0.000000 0.021031
507.000000 68.244000 -10.000000 4.000000 3.000000 125.701539 31.564057 313.789720 33.266004 14.651173 0.000000 0.058403
508.000000 74.745000 -9.000000 4.000000 3.000000 126.832710 37.285093 155.525914 -72.195327 13.376588 0.000000 0.131515
510.000000 46.763000 -15.000000 5.000000 3.000000 125.573857 18.108078 623.044841 131.077638 21.381634 0.000000 0.047972
511.000000 50.041000 -14.000000 5.000000 3.000000 127.035006 20.797711 566.203361 72.319278 19.980419 0.000000 0.031674
512.000000 53.729000 -13.000000 5.000000 3.000000 128.563492 24.012777 495.515292 1.629768 18.608676 0.000000 0.030564
513.000000 57.885000 -12.000000 5.000000 3.000000 130.126070 27.896347 405.219367 -85.438012 17.272022 0.000000 0.061169
514.000000 62.573000 -11.000000 5.000000 3.000000 131.658849 32.631636 285.843463 -196.032600 15.977603 0.000000 0.115477
517.000000 50.096000 -14.000000 6.000000 3.000000 133.149715 24.900225 475.395683 -171.331166 19.956989 0.000000 0.062220
518.000000 53.597000 -13.000000 6.000000 3.000000 134.816569 28.868063 381.636161 -280.175674 18.652865 0.000000 0.104638
520.000000 46.779000 -15.000000 7.000000 3.000000 137.006580 25.786186 455.019122 -341.118750 21.371053 0.000000 0.096065
525.000000 48.159000 -10.000000 -1.000000 4.000000 73.378593 18.164573 621.869726 1279.146713 20.781703 0.000000 0.116692
526.000000 51.051000 -9.000000 -1.000000 4.000000 70.407405 20.493573 572.727651 1349.978036 19.605397 0.000000 0.108232
527.000000 53.868000 -8.000000 -1.000000 4.000000 66.678932 23.212162 513.429220 1445.862557 18.580872 0.000000 0.104915
528.000000 56.249000 -7.000000 -1.000000 4.000000 61.919079 26.411098 440.463004 1582.146379 17.795474 0.000000 0.119278
529.000000 57.467000 -6.000000 -1.000000 4.000000 55.737177 30.203728 348.488012 1789.344830 17.419477 0.000000 0.171173
532.000000 50.100000 -11.000000 0.000000 4.000000 85.010912 18.813675 608.312858 1040.260245 19.972103 0.000000 0.143183
533.000000 57.943000 -9.000000 0.000000 4.000000 81.185388 23.970257 496.472240 1123.652863 17.269885 0.000000 0.128272
534.000000 66.908000 -7.000000 0.000000 4.000000 74.705721 31.091179 325.963772 1284.698790 14.957068 0.000000 0.122497
535.000000 73.572000 -5.000000 0.000000 4.000000 62.866876 41.156675 34.212227 1673.558987 13.604087 0.000000 0.231566
537.000000 46.678000 -13.000000 1.000000 4.000000 95.371194 17.360197 638.530761 834.976575 21.432139 0.000000 0.150570
538.000000 50.138000 -12.000000 1.000000 4.000000 94.827439 19.463545 594.634718 844.592634 19.953369 0.000000 0.144660
539.000000 54.061000 -11.000000 1.000000 4.000000 94.094648 21.895269 542.435704 857.961507 18.505395 0.000000 0.137052
540.000000 58.514000 -10.000000 1.000000 4.000000 93.096350 24.727590 479.331883 876.901343 17.097478 0.000000 0.127368
541.000000 63.549000 -9.000000 1.000000 4.000000 91.719085 28.050469 401.507526 904.398003 15.743000 0.000000 0.115668
542.000000 69.179000 -8.000000 1.000000 4.000000 89.792157 31.974153 303.131623 945.602598 14.462056 0.000000 0.104315
543.000000 75.304000 -7.000000 1.000000 4.000000 87.056359 36.629095 174.825014 1009.964021 13.286257 0.000000 0.104610
544.000000 81.555000 -6.000000 1.000000 4.000000 83.118320 42.159031 0.477377 1116.231940 12.268365 0.000000 0.145479
545.000000 86.984000 -5.000000 1.000000 4.000000 77.393467 48.699802 -250.111519 1305.708436 11.503532 0.000000 0.264354
547.000000 49.025000 -13.000000 2.000000 4.000000 103.105236 20.114015 580.833669 674.160269 20.403242 0.000000 0.130331
548.000000 57.087000 -11.000000 2.000000 4.000000 102.849199 25.483900 462.005156 669.039815 17.521477 0.000000 0.105961
549.000000 67.550000 -9.000000 2.000000 4.000000 101.685558 32.852268 279.985208 676.014507 14.807594 0.000000 0.067364
550.000000 80.735000 -7.000000 2.000000 4.000000 98.381985 43.148539 -33.889987 723.632667 12.389727 0.000000 0.109969
552.000000 47.279000 -14.000000 3.000000 4.000000 110.108512 20.764920 566.908049 519.576463 21.153609 0.000000 0.106974
553.000000 50.741000 -13.000000 3.000000 4.000000 110.523107 23.296846 511.544683 502.329636 19.710317 0.000000 0.092514
554.000000 54.660000 -12.000000 3.000000 4.000000 110.869216 26.238925 444.489005 483.526780 18.296787 0.000000 0.073477
555.000000 59.107000 -11.000000 3.000000 4.000000 111.092518 29.679626 361.599722 463.165877 16.920026 0.000000 0.048269
556.000000 64.152000 -10.000000 3.000000 4.000000 111.107814 33.725157 256.517995 441.455887 15.589428 0.000000 0.021003
557.000000 69.848000 -9.000000 3.000000 4.000000 110.782156 38.497494 118.953736 419.093719 14.317881 0.000000 0.053227
558.000000 76.205000 -8.000000 3.000000 4.000000 109.910220 44.124865 -68.907822 397.928004 13.123567 0.000000 0.136711
560.000000 51.823000 -13.000000 4.000000 4.000000 117.516403 26.992408 426.780305 311.782192 19.296429 0.000000 0.037068
561.000000 60.142000 -11.000000 4.000000 4.000000 118.656887 34.592463 232.723266 226.478855 16.626717 0.000000 0.039871
562.000000 70.556000 -9.000000 4.000000 4.000000 118.752275 45.087715 -104.594771 104.581785 14.172349 0.000000 0.201374
563.000000 45.840000 -15.000000 5.000000 4.000000 122.126761 24.696630 480.036637 197.098542 21.813467 0.000000 0.031244
564.000000 48.900000 -14.000000 5.000000 4.000000 123.077708 27.744093 408.875865 148.906632 20.448039 0.000000 0.017722
565.000000 52.304000 -13.000000 5.000000 4.000000 123.984426 31.296058 320.704238 91.908493 19.116820 0.000000 0.043470
566.000000 56.089000 -12.000000 5.000000 4.000000 124.787447 35.453846 208.594118 23.114002 17.826430 0.000000 0.092456
567.000000 60.285000 -11.000000 5.000000 4.000000 125.394765 40.330046 61.265313 -62.155453 16.585309 0.000000 0.164457
569.000000 46.060000 -15.000000 6.000000 4.000000 127.776079 28.493728 390.772420 -8.105736 21.707354 0.000000 0.048611
570.000000 52.247000 -13.000000 6.000000 4.000000 129.834854 36.308982 184.123450 -173.178280 19.135820 0.000000 0.143261
572.000000 45.934000 -15.000000 7.000000 4.000000 132.953159 32.897375 278.783950 -252.381892 21.765211 0.000000 0.128918
576.000000 46.396000 -9.000000 -1.000000 5.000000 65.488913 26.575421 436.609338 1489.721601 21.573615 0.000000 0.115332
577.000000 47.837000 -8.000000 -1.000000 5.000000 61.115887 29.566523 364.411272 1623.649325 20.924588 0.000000 0.139715
578.000000 48.415000 -7.000000 -1.000000 5.000000 55.653926 33.006726 275.866679 1818.010846 20.676117 0.000000 0.194886
580.000000 47.643000 -12.000000 1.000000 5.000000 90.616058 25.195945 468.627385 928.210109 20.999710 0.000000 0.127496
581.000000 50.874000 -11.000000 1.000000 5.000000 89.282060 27.886949 405.445360 956.259131 19.666179 0.000000 0.118863
582.000000 54.385000 -10.000000 1.000000 5.000000 87.560525 30.961693 329.276162 994.472121 18.397102 0.000000 0.110894
583.000000 58.122000 -9.000000 1.000000 5.000000 85.314458 34.486498 235.656803 1048.022197 17.214570 0.000000 0.108655
584.000000 61.948000 -8.000000 1.000000 5.000000 82.352928 38.534611 117.814826 1125.738552 16.152076 0.000000 0.124125
585.000000 65.559000 -7.000000 1.000000 5.000000 78.412137 43.181321 -35.047509 1243.655496 15.262948 0.000000 0.175037
586.000000 68.364000 -6.000000 1.000000 5.000000 73.136901 48.493837 -241.265746 1433.298014 14.637600 0.000000 0.282564
589.000000 47.019000 -13.000000 2.000000 5.000000 99.052868 25.810635 454.452538 750.509864 21.275085 0.000000 0.113532
590.000000 50.264000 -12.000000 2.000000 5.000000 98.423697 28.540405 389.636754 759.563751 19.901530 0.000000 0.101079
591.000000 53.853000 -11.000000 2.000000 5.000000 97.536258 31.655293 311.426715 773.722856 18.575121 0.000000 0.087322
592.000000 57.793000 -10.000000 2.000000 5.000000 96.290586 35.220108 215.192083 795.769460 17.309154 0.000000 0.077135
593.000000 62.048000 -9.000000 2.000000 5.000000 94.545707 39.305516 93.890299 830.412681 16.122451 0.000000 0.086074
594.000000 66.504000 -8.000000 2.000000 5.000000 92.103938 43.982755 -63.739460 886.048916 15.042548 0.000000 0.134140
595.000000 70.895000 -7.000000 2.000000 5.000000 88.692684 49.313199 -276.890770 978.676230 14.111408 0.000000 0.234484
597.000000 45.676000 -14.000000 3.000000 5.000000 106.234219 26.424400 440.151466 591.048286 21.897673 0.000000 0.090137
598.000000 48.746000 -13.000000 3.000000 5.000000 106.115676 29.192103 373.674127 584.780971 20.518392 0.000000 0.073117
599.000000 52.150000 -12.000000 3.000000 5.000000 105.822911 32.345987 293.385298 579.951605 19.178843 0.000000 0.053580
600.000000 55.912000 -11.000000 3.000000 5.000000 105.279630 35.949261 194.481750 577.793039 17.888547 0.000000 0.041635
601.000000 60.034000 -10.000000 3.000000 5.000000 104.377602 40.069932 69.640986 580.472591 16.660333 0.000000 0.067123
602.000000 64.479000 -9.000000 3.000000 5.000000 102.964460 44.775150 -92.879699 591.954636 15.511908 0.000000 0.133399
603.000000 69.131000 -8.000000 3.000000 5.000000 100.829126 50.120533 -313.171332 619.899972 14.468422 0.000000 0.244638
605.000000 46.764000 -14.000000 4.000000 5.000000 112.620021 29.841882 357.555217 423.985491 21.385378 0.000000 0.039563
606.000000 49.873000 -13.000000 4.000000 5.000000 112.745302 33.033594 275.148797 402.772179 20.052143 0.000000 0.015725
607.000000 53.300000 -12.000000 4.000000 5.000000 112.687825 36.673764 173.521357 379.993334 18.762599 0.000000 0.036389
608.000000 57.059000 -11.000000 4.000000 5.000000 112.360271 40.827671 45.060228 355.886063 17.526526 0.000000 0.090731
609.000000 61.140000 -10.000000 4.000000 5.000000 111.640073 45.558359 -122.478815 331.150252 16.356862 0.000000 0.171236
612.000000 47.376000 -14.000000 5.000000 5.000000 118.572446 33.717937 256.714029 236.314704 21.106924 0.000000 0.029792
613.000000 50.429000 -13.000000 5.000000 5.000000 118.847556 37.393433 152.306347 194.777946 19.829103 0.000000 0.075155
614.000000 53.761000 -12.000000 5.000000 5.000000 118.908103 41.578561 20.141183 146.470513 18.599700 0.000000 0.137622
616.000000 47.549000 -14.000000 6.000000 5.000000 124.019591 38.108090 130.832053 17.689115 21.028222 0.000000 0.120809
617.000000 50.468000 -13.000000 6.000000 5.000000 124.340294 42.322438 -5.123181 -53.509308 19.811752 0.000000 0.189539
621.000000 45.579000 -10.000000 0.000000 6.000000 73.210935 32.533029 288.452336 1326.168276 21.956889 0.000000 0.127317
622.000000 48.676000 -8.000000 0.000000 6.000000 65.401633 39.224213 96.438173 1577.044013 20.561622 0.000000 0.195683
623.000000 49.139000 -7.000000 0.000000 6.000000 60.039386 43.204104 -35.852700 1792.140124 20.369074 0.000000 0.278559
624.000000 47.262000 -11.000000 1.000000 6.000000 84.149506 33.136707 272.389609 1072.703493 21.170771 0.000000 0.111868
625.000000 49.823000 -10.000000 1.000000 6.000000 81.766292 36.314416 183.966240 1134.282180 20.083213 0.000000 0.118698
626.000000 52.315000 -9.000000 1.000000 6.000000 78.767771 39.882344 75.641701 1219.539994 19.127073 0.000000 0.144155
627.000000 54.519000 -8.000000 1.000000 6.000000 74.972590 43.883784 -60.154591 1341.895173 18.354734 0.000000 0.199045
628.000000 56.061000 -7.000000 1.000000 6.000000 70.152258 48.356112 -235.390730 1525.655904 17.850683 0.000000 0.297390
631.000000 50.167000 -11.000000 2.000000 6.000000 91.905076 36.942861 165.635672 896.207417 19.941728 0.000000 0.089854
632.000000 56.114000 -9.000000 2.000000 6.000000 87.313545 44.556983 -84.777628 1011.874365 17.829346 0.000000 0.156307
634.000000 46.376000 -13.000000 3.000000 6.000000 101.333894 34.336326 239.801468 679.747317 21.568538 0.000000 0.061667
635.000000 52.249000 -11.000000 3.000000 6.000000 99.173103 41.183790 33.313306 710.063404 19.144425 0.000000 0.085931
636.000000 55.423000 -10.000000 3.000000 6.000000 97.458841 45.223610 -109.728219 740.940401 18.048143 0.000000 0.141790
639.000000 47.548000 -13.000000 4.000000 6.000000 107.612314 38.188507 128.389457 506.288088 21.034286 0.000000 0.046759
640.000000 53.506000 -11.000000 4.000000 6.000000 105.820749 45.883583 -135.012945 502.882656 18.692083 0.000000 0.158359
642.000000 45.529000 -14.000000 5.000000 6.000000 113.706253 38.805484 109.467552 334.540857 21.964679 0.000000 0.066936
643.000000 48.185000 -13.000000 5.000000 6.000000 113.380700 42.464762 -10.024936 310.217357 20.754143 0.000000 0.121583
644.000000 51.018000 -12.000000 5.000000 6.000000 112.759784 46.536829 -160.638561 284.579694 19.601690 0.000000 0.197001
650.000000 46.509000 -9.000000 1.000000 7.000000 72.354437 44.396066 -78.840452 1420.150424 21.516533 0.000000 0.218883
651.000000 47.390000 -8.000000 1.000000 7.000000 67.946325 48.257534 -231.205093 1595.904183 21.117650 0.000000 0.309471
654.000000 46.233000 -11.000000 2.000000 7.000000 86.178482 41.451229 24.407287 1036.919309 21.640276 0.000000 0.128026
655.000000 48.289000 -10.000000 2.000000 7.000000 83.551278 44.976300 -100.404234 1112.971617 20.719572 0.000000 0.175640
656.000000 50.136000 -9.000000 2.000000 7.000000 80.277725 48.846461 -256.454487 1221.217130 19.957228 0.000000 0.254013
659.000000 46.004000 -12.000000 3.000000 7.000000 94.881572 42.013572 5.438543 817.279988 21.744989 0.000000 0.104344
660.000000 48.318000 -11.000000 3.000000 7.000000 93.007413 45.551545 -122.217766 860.251091 20.703812 0.000000 0.154291
661.000000 50.596000 -10.000000 3.000000 7.000000 90.615690 49.429270 -282.033153 923.216551 19.772279 0.000000 0.232668
664.000000 47.286000 -12.000000 4.000000 7.000000 100.994852 46.121752 -144.285413 639.309709 21.152924 0.000000 0.156547
665.000000 49.671000 -11.000000 4.000000 7.000000 99.272522 50.005938 -307.947575 667.594483 20.137303 0.000000 0.240203
668.000000 45.665000 -13.000000 5.000000 7.000000 107.767299 46.686874 -166.611641 438.244438 21.901055 0.000000 0.180028
669.000000 47.984000 -12.000000 5.000000 7.000000 106.547407 50.576446 -334.204406 437.444793 20.842857 0.000000 0.269787
#UB matrix in q= (UB) B0 G* 
#[[ 0.739982485 -0.669608824  0.054703091]
# [ 0.105866644  0.196659799  0.975123991]
# [-0.664242557 -0.71645129   0.216606764]]
#B0 matrix in q= UB (B0) G*
#[[ 0.19670273 -0.          0.03056101]
# [ 0.          0.19187965 -0.        ]
# [ 0.          0.          0.18806537]]
#UBB0 matrix in q= (UB B0) G* i.e. recip. basis vectors are columns in LT frame: astar = UBB0[:,0], bstar = UBB0[:,1], cstar = UBB0[:,2]. (abcstar as columns on xyzlab1, xlab1 = ui, ui = unit vector along incident beam)
#[[ 0.14555658 -0.12848431  0.03290237]
# [ 0.02082426  0.03773501  0.18662245]
# [-0.13065833 -0.13747243  0.02043631]]
#Euler angles phi theta psi (deg)
#[317.128  77.504   3.216]
#deviatoric strain in direct crystal frame (10-3 unit)
#[[-1.4  -0.61  0.27]
# [-0.61 -1.54 -0.14]
# [ 0.27 -0.14  2.94]]
#deviatoric strain in sample2 frame (10-3 unit)
#[[-1.17  1.01 -0.51]
# [ 1.01  2.7   0.44]
# [-0.51  0.44 -1.53]]
#new lattice parameters
#[ 5.1505     5.2108688  5.3154232 89.9971382 99.2171526 90.0693512]
#CCDLabel
#sCMOS
#DetectorParameters
#[79.0, 975.0, 941.0, 0.0, 0.0]
#pixelsize
#0.0734
#Frame dimensions
#[2018, 2016]
#
