#Strain and Orientation Refinement from experimental file: /home/micha/LaueProjects/DepthEffects/testZrO2_156.cor
#File created at Wed Jun 28 14:27:41 2023 with indexingSpotsSet.py
#Number of indexed spots: 538
#Element
#ZrO2
#grainIndex
#G_0
#Mean Deviation(pixel): 0.117
##spot_index intensity h k l 2theta Chi Xexp Yexp Energy GrainIndex PixDev
5.000000 45.634000 -4.000000 1.000000 -5.000000 98.902444 48.398868 -237.211199 687.076504 10.965348 0.000000 0.218574
6.000000 45.697000 -7.000000 2.000000 -10.000000 92.607646 48.037529 -221.921588 867.690172 21.902911 0.000000 0.215198
16.000000 49.138000 -9.000000 2.000000 -9.000000 109.587155 47.735949 -209.323880 371.554996 20.363009 0.000000 0.225715
17.000000 50.083000 -8.000000 2.000000 -9.000000 103.852944 47.335713 -192.828659 549.355544 19.980673 0.000000 0.200050
18.000000 50.593000 -7.000000 2.000000 -9.000000 97.429909 46.944196 -176.932886 735.411241 19.781658 0.000000 0.187692
19.000000 50.468000 -6.000000 2.000000 -9.000000 90.235493 46.561149 -161.604468 934.566234 19.833002 0.000000 0.191683
20.000000 49.463000 -5.000000 2.000000 -9.000000 82.190915 46.186334 -146.813561 1154.208989 20.238969 0.000000 0.212084
21.000000 47.292000 -4.000000 2.000000 -9.000000 73.231659 45.819520 -132.532381 1406.337775 21.171043 0.000000 0.248065
22.000000 45.803000 -11.000000 3.000000 -9.000000 118.312295 41.537975 21.502801 166.370719 21.842761 0.000000 0.146138
23.000000 47.094000 -10.000000 3.000000 -9.000000 113.676466 41.208918 32.479632 313.690118 21.245833 0.000000 0.115400
24.000000 48.199000 -3.000000 1.000000 -3.000000 108.514150 40.887439 43.097573 464.253907 6.920176 0.000000 0.092689
25.000000 49.009000 -8.000000 3.000000 -9.000000 102.755771 40.573299 53.373943 620.222399 20.419445 0.000000 0.084572
26.000000 49.378000 -7.000000 3.000000 -9.000000 96.327061 40.266266 63.324962 784.603021 20.269258 0.000000 0.093623
27.000000 49.118000 -2.000000 1.000000 -3.000000 89.152648 39.966121 72.965841 961.769910 6.793069 0.000000 0.114298
28.000000 48.000000 -5.000000 3.000000 -9.000000 81.162392 39.672649 82.310856 1158.411556 20.856624 0.000000 0.140961
29.000000 45.768000 -4.000000 3.000000 -9.000000 72.301345 39.385645 91.373421 1385.384490 21.877309 0.000000 0.173434
30.000000 45.912000 -10.000000 4.000000 -9.000000 111.953148 34.700402 229.727349 413.319000 21.793657 0.000000 0.025390
31.000000 46.849000 -9.000000 4.000000 -9.000000 106.753062 34.464937 236.252813 548.032997 21.359589 0.000000 0.036816
32.000000 47.478000 -8.000000 4.000000 -9.000000 100.974723 34.234890 242.592650 688.540758 21.078722 0.000000 0.060449
33.000000 47.661000 -7.000000 4.000000 -9.000000 94.551121 34.010085 248.754670 837.648002 21.000275 0.000000 0.083660
34.000000 47.225000 -6.000000 4.000000 -9.000000 87.415900 33.790350 254.746250 999.448118 21.197077 0.000000 0.103740
35.000000 45.964000 -5.000000 4.000000 -9.000000 79.509498 33.575523 260.574367 1180.204217 21.781662 0.000000 0.120715
36.000000 45.588000 -8.000000 5.000000 -9.000000 98.648344 28.420217 392.558962 754.863765 21.954237 0.000000 0.094519
37.000000 45.562000 -7.000000 5.000000 -9.000000 92.245896 28.269991 396.202186 893.073028 21.969497 0.000000 0.108651
45.000000 57.233000 -5.000000 1.000000 -8.000000 87.632046 52.396100 -422.399842 1013.938603 17.489144 0.000000 0.332685
52.000000 53.525000 -9.000000 2.000000 -8.000000 115.126670 46.428640 -156.352186 208.640660 18.692332 0.000000 0.222410
53.000000 55.064000 -4.000000 1.000000 -4.000000 109.389700 45.992044 -139.225690 395.766337 9.085909 0.000000 0.186216
54.000000 56.193000 -7.000000 2.000000 -8.000000 102.885388 45.566347 -122.784939 589.305310 17.808529 0.000000 0.162309
55.000000 56.668000 -3.000000 1.000000 -4.000000 95.501475 45.151192 -106.989555 794.009551 8.830808 0.000000 0.156871
56.000000 56.160000 -5.000000 2.000000 -8.000000 87.123249 44.746232 -91.802271 1017.151025 17.824160 0.000000 0.171776
57.000000 54.259000 -2.000000 1.000000 -4.000000 77.646389 44.351137 -77.188632 1270.653842 9.225784 0.000000 0.204221
58.000000 50.511000 -3.000000 2.000000 -8.000000 66.998247 43.965587 -63.116740 1575.795832 19.824224 0.000000 0.254690
59.000000 47.239000 -12.000000 3.000000 -8.000000 127.498319 39.776399 79.016250 -133.520266 21.176233 0.000000 0.184677
60.000000 49.028000 -11.000000 3.000000 -8.000000 123.417971 39.424064 90.164600 21.646990 20.404599 0.000000 0.147147
61.000000 50.763000 -10.000000 3.000000 -8.000000 118.848226 39.081117 100.908192 177.232116 19.708428 0.000000 0.110543
62.000000 52.362000 -9.000000 3.000000 -8.000000 113.713503 38.747210 111.268675 334.827850 19.108227 0.000000 0.078338
63.000000 53.704000 -8.000000 3.000000 -8.000000 107.927706 38.422013 121.266183 496.547516 18.632667 0.000000 0.059328
64.000000 54.618000 -7.000000 3.000000 -8.000000 101.395128 38.105209 130.919462 665.323850 18.323108 0.000000 0.064525
65.000000 54.869000 -6.000000 3.000000 -8.000000 94.013625 37.796496 140.245990 845.429588 18.241484 0.000000 0.086749
66.000000 54.155000 -5.000000 3.000000 -8.000000 85.681509 37.495586 149.262081 1043.440475 18.484913 0.000000 0.113685
67.000000 52.107000 -4.000000 3.000000 -8.000000 76.310011 37.202202 157.982980 1270.153608 19.214822 0.000000 0.142447
68.000000 48.328000 -3.000000 3.000000 -8.000000 65.842865 36.916080 166.422952 1544.788097 20.720728 0.000000 0.180057
69.000000 46.195000 -3.000000 1.000000 -2.000000 125.498988 32.364242 292.904733 32.134182 5.413883 0.000000 0.073729
70.000000 47.812000 -11.000000 4.000000 -8.000000 121.334807 32.126124 299.157842 167.226363 20.924457 0.000000 0.041511
71.000000 49.347000 -5.000000 2.000000 -4.000000 116.687910 31.894347 305.213138 303.756291 10.137563 0.000000 0.010550
72.000000 50.716000 -9.000000 4.000000 -8.000000 111.487745 31.668670 311.079864 443.175391 19.729615 0.000000 0.024184
73.000000 51.800000 -4.000000 2.000000 -4.000000 105.655260 31.448861 316.766691 587.437862 9.659371 0.000000 0.053303
74.000000 52.436000 -7.000000 4.000000 -8.000000 99.104361 31.234700 322.281770 739.282716 19.086850 0.000000 0.079084
75.000000 52.406000 -3.000000 2.000000 -4.000000 91.745547 31.025979 327.632765 902.723945 9.550083 0.000000 0.099611
76.000000 51.439000 -5.000000 4.000000 -8.000000 83.492923 30.822498 332.826892 1083.953901 19.462179 0.000000 0.113714
77.000000 49.217000 -1.000000 1.000000 -2.000000 74.275919 30.624068 337.870950 1293.133560 5.086039 0.000000 0.123183
78.000000 46.284000 -11.000000 5.000000 -8.000000 118.617664 25.578837 459.814892 289.946359 21.616510 0.000000 0.033313
79.000000 47.584000 -10.000000 5.000000 -8.000000 113.895660 25.443838 462.928378 412.930432 21.027643 0.000000 0.056868
80.000000 48.688000 -9.000000 5.000000 -8.000000 108.636402 25.312279 465.955807 539.475556 20.552797 0.000000 0.080083
81.000000 49.481000 -8.000000 5.000000 -8.000000 102.769145 25.184031 468.900699 671.460497 20.225588 0.000000 0.100362
82.000000 49.810000 -7.000000 5.000000 -8.000000 96.218778 25.058974 471.766384 811.533752 20.094290 0.000000 0.115666
83.000000 49.481000 -6.000000 5.000000 -8.000000 88.909775 24.936990 474.556015 963.588062 20.230795 0.000000 0.123850
84.000000 48.257000 -5.000000 5.000000 -8.000000 80.773053 24.817968 477.272580 1133.631464 20.747077 0.000000 0.123018
85.000000 45.876000 -4.000000 5.000000 -8.000000 71.756590 24.701803 479.918912 1331.504484 21.827636 0.000000 0.114182
86.000000 45.561000 -5.000000 3.000000 -4.000000 110.653695 19.759977 588.359288 509.912347 10.981464 0.000000 0.102321
87.000000 46.386000 -9.000000 6.000000 -8.000000 105.349452 19.705114 589.522475 627.183553 21.574158 0.000000 0.119486
88.000000 46.881000 -4.000000 3.000000 -4.000000 99.466507 19.651561 590.657116 750.437557 10.674433 0.000000 0.132484
89.000000 46.906000 -7.000000 6.000000 -8.000000 92.941295 19.599272 591.764249 882.298472 21.340120 0.000000 0.139351
90.000000 46.291000 -3.000000 3.000000 -4.000000 85.712443 19.548203 592.844862 1026.627462 10.813366 0.000000 0.137756
94.000000 65.770000 -5.000000 1.000000 -7.000000 93.727939 51.637863 -384.790415 828.005294 15.217486 0.000000 0.301451
95.000000 64.643000 -4.000000 1.000000 -7.000000 83.682679 51.080529 -357.938979 1130.665923 15.485462 0.000000 0.308400
102.000000 60.585000 -8.000000 2.000000 -7.000000 115.580959 44.242254 -73.195929 221.797336 16.514129 0.000000 0.179292
103.000000 62.557000 -7.000000 2.000000 -7.000000 109.065140 43.778765 -56.363653 425.822020 15.995212 0.000000 0.141820
104.000000 63.909000 -6.000000 2.000000 -7.000000 101.553383 43.328660 -40.265363 638.539058 15.658904 0.000000 0.122773
105.000000 64.216000 -5.000000 2.000000 -7.000000 92.881742 42.891421 -24.854075 867.050298 15.586436 0.000000 0.129931
106.000000 62.899000 -4.000000 2.000000 -7.000000 82.886345 42.466552 -10.086729 1123.086490 15.915612 0.000000 0.159058
107.000000 59.246000 -3.000000 2.000000 -7.000000 71.431627 42.053581 4.076208 1427.926127 16.900429 0.000000 0.204906
108.000000 52.526000 -2.000000 2.000000 -7.000000 58.457059 41.652057 17.671097 1825.192791 19.066259 0.000000 0.278548
112.000000 52.387000 -11.000000 3.000000 -7.000000 128.887796 36.689020 173.075769 -141.544209 19.094717 0.000000 0.151019
113.000000 54.647000 -10.000000 3.000000 -7.000000 124.433559 36.339036 183.253708 24.975505 18.306301 0.000000 0.111361
114.000000 56.848000 -9.000000 3.000000 -7.000000 119.380368 35.999788 193.032526 191.975880 17.598829 0.000000 0.071910
115.000000 58.867000 -8.000000 3.000000 -7.000000 113.623569 35.670810 202.435248 361.531842 16.997052 0.000000 0.038675
116.000000 60.511000 -7.000000 3.000000 -7.000000 107.041951 35.351666 211.483162 536.498358 16.536960 0.000000 0.036789
117.000000 61.501000 -6.000000 3.000000 -7.000000 99.499443 35.041938 220.195980 721.026741 16.272968 0.000000 0.064532
118.000000 61.441000 -5.000000 3.000000 -7.000000 90.851480 34.741234 228.591978 921.533697 16.291453 0.000000 0.093900
119.000000 59.812000 -4.000000 3.000000 -7.000000 80.959425 34.449181 236.688128 1148.668938 16.738247 0.000000 0.119155
120.000000 56.002000 -3.000000 3.000000 -7.000000 69.717045 34.165426 244.500211 1421.734778 17.880434 0.000000 0.145740
121.000000 49.421000 -2.000000 3.000000 -7.000000 57.091326 33.889632 252.042921 1780.062861 20.265430 0.000000 0.199197
122.000000 46.950000 -13.000000 4.000000 -7.000000 133.967890 29.007013 378.228122 -246.111027 21.304694 0.000000 0.107409
123.000000 48.940000 -12.000000 4.000000 -7.000000 130.340600 28.786226 383.639105 -101.962643 20.439640 0.000000 0.077591
124.000000 50.960000 -11.000000 4.000000 -7.000000 126.277898 28.572278 388.860689 41.472927 19.630636 0.000000 0.046094
125.000000 52.956000 -10.000000 4.000000 -7.000000 121.708892 28.364860 393.902645 185.308041 18.891837 0.000000 0.015676
126.000000 54.846000 -9.000000 4.000000 -7.000000 116.550492 28.163684 398.774088 330.968667 18.242607 0.000000 0.023778
127.000000 56.500000 -8.000000 4.000000 -7.000000 110.706546 27.968477 403.483521 480.361877 17.710146 0.000000 0.054002
128.000000 57.734000 -7.000000 4.000000 -7.000000 104.068211 27.778981 408.038896 636.155593 17.333914 0.000000 0.081712
129.000000 58.281000 -6.000000 4.000000 -7.000000 96.516818 27.594953 412.447650 802.270464 17.173401 0.000000 0.103606
130.000000 57.788000 -5.000000 4.000000 -7.000000 87.931121 27.416164 416.716750 984.799908 17.322699 0.000000 0.116746
131.000000 55.810000 -4.000000 4.000000 -7.000000 78.201524 27.242396 420.852728 1193.868410 17.939927 0.000000 0.119339
132.000000 51.853000 -3.000000 4.000000 -7.000000 67.253768 27.073444 424.861715 1447.774850 19.312860 0.000000 0.118477
134.000000 45.649000 -13.000000 5.000000 -7.000000 130.897810 21.699290 546.705946 -62.343075 21.912961 0.000000 0.037814
135.000000 47.420000 -12.000000 5.000000 -7.000000 127.148063 21.602495 548.810742 63.983627 21.095727 0.000000 0.027017
136.000000 49.181000 -11.000000 5.000000 -7.000000 122.965761 21.508542 550.851047 190.712558 20.341641 0.000000 0.038465
137.000000 50.873000 -10.000000 5.000000 -7.000000 118.284841 21.417308 552.829780 318.882526 19.666561 0.000000 0.061099
138.000000 52.409000 -9.000000 5.000000 -7.000000 113.029308 21.328677 554.749688 449.851160 19.092143 0.000000 0.085274
139.000000 53.661000 -8.000000 5.000000 -7.000000 107.113197 21.242540 556.613356 585.460123 18.648752 0.000000 0.107403
140.000000 54.451000 -7.000000 5.000000 -7.000000 100.441895 21.158794 558.423218 728.310677 18.380332 0.000000 0.124829
141.000000 54.540000 -6.000000 5.000000 -7.000000 92.915906 21.077340 560.181571 882.246900 18.352949 0.000000 0.134634
142.000000 53.621000 -5.000000 5.000000 -7.000000 84.438509 20.998086 561.890585 1053.255921 18.670721 0.000000 0.133388
143.000000 51.329000 -4.000000 5.000000 -7.000000 74.929054 20.920945 563.552306 1251.276332 19.507818 0.000000 0.118199
144.000000 47.287000 -3.000000 5.000000 -7.000000 64.343092 20.845832 565.168671 1494.200626 21.179288 0.000000 0.096546
145.000000 45.656000 -12.000000 6.000000 -7.000000 123.477039 15.482869 676.863698 202.434133 21.912417 0.000000 0.063045
146.000000 47.138000 -11.000000 6.000000 -7.000000 119.184201 15.479416 676.933537 317.242976 21.225024 0.000000 0.084428
147.000000 48.508000 -10.000000 6.000000 -7.000000 114.404874 15.476056 677.001499 434.288530 20.627301 0.000000 0.105623
148.000000 49.677000 -9.000000 6.000000 -7.000000 109.071195 15.472785 677.067659 554.912709 20.143675 0.000000 0.124822
149.000000 50.524000 -8.000000 6.000000 -7.000000 103.108385 15.469599 677.132087 680.951418 19.808335 0.000000 0.140136
150.000000 50.884000 -7.000000 6.000000 -7.000000 96.436804 15.466496 677.194850 815.011680 19.670642 0.000000 0.149293
151.000000 50.547000 -6.000000 6.000000 -7.000000 88.976218 15.463471 677.256013 960.956056 19.804599 0.000000 0.149394
152.000000 49.258000 -5.000000 6.000000 -7.000000 80.653324 15.460523 677.315635 1124.801349 20.326425 0.000000 0.136774
153.000000 46.730000 -4.000000 6.000000 -7.000000 71.413494 15.457648 677.373774 1316.514065 21.429658 0.000000 0.107954
154.000000 45.963000 -10.000000 7.000000 -7.000000 110.273860 10.439552 776.694935 536.732813 21.770957 0.000000 0.135291
155.000000 46.779000 -9.000000 7.000000 -7.000000 104.887662 10.497903 775.561393 649.997474 21.393535 0.000000 0.149324
156.000000 47.246000 -8.000000 7.000000 -7.000000 98.909036 10.554852 774.454666 769.379080 21.184483 0.000000 0.158385
157.000000 47.219000 -2.000000 2.000000 -2.000000 92.273022 10.610450 773.373813 897.535988 6.056982 0.000000 0.160249
158.000000 46.519000 -6.000000 7.000000 -7.000000 84.917402 10.664744 772.317938 1038.409793 21.521572 0.000000 0.151980
163.000000 76.152000 -5.000000 1.000000 -6.000000 100.992693 50.610959 -335.813181 611.542607 13.141284 0.000000 0.275392
164.000000 76.352000 -4.000000 1.000000 -6.000000 90.492760 49.972644 -306.434543 926.607375 13.109245 0.000000 0.262384
165.000000 73.536000 -3.000000 1.000000 -6.000000 78.054956 49.354197 -278.704337 1290.556796 13.614184 0.000000 0.290687
171.000000 66.611000 -4.000000 1.000000 -3.000000 122.484800 41.874857 10.148572 20.680946 7.509281 0.000000 0.180414
172.000000 69.699000 -7.000000 2.000000 -6.000000 116.056083 41.372484 27.037205 239.736010 14.354655 0.000000 0.130111
173.000000 73.889000 -5.000000 2.000000 -6.000000 99.629951 40.418908 58.389148 701.128109 13.544551 0.000000 0.087174
174.000000 70.560000 -3.000000 2.000000 -6.000000 76.843202 39.528351 86.876639 1267.180901 14.189343 0.000000 0.156220
175.000000 63.247000 -1.000000 1.000000 -3.000000 62.543738 39.104912 100.166151 1661.676577 7.916823 0.000000 0.218987
181.000000 58.678000 -10.000000 3.000000 -6.000000 130.406058 32.692043 284.242421 -147.652463 17.047509 0.000000 0.115293
182.000000 64.448000 -8.000000 3.000000 -6.000000 119.842779 32.048172 301.197785 212.513050 15.523487 0.000000 0.030789
183.000000 67.046000 -7.000000 3.000000 -6.000000 113.287321 31.743232 309.144694 396.273520 14.923677 0.000000 0.014405
184.000000 70.016000 -5.000000 3.000000 -6.000000 96.745597 31.164532 324.083301 792.225634 14.294928 0.000000 0.086591
185.000000 69.180000 -4.000000 3.000000 -6.000000 86.347947 30.889755 331.112519 1021.051153 14.470564 0.000000 0.109726
186.000000 58.328000 -2.000000 3.000000 -6.000000 60.428296 30.367038 344.373946 1648.828110 17.170220 0.000000 0.152544
187.000000 46.560000 -1.000000 3.000000 -6.000000 44.877242 30.118258 350.635720 2190.626249 21.513979 0.000000 0.273944
190.000000 51.688000 -6.000000 2.000000 -3.000000 135.318357 24.148930 492.446829 -251.700864 9.675824 0.000000 0.079238
191.000000 54.152000 -11.000000 4.000000 -6.000000 131.394419 23.987326 496.088158 -97.373444 18.471995 0.000000 0.051516
192.000000 56.672000 -5.000000 2.000000 -3.000000 126.946257 23.831431 499.592217 56.086426 8.825902 0.000000 0.026953
193.000000 59.170000 -9.000000 4.000000 -6.000000 121.877933 23.680948 502.966624 210.095887 16.907826 0.000000 0.031167
194.000000 61.520000 -4.000000 2.000000 -3.000000 116.074803 23.535604 506.218445 366.526420 8.131880 0.000000 0.059078
195.000000 63.517000 -7.000000 4.000000 -6.000000 109.401991 23.395141 509.354240 527.979816 15.754268 0.000000 0.088361
196.000000 64.852000 -3.000000 2.000000 -3.000000 101.705330 23.259319 512.380111 698.279087 7.716067 0.000000 0.112779
197.000000 65.075000 -5.000000 4.000000 -6.000000 92.817542 23.127912 515.301737 883.400893 15.381903 0.000000 0.127592
198.000000 63.574000 -2.000000 2.000000 -3.000000 82.574077 23.000711 518.124415 1093.396976 7.874000 0.000000 0.127573
199.000000 59.609000 -3.000000 4.000000 -6.000000 70.844231 22.877518 520.853087 1346.794535 16.799130 0.000000 0.110835
200.000000 52.443000 -1.000000 2.000000 -3.000000 57.581471 22.758148 523.492373 1682.233480 9.549315 0.000000 0.114383
201.000000 45.834000 -14.000000 5.000000 -6.000000 138.335897 16.510563 655.971273 -320.548043 21.822389 0.000000 0.054443
202.000000 47.857000 -13.000000 5.000000 -6.000000 135.077150 16.488679 656.418420 -184.481164 20.900995 0.000000 0.038602
203.000000 49.955000 -12.000000 5.000000 -6.000000 131.435297 16.467530 656.850457 -49.697987 20.024013 0.000000 0.030207
204.000000 52.097000 -11.000000 5.000000 -6.000000 127.347399 16.447080 657.268139 84.634421 19.201924 0.000000 0.040731
205.000000 54.228000 -10.000000 5.000000 -6.000000 122.738759 16.427294 657.672169 219.552822 18.448783 0.000000 0.063128
206.000000 56.260000 -9.000000 5.000000 -6.000000 117.521279 16.408140 658.063205 356.400008 17.783894 0.000000 0.088574
207.000000 58.060000 -8.000000 5.000000 -6.000000 111.592328 16.389589 658.441865 496.989395 17.234509 0.000000 0.113040
208.000000 59.426000 -7.000000 5.000000 -6.000000 104.834905 16.371613 658.808726 643.882190 16.840387 0.000000 0.133439
209.000000 60.072000 -6.000000 5.000000 -6.000000 97.120532 16.354185 659.164333 800.879408 16.661901 0.000000 0.146283
210.000000 59.604000 -5.000000 5.000000 -6.000000 88.317096 16.337280 659.509194 973.952789 16.795387 0.000000 0.147055
211.000000 57.529000 -4.000000 5.000000 -6.000000 78.304722 16.320876 659.843790 1173.152375 17.404601 0.000000 0.129958
212.000000 53.292000 -3.000000 5.000000 -6.000000 67.002734 16.304951 660.168573 1416.941057 18.792222 0.000000 0.091967
213.000000 46.402000 -2.000000 5.000000 -6.000000 54.408345 16.289483 660.483967 1743.530076 21.586806 0.000000 0.091690
214.000000 46.149000 -13.000000 6.000000 -6.000000 130.887862 10.113647 783.018296 -5.625588 21.675946 0.000000 0.040177
215.000000 47.958000 -4.000000 2.000000 -2.000000 127.092465 10.191046 781.517727 114.183046 6.953167 0.000000 0.059932
216.000000 49.756000 -11.000000 6.000000 -6.000000 122.854147 10.266145 780.061082 234.626531 20.107134 0.000000 0.082426
217.000000 51.480000 -5.000000 3.000000 -3.000000 118.104494 10.339042 778.646459 356.716860 9.717578 0.000000 0.105395
218.000000 53.038000 -3.000000 2.000000 -2.000000 112.764727 10.409834 777.272067 481.788633 6.288646 0.000000 0.126965
219.000000 54.296000 -4.000000 3.000000 -3.000000 106.745695 10.478611 775.936213 611.668063 9.215494 0.000000 0.145106
220.000000 55.064000 -7.000000 6.000000 -6.000000 99.949376 10.545456 774.637299 748.957058 18.176178 0.000000 0.157307
221.000000 54.043000 -5.000000 6.000000 -6.000000 83.617589 10.673669 772.144326 1063.510879 18.525689 0.000000 0.149361
222.000000 51.545000 -2.000000 3.000000 -3.000000 73.902265 10.735184 770.947483 1257.143230 9.713584 0.000000 0.118508
223.000000 47.202000 -1.000000 2.000000 -2.000000 63.086330 10.795063 769.782001 1497.201056 7.072787 0.000000 0.064785
224.000000 45.775000 -12.000000 7.000000 -6.000000 122.518301 5.081068 879.301756 252.134546 21.855743 0.000000 0.093710
225.000000 47.228000 -11.000000 7.000000 -6.000000 118.151814 5.217332 876.721265 362.664868 21.184878 0.000000 0.114591
226.000000 48.555000 -10.000000 7.000000 -6.000000 113.289399 5.350021 874.207398 475.683437 20.607706 0.000000 0.134051
227.000000 49.663000 -9.000000 7.000000 -6.000000 107.862427 5.479272 871.757610 592.553581 20.150132 0.000000 0.150613
228.000000 50.423000 -8.000000 7.000000 -6.000000 101.795696 5.605217 869.369481 715.154919 19.848585 0.000000 0.162419
229.000000 50.666000 -7.000000 7.000000 -6.000000 95.009789 5.727979 867.040712 846.177701 19.755960 0.000000 0.167043
230.000000 50.176000 -6.000000 7.000000 -6.000000 87.425788 5.847676 864.769116 989.641947 19.952104 0.000000 0.161182
231.000000 48.692000 -5.000000 7.000000 -6.000000 78.973366 5.964420 862.552615 1151.871210 20.563498 0.000000 0.140219
232.000000 45.932000 -4.000000 7.000000 -6.000000 69.603169 6.078319 860.389227 1343.465108 21.803110 0.000000 0.097764
233.000000 45.562000 -5.000000 4.000000 -3.000000 108.467076 1.245392 951.601774 581.479624 10.981643 0.000000 0.152244
234.000000 46.264000 -9.000000 8.000000 -6.000000 102.990685 1.411039 948.488445 692.626866 21.632752 0.000000 0.163693
235.000000 46.592000 -4.000000 4.000000 -3.000000 96.919011 1.572881 945.446197 810.342494 10.741406 0.000000 0.169452
236.000000 46.401000 -7.000000 8.000000 -6.000000 90.189762 1.731045 942.472623 937.433707 21.574226 0.000000 0.167123
237.000000 45.513000 -3.000000 4.000000 -3.000000 82.744754 1.885654 939.565425 1078.096317 10.999229 0.000000 0.153420
240.000000 88.688000 -5.000000 1.000000 -5.000000 109.709461 49.143057 -269.396489 351.599502 11.282228 0.000000 0.260834
241.000000 90.347000 -3.000000 1.000000 -5.000000 85.638460 47.683124 -207.132297 1062.933932 11.079633 0.000000 0.225892
242.000000 83.252000 -2.000000 1.000000 -5.000000 69.479335 46.994434 -178.959555 1531.632636 12.027181 0.000000 0.289906
247.000000 77.542000 -7.000000 2.000000 -5.000000 123.916609 37.974343 134.882637 22.941862 12.901245 0.000000 0.129549
248.000000 81.852000 -6.000000 2.000000 -5.000000 116.488472 37.463825 150.209482 265.272631 12.223401 0.000000 0.074001
249.000000 85.381000 -5.000000 2.000000 -5.000000 107.532023 36.974631 164.700987 515.396110 11.720005 0.000000 0.045007
250.000000 87.106000 -4.000000 2.000000 -5.000000 96.674787 36.505521 178.423632 784.299999 11.490103 0.000000 0.074669
251.000000 85.380000 -3.000000 2.000000 -5.000000 83.512212 36.055340 191.437024 1092.395917 11.725219 0.000000 0.115996
252.000000 77.927000 -2.000000 2.000000 -5.000000 67.701254 35.623018 203.794764 1484.007687 12.850162 0.000000 0.161970
253.000000 62.470000 -1.000000 2.000000 -5.000000 49.153425 35.207561 215.545186 2079.900556 16.033725 0.000000 0.277472
258.000000 66.478000 -9.000000 3.000000 -5.000000 131.990032 27.376997 417.650131 -149.946650 15.046837 0.000000 0.078628
259.000000 70.330000 -8.000000 3.000000 -5.000000 126.519237 27.111104 423.969164 45.647447 14.223925 0.000000 0.037912
260.000000 74.122000 -7.000000 3.000000 -5.000000 120.085852 26.856444 429.993138 242.062511 13.497539 0.000000 0.018163
261.000000 77.523000 -6.000000 3.000000 -5.000000 112.465246 26.612330 435.742248 443.212282 12.907073 0.000000 0.055471
262.000000 79.954000 -5.000000 3.000000 -5.000000 103.385771 26.378128 441.234888 655.106121 12.516729 0.000000 0.092032
263.000000 80.472000 -4.000000 3.000000 -5.000000 92.537813 26.153254 446.487844 887.855230 12.438704 0.000000 0.116475
264.000000 77.684000 -3.000000 3.000000 -5.000000 79.610391 25.937169 451.516470 1160.438297 12.888337 0.000000 0.120870
265.000000 69.848000 -2.000000 3.000000 -5.000000 64.377934 25.729372 456.334836 1513.993202 14.338007 0.000000 0.115349
266.000000 55.454000 -1.000000 3.000000 -5.000000 46.852045 25.529401 460.955859 2059.028952 18.063786 0.000000 0.215259
271.000000 57.300000 -11.000000 4.000000 -5.000000 136.541179 17.940229 626.531694 -252.858635 17.456045 0.000000 0.051616
272.000000 60.391000 -10.000000 4.000000 -5.000000 132.257213 17.884504 627.687840 -86.537398 16.563678 0.000000 0.032584
273.000000 63.574000 -9.000000 4.000000 -5.000000 127.330242 17.831023 628.796767 78.766896 15.735352 0.000000 0.036312
274.000000 66.735000 -8.000000 4.000000 -5.000000 121.626815 17.779652 629.861309 244.918478 14.991467 0.000000 0.062987
275.000000 69.667000 -7.000000 4.000000 -5.000000 114.983857 17.730268 630.884078 414.475344 14.362113 0.000000 0.094275
276.000000 72.027000 -6.000000 4.000000 -5.000000 107.206087 17.682760 631.867487 591.177893 13.893610 0.000000 0.122433
277.000000 73.265000 -5.000000 4.000000 -5.000000 98.068852 17.637021 632.813764 780.891673 13.661143 0.000000 0.141401
278.000000 72.567000 -4.000000 4.000000 -5.000000 87.333206 17.592956 633.724974 993.591431 13.795404 0.000000 0.143529
279.000000 68.842000 -3.000000 4.000000 -5.000000 74.784026 17.550474 634.603029 1248.036990 14.545406 0.000000 0.119126
280.000000 60.880000 -2.000000 4.000000 -5.000000 60.302995 17.509490 635.449709 1584.655254 16.451564 0.000000 0.080886
281.000000 47.821000 -1.000000 4.000000 -5.000000 43.976449 17.469928 636.266664 2110.391143 20.948222 0.000000 0.204140
284.000000 49.970000 -13.000000 5.000000 -5.000000 139.080882 9.900847 787.140176 -319.442707 20.016013 0.000000 0.030944
285.000000 52.406000 -12.000000 5.000000 -5.000000 135.567624 10.001215 785.196748 -173.773900 19.086664 0.000000 0.025523
286.000000 54.947000 -11.000000 5.000000 -5.000000 131.599124 10.097881 783.323856 -29.584014 18.204829 0.000000 0.036860
287.000000 60.131000 -9.000000 5.000000 -5.000000 121.947492 10.280897 779.774854 258.875621 16.638078 0.000000 0.087042
288.000000 62.556000 -8.000000 5.000000 -5.000000 116.044168 10.367607 778.091972 406.298898 15.994684 0.000000 0.114297
289.000000 64.608000 -7.000000 5.000000 -5.000000 109.240927 10.451337 776.466035 558.994703 15.488603 0.000000 0.138408
290.000000 65.953000 -6.000000 5.000000 -5.000000 101.375739 10.532238 774.894201 720.744414 15.174867 0.000000 0.155487
291.000000 64.407000 -4.000000 5.000000 -5.000000 81.761359 10.686106 771.902388 1099.587642 15.545226 0.000000 0.145008
292.000000 60.059000 -3.000000 5.000000 -5.000000 69.708280 10.759328 770.477596 1346.077784 16.674258 0.000000 0.099223
293.000000 52.293000 -2.000000 5.000000 -5.000000 56.076140 10.830232 769.097257 1678.018103 19.154693 0.000000 0.054408
294.000000 46.051000 -14.000000 6.000000 -5.000000 137.487585 3.423302 910.617058 -235.156969 21.719820 0.000000 0.015168
295.000000 48.073000 -13.000000 6.000000 -5.000000 134.169540 3.621285 906.883868 -106.629501 20.807248 0.000000 0.030038
296.000000 50.164000 -12.000000 6.000000 -5.000000 130.459099 3.812825 903.270635 21.049595 19.940924 0.000000 0.050807
297.000000 52.289000 -11.000000 6.000000 -5.000000 126.291785 3.998225 899.771671 148.692517 19.131902 0.000000 0.074553
298.000000 54.388000 -10.000000 6.000000 -5.000000 121.591186 4.177774 896.381638 277.324041 18.395063 0.000000 0.099450
299.000000 56.366000 -9.000000 6.000000 -5.000000 116.267408 4.351740 893.095527 408.288019 17.750928 0.000000 0.123681
300.000000 58.082000 -8.000000 6.000000 -5.000000 110.216122 4.520378 889.908633 543.420195 17.228611 0.000000 0.145113
301.000000 59.321000 -7.000000 6.000000 -5.000000 103.319121 4.683924 886.816527 685.341707 16.870843 0.000000 0.161043
302.000000 59.784000 -6.000000 6.000000 -5.000000 95.447869 4.842604 883.815045 837.985198 16.742989 0.000000 0.167815
303.000000 59.063000 -5.000000 6.000000 -5.000000 86.472418 4.996629 880.900258 1007.602157 16.950314 0.000000 0.160216
304.000000 56.656000 -4.000000 6.000000 -5.000000 76.278772 5.146200 878.068464 1204.858357 17.673919 0.000000 0.130466
305.000000 52.017000 -3.000000 6.000000 -5.000000 64.797495 5.291504 875.316169 1449.690963 19.254033 0.000000 0.067397
306.000000 45.990000 -13.000000 7.000000 -5.000000 129.103867 -1.253011 998.541410 65.989518 21.751174 0.000000 0.060335
307.000000 47.733000 -12.000000 7.000000 -5.000000 125.220064 -1.013664 994.043541 181.074402 20.958466 0.000000 0.082589
308.000000 49.444000 -11.000000 7.000000 -5.000000 120.884638 -0.780989 989.671701 297.183225 20.234422 0.000000 0.105292
309.000000 51.058000 -10.000000 7.000000 -5.000000 116.029070 -0.554720 985.420667 415.355427 19.596771 0.000000 0.127140
310.000000 52.473000 -9.000000 7.000000 -5.000000 110.575037 -0.334600 981.285500 536.975780 19.069918 0.000000 0.146559
311.000000 53.551000 -8.000000 7.000000 -5.000000 104.434786 -0.120391 977.261527 663.957342 18.688418 0.000000 0.161570
312.000000 54.095000 -7.000000 7.000000 -5.000000 97.513162 0.088139 973.344321 799.051462 18.502862 0.000000 0.169566
313.000000 53.849000 -6.000000 7.000000 -5.000000 89.712454 0.291206 969.529690 946.401632 18.590396 0.000000 0.166957
314.000000 52.490000 -5.000000 7.000000 -5.000000 80.941607 0.489017 965.813656 1112.599116 19.074790 0.000000 0.148578
315.000000 49.655000 -4.000000 7.000000 -5.000000 71.131377 0.681769 962.192445 1308.865553 20.167910 0.000000 0.106694
316.000000 46.517000 -11.000000 8.000000 -5.000000 115.548133 -4.577623 1061.173526 424.877277 21.509604 0.000000 0.127252
317.000000 47.685000 -10.000000 8.000000 -5.000000 110.580450 -4.328427 1056.464017 535.710683 20.984776 0.000000 0.145069
318.000000 48.602000 -9.000000 8.000000 -5.000000 105.046486 -4.085188 1051.870058 650.934695 20.591166 0.000000 0.159283
319.000000 49.137000 -8.000000 8.000000 -5.000000 98.874636 -3.847701 1047.387449 772.565271 20.369413 0.000000 0.167972
320.000000 49.121000 -7.000000 8.000000 -5.000000 91.990885 -3.615774 1043.012189 903.511776 20.378870 0.000000 0.168586
321.000000 48.343000 -6.000000 8.000000 -5.000000 84.324001 -3.389221 1038.740468 1048.160549 20.709775 0.000000 0.157608
322.000000 46.560000 -5.000000 8.000000 -5.000000 75.813941 -3.167864 1034.568654 1213.482056 21.506352 0.000000 0.130041
328.000000 85.853000 -7.000000 2.000000 -4.000000 132.618433 32.860541 279.764999 -237.987996 11.651012 0.000000 0.135095
329.000000 79.535000 -1.000000 2.000000 -4.000000 52.851775 30.241641 347.534139 1884.872499 12.593440 0.000000 0.196381
333.000000 71.314000 -9.000000 3.000000 -4.000000 138.646351 20.252421 577.882398 -362.388753 14.025455 0.000000 0.076331
334.000000 76.290000 -8.000000 3.000000 -4.000000 133.451265 20.119564 580.715448 -144.891121 13.111527 0.000000 0.044669
335.000000 81.500000 -7.000000 3.000000 -4.000000 127.250107 19.993538 583.398393 70.073965 12.274444 0.000000 0.030130
336.000000 86.648000 -6.000000 3.000000 -4.000000 119.768779 19.873829 585.942856 286.392962 11.546580 0.000000 0.062164
337.000000 84.674000 -2.000000 3.000000 -4.000000 68.950623 19.449558 594.930253 1380.282915 11.826921 0.000000 0.102555
338.000000 66.995000 -1.000000 3.000000 -4.000000 49.046127 19.355310 596.920306 1931.043973 14.952123 0.000000 0.153172
341.000000 60.285000 -11.000000 4.000000 -4.000000 141.458721 9.823013 788.646467 -430.190630 16.590862 0.000000 0.038624
342.000000 63.966000 -5.000000 2.000000 -2.000000 137.376572 9.951507 786.159399 -246.365779 7.818414 0.000000 0.026752
343.000000 67.880000 -9.000000 4.000000 -4.000000 132.638189 10.074050 783.785677 -65.546543 14.736177 0.000000 0.032488
344.000000 75.948000 -7.000000 4.000000 -4.000000 120.547913 10.302862 779.348632 295.391567 13.173246 0.000000 0.093968
345.000000 82.134000 -5.000000 4.000000 -4.000000 103.451081 10.512270 775.282235 679.181917 12.184951 0.000000 0.152133
346.000000 79.501000 -3.000000 4.000000 -4.000000 78.896204 10.704635 771.541906 1155.975641 12.594513 0.000000 0.136859
347.000000 54.938000 -1.000000 4.000000 -4.000000 44.884407 10.881954 768.089936 2041.433614 18.234811 0.000000 0.167331
351.000000 54.684000 -12.000000 5.000000 -4.000000 139.297416 1.853582 940.168525 -310.848415 18.290671 0.000000 0.008312
352.000000 57.624000 -11.000000 5.000000 -4.000000 135.466405 2.128016 935.007087 -153.716168 17.358382 0.000000 0.023474
353.000000 60.705000 -10.000000 5.000000 -4.000000 131.084791 2.391600 930.047976 1.773541 16.478277 0.000000 0.048085
354.000000 63.859000 -9.000000 5.000000 -4.000000 126.041083 2.644955 925.279525 157.011513 15.665622 0.000000 0.077063
355.000000 66.957000 -8.000000 5.000000 -4.000000 120.198076 2.888655 920.690945 313.833246 14.942278 0.000000 0.107425
356.000000 69.774000 -7.000000 5.000000 -4.000000 113.388739 3.123234 916.272249 474.804542 14.340703 0.000000 0.135891
357.000000 71.939000 -6.000000 5.000000 -4.000000 105.414356 3.349187 912.014173 643.741307 13.911246 0.000000 0.158269
358.000000 72.868000 -5.000000 5.000000 -4.000000 96.048941 3.566975 907.908115 826.725954 13.736454 0.000000 0.168682
359.000000 71.708000 -4.000000 5.000000 -4.000000 85.057266 3.777026 903.946077 1034.282280 13.961703 0.000000 0.158178
360.000000 67.349000 -3.000000 5.000000 -4.000000 72.237577 3.979740 900.120613 1286.615201 14.869024 0.000000 0.112130
361.000000 58.621000 -2.000000 5.000000 -4.000000 57.499704 4.175490 896.424781 1628.507744 17.086993 0.000000 0.018818
362.000000 47.581000 -7.000000 3.000000 -2.000000 140.200674 -4.510765 1059.909675 -354.853227 10.510515 0.000000 0.011281
363.000000 49.833000 -13.000000 6.000000 -4.000000 136.981029 -4.154560 1053.179976 -215.457262 20.071579 0.000000 0.015583
364.000000 52.197000 -6.000000 3.000000 -2.000000 133.362841 -3.810514 1046.685758 -77.731594 9.581819 0.000000 0.034282
365.000000 54.642000 -11.000000 6.000000 -4.000000 129.276457 -3.478037 1040.414875 59.177427 18.307315 0.000000 0.058352
366.000000 57.113000 -5.000000 3.000000 -2.000000 124.637934 -3.156578 1034.356001 196.332311 8.758142 0.000000 0.084959
367.000000 59.520000 -9.000000 6.000000 -4.000000 119.346563 -2.845617 1028.498562 335.114057 16.809524 0.000000 0.112011
368.000000 61.712000 -4.000000 3.000000 -2.000000 113.282749 -2.544665 1022.832678 477.401429 8.107075 0.000000 0.137173
369.000000 63.457000 -7.000000 6.000000 -4.000000 106.307223 -2.253263 1017.349102 625.878595 15.770316 0.000000 0.157515
370.000000 64.408000 -3.000000 3.000000 -2.000000 98.263466 -1.970977 1012.039177 784.593932 7.770054 0.000000 0.169076
371.000000 64.070000 -5.000000 6.000000 -4.000000 88.986528 -1.697400 1006.894780 960.048288 15.624891 0.000000 0.166141
372.000000 61.800000 -2.000000 3.000000 -2.000000 78.322977 -1.432146 1001.908291 1163.509236 8.101106 0.000000 0.139938
373.000000 56.859000 -3.000000 6.000000 -4.000000 66.167251 -1.174852 997.072550 1416.537344 17.613923 0.000000 0.076230
374.000000 48.595000 -1.000000 3.000000 -2.000000 52.516200 -0.925176 992.380822 1766.493883 10.306721 0.000000 0.049697
375.000000 45.639000 -14.000000 7.000000 -4.000000 134.712277 -8.752579 1140.707137 -137.093278 21.916716 0.000000 0.024791
376.000000 47.557000 -13.000000 7.000000 -4.000000 131.281792 -8.381196 1133.572386 -14.142472 21.033977 0.000000 0.041415
377.000000 49.517000 -12.000000 7.000000 -4.000000 127.448941 -8.020509 1126.656180 108.509921 20.202505 0.000000 0.063560
378.000000 51.477000 -11.000000 7.000000 -4.000000 123.149362 -7.670091 1119.948629 231.704474 19.434714 0.000000 0.087783
379.000000 53.369000 -10.000000 7.000000 -4.000000 118.307484 -7.329535 1113.440430 356.517975 18.747378 0.000000 0.112131
380.000000 55.089000 -9.000000 7.000000 -4.000000 112.835443 -6.998453 1107.122827 484.381848 18.163728 0.000000 0.134751
381.000000 56.485000 -8.000000 7.000000 -4.000000 106.632828 -6.676477 1100.987568 617.275814 17.716893 0.000000 0.153476
382.000000 57.338000 -7.000000 7.000000 -4.000000 99.588189 -6.363255 1095.026871 758.059605 17.455796 0.000000 0.165509
383.000000 57.346000 -6.000000 7.000000 -4.000000 91.583811 -6.058454 1089.233390 911.073583 17.455843 0.000000 0.167014
384.000000 56.123000 -5.000000 7.000000 -4.000000 82.505901 -5.761755 1083.600186 1083.302985 17.839648 0.000000 0.152476
385.000000 53.207000 -4.000000 7.000000 -4.000000 72.262702 -5.472853 1078.120699 1286.837978 18.820822 0.000000 0.113713
386.000000 48.136000 -3.000000 7.000000 -4.000000 60.812186 -5.191461 1072.788722 1544.696581 20.807640 0.000000 0.041628
387.000000 46.740000 -3.000000 2.000000 -1.000000 121.698384 -11.240583 1188.904351 263.309126 5.351197 0.000000 0.087830
388.000000 48.247000 -11.000000 8.000000 -4.000000 117.232297 -10.891381 1182.093709 376.932235 20.737694 0.000000 0.109983
389.000000 49.614000 -5.000000 4.000000 -2.000000 112.243216 -10.550650 1175.463649 493.255325 10.084082 0.000000 0.130588
390.000000 50.736000 -9.000000 8.000000 -4.000000 106.656839 -10.218107 1169.007084 613.790115 19.724186 0.000000 0.147984
391.000000 51.469000 -4.000000 4.000000 -2.000000 100.391647 -9.893484 1162.717291 740.645727 9.722796 0.000000 0.160121
392.000000 51.621000 -7.000000 8.000000 -4.000000 93.361693 -9.576520 1156.587892 876.884963 19.391051 0.000000 0.164316
393.000000 50.947000 -3.000000 4.000000 -2.000000 85.482211 -9.266966 1150.612828 1027.167025 9.825354 0.000000 0.156905
394.000000 49.155000 -5.000000 8.000000 -4.000000 76.679290 -8.964583 1144.786342 1198.987354 20.370550 0.000000 0.132821
395.000000 45.933000 -1.000000 2.000000 -1.000000 66.904593 -8.669141 1139.102961 1405.280748 5.450896 0.000000 0.085958
396.000000 45.957000 -10.000000 9.000000 -4.000000 106.521618 -13.097354 1225.409134 613.218568 21.775329 0.000000 0.141974
397.000000 46.579000 -9.000000 9.000000 -4.000000 100.880698 -12.772414 1218.983166 728.865318 21.486952 0.000000 0.154021
398.000000 46.784000 -8.000000 9.000000 -4.000000 94.617737 -12.454260 1212.707398 851.973123 21.395471 0.000000 0.159886
399.000000 46.411000 -7.000000 9.000000 -4.000000 87.668709 -12.142701 1206.576624 985.819971 21.570185 0.000000 0.157029
404.000000 81.977000 -8.000000 3.000000 -3.000000 140.163000 9.866532 787.804353 -368.481302 12.200815 0.000000 0.034354
405.000000 88.738000 -7.000000 3.000000 -3.000000 134.299144 10.033838 784.564806 -125.593728 11.272142 0.000000 0.027304
406.000000 81.424000 -1.000000 3.000000 -3.000000 51.197161 10.853370 768.646664 1822.213521 12.302480 0.000000 0.090531
410.000000 67.210000 -10.000000 4.000000 -3.000000 141.847590 -0.652896 987.265105 -429.155119 14.881408 0.000000 0.004548
411.000000 71.844000 -9.000000 4.000000 -3.000000 137.329454 -0.234075 979.397103 -226.582413 13.922304 0.000000 0.013510
412.000000 76.812000 -8.000000 4.000000 -3.000000 131.984553 0.163723 971.924483 -27.578387 13.022778 0.000000 0.043411
413.000000 81.964000 -7.000000 4.000000 -3.000000 125.595210 0.542006 964.818172 170.550597 12.205288 0.000000 0.080465
414.000000 86.963000 -6.000000 4.000000 -3.000000 117.877386 0.902147 958.051880 371.604709 11.505205 0.000000 0.119118
415.000000 81.689000 -2.000000 4.000000 -3.000000 65.541181 2.184664 933.941459 1430.917711 12.260200 0.000000 0.071428
416.000000 62.374000 -1.000000 4.000000 -3.000000 45.262578 2.470784 928.557836 2008.466597 16.061120 0.000000 0.145974
421.000000 59.996000 -11.000000 5.000000 -3.000000 138.583337 -7.725964 1121.017382 -290.277786 16.671227 0.000000 0.018602
422.000000 63.529000 -10.000000 5.000000 -3.000000 134.335780 -7.225800 1111.459996 -119.043271 15.744947 0.000000 0.027006
423.000000 67.234000 -9.000000 5.000000 -3.000000 129.407530 -6.745907 1102.309864 50.520058 14.878453 0.000000 0.054302
424.000000 70.995000 -8.000000 5.000000 -3.000000 123.645492 -6.285142 1093.541497 220.347780 14.091616 0.000000 0.087236
425.000000 74.588000 -7.000000 5.000000 -3.000000 116.857964 -5.842439 1085.131492 393.111294 13.414212 0.000000 0.120528
426.000000 77.615000 -6.000000 5.000000 -3.000000 108.808938 -5.416807 1077.058319 572.767761 12.892974 0.000000 0.149278
427.000000 79.399000 -5.000000 5.000000 -3.000000 99.218416 -5.007322 1069.302139 765.654130 12.605655 0.000000 0.166977
428.000000 78.878000 -4.000000 5.000000 -3.000000 87.778679 -4.613120 1061.844643 982.883845 12.691899 0.000000 0.163724
429.000000 74.562000 -3.000000 5.000000 -3.000000 74.203994 -4.233398 1054.668903 1246.312563 13.430113 0.000000 0.122945
430.000000 64.760000 -2.000000 5.000000 -3.000000 58.335253 -3.867404 1047.759247 1606.333506 15.466802 0.000000 0.022397
431.000000 48.339000 -1.000000 5.000000 -3.000000 40.302453 -3.514434 1041.101144 2212.403537 20.725301 0.000000 0.222677
434.000000 51.357000 -13.000000 6.000000 -3.000000 139.063269 -13.258695 1228.606057 -333.882406 19.475452 0.000000 0.038573
435.000000 53.965000 -4.000000 2.000000 -1.000000 135.534323 -12.728135 1218.108804 -183.183389 6.178364 0.000000 0.026282
436.000000 56.700000 -11.000000 6.000000 -3.000000 131.527685 -12.215463 1208.007135 -34.232669 17.641967 0.000000 0.034041
437.000000 59.515000 -10.000000 6.000000 -3.000000 126.952612 -11.719869 1198.279102 114.110250 16.808854 0.000000 0.058523
438.000000 64.964000 -8.000000 6.000000 -3.000000 115.630885 -10.776877 1179.863982 415.341512 15.401864 0.000000 0.117100
439.000000 67.197000 -7.000000 6.000000 -3.000000 108.590235 -10.328062 1171.140418 573.029050 14.892055 0.000000 0.142659
440.000000 68.669000 -5.000000 6.000000 -3.000000 90.833582 -9.472524 1154.579346 925.123673 14.577722 0.000000 0.163352
441.000000 66.528000 -4.000000 6.000000 -3.000000 79.719909 -9.064595 1146.712339 1138.678241 15.050190 0.000000 0.143082
442.000000 51.928000 -2.000000 6.000000 -3.000000 52.363979 -8.285634 1131.738762 1779.690953 19.290431 0.000000 0.067888
443.000000 46.816000 -14.000000 7.000000 -3.000000 136.167346 -16.913084 1302.271693 -230.751178 21.365403 0.000000 0.040505
444.000000 48.899000 -13.000000 7.000000 -3.000000 132.791557 -16.401218 1291.795496 -97.628789 20.456261 0.000000 0.028631
445.000000 51.050000 -12.000000 7.000000 -3.000000 129.004392 -15.903782 1281.667296 34.603518 19.595269 0.000000 0.036706
446.000000 53.229000 -11.000000 7.000000 -3.000000 124.736813 -15.420245 1271.870036 166.846600 18.794307 0.000000 0.059226
447.000000 55.369000 -10.000000 7.000000 -3.000000 119.906746 -14.950100 1262.387757 300.245742 18.069513 0.000000 0.085676
448.000000 57.362000 -9.000000 7.000000 -3.000000 114.417389 -14.492859 1253.205510 436.317778 17.443378 0.000000 0.111874
449.000000 59.044000 -8.000000 7.000000 -3.000000 108.156278 -14.048052 1244.309275 577.160797 16.948216 0.000000 0.134994
450.000000 60.175000 -7.000000 7.000000 -3.000000 100.996167 -13.615232 1235.685895 725.817351 16.632182 0.000000 0.151937
451.000000 60.409000 -6.000000 7.000000 -3.000000 92.799579 -13.193968 1227.323006 886.941375 16.570332 0.000000 0.158654
452.000000 59.289000 -5.000000 7.000000 -3.000000 83.429857 -12.783847 1219.208981 1068.114090 16.886469 0.000000 0.149494
453.000000 56.256000 -4.000000 7.000000 -3.000000 72.772317 -12.384472 1211.332873 1282.689637 17.800369 0.000000 0.116837
454.000000 50.731000 -3.000000 7.000000 -3.000000 60.768388 -11.995465 1203.684371 1556.745475 19.743160 0.000000 0.062120
455.000000 46.330000 -13.000000 8.000000 -3.000000 126.772323 -18.719618 1339.716303 91.712684 21.592188 0.000000 0.037080
456.000000 48.048000 -12.000000 8.000000 -3.000000 122.776170 -18.258837 1330.092690 211.267637 20.821488 0.000000 0.058178
457.000000 49.714000 -11.000000 8.000000 -3.000000 118.307464 -17.808993 1320.746635 332.117587 20.125257 0.000000 0.082370
458.000000 51.251000 -10.000000 8.000000 -3.000000 113.294426 -17.369753 1311.666300 455.456867 19.523397 0.000000 0.106167
459.000000 52.548000 -9.000000 8.000000 -3.000000 107.655366 -16.940798 1302.840513 582.894796 19.043590 0.000000 0.127362
460.000000 53.447000 -8.000000 8.000000 -3.000000 101.299434 -16.521816 1294.258717 716.684586 18.725523 0.000000 0.143690
461.000000 53.734000 -7.000000 8.000000 -3.000000 94.129355 -16.112508 1285.910933 860.118858 18.628175 0.000000 0.152353
462.000000 53.129000 -6.000000 8.000000 -3.000000 86.047437 -15.712582 1277.787718 1018.253206 18.843174 0.000000 0.149673
463.000000 51.293000 -5.000000 8.000000 -3.000000 76.966500 -15.321757 1269.880131 1199.326709 19.521011 0.000000 0.130971
464.000000 47.855000 -4.000000 8.000000 -3.000000 66.827205 -14.939761 1262.179697 1417.813029 20.927343 0.000000 0.093257
465.000000 46.256000 -11.000000 9.000000 -3.000000 112.282073 -19.652279 1359.358098 472.694567 21.631893 0.000000 0.100563
466.000000 47.277000 -10.000000 9.000000 -3.000000 107.151629 -19.243754 1350.727164 589.168099 21.167061 0.000000 0.120196
467.000000 48.001000 -3.000000 3.000000 -1.000000 101.436880 -18.843542 1342.313411 710.929098 6.950037 0.000000 0.135896
468.000000 48.287000 -8.000000 9.000000 -3.000000 95.066780 -18.451428 1334.108743 840.400681 20.728780 0.000000 0.145655
469.000000 47.959000 -7.000000 9.000000 -3.000000 87.969619 -18.067205 1326.105464 981.135383 20.873824 0.000000 0.146964
470.000000 46.798000 -2.000000 3.000000 -1.000000 80.079086 -17.690672 1318.296247 1138.592230 7.131603 0.000000 0.136767
474.000000 75.163000 -9.000000 4.000000 -2.000000 140.672357 -13.530949 1234.010360 -410.184965 13.306874 0.000000 0.046605
475.000000 87.153000 -7.000000 4.000000 -2.000000 129.317612 -11.965581 1203.097722 39.932614 11.477959 0.000000 0.045200
476.000000 68.417000 -1.000000 4.000000 -2.000000 44.494779 -8.098204 1128.144931 2047.478382 14.642578 0.000000 0.162924
480.000000 65.831000 -10.000000 5.000000 -2.000000 136.362587 -18.639151 1338.031965 -250.222928 15.193876 0.000000 0.049016
481.000000 70.002000 -9.000000 5.000000 -2.000000 131.537515 -17.886637 1322.356396 -60.907935 14.289622 0.000000 0.028713
482.000000 74.331000 -8.000000 5.000000 -2.000000 125.848893 -17.163253 1307.412456 127.110767 13.458521 0.000000 0.047140
483.000000 78.602000 -7.000000 5.000000 -2.000000 119.082870 -16.467557 1293.150090 316.757506 12.728726 0.000000 0.084105
484.000000 82.392000 -6.000000 5.000000 -2.000000 110.968863 -15.798183 1279.523711 512.327906 12.144961 0.000000 0.120593
485.000000 84.940000 -5.000000 5.000000 -2.000000 101.174963 -15.153837 1266.491705 720.716894 11.782818 0.000000 0.147778
486.000000 84.973000 -4.000000 5.000000 -2.000000 89.321036 -14.533296 1254.016014 954.176478 11.780945 0.000000 0.154860
487.000000 80.596000 -3.000000 5.000000 -2.000000 75.034286 -13.935402 1242.061760 1237.426459 12.424109 0.000000 0.125323
488.000000 69.535000 -2.000000 5.000000 -2.000000 58.082963 -13.359061 1230.596922 1630.022401 14.404558 0.000000 0.064092
493.000000 55.374000 -6.000000 3.000000 -1.000000 136.679383 -22.763788 1426.632230 -296.721368 9.031629 0.000000 0.073910
494.000000 58.342000 -11.000000 6.000000 -2.000000 132.734927 -22.057810 1411.114846 -131.923427 17.145118 0.000000 0.044931
495.000000 61.433000 -5.000000 3.000000 -1.000000 128.207004 -21.373962 1396.230985 31.256054 8.141826 0.000000 0.026765
496.000000 64.560000 -9.000000 6.000000 -2.000000 122.976074 -20.711408 1381.942627 194.437512 15.496103 0.000000 0.045708
497.000000 67.569000 -4.000000 3.000000 -1.000000 116.895092 -20.069336 1368.214733 359.788362 7.403745 0.000000 0.078691
498.000000 70.194000 -7.000000 6.000000 -2.000000 109.785584 -19.446964 1355.014961 530.390869 14.255562 0.000000 0.110760
499.000000 72.319000 -5.000000 6.000000 -2.000000 91.613445 -18.258343 1330.082396 909.076366 13.841550 0.000000 0.147546
500.000000 64.453000 -3.000000 6.000000 -2.000000 66.650246 -17.139858 1306.931125 1427.228197 15.537995 0.000000 0.096220
501.000000 53.971000 -1.000000 3.000000 -1.000000 51.287388 -16.605261 1295.964866 1841.205223 9.280017 0.000000 0.114040
503.000000 47.740000 -14.000000 7.000000 -2.000000 136.780327 -25.776823 1494.763970 -330.910396 20.951485 0.000000 0.095887
504.000000 49.951000 -13.000000 7.000000 -2.000000 133.442847 -25.125053 1479.747081 -184.851015 20.024932 0.000000 0.067342
505.000000 52.251000 -12.000000 7.000000 -2.000000 129.685196 -24.490278 1465.275032 -40.380240 19.144692 0.000000 0.038948
506.000000 54.599000 -11.000000 7.000000 -2.000000 125.434216 -23.871994 1451.318701 103.503437 18.322413 0.000000 0.023402
507.000000 56.929000 -10.000000 7.000000 -2.000000 120.602110 -23.269702 1437.851003 248.060999 17.574003 0.000000 0.043217
508.000000 59.128000 -9.000000 7.000000 -2.000000 115.084204 -22.682920 1424.846718 394.953720 16.921781 0.000000 0.073250
509.000000 61.024000 -8.000000 7.000000 -2.000000 108.757389 -22.111175 1412.282332 546.477447 16.398060 0.000000 0.102039
510.000000 62.350000 -7.000000 7.000000 -2.000000 101.480439 -21.554004 1400.135896 705.973052 16.051459 0.000000 0.125420
511.000000 62.723000 -6.000000 7.000000 -2.000000 93.098375 -21.010960 1388.386896 878.591144 15.958657 0.000000 0.139173
512.000000 61.617000 -5.000000 7.000000 -2.000000 83.454409 -20.481605 1377.016140 1072.829515 16.248058 0.000000 0.137981
513.000000 58.381000 -4.000000 7.000000 -2.000000 72.414178 -19.965516 1366.005651 1303.940908 17.152260 0.000000 0.116685
514.000000 52.327000 -3.000000 7.000000 -2.000000 59.906461 -19.462281 1355.338575 1602.543742 19.140625 0.000000 0.091983
515.000000 47.228000 -13.000000 8.000000 -2.000000 127.105049 -26.303491 1507.019370 32.822732 21.181546 0.000000 0.032673
516.000000 49.053000 -6.000000 4.000000 -1.000000 123.108750 -25.742867 1493.977565 161.805057 10.197443 0.000000 0.019833
517.000000 50.834000 -11.000000 8.000000 -2.000000 118.625391 -25.194596 1481.341666 291.806849 19.681463 0.000000 0.040630
518.000000 52.493000 -5.000000 4.000000 -1.000000 113.578215 -24.658374 1469.093013 424.133595 9.530628 0.000000 0.068347
519.000000 53.910000 -9.000000 8.000000 -2.000000 107.879115 -24.133898 1457.214074 560.544982 18.562241 0.000000 0.094585
520.000000 54.914000 -4.000000 4.000000 -1.000000 101.429186 -23.620870 1445.688356 703.512979 9.112414 0.000000 0.116452
521.000000 55.271000 -7.000000 8.000000 -2.000000 94.121451 -23.119001 1434.500338 856.673038 18.109645 0.000000 0.131122
522.000000 54.669000 -3.000000 4.000000 -1.000000 85.847312 -22.628004 1423.635392 1025.661694 9.155988 0.000000 0.135215
523.000000 52.725000 -5.000000 8.000000 -2.000000 76.508761 -22.147600 1413.079722 1219.791778 18.990666 0.000000 0.125369
524.000000 49.015000 -2.000000 4.000000 -1.000000 66.038295 -21.677514 1402.820309 1455.738936 10.215860 0.000000 0.104574
525.000000 45.872000 -12.000000 9.000000 -2.000000 116.962196 -26.692292 1516.138212 328.188691 21.811239 0.000000 0.038347
526.000000 47.155000 -11.000000 9.000000 -2.000000 112.313965 -26.200594 1504.616310 448.690085 21.219234 0.000000 0.064142
527.000000 48.245000 -10.000000 9.000000 -2.000000 107.129663 -25.718277 1493.408372 572.804673 20.741831 0.000000 0.088310
528.000000 49.027000 -9.000000 9.000000 -2.000000 101.337519 -25.245140 1482.501735 702.415251 20.413189 0.000000 0.108856
529.000000 49.349000 -8.000000 9.000000 -2.000000 94.860774 -24.780986 1471.884412 840.188169 20.282548 0.000000 0.123823
530.000000 49.015000 -7.000000 9.000000 -2.000000 87.621426 -24.325622 1461.545041 990.062735 20.423571 0.000000 0.130959
531.000000 47.787000 -6.000000 9.000000 -2.000000 79.546898 -23.878855 1451.472848 1158.156070 20.951633 0.000000 0.128022
536.000000 90.826000 -7.000000 4.000000 -1.000000 130.680280 -26.876782 1520.486957 -96.146575 11.013396 0.000000 0.059909
537.000000 69.922000 -1.000000 4.000000 -1.000000 41.756166 -20.767236 1383.141725 2230.398723 14.326866 0.000000 0.242951
541.000000 71.894000 -9.000000 5.000000 -1.000000 131.910439 -30.273422 1603.266017 -177.601964 13.913433 0.000000 0.096951
542.000000 76.595000 -8.000000 5.000000 -1.000000 126.244807 -29.295299 1578.872056 36.272204 13.060517 0.000000 0.046017
543.000000 81.298000 -7.000000 5.000000 -1.000000 119.454779 -28.349988 1555.736601 250.348472 12.306219 0.000000 0.014197
544.000000 85.555000 -6.000000 5.000000 -1.000000 111.241458 -27.436357 1533.764711 469.617116 11.695602 0.000000 0.060635
545.000000 88.519000 -5.000000 5.000000 -1.000000 101.230676 -26.553280 1512.870758 702.088472 11.306114 0.000000 0.102436
546.000000 88.720000 -4.000000 5.000000 -1.000000 88.983964 -25.699648 1492.977316 962.183612 11.283064 0.000000 0.126282
547.000000 83.899000 -3.000000 5.000000 -1.000000 74.060851 -24.874375 1474.014202 1279.817033 11.934772 0.000000 0.121082
548.000000 71.287000 -2.000000 5.000000 -1.000000 56.181985 -24.076395 1455.917646 1730.709253 14.050295 0.000000 0.127178
553.000000 59.445000 -11.000000 6.000000 -1.000000 132.626041 -32.563961 1662.365410 -234.387949 16.826760 0.000000 0.125599
554.000000 62.707000 -10.000000 6.000000 -1.000000 128.106514 -31.711636 1640.034891 -51.260253 15.952504 0.000000 0.081016
555.000000 66.029000 -9.000000 6.000000 -1.000000 122.861166 -30.882365 1618.698985 130.893886 15.151272 0.000000 0.034893
556.000000 69.247000 -8.000000 6.000000 -1.000000 116.732380 -30.075558 1598.292689 314.580179 14.448441 0.000000 0.012384
557.000000 72.078000 -7.000000 6.000000 -1.000000 109.526779 -29.290621 1578.756544 503.343303 13.882689 0.000000 0.055465
558.000000 74.045000 -6.000000 6.000000 -1.000000 101.013379 -28.526961 1560.036054 702.583158 13.516019 0.000000 0.092407
559.000000 74.398000 -5.000000 6.000000 -1.000000 90.930743 -27.783985 1542.081184 921.236004 13.454465 0.000000 0.117291
560.000000 72.053000 -4.000000 6.000000 -1.000000 79.013788 -27.061103 1524.845905 1175.628311 13.895618 0.000000 0.124049
561.000000 65.649000 -3.000000 6.000000 -1.000000 65.055742 -26.357731 1508.287809 1499.691913 15.254647 0.000000 0.119191
562.000000 53.919000 -2.000000 6.000000 -1.000000 49.017186 -25.673295 1492.367754 1978.460834 18.577545 0.000000 0.187803
566.000000 53.041000 -12.000000 7.000000 -1.000000 129.330062 -33.456044 1686.196789 -116.018525 18.859285 0.000000 0.108669
567.000000 55.487000 -11.000000 7.000000 -1.000000 125.067142 -32.720841 1666.521628 42.987669 18.028968 0.000000 0.068000
568.000000 57.922000 -10.000000 7.000000 -1.000000 120.205493 -32.002271 1647.602632 202.159961 17.272605 0.000000 0.026707
569.000000 60.227000 -9.000000 7.000000 -1.000000 114.634081 -31.299994 1629.397032 363.393955 16.613070 0.000000 0.014183
570.000000 62.216000 -8.000000 7.000000 -1.000000 108.221418 -30.613666 1611.865223 529.304709 16.083753 0.000000 0.052225
571.000000 63.602000 -7.000000 7.000000 -1.000000 100.815586 -29.942941 1594.970479 703.709610 15.735391 0.000000 0.085171
572.000000 63.963000 -6.000000 7.000000 -1.000000 92.248743 -29.287469 1578.678696 892.541821 15.649012 0.000000 0.109578
573.000000 62.719000 -5.000000 7.000000 -1.000000 82.350240 -28.646902 1562.958161 1105.723463 15.962512 0.000000 0.121838
574.000000 59.143000 -4.000000 7.000000 -1.000000 70.973992 -28.020893 1547.779347 1361.428584 16.931150 0.000000 0.122611
575.000000 52.476000 -3.000000 7.000000 -1.000000 58.045211 -27.409095 1533.114726 1697.258842 19.086172 0.000000 0.140416
576.000000 45.939000 -14.000000 8.000000 -1.000000 130.191936 -34.772339 1722.273654 -165.954324 21.774649 0.000000 0.130745
577.000000 47.808000 -13.000000 8.000000 -1.000000 126.605919 -34.113618 1704.079145 -24.663811 20.924604 0.000000 0.094544
578.000000 49.689000 -12.000000 8.000000 -1.000000 122.588407 -33.467653 1686.510139 116.240546 20.133449 0.000000 0.057702
579.000000 51.529000 -11.000000 8.000000 -1.000000 118.070289 -32.834237 1669.534924 257.899113 19.416198 0.000000 0.021364
580.000000 53.241000 -10.000000 8.000000 -1.000000 112.970829 -32.213157 1653.123898 401.785953 18.793444 0.000000 0.017476
581.000000 54.699000 -9.000000 8.000000 -1.000000 107.196942 -31.604199 1637.249394 549.887793 18.294212 0.000000 0.050347
582.000000 55.721000 -8.000000 8.000000 -1.000000 100.643680 -31.007145 1621.885523 705.004603 17.960773 0.000000 0.079895
583.000000 56.053000 -7.000000 8.000000 -1.000000 93.197109 -30.421774 1607.008039 871.281541 17.857165 0.000000 0.103226
584.000000 55.354000 -6.000000 8.000000 -1.000000 84.741344 -29.847867 1592.594203 1055.211726 18.085283 0.000000 0.117972
585.000000 53.209000 -5.000000 8.000000 -1.000000 75.172085 -29.285200 1578.622675 1267.681592 18.817699 0.000000 0.123659
586.000000 49.159000 -4.000000 8.000000 -1.000000 64.418908 -28.733554 1565.073402 1528.590226 20.371797 0.000000 0.130262
587.000000 46.371000 -12.000000 9.000000 -1.000000 116.318447 -33.476412 1686.746594 302.754337 21.576498 0.000000 0.018740
588.000000 47.681000 -11.000000 9.000000 -1.000000 111.621651 -32.920026 1671.819753 432.791313 20.985303 0.000000 0.020985
589.000000 48.787000 -10.000000 9.000000 -1.000000 106.372607 -32.373154 1657.329933 566.598541 20.511291 0.000000 0.049391
590.000000 49.569000 -9.000000 9.000000 -1.000000 100.495925 -31.835650 1643.258216 706.291348 20.190208 0.000000 0.076009
591.000000 49.862000 -8.000000 9.000000 -1.000000 93.910822 -31.307368 1629.586764 854.881889 20.073992 0.000000 0.098044
592.000000 49.457000 -7.000000 9.000000 -1.000000 86.535180 -30.788160 1616.298738 1016.856452 20.241097 0.000000 0.113781
593.000000 48.099000 -6.000000 9.000000 -1.000000 78.292836 -30.277877 1603.378231 1199.259259 20.815897 0.000000 0.122553
596.000000 199.624000 -3.000000 2.000000 0.000000 121.163510 -41.160707 1915.921405 76.450300 5.011566 0.000000 0.150984
597.000000 192.459000 -1.000000 2.000000 0.000000 61.921684 -35.907975 1754.335460 1649.879754 5.203457 0.000000 0.185859
599.000000 139.504000 -4.000000 3.000000 0.000000 114.929431 -40.235768 1885.691523 285.673905 7.172019 0.000000 0.098174
600.000000 148.660000 -3.000000 3.000000 0.000000 98.869204 -38.445988 1829.467787 726.557065 6.732179 0.000000 0.071025
601.000000 142.897000 -2.000000 3.000000 0.000000 76.279357 -36.734786 1778.261984 1268.899880 7.006573 0.000000 0.138944
604.000000 106.828000 -5.000000 4.000000 0.000000 111.407933 -39.780850 1871.125308 391.919402 9.366341 0.000000 0.076777
605.000000 110.040000 -3.000000 4.000000 0.000000 82.657104 -37.155334 1790.630155 1115.021834 9.097616 0.000000 0.121574
608.000000 77.446000 -8.000000 5.000000 0.000000 124.454033 -41.725396 1934.799313 -48.418618 12.917059 0.000000 0.185118
609.000000 82.200000 -7.000000 5.000000 0.000000 117.544794 -40.603321 1897.603973 201.631715 12.171423 0.000000 0.118294
610.000000 86.429000 -6.000000 5.000000 0.000000 109.149335 -39.510301 1862.553577 456.575447 11.577417 0.000000 0.067342
611.000000 88.871000 -4.000000 5.000000 0.000000 86.238308 -37.409970 1798.185928 1030.089557 11.263984 0.000000 0.111169
612.000000 82.966000 -3.000000 5.000000 0.000000 70.796052 -36.401787 1768.564382 1406.772138 12.068962 0.000000 0.154206
613.000000 68.540000 -2.000000 5.000000 0.000000 52.276536 -35.420929 1740.474383 1962.649934 14.613134 0.000000 0.242971
615.000000 72.522000 -7.000000 6.000000 0.000000 107.578793 -39.330932 1856.907415 500.168626 13.798003 0.000000 0.063116
616.000000 74.363000 -5.000000 6.000000 0.000000 88.527272 -37.580694 1803.280588 975.916437 13.461042 0.000000 0.104152
619.000000 55.811000 -11.000000 7.000000 0.000000 123.545120 -41.563309 1929.346940 -12.730466 17.924705 0.000000 0.175280
620.000000 58.241000 -10.000000 7.000000 0.000000 118.614558 -40.761831 1902.781795 165.787307 17.178109 0.000000 0.127404
621.000000 60.520000 -9.000000 7.000000 0.000000 112.953060 -39.975201 1877.324579 346.185822 16.532756 0.000000 0.085263
622.000000 62.446000 -8.000000 7.000000 0.000000 106.423886 -39.203299 1852.907395 531.585947 16.024504 0.000000 0.061299
623.000000 63.863000 -6.000000 7.000000 0.000000 90.115324 -37.703114 1806.948197 938.261918 15.673605 0.000000 0.099118
624.000000 62.283000 -5.000000 7.000000 0.000000 79.987476 -36.974512 1785.295502 1178.854004 16.074337 0.000000 0.128955
625.000000 58.208000 -4.000000 7.000000 0.000000 68.340268 -36.260003 1764.460590 1471.090058 17.202944 0.000000 0.161751
626.000000 50.869000 -3.000000 7.000000 0.000000 55.108909 -35.559399 1744.397991 1863.645929 19.688772 0.000000 0.222828
627.000000 48.027000 -13.000000 8.000000 0.000000 125.229836 -41.867713 1939.609391 -79.671743 20.829196 0.000000 0.193763
628.000000 51.732000 -11.000000 8.000000 0.000000 116.584019 -40.465111 1893.109275 233.071914 19.340139 0.000000 0.110533
629.000000 54.817000 -9.000000 8.000000 0.000000 105.539080 -39.107840 1849.925209 555.318385 18.254934 0.000000 0.060637
630.000000 55.934000 -7.000000 8.000000 0.000000 91.281234 -37.795189 1809.714688 910.537289 17.895087 0.000000 0.095348
631.000000 52.570000 -5.000000 8.000000 0.000000 72.892629 -36.526304 1772.180810 1353.232025 19.046638 0.000000 0.148194
632.000000 47.783000 -11.000000 9.000000 0.000000 110.167246 -39.630323 1866.347930 427.739551 20.940725 0.000000 0.071127
633.000000 48.843000 -10.000000 9.000000 0.000000 104.839623 -39.033752 1847.616211 573.885198 20.488108 0.000000 0.060541
634.000000 49.743000 -8.000000 9.000000 0.000000 92.173401 -37.866958 1811.875829 889.258558 20.122169 0.000000 0.092431
635.000000 49.191000 -7.000000 9.000000 0.000000 84.668852 -37.296585 1794.815130 1067.252373 20.350697 0.000000 0.115811
642.000000 102.274000 -3.000000 4.000000 1.000000 75.736871 -51.127963 2310.198998 1376.968463 9.788961 0.000000 0.332701
647.000000 84.603000 -6.000000 5.000000 1.000000 104.643734 -51.004185 2304.311241 494.079038 11.827827 0.000000 0.283411
648.000000 86.443000 -5.000000 5.000000 1.000000 94.034864 -49.859080 2251.289391 823.234329 11.578187 0.000000 0.243964
649.000000 84.807000 -4.000000 5.000000 1.000000 81.048054 -48.734842 2201.623652 1198.060748 11.804158 0.000000 0.254004
650.000000 77.233000 -3.000000 5.000000 1.000000 65.269168 -47.631750 2155.005151 1676.638842 12.965187 0.000000 0.319037
655.000000 71.329000 -7.000000 6.000000 1.000000 103.935981 -48.975394 2212.061579 534.113656 14.029222 0.000000 0.228328
656.000000 72.618000 -6.000000 6.000000 1.000000 94.997644 -48.027785 2171.512264 800.265606 13.782241 0.000000 0.201946
657.000000 71.945000 -5.000000 6.000000 1.000000 84.405927 -47.095710 2133.056704 1095.851552 13.913782 0.000000 0.210141
658.000000 68.130000 -4.000000 6.000000 1.000000 71.905045 -46.179272 2096.536815 1448.914705 14.695991 0.000000 0.252305
664.000000 59.923000 -9.000000 7.000000 1.000000 110.051307 -48.324903 2184.063847 350.193096 16.697890 0.000000 0.232181
665.000000 61.613000 -8.000000 7.000000 1.000000 103.372272 -47.506208 2149.824625 562.235845 16.241667 0.000000 0.193287
666.000000 62.560000 -7.000000 7.000000 1.000000 95.649194 -46.699394 2117.111557 785.764364 15.998088 0.000000 0.175032
667.000000 62.292000 -6.000000 7.000000 1.000000 86.711366 -45.904519 2085.824828 1029.875448 16.069388 0.000000 0.182486
668.000000 60.182000 -5.000000 7.000000 1.000000 76.391954 -45.121617 2055.873143 1310.248024 16.635849 0.000000 0.213287
669.000000 55.484000 -4.000000 7.000000 1.000000 64.561003 -44.350708 2027.172836 1656.953689 18.047843 0.000000 0.267141
674.000000 51.402000 -11.000000 8.000000 1.000000 114.180516 -47.826179 2163.077640 221.192283 19.464828 0.000000 0.240424
675.000000 52.962000 -10.000000 8.000000 1.000000 108.901372 -47.105650 2133.459651 399.565431 18.892829 0.000000 0.199257
676.000000 54.206000 -9.000000 8.000000 1.000000 102.916388 -46.394497 2105.003007 583.116533 18.461363 0.000000 0.169331
677.000000 54.927000 -8.000000 8.000000 1.000000 96.117340 -45.692754 2077.640716 775.858711 18.221184 0.000000 0.156502
678.000000 54.845000 -7.000000 8.000000 1.000000 88.388653 -45.000441 2051.310842 983.818387 18.250829 0.000000 0.163593
679.000000 53.597000 -6.000000 8.000000 1.000000 79.616190 -44.317567 2025.956033 1216.651332 18.678647 0.000000 0.187847
680.000000 50.750000 -5.000000 8.000000 1.000000 69.703307 -43.644131 2001.523112 1491.083539 19.729727 0.000000 0.226956
681.000000 45.858000 -4.000000 8.000000 1.000000 58.596104 -42.980120 1977.962696 1839.143825 21.838215 0.000000 0.287757
682.000000 46.237000 -12.000000 9.000000 1.000000 112.807384 -46.788399 2120.672046 279.981755 21.639635 0.000000 0.209108
683.000000 47.430000 -11.000000 9.000000 1.000000 107.961995 -46.152671 2095.495055 437.318218 21.096985 0.000000 0.175553
684.000000 48.377000 -10.000000 9.000000 1.000000 102.541652 -45.524549 2071.184105 599.252228 20.686070 0.000000 0.152103
685.000000 48.943000 -9.000000 9.000000 1.000000 96.468993 -44.904044 2047.695267 768.700150 20.449052 0.000000 0.143071
686.000000 48.950000 -8.000000 9.000000 1.000000 89.662240 -44.291162 2024.987532 949.863996 20.448229 0.000000 0.149935
687.000000 48.176000 -7.000000 9.000000 1.000000 82.040141 -43.685901 2003.022575 1149.113264 20.779695 0.000000 0.170007
688.000000 46.354000 -6.000000 9.000000 1.000000 73.530502 -43.088253 1981.764539 1376.695894 21.599846 0.000000 0.200558
704.000000 52.809000 -7.000000 8.000000 2.000000 84.626570 -51.829488 2344.175451 1104.811612 18.955372 0.000000 0.313538
708.000000 47.384000 -10.000000 9.000000 2.000000 99.540953 -51.695440 2337.601953 649.149845 21.120219 0.000000 0.293141
709.000000 47.737000 -9.000000 9.000000 2.000000 93.361609 -51.060275 2306.975404 840.411746 20.966326 0.000000 0.274917
710.000000 47.495000 -8.000000 9.000000 2.000000 86.448917 -50.431236 2277.461374 1045.853709 21.075711 0.000000 0.272364
711.000000 46.436000 -7.000000 9.000000 2.000000 78.727199 -49.808383 2249.000324 1273.431838 21.558934 0.000000 0.286924
#UB matrix in q= (UB) B0 G* 
#[[ 0.994615902 -0.068415556  0.077591304]
# [ 0.02716534  -0.551707832 -0.834671408]
# [ 0.100006259  0.832589435 -0.547080012]]
#B0 matrix in q= UB (B0) G*
#[[ 0.19670273 -0.          0.03056101]
# [ 0.          0.19187965 -0.        ]
# [ 0.          0.          0.18806537]]
#UBB0 matrix in q= (UB B0) G* i.e. recip. basis vectors are columns in LT frame: astar = UBB0[:,0], bstar = UBB0[:,1], cstar = UBB0[:,2]. (abcstar as columns on xyzlab1, xlab1 = ui, ui = unit vector along incident beam)
#[[ 0.19564367 -0.01312755  0.0449887 ]
# [ 0.0053435  -0.10586151 -0.15614259]
# [ 0.0196715   0.15975697 -0.09983051]]
#Euler angles phi theta psi (deg)
#[173.143 123.111 174.677]
#deviatoric strain in direct crystal frame (10-3 unit)
#[[-2.18 -0.14  0.49]
# [-0.14 -3.26  0.25]
# [ 0.49  0.25  5.44]]
#deviatoric strain in sample2 frame (10-3 unit)
#[[-2.2   1.8   0.44]
# [ 1.8   3.01  3.48]
# [ 0.43  3.48 -0.81]]
#new lattice parameters
#[ 5.1505     5.2060094  5.3123224 89.9824654 99.2091526 90.0157784]
#CCDLabel
#sCMOS
#DetectorParameters
#[79.0, 975.0, 941.0, 0.0, 0.0]
#pixelsize
#0.0734
#Frame dimensions
#[2018, 2016]
#
