#Strain and Orientation Refinement from experimental file: /home/micha/LaueProjects/DepthEffects/testZrO2_12.cor
#File created at Wed Jun 28 14:18:21 2023 with indexingSpotsSet.py
#Number of indexed spots: 540
#Element
#ZrO2
#grainIndex
#G_0
#Mean Deviation(pixel): 0.115
##spot_index intensity h k l 2theta Chi Xexp Yexp Energy GrainIndex PixDev
10.000000 47.439000 8.000000 6.000000 -13.000000 120.156305 -44.462598 2031.291264 64.843351 21.079847 0.000000 0.214093
11.000000 47.295000 9.000000 6.000000 -13.000000 125.414634 -39.917629 1875.484522 -56.820767 21.142357 0.000000 0.173015
12.000000 46.793000 10.000000 6.000000 -13.000000 130.054654 -34.852055 1724.495128 -161.651225 21.368113 0.000000 0.140978
13.000000 46.003000 11.000000 6.000000 -13.000000 134.043382 -29.264154 1578.103065 -252.226557 21.734166 0.000000 0.114780
25.000000 49.322000 2.000000 2.000000 -4.000000 108.884040 -48.102653 2174.661310 389.691173 6.759595 0.000000 0.230075
26.000000 49.964000 7.000000 6.000000 -12.000000 115.288166 -43.995614 2014.206103 234.167909 20.016272 0.000000 0.173045
27.000000 50.050000 4.000000 3.000000 -6.000000 121.069133 -39.390715 1858.786033 101.919920 9.990049 0.000000 0.131582
28.000000 49.665000 3.000000 2.000000 -4.000000 126.169439 -34.262549 1708.167754 -11.061701 6.711214 0.000000 0.102441
29.000000 48.899000 5.000000 3.000000 -6.000000 130.549368 -28.613024 1562.132120 -107.951249 10.223890 0.000000 0.081789
30.000000 47.841000 11.000000 6.000000 -12.000000 134.188210 -22.484433 1420.473122 -191.292555 20.899060 0.000000 0.065539
31.000000 46.571000 4.000000 2.000000 -4.000000 137.086358 -15.969227 1282.996914 -263.146189 7.156128 0.000000 0.050192
32.000000 46.182000 6.000000 7.000000 -12.000000 103.822235 -43.810015 2007.490304 574.049121 21.659690 0.000000 0.128084
33.000000 46.927000 7.000000 7.000000 -12.000000 109.873914 -39.869197 1873.938999 434.089341 21.313591 0.000000 0.079075
34.000000 47.167000 8.000000 7.000000 -12.000000 115.357018 -35.543378 1743.943360 314.124907 21.203433 0.000000 0.043840
35.000000 46.970000 9.000000 7.000000 -12.000000 120.224849 -30.829963 1617.363254 210.769281 21.291033 0.000000 0.025053
36.000000 46.411000 10.000000 7.000000 -12.000000 124.448387 -25.746678 1494.065815 121.336712 21.546024 0.000000 0.025477
37.000000 45.567000 11.000000 7.000000 -12.000000 128.016524 -20.337061 1373.924982 43.671169 21.943955 0.000000 0.031534
50.000000 56.321000 7.000000 5.000000 -11.000000 122.122539 -43.689113 2003.137953 6.482302 17.754968 0.000000 0.213404
51.000000 55.910000 8.000000 5.000000 -11.000000 128.104329 -38.064163 1817.835964 -131.058329 17.884219 0.000000 0.167205
52.000000 54.957000 9.000000 5.000000 -11.000000 133.192809 -31.685126 1639.346966 -246.445081 18.193019 0.000000 0.131521
53.000000 53.600000 10.000000 5.000000 -11.000000 137.343872 -24.579577 1467.302004 -343.563888 18.652641 0.000000 0.101361
54.000000 51.962000 11.000000 5.000000 -11.000000 140.544010 -16.868564 1301.358289 -425.490668 19.240176 0.000000 0.072774
59.000000 49.300000 4.000000 6.000000 -11.000000 94.868315 -51.384857 2322.519947 794.110950 20.292164 0.000000 0.287980
60.000000 51.263000 5.000000 6.000000 -11.000000 102.507869 -47.684768 2157.200447 586.334882 19.513045 0.000000 0.201988
61.000000 52.439000 6.000000 6.000000 -11.000000 109.575396 -43.521902 1997.147348 413.176871 19.073286 0.000000 0.137085
62.000000 52.892000 7.000000 6.000000 -11.000000 115.970898 -38.856542 1842.112947 267.757046 18.908227 0.000000 0.090861
63.000000 52.719000 8.000000 6.000000 -11.000000 121.618548 -33.665564 1691.864835 144.855546 18.968652 0.000000 0.061687
64.000000 52.035000 9.000000 6.000000 -11.000000 126.467730 -27.954700 1546.184734 40.443574 19.216440 0.000000 0.046944
65.000000 50.958000 10.000000 6.000000 -11.000000 130.493921 -21.771561 1404.867441 -48.635345 19.621605 0.000000 0.040411
66.000000 49.595000 11.000000 6.000000 -11.000000 133.699934 -15.214732 1267.719863 -124.887155 20.160234 0.000000 0.034826
67.000000 48.038000 12.000000 6.000000 -11.000000 136.116856 -8.432654 1134.560134 -190.324830 20.813026 0.000000 0.026072
68.000000 46.363000 13.000000 6.000000 -11.000000 137.803061 -1.608149 1005.216816 -246.582404 21.564232 0.000000 0.013036
69.000000 45.526000 4.000000 7.000000 -11.000000 90.077764 -47.015668 2129.817284 938.857448 21.976386 0.000000 0.193848
70.000000 47.470000 5.000000 7.000000 -11.000000 97.242742 -43.401589 1992.857436 752.737224 21.074372 0.000000 0.122247
71.000000 48.727000 6.000000 7.000000 -11.000000 103.888993 -39.416293 1859.590781 596.510410 20.528522 0.000000 0.066543
72.000000 49.341000 7.000000 7.000000 -11.000000 109.931094 -35.044290 1729.869923 464.305434 20.270950 0.000000 0.024816
73.000000 49.388000 8.000000 7.000000 -11.000000 115.306430 -30.284903 1603.555208 351.662442 20.249991 0.000000 0.011467
74.000000 48.960000 9.000000 7.000000 -11.000000 119.976111 -25.158519 1480.514219 255.134844 20.425628 0.000000 0.030654
75.000000 48.154000 10.000000 7.000000 -11.000000 123.924926 -19.711898 1360.621315 172.018481 20.766389 0.000000 0.043529
76.000000 47.062000 11.000000 7.000000 -11.000000 127.160670 -14.020391 1243.757202 100.163151 21.247178 0.000000 0.049417
77.000000 45.767000 12.000000 7.000000 -11.000000 129.712747 -8.184989 1129.808542 37.838700 21.847738 0.000000 0.049178
78.000000 45.794000 7.000000 8.000000 -11.000000 104.124622 -31.985225 1647.157455 621.684890 21.843359 0.000000 0.054511
79.000000 46.033000 8.000000 8.000000 -11.000000 109.269113 -27.622612 1538.214022 516.335343 21.728430 0.000000 0.061688
80.000000 45.835000 9.000000 8.000000 -11.000000 113.793292 -22.994192 1431.731063 425.487886 21.820757 0.000000 0.072180
95.000000 60.027000 6.000000 5.000000 -10.000000 116.496303 -43.115566 1982.726959 205.998614 16.660190 0.000000 0.163603
96.000000 59.937000 7.000000 5.000000 -10.000000 123.193566 -37.402888 1797.975085 54.609250 16.683771 0.000000 0.118648
97.000000 59.094000 8.000000 5.000000 -10.000000 128.885614 -30.933738 1620.009924 -70.951482 16.920386 0.000000 0.089297
98.000000 57.686000 9.000000 5.000000 -10.000000 133.520033 -23.744802 1448.464263 -175.603251 17.332336 0.000000 0.068620
99.000000 53.834000 11.000000 5.000000 -10.000000 139.621473 -7.844749 1123.290445 -336.558172 18.571224 0.000000 0.029748
100.000000 51.649000 12.000000 5.000000 -10.000000 141.211325 0.316786 969.049147 -398.202533 19.356564 0.000000 0.006937
101.000000 49.415000 13.000000 5.000000 -10.000000 141.983410 8.195119 819.997214 -449.976117 20.231386 0.000000 0.026460
104.000000 49.753000 3.000000 6.000000 -10.000000 86.580416 -51.011705 2304.668049 1043.219932 20.110284 0.000000 0.289690
105.000000 52.693000 2.000000 3.000000 -5.000000 94.985909 -47.260751 2139.766985 802.644383 9.492892 0.000000 0.190456
106.000000 54.658000 5.000000 6.000000 -10.000000 102.816125 -43.041381 1980.114937 605.988777 18.301129 0.000000 0.114545
107.000000 55.684000 3.000000 3.000000 -5.000000 109.934065 -38.315052 1825.465206 443.510479 8.980853 0.000000 0.058213
108.000000 55.877000 7.000000 6.000000 -10.000000 116.235632 -33.061089 1675.586315 308.091272 17.898224 0.000000 0.020503
109.000000 55.375000 4.000000 3.000000 -5.000000 121.652241 -27.289236 1530.260852 194.413237 9.029385 0.000000 0.018223
110.000000 54.334000 9.000000 6.000000 -10.000000 126.151588 -21.052585 1389.284418 98.426519 18.403684 0.000000 0.031626
111.000000 52.899000 5.000000 3.000000 -5.000000 129.737615 -14.455884 1252.464665 16.995137 9.451075 0.000000 0.037708
112.000000 51.197000 11.000000 6.000000 -10.000000 132.449469 -7.652930 1119.620425 -52.344966 19.529852 0.000000 0.036141
113.000000 49.332000 6.000000 3.000000 -5.000000 134.358108 -0.829381 990.580909 -111.555032 10.133677 0.000000 0.028427
114.000000 47.387000 13.000000 6.000000 -10.000000 135.559334 5.825767 865.184968 -162.214097 21.098931 0.000000 0.018847
115.000000 48.144000 4.000000 7.000000 -10.000000 89.575270 -42.988133 1978.243959 951.907314 20.781976 0.000000 0.134884
116.000000 50.125000 5.000000 7.000000 -10.000000 96.891795 -38.958031 1845.261321 773.705225 19.958237 0.000000 0.077690
117.000000 51.298000 6.000000 7.000000 -10.000000 103.579253 -34.539683 1715.814642 625.399839 19.499820 0.000000 0.045781
118.000000 51.735000 7.000000 7.000000 -10.000000 109.551055 -29.734424 1589.764742 500.828812 19.333374 0.000000 0.045301
119.000000 51.543000 8.000000 7.000000 -10.000000 114.752306 -24.565384 1466.979652 395.383899 19.403952 0.000000 0.058169
120.000000 50.843000 9.000000 7.000000 -10.000000 119.159773 -19.082593 1347.334151 305.551784 19.669581 0.000000 0.068653
121.000000 49.757000 10.000000 7.000000 -10.000000 122.780228 -13.364726 1230.709341 228.608512 20.097646 0.000000 0.073442
122.000000 48.395000 11.000000 7.000000 -10.000000 125.647479 -7.515458 1116.992253 162.410750 20.662420 0.000000 0.072407
123.000000 46.850000 12.000000 7.000000 -10.000000 127.818029 -1.653822 1006.075482 105.249882 21.343336 0.000000 0.066107
124.000000 45.748000 5.000000 8.000000 -10.000000 91.244006 -35.625695 1746.281342 912.246258 21.870637 0.000000 0.089243
125.000000 47.024000 3.000000 4.000000 -5.000000 97.551774 -31.517119 1634.996408 773.622810 10.637406 0.000000 0.080904
126.000000 47.659000 7.000000 8.000000 -10.000000 103.238188 -27.120437 1526.252129 656.522274 20.989466 0.000000 0.087396
127.000000 47.731000 4.000000 4.000000 -5.000000 108.257039 -22.461221 1419.962480 556.798593 10.478075 0.000000 0.096934
128.000000 47.334000 9.000000 8.000000 -10.000000 112.588705 -17.581842 1316.045280 471.288976 21.130218 0.000000 0.103990
129.000000 46.567000 5.000000 4.000000 -5.000000 116.238172 -12.541259 1214.421971 397.539568 10.738491 0.000000 0.106869
130.000000 45.522000 11.000000 8.000000 -10.000000 119.231877 -7.412104 1115.017431 333.618055 21.969082 0.000000 0.105299
135.000000 68.154000 7.000000 4.000000 -9.000000 131.788809 -35.144009 1732.668003 -235.385909 14.670594 0.000000 0.159290
146.000000 58.730000 3.000000 5.000000 -9.000000 91.700637 -52.001111 2352.648913 889.094152 17.034954 0.000000 0.307159
147.000000 61.922000 4.000000 5.000000 -9.000000 101.102625 -47.600458 2153.711565 627.767240 16.154532 0.000000 0.198111
148.000000 63.696000 5.000000 5.000000 -9.000000 109.678183 -42.532153 1962.353693 418.666145 15.702470 0.000000 0.120097
149.000000 64.185000 6.000000 5.000000 -9.000000 117.248121 -36.730965 1778.150231 249.401574 15.581073 0.000000 0.069164
150.000000 63.611000 7.000000 5.000000 -9.000000 123.687204 -30.171723 1600.707312 111.118235 15.720259 0.000000 0.043654
151.000000 62.228000 8.000000 5.000000 -9.000000 128.926891 -22.900676 1429.659460 -2.673972 16.068440 0.000000 0.036839
152.000000 60.280000 9.000000 5.000000 -9.000000 132.957629 -15.063303 1264.667076 -96.834353 16.586805 0.000000 0.033380
153.000000 57.975000 10.000000 5.000000 -9.000000 135.830697 -6.908828 1105.414188 -175.068713 17.245591 0.000000 0.024533
154.000000 55.477000 11.000000 5.000000 -9.000000 137.655060 1.245144 951.606431 -240.248709 18.021593 0.000000 0.010119
155.000000 52.908000 12.000000 5.000000 -9.000000 138.584332 9.081125 802.969231 -294.631007 18.896454 0.000000 0.019628
156.000000 50.352000 13.000000 5.000000 -9.000000 138.794568 16.350173 659.246170 -340.011055 19.855457 0.000000 0.049738
157.000000 47.867000 14.000000 5.000000 -9.000000 138.460153 22.907136 520.197510 -377.833134 20.886670 0.000000 0.086594
159.000000 48.889000 2.000000 6.000000 -9.000000 76.833478 -50.633059 2286.844603 1337.949857 20.469311 0.000000 0.316308
160.000000 53.155000 1.000000 2.000000 -3.000000 86.066111 -46.830513 2122.360860 1049.182450 6.274585 0.000000 0.201609
161.000000 56.260000 4.000000 6.000000 -9.000000 94.758344 -42.553973 1963.108809 819.378968 17.782453 0.000000 0.115653
162.000000 58.171000 5.000000 6.000000 -9.000000 102.720090 -37.766194 1808.842752 633.669321 17.196190 0.000000 0.054478
163.000000 58.970000 2.000000 2.000000 -3.000000 109.803668 -32.449120 1659.332141 481.724977 5.653715 0.000000 0.025349
164.000000 58.820000 7.000000 6.000000 -9.000000 115.910637 -26.616699 1514.360424 356.152673 17.002851 0.000000 0.038506
165.000000 57.917000 8.000000 6.000000 -9.000000 120.993471 -20.327654 1373.724002 251.524488 17.266498 0.000000 0.053813
166.000000 56.461000 3.000000 2.000000 -3.000000 125.053977 -13.692915 1237.231273 163.768393 5.903619 0.000000 0.060818
167.000000 54.628000 10.000000 6.000000 -9.000000 128.139244 -6.871449 1104.701762 89.772122 18.304313 0.000000 0.059682
168.000000 52.564000 11.000000 6.000000 -9.000000 130.334589 -0.051388 975.965324 27.118071 19.022221 0.000000 0.051642
169.000000 50.384000 4.000000 2.000000 -3.000000 131.752966 6.579359 850.861417 -26.098675 6.615028 0.000000 0.038631
170.000000 48.169000 13.000000 6.000000 -9.000000 132.521764 12.862426 729.238432 -71.398081 20.757272 0.000000 0.026059
171.000000 45.978000 14.000000 6.000000 -9.000000 132.769534 18.687648 610.953081 -110.006617 21.746117 0.000000 0.030725
172.000000 47.792000 3.000000 7.000000 -9.000000 80.615681 -42.569598 1963.649836 1182.530666 20.938276 0.000000 0.162866
173.000000 50.773000 4.000000 7.000000 -9.000000 88.671334 -38.494374 1830.950583 972.895086 19.706703 0.000000 0.103155
174.000000 52.761000 5.000000 7.000000 -9.000000 96.095244 -34.029546 1701.777480 802.318328 18.961715 0.000000 0.075870
175.000000 53.804000 6.000000 7.000000 -9.000000 102.765213 -29.178548 1575.991820 661.719678 18.592248 0.000000 0.076665
176.000000 54.013000 7.000000 7.000000 -9.000000 108.600622 -23.967337 1453.462081 544.594767 18.518646 0.000000 0.087450
177.000000 53.535000 8.000000 7.000000 -9.000000 113.563414 -18.449259 1334.063460 446.164372 18.682297 0.000000 0.096439
178.000000 52.528000 9.000000 7.000000 -9.000000 117.655509 -12.706285 1217.677452 362.839647 19.039110 0.000000 0.100181
179.000000 51.139000 10.000000 7.000000 -9.000000 120.913725 -6.844670 1104.191458 291.874552 19.555283 0.000000 0.098174
180.000000 49.494000 11.000000 7.000000 -9.000000 123.402842 -0.984654 993.498421 231.133265 20.204464 0.000000 0.090766
181.000000 47.695000 12.000000 7.000000 -9.000000 125.207321 4.753719 885.496491 178.930512 20.965811 0.000000 0.078563
182.000000 45.822000 13.000000 7.000000 -9.000000 126.422430 10.264721 780.088710 133.919485 21.822617 0.000000 0.062339
183.000000 45.635000 4.000000 8.000000 -9.000000 82.964278 -35.188871 1733.929056 1103.535838 21.927725 0.000000 0.112554
184.000000 47.648000 5.000000 8.000000 -9.000000 89.912934 -31.044808 1622.848980 942.908964 20.999417 0.000000 0.101845
185.000000 48.864000 6.000000 8.000000 -9.000000 96.219859 -26.614276 1514.303478 809.797704 20.474695 0.000000 0.108058
186.000000 49.357000 7.000000 8.000000 -9.000000 101.816745 -21.924709 1408.206779 698.266485 20.267918 0.000000 0.118150
187.000000 49.236000 8.000000 8.000000 -9.000000 106.669779 -17.020482 1304.476939 603.952310 20.316076 0.000000 0.125845
188.000000 48.621000 9.000000 8.000000 -9.000000 110.777296 -11.962417 1203.035631 523.577267 20.571776 0.000000 0.129138
189.000000 47.630000 10.000000 8.000000 -9.000000 114.165284 -6.824543 1103.807945 454.631745 20.998687 0.000000 0.127674
190.000000 46.369000 11.000000 8.000000 -9.000000 116.881595 -1.688221 1006.722205 395.162462 21.568491 0.000000 0.121669
200.000000 75.107000 5.000000 4.000000 -8.000000 118.260547 -41.757473 1935.881606 165.407508 13.314922 0.000000 0.150558
201.000000 72.602000 7.000000 4.000000 -8.000000 132.461923 -25.604075 1490.767931 -151.176743 13.771707 0.000000 0.073356
202.000000 66.621000 9.000000 4.000000 -8.000000 140.103180 -5.794882 1084.228861 -352.991354 15.006724 0.000000 0.024079
203.000000 63.167000 5.000000 2.000000 -4.000000 141.690424 4.309635 893.891017 -425.219686 7.913444 0.000000 0.011549
210.000000 58.555000 2.000000 5.000000 -8.000000 81.071965 -51.562763 2331.133927 1212.987263 17.088860 0.000000 0.321562
211.000000 63.633000 3.000000 5.000000 -8.000000 91.601126 -47.089407 2132.801258 896.813312 15.722766 0.000000 0.192004
212.000000 66.897000 4.000000 5.000000 -8.000000 101.315061 -41.938741 1942.018051 651.484360 14.953192 0.000000 0.098321
213.000000 68.401000 5.000000 5.000000 -8.000000 109.950678 -36.048322 1758.361304 457.784141 14.622557 0.000000 0.032802
214.000000 68.385000 6.000000 5.000000 -8.000000 117.322655 -29.399127 1581.439040 302.751202 14.624289 0.000000 0.010447
215.000000 67.187000 7.000000 5.000000 -8.000000 123.330789 -22.047414 1410.887509 177.334429 14.883734 0.000000 0.035279
216.000000 65.154000 8.000000 5.000000 -8.000000 127.960286 -14.151178 1246.368694 75.028754 15.347039 0.000000 0.045381
217.000000 62.593000 9.000000 5.000000 -8.000000 131.277602 -5.970776 1087.568076 -8.955837 15.974377 0.000000 0.043513
218.000000 59.744000 10.000000 5.000000 -8.000000 133.419316 2.171312 934.192625 -78.220256 16.735662 0.000000 0.032780
219.000000 56.783000 11.000000 5.000000 -8.000000 134.570867 9.961340 785.968997 -135.520276 17.607743 0.000000 0.021546
220.000000 53.833000 12.000000 5.000000 -8.000000 134.937778 17.160611 642.641909 -182.997937 18.572510 0.000000 0.034404
221.000000 50.971000 13.000000 5.000000 -8.000000 134.717947 23.636016 503.972668 -222.341107 19.615600 0.000000 0.066714
222.000000 48.241000 14.000000 5.000000 -8.000000 134.082847 29.351551 369.737848 -254.895909 20.725468 0.000000 0.107156
225.000000 51.953000 1.000000 3.000000 -4.000000 75.464630 -46.393966 2104.982007 1345.609664 9.631436 0.000000 0.237435
226.000000 56.649000 3.000000 6.000000 -8.000000 85.097847 -42.059601 1946.128903 1065.334173 17.663477 0.000000 0.140460
227.000000 59.887000 2.000000 3.000000 -4.000000 94.027786 -37.209919 1792.245528 845.841845 8.353002 0.000000 0.080941
228.000000 61.670000 5.000000 6.000000 -8.000000 102.040978 -31.829658 1643.102258 670.787290 16.220790 0.000000 0.063759
229.000000 62.153000 3.000000 3.000000 -4.000000 108.989620 -25.937163 1498.483398 529.134831 8.046562 0.000000 0.074040
230.000000 61.575000 7.000000 6.000000 -8.000000 114.797328 -19.596929 1358.186146 413.168734 16.242664 0.000000 0.085992
231.000000 60.203000 4.000000 3.000000 -4.000000 119.456532 -12.926064 1222.019642 317.335504 8.305729 0.000000 0.091197
232.000000 58.287000 9.000000 6.000000 -8.000000 123.020196 -6.088495 1089.804100 237.538786 17.156660 0.000000 0.088635
233.000000 56.033000 5.000000 3.000000 -4.000000 125.589234 0.725544 961.370020 170.693078 8.922950 0.000000 0.078950
234.000000 53.604000 11.000000 6.000000 -8.000000 127.296543 7.329645 836.557460 114.431843 18.654276 0.000000 0.063259
235.000000 51.115000 6.000000 3.000000 -4.000000 128.289578 13.569904 715.215374 66.911100 9.781155 0.000000 0.043394
236.000000 48.646000 13.000000 6.000000 -8.000000 128.714447 19.342007 597.200998 26.673964 20.554551 0.000000 0.025794
237.000000 46.252000 7.000000 3.000000 -4.000000 128.704216 24.593606 482.379295 -7.444847 10.809294 0.000000 0.033845
238.000000 45.841000 2.000000 7.000000 -8.000000 70.150550 -42.145935 1949.075028 1465.034865 21.833292 0.000000 0.204908
239.000000 50.142000 3.000000 7.000000 -8.000000 78.988855 -38.025289 1816.658531 1206.859268 19.957903 0.000000 0.133621
240.000000 53.286000 4.000000 7.000000 -8.000000 87.233247 -33.513870 1687.758402 1003.384911 18.778136 0.000000 0.102074
241.000000 55.245000 5.000000 7.000000 -8.000000 94.710405 -28.617303 1562.236411 839.974260 18.110048 0.000000 0.101814
242.000000 56.109000 6.000000 7.000000 -8.000000 101.299234 -23.364450 1439.961476 706.741122 17.829295 0.000000 0.112713
243.000000 56.042000 7.000000 7.000000 -8.000000 106.935394 -17.812012 1320.809211 596.769842 17.848805 0.000000 0.122141
244.000000 55.242000 8.000000 7.000000 -8.000000 111.608649 -12.045226 1204.661505 505.079425 18.105784 0.000000 0.126122
245.000000 53.905000 9.000000 7.000000 -8.000000 115.355275 -6.172805 1091.406127 427.992756 18.553806 0.000000 0.123988
246.000000 52.203000 10.000000 7.000000 -8.000000 118.247523 -0.316015 980.936368 362.737398 19.157807 0.000000 0.116065
247.000000 50.277000 11.000000 7.000000 -8.000000 120.381718 5.405779 873.150705 307.184522 19.890810 0.000000 0.102951
248.000000 48.236000 12.000000 7.000000 -8.000000 121.866425 10.889010 767.952487 259.673237 20.731719 0.000000 0.085299
249.000000 46.160000 13.000000 7.000000 -8.000000 122.812030 16.055467 665.249651 218.889429 21.663799 0.000000 0.063803
250.000000 47.271000 1.000000 2.000000 -2.000000 81.014932 -30.568299 1610.715146 1138.649358 5.292526 0.000000 0.115280
251.000000 49.314000 5.000000 8.000000 -8.000000 88.019931 -26.104161 1502.368047 982.436912 20.290757 0.000000 0.120207
252.000000 50.447000 3.000000 4.000000 -4.000000 94.285890 -21.384716 1396.463937 854.375760 9.916580 0.000000 0.132285
253.000000 50.777000 7.000000 8.000000 -8.000000 99.755582 -16.456346 1292.921113 748.046685 19.702465 0.000000 0.142383
254.000000 50.445000 3.000000 3.000000 -3.000000 104.414011 -11.381710 1191.661472 658.824848 7.436355 0.000000 0.147608
255.000000 49.602000 9.000000 8.000000 -8.000000 108.282644 -6.236161 1092.610320 583.294669 20.166048 0.000000 0.147452
256.000000 48.386000 5.000000 4.000000 -4.000000 111.411409 -1.101611 995.696184 518.879605 10.335794 0.000000 0.142191
257.000000 46.918000 11.000000 8.000000 -8.000000 113.869872 3.941062 900.850645 463.600039 21.317528 0.000000 0.132312
258.000000 45.889000 7.000000 9.000000 -8.000000 93.233188 -15.392807 1271.315472 877.938303 21.803953 0.000000 0.150427
259.000000 45.924000 8.000000 9.000000 -8.000000 97.846883 -10.864049 1181.561319 789.961674 21.785215 0.000000 0.157974
260.000000 45.486000 9.000000 9.000000 -8.000000 101.784087 -6.285511 1093.548503 715.104426 21.993620 0.000000 0.160561
273.000000 78.098000 3.000000 4.000000 -7.000000 98.904930 -47.473532 2148.480295 691.509845 12.808897 0.000000 0.193681
274.000000 81.075000 4.000000 4.000000 -7.000000 109.805166 -40.999608 1910.595410 427.428817 12.336518 0.000000 0.095678
275.000000 81.439000 5.000000 4.000000 -7.000000 119.043310 -33.364263 1683.722528 225.398887 12.279738 0.000000 0.040859
276.000000 79.799000 6.000000 4.000000 -7.000000 126.396904 -24.571313 1467.114308 68.574169 12.530737 0.000000 0.030559
277.000000 76.818000 7.000000 4.000000 -7.000000 131.798911 -14.835838 1260.089535 -54.466812 13.016025 0.000000 0.033023
278.000000 73.066000 8.000000 4.000000 -7.000000 135.340733 -4.622711 1062.025971 -151.726897 13.683782 0.000000 0.024499
279.000000 68.968000 9.000000 4.000000 -7.000000 137.258725 5.447806 872.354105 -228.968974 14.496421 0.000000 0.011860
280.000000 64.812000 10.000000 4.000000 -7.000000 137.885749 14.803936 690.551681 -290.439675 15.426016 0.000000 0.038201
281.000000 60.772000 11.000000 4.000000 -7.000000 137.577447 23.090211 516.138900 -339.330441 16.451384 0.000000 0.082090
288.000000 63.227000 2.000000 5.000000 -7.000000 79.925750 -46.569347 2111.930279 1219.145209 15.826839 0.000000 0.220063
289.000000 68.793000 3.000000 5.000000 -7.000000 90.945850 -41.335203 1921.719928 917.334689 14.543733 0.000000 0.113627
290.000000 72.022000 4.000000 5.000000 -7.000000 100.870316 -35.354901 1738.608207 687.582196 13.889587 0.000000 0.055281
291.000000 73.085000 5.000000 5.000000 -7.000000 109.411129 -28.616015 1562.205016 508.968990 13.685688 0.000000 0.054074
292.000000 72.392000 6.000000 5.000000 -7.000000 116.406063 -21.185251 1392.148323 367.845335 13.815175 0.000000 0.070752
293.000000 70.432000 7.000000 5.000000 -7.000000 121.819905 -13.233255 1228.101686 254.933838 14.198405 0.000000 0.078698
294.000000 67.660000 8.000000 5.000000 -7.000000 125.731389 -5.031088 1069.752031 163.714966 14.779233 0.000000 0.075421
295.000000 64.441000 9.000000 5.000000 -7.000000 128.308980 3.094816 916.807658 89.478171 15.516941 0.000000 0.062376
296.000000 61.039000 10.000000 5.000000 -7.000000 129.776797 10.835409 768.996445 28.739122 16.381279 0.000000 0.042364
297.000000 57.632000 11.000000 5.000000 -7.000000 130.376422 17.962750 626.064238 -21.131755 17.349303 0.000000 0.025584
298.000000 54.331000 12.000000 5.000000 -7.000000 130.334402 24.355741 487.773386 -62.153689 18.403299 0.000000 0.042417
299.000000 51.199000 13.000000 5.000000 -7.000000 129.842593 29.988012 353.901427 -95.900864 19.529369 0.000000 0.080809
300.000000 48.265000 14.000000 5.000000 -7.000000 129.051710 34.897379 224.239893 -123.616927 20.716457 0.000000 0.126748
301.000000 45.542000 15.000000 5.000000 -7.000000 128.073863 39.155297 98.593225 -146.296018 21.955659 0.000000 0.177517
302.000000 48.127000 1.000000 6.000000 -7.000000 62.899768 -45.951021 2087.630362 1733.168060 20.797977 0.000000 0.302856
303.000000 54.900000 2.000000 6.000000 -7.000000 73.492791 -41.558189 1929.175158 1367.256469 18.229661 0.000000 0.182672
304.000000 60.047000 3.000000 6.000000 -7.000000 83.491751 -36.646182 1775.673477 1094.034533 16.664790 0.000000 0.114002
305.000000 63.371000 4.000000 6.000000 -7.000000 92.589253 -31.202712 1626.896611 884.096372 15.788234 0.000000 0.095622
306.000000 64.942000 5.000000 6.000000 -7.000000 100.558045 -25.250714 1482.629722 719.199542 15.404316 0.000000 0.105205
307.000000 65.016000 6.000000 6.000000 -7.000000 107.268738 -18.860581 1342.670800 587.432005 15.385107 0.000000 0.116975
308.000000 63.936000 7.000000 6.000000 -7.000000 112.689418 -12.155577 1206.829724 480.689491 15.643445 0.000000 0.121997
309.000000 62.050000 8.000000 6.000000 -7.000000 116.872447 -5.304359 1074.927394 393.269812 16.117893 0.000000 0.118856
310.000000 59.656000 9.000000 6.000000 -7.000000 119.933743 1.501133 946.794954 321.046847 16.763900 0.000000 0.108084
311.000000 56.987000 10.000000 6.000000 -7.000000 122.028651 8.076393 822.273058 260.963250 17.548375 0.000000 0.090645
312.000000 54.211000 11.000000 6.000000 -7.000000 123.328232 14.272244 701.211220 210.707103 18.446220 0.000000 0.067616
313.000000 51.444000 12.000000 6.000000 -7.000000 123.999576 19.990303 583.467200 168.499139 19.438061 0.000000 0.040537
314.000000 48.758000 13.000000 6.000000 -7.000000 124.192538 25.183781 468.906449 132.948816 20.508697 0.000000 0.017670
315.000000 46.196000 14.000000 6.000000 -7.000000 124.033201 29.848035 357.401598 102.954587 21.646039 0.000000 0.037581
316.000000 47.502000 2.000000 7.000000 -7.000000 67.599648 -37.550743 1802.385127 1500.556589 21.071145 0.000000 0.171853
317.000000 52.199000 3.000000 7.000000 -7.000000 76.717483 -32.992649 1673.757375 1243.928578 19.172820 0.000000 0.122361
318.000000 55.491000 4.000000 7.000000 -7.000000 85.103375 -28.050718 1548.498480 1045.480213 18.033064 0.000000 0.116341
319.000000 57.384000 5.000000 7.000000 -7.000000 92.575191 -22.756798 1426.477803 888.506389 17.436114 0.000000 0.128800
320.000000 58.027000 6.000000 7.000000 -7.000000 99.023946 -17.170976 1307.571374 762.096526 17.240946 0.000000 0.141209
321.000000 56.512000 8.000000 7.000000 -7.000000 108.773458 -5.500047 1078.636234 573.463740 17.700061 0.000000 0.147003
322.000000 54.843000 9.000000 7.000000 -7.000000 112.178837 0.351912 968.389296 502.227855 18.237558 0.000000 0.139816
323.000000 52.841000 10.000000 7.000000 -7.000000 114.738093 6.055672 860.819462 442.309968 18.927531 0.000000 0.126795
324.000000 50.658000 11.000000 7.000000 -7.000000 116.574375 11.509971 755.830391 391.585173 19.742336 0.000000 0.108703
325.000000 48.405000 12.000000 7.000000 -7.000000 117.812634 16.639711 653.330307 348.416237 20.660629 0.000000 0.086231
326.000000 46.159000 13.000000 7.000000 -7.000000 118.570014 21.398761 553.231739 311.521945 21.665673 0.000000 0.059985
327.000000 48.525000 4.000000 8.000000 -7.000000 78.423713 -25.590128 1490.445813 1185.445733 20.624679 0.000000 0.120118
328.000000 50.587000 5.000000 8.000000 -7.000000 85.448895 -20.841304 1384.733934 1032.670241 19.781576 0.000000 0.134479
329.000000 51.621000 6.000000 8.000000 -7.000000 91.639975 -15.889526 1281.377780 908.960682 19.383103 0.000000 0.149253
330.000000 51.777000 7.000000 8.000000 -7.000000 96.957761 -10.799248 1180.299474 807.284891 19.322903 0.000000 0.158693
331.000000 51.234000 8.000000 8.000000 -7.000000 101.411778 -5.647080 1081.424537 722.691283 19.526036 0.000000 0.161741
332.000000 50.172000 9.000000 8.000000 -7.000000 105.049799 -0.515385 984.681699 651.593245 19.938175 0.000000 0.158725
333.000000 48.749000 10.000000 8.000000 -7.000000 107.945846 4.515399 890.002731 591.329819 20.518976 0.000000 0.150312
334.000000 47.097000 11.000000 8.000000 -7.000000 110.188682 9.374005 797.322288 539.885769 21.237849 0.000000 0.137205
335.000000 45.879000 6.000000 9.000000 -7.000000 85.050925 -14.885200 1261.082085 1037.435826 21.811992 0.000000 0.145826
336.000000 46.415000 7.000000 9.000000 -7.000000 90.261185 -10.345081 1171.470761 936.012569 21.558020 0.000000 0.158808
337.000000 46.329000 8.000000 9.000000 -7.000000 94.744148 -5.761596 1083.597185 851.224000 21.596118 0.000000 0.165879
338.000000 45.754000 9.000000 9.000000 -7.000000 98.527039 -1.192877 997.411295 779.592455 21.866010 0.000000 0.167182
340.000000 87.311000 7.000000 3.000000 -6.000000 140.779232 -2.387405 1019.873088 -378.836558 11.450499 0.000000 0.014227
347.000000 86.043000 3.000000 4.000000 -6.000000 98.840862 -40.225708 1885.367281 721.741526 11.626511 0.000000 0.082019
348.000000 87.675000 5.000000 4.000000 -6.000000 118.581079 -23.523566 1443.512547 301.501411 11.406515 0.000000 0.047083
349.000000 80.426000 7.000000 4.000000 -6.000000 129.341598 -3.449119 1039.869660 57.156683 12.432688 0.000000 0.056430
350.000000 70.602000 9.000000 4.000000 -6.000000 132.703015 15.837068 669.687198 -91.471563 14.161872 0.000000 0.025112
351.000000 65.776000 5.000000 2.000000 -3.000000 132.615379 23.997027 495.869835 -142.923904 7.600412 0.000000 0.055007
352.000000 61.241000 11.000000 4.000000 -6.000000 131.851329 30.973670 328.970140 -183.387897 16.326523 0.000000 0.105518
358.000000 58.986000 1.000000 5.000000 -6.000000 65.581579 -46.040126 2091.098517 1644.944273 16.968520 0.000000 0.286660
359.000000 67.869000 2.000000 5.000000 -6.000000 78.002005 -40.721414 1901.459221 1242.803532 14.745232 0.000000 0.155783
360.000000 73.903000 3.000000 5.000000 -6.000000 89.436266 -34.650652 1718.890843 953.873312 13.538935 0.000000 0.095226
361.000000 76.946000 4.000000 5.000000 -6.000000 99.428168 -27.822470 1543.005149 738.915604 13.001355 0.000000 0.094621
362.000000 77.378000 5.000000 5.000000 -6.000000 107.696590 -20.314444 1373.441817 574.804431 12.926950 0.000000 0.109321
363.000000 75.847000 6.000000 5.000000 -6.000000 114.151315 -12.309953 1209.865972 447.036067 13.186585 0.000000 0.116054
364.000000 73.025000 7.000000 5.000000 -6.000000 118.870505 -4.090268 1051.965978 346.060981 13.695049 0.000000 0.111331
365.000000 69.476000 8.000000 5.000000 -6.000000 122.055766 4.015189 899.451457 265.340826 14.393839 0.000000 0.096088
366.000000 65.610000 9.000000 5.000000 -6.000000 123.977272 11.702994 752.051506 200.252860 15.241462 0.000000 0.072066
367.000000 61.697000 10.000000 5.000000 -6.000000 124.920913 18.756407 609.513093 147.439861 16.207667 0.000000 0.041727
368.000000 57.902000 11.000000 5.000000 -6.000000 125.148735 25.066259 471.599605 104.407652 17.269882 0.000000 0.019316
369.000000 54.313000 12.000000 5.000000 -6.000000 124.877952 30.615450 338.089538 69.266801 18.410922 0.000000 0.050113
370.000000 50.973000 13.000000 5.000000 -6.000000 124.276087 35.447445 208.775313 40.561661 19.617472 0.000000 0.097227
371.000000 47.893000 14.000000 5.000000 -6.000000 123.465872 39.636318 83.462195 17.154147 20.879056 0.000000 0.149510
372.000000 49.745000 1.000000 6.000000 -6.000000 59.615592 -41.049665 1912.247515 1777.799440 20.123217 0.000000 0.251734
373.000000 57.420000 1.000000 3.000000 -3.000000 70.706310 -36.074943 1759.126540 1407.168888 8.715539 0.000000 0.149701
374.000000 66.385000 2.000000 3.000000 -3.000000 90.194436 -24.557444 1466.799345 936.984298 7.536269 0.000000 0.124077
375.000000 67.663000 5.000000 6.000000 -6.000000 98.022570 -18.118790 1327.177916 781.389867 14.785772 0.000000 0.139490
376.000000 65.642000 7.000000 6.000000 -6.000000 109.404657 -4.519332 1060.071602 560.696180 15.237977 0.000000 0.146244
377.000000 63.238000 4.000000 3.000000 -3.000000 113.120024 2.275098 932.240084 481.114439 7.908054 0.000000 0.136085
378.000000 60.392000 3.000000 2.000000 -2.000000 115.738706 8.819374 808.008171 415.910408 5.520225 0.000000 0.118338
379.000000 57.352000 5.000000 3.000000 -3.000000 117.458858 14.969295 687.225933 362.051618 8.718920 0.000000 0.094169
380.000000 54.286000 11.000000 6.000000 -6.000000 118.472589 20.632454 569.751650 317.281161 18.422351 0.000000 0.064598
381.000000 51.298000 4.000000 2.000000 -2.000000 118.950163 25.767531 455.451264 279.885868 6.498329 0.000000 0.030548
382.000000 48.450000 13.000000 6.000000 -6.000000 119.033094 30.374015 344.197860 248.542870 20.640861 0.000000 0.008986
383.000000 45.772000 7.000000 3.000000 -3.000000 118.833614 34.478743 235.871202 222.215272 10.924128 0.000000 0.049518
384.000000 48.574000 2.000000 7.000000 -6.000000 64.275250 -32.465881 1659.774362 1555.615701 20.607917 0.000000 0.147994
385.000000 53.686000 3.000000 7.000000 -6.000000 73.632591 -27.478830 1534.777994 1297.303112 18.643357 0.000000 0.117494
386.000000 57.115000 4.000000 7.000000 -6.000000 82.108393 -22.144463 1413.011031 1102.068461 17.521695 0.000000 0.128672
387.000000 58.917000 5.000000 7.000000 -6.000000 89.522264 -16.526279 1294.349919 950.361128 16.983557 0.000000 0.147127
388.000000 59.321000 6.000000 7.000000 -6.000000 95.790726 -10.715903 1178.677324 829.912787 16.866086 0.000000 0.159387
389.000000 58.634000 7.000000 7.000000 -6.000000 100.918573 -4.826577 1065.881750 732.637681 17.061871 0.000000 0.163112
390.000000 57.171000 8.000000 7.000000 -6.000000 104.978662 1.018947 955.857179 652.991837 17.497199 0.000000 0.158805
391.000000 55.203000 9.000000 7.000000 -6.000000 108.087726 6.703242 848.502739 587.048384 18.119804 0.000000 0.147538
392.000000 52.945000 10.000000 7.000000 -6.000000 110.383710 12.127486 743.722395 531.949079 18.891593 0.000000 0.130376
393.000000 50.555000 11.000000 7.000000 -6.000000 112.007770 17.219750 641.424664 485.564825 19.784149 0.000000 0.108261
394.000000 48.141000 12.000000 7.000000 -6.000000 113.092034 21.937117 541.522346 446.277810 20.775841 0.000000 0.082008
395.000000 45.773000 13.000000 7.000000 -6.000000 113.752758 26.262764 443.932277 412.837319 21.849912 0.000000 0.052413
396.000000 45.839000 3.000000 8.000000 -6.000000 67.218215 -25.072215 1478.536756 1440.053493 21.837187 0.000000 0.110527
397.000000 49.185000 2.000000 4.000000 -3.000000 75.073639 -20.294540 1373.016749 1246.899717 10.174774 0.000000 0.118736
398.000000 51.267000 5.000000 8.000000 -6.000000 82.089425 -15.320112 1269.846920 1096.060774 19.520884 0.000000 0.139915
399.000000 52.207000 3.000000 4.000000 -3.000000 88.185820 -10.215145 1168.949619 975.639633 9.583595 0.000000 0.156922
400.000000 52.202000 7.000000 8.000000 -6.000000 93.347752 -5.057423 1070.250578 877.795153 19.167128 0.000000 0.166180
401.000000 51.472000 4.000000 4.000000 -3.000000 97.612613 0.070337 973.678730 797.150418 9.718726 0.000000 0.167814
402.000000 50.224000 9.000000 8.000000 -6.000000 101.054449 5.088236 879.166040 729.896018 19.919138 0.000000 0.162755
403.000000 48.634000 5.000000 4.000000 -3.000000 103.768390 9.926305 786.647342 673.258289 10.284591 0.000000 0.152011
404.000000 46.841000 11.000000 8.000000 -6.000000 105.857576 14.529494 696.060194 625.170244 21.355500 0.000000 0.136495
405.000000 45.957000 2.000000 3.000000 -2.000000 81.486628 -9.824887 1161.389784 1104.508101 7.258832 0.000000 0.144469
406.000000 46.427000 7.000000 9.000000 -6.000000 86.608231 -5.237208 1073.655225 1005.055919 21.554148 0.000000 0.159085
407.000000 46.245000 8.000000 9.000000 -6.000000 90.974262 -0.670982 987.604897 922.695593 21.637202 0.000000 0.166425
408.000000 45.564000 3.000000 3.000000 -2.000000 94.629318 3.817058 903.190764 853.655337 7.319656 0.000000 0.167197
410.000000 90.843000 7.000000 3.000000 -5.000000 136.163592 12.149973 743.280432 -205.606579 11.005861 0.000000 0.023058
411.000000 83.177000 8.000000 3.000000 -5.000000 136.029855 23.394071 509.378105 -274.628024 12.020126 0.000000 0.073889
417.000000 75.655000 1.000000 4.000000 -5.000000 69.443417 -46.173298 2096.302787 1523.864776 13.229227 0.000000 0.265594
418.000000 87.564000 2.000000 4.000000 -5.000000 84.387971 -39.435550 1860.197021 1077.934225 11.427489 0.000000 0.122720
419.000000 88.559000 6.000000 4.000000 -5.000000 121.613670 -2.275091 1017.759779 277.982690 11.292323 0.000000 0.099491
420.000000 82.922000 7.000000 4.000000 -5.000000 124.775883 7.703476 829.412818 186.821247 12.059315 0.000000 0.076742
421.000000 77.002000 8.000000 4.000000 -5.000000 126.244423 16.857696 648.864630 116.561653 12.986032 0.000000 0.042938
422.000000 71.243000 9.000000 4.000000 -5.000000 126.530889 24.889495 475.640663 62.049973 14.035524 0.000000 0.023848
423.000000 65.866000 10.000000 4.000000 -5.000000 126.056513 31.737095 309.304098 19.631779 15.181422 0.000000 0.069186
424.000000 60.955000 11.000000 4.000000 -5.000000 125.129015 37.489215 149.452176 -13.350917 16.404402 0.000000 0.130203
425.000000 56.526000 12.000000 4.000000 -5.000000 123.955967 42.298096 -4.287058 -38.873468 17.689983 0.000000 0.197975
430.000000 61.707000 1.000000 5.000000 -5.000000 61.876465 -40.097255 1881.235827 1693.015432 16.221803 0.000000 0.225877
431.000000 71.917000 2.000000 5.000000 -5.000000 74.945459 -33.935536 1699.209114 1289.924151 13.916482 0.000000 0.128243
432.000000 78.370000 3.000000 5.000000 -5.000000 86.675443 -27.018593 1523.839347 1011.181226 12.768283 0.000000 0.118188
433.000000 81.068000 4.000000 5.000000 -5.000000 96.571057 -19.435270 1354.767905 809.527891 12.341228 0.000000 0.136810
434.000000 78.254000 6.000000 5.000000 -5.000000 110.244572 -3.148821 1034.209842 543.449700 12.781903 0.000000 0.144878
435.000000 74.564000 7.000000 5.000000 -5.000000 114.288121 4.931974 882.123953 453.498132 13.413407 0.000000 0.129829
436.000000 70.295000 8.000000 5.000000 -5.000000 116.865960 12.563775 735.134114 382.392368 14.227363 0.000000 0.104539
437.000000 65.874000 9.000000 5.000000 -5.000000 118.317790 19.541417 592.988411 325.596835 15.181545 0.000000 0.070900
438.000000 57.480000 11.000000 5.000000 -5.000000 119.012687 31.233908 322.302123 242.905166 17.398123 0.000000 0.016494
439.000000 53.702000 12.000000 5.000000 -5.000000 118.694797 35.989272 193.334294 212.898180 18.621900 0.000000 0.066874
440.000000 50.242000 13.000000 5.000000 -5.000000 118.133477 40.110034 68.353861 188.529336 19.904515 0.000000 0.121505
441.000000 47.092000 14.000000 5.000000 -5.000000 117.424542 43.680297 -52.821284 168.766362 21.236139 0.000000 0.179417
442.000000 50.349000 1.000000 6.000000 -5.000000 55.307110 -35.496169 1742.604661 1856.138414 19.883610 0.000000 0.218301
443.000000 59.015000 2.000000 6.000000 -5.000000 66.850738 -29.926443 1594.557810 1471.968374 16.961420 0.000000 0.128023
444.000000 65.096000 3.000000 6.000000 -5.000000 77.396859 -23.857458 1450.992215 1204.125086 15.374618 0.000000 0.120667
445.000000 68.447000 4.000000 6.000000 -5.000000 86.573966 -17.371748 1311.707443 1008.513916 14.619711 0.000000 0.143136
446.000000 69.395000 5.000000 6.000000 -5.000000 94.191765 -10.604724 1176.514841 860.746694 14.418061 0.000000 0.159879
447.000000 68.509000 6.000000 6.000000 -5.000000 100.235413 -3.733707 1045.236678 746.243885 14.602969 0.000000 0.164682
448.000000 66.386000 7.000000 6.000000 -5.000000 104.823386 3.047164 917.705368 655.757460 15.068594 0.000000 0.158354
449.000000 63.531000 8.000000 6.000000 -5.000000 108.153080 9.558369 793.762758 583.140659 15.744503 0.000000 0.142727
450.000000 60.319000 9.000000 6.000000 -5.000000 110.451614 15.660911 673.259473 524.150666 16.582006 0.000000 0.119526
451.000000 57.002000 10.000000 6.000000 -5.000000 111.940318 21.268389 556.054313 475.766075 17.546369 0.000000 0.090218
452.000000 53.737000 11.000000 6.000000 -5.000000 112.814325 26.344843 442.013703 435.778218 18.612147 0.000000 0.056191
453.000000 50.614000 12.000000 6.000000 -5.000000 113.234479 30.893727 331.011186 402.536184 19.760273 0.000000 0.020811
454.000000 47.679000 13.000000 6.000000 -5.000000 113.327302 34.944369 222.926954 374.782098 20.976177 0.000000 0.030280
455.000000 48.683000 2.000000 7.000000 -5.000000 60.008911 -26.901679 1521.074919 1637.553678 20.563857 0.000000 0.127315
456.000000 54.231000 3.000000 7.000000 -5.000000 69.559963 -21.527532 1399.561129 1372.206993 18.457551 0.000000 0.106405
457.000000 57.804000 4.000000 7.000000 -5.000000 78.080111 -15.878053 1281.144814 1177.213462 17.314394 0.000000 0.129699
458.000000 59.525000 5.000000 7.000000 -5.000000 85.403914 -10.047972 1165.709030 1028.870331 16.811584 0.000000 0.152943
459.000000 59.716000 6.000000 7.000000 -5.000000 91.485837 -4.152583 1053.142647 913.008983 16.756076 0.000000 0.165756
460.000000 58.766000 7.000000 7.000000 -5.000000 96.377974 1.684913 943.339989 820.641152 17.025334 0.000000 0.168013
461.000000 57.044000 8.000000 7.000000 -5.000000 100.197404 7.348337 836.200509 745.791160 17.537835 0.000000 0.161285
462.000000 54.853000 9.000000 7.000000 -5.000000 103.094222 12.741441 731.628477 684.332530 18.237234 0.000000 0.147209
463.000000 52.418000 10.000000 7.000000 -5.000000 105.226325 17.795512 629.532699 633.325011 19.083342 0.000000 0.127217
464.000000 49.897000 11.000000 7.000000 -5.000000 106.742750 22.470825 529.826248 590.617675 20.046720 0.000000 0.102580
465.000000 47.393000 12.000000 7.000000 -5.000000 107.774693 26.753260 432.426218 554.601343 21.105314 0.000000 0.074673
467.000000 49.005000 4.000000 8.000000 -5.000000 70.863453 -14.748202 1258.328513 1327.192870 20.426147 0.000000 0.105476
468.000000 51.129000 5.000000 8.000000 -5.000000 77.854381 -9.629514 1157.611886 1175.944342 19.575183 0.000000 0.133543
469.000000 52.009000 6.000000 8.000000 -5.000000 83.857835 -4.467314 1059.088423 1057.176796 19.241780 0.000000 0.153808
470.000000 51.890000 7.000000 8.000000 -5.000000 88.886224 0.655432 962.687260 961.926155 19.284086 0.000000 0.164078
471.000000 51.029000 8.000000 8.000000 -5.000000 93.004482 5.659464 868.340552 884.232665 19.607744 0.000000 0.165463
472.000000 49.659000 9.000000 8.000000 -5.000000 96.309381 10.476186 775.983318 819.980307 20.147557 0.000000 0.159475
473.000000 47.967000 10.000000 8.000000 -5.000000 98.911684 15.052364 685.553285 766.235580 20.857022 0.000000 0.147496
474.000000 46.097000 11.000000 8.000000 -5.000000 100.923015 19.351971 596.990754 720.851778 21.702088 0.000000 0.130732
475.000000 45.812000 7.000000 9.000000 -5.000000 82.255650 -0.149462 977.807628 1087.369613 21.845308 0.000000 0.150468
476.000000 45.580000 8.000000 9.000000 -5.000000 86.535665 4.328981 893.525514 1006.342959 21.954617 0.000000 0.159208
479.000000 83.592000 8.000000 3.000000 -4.000000 127.811377 33.529864 261.809324 -60.923904 11.961749 0.000000 0.101165
480.000000 75.706000 9.000000 3.000000 -4.000000 126.272393 40.598256 52.561046 -99.205237 13.207889 0.000000 0.186281
483.000000 80.720000 1.000000 4.000000 -4.000000 65.233187 -38.628926 1835.084429 1576.634964 12.400457 0.000000 0.192171
484.000000 83.721000 7.000000 4.000000 -4.000000 118.042753 17.865409 628.083849 338.648072 11.945331 0.000000 0.080001
485.000000 70.633000 9.000000 4.000000 -4.000000 118.962714 32.486706 289.675954 234.807930 14.158333 0.000000 0.028548
486.000000 64.916000 5.000000 2.000000 -2.000000 118.437747 38.123734 130.357300 200.079530 7.702609 0.000000 0.093739
487.000000 59.814000 11.000000 4.000000 -4.000000 117.611607 42.834809 -22.874703 173.322781 16.719274 0.000000 0.164663
488.000000 55.291000 6.000000 2.000000 -2.000000 116.633439 46.780668 -170.362323 152.799897 9.043608 0.000000 0.240059
492.000000 62.705000 1.000000 5.000000 -4.000000 56.685665 -33.209529 1679.562924 1786.465958 15.965468 0.000000 0.188185
493.000000 74.377000 2.000000 5.000000 -4.000000 70.311175 -26.204503 1504.707521 1370.248962 13.457805 0.000000 0.114544
494.000000 81.213000 3.000000 5.000000 -4.000000 82.198802 -18.548027 1336.126503 1096.535843 12.322710 0.000000 0.135213
495.000000 83.484000 4.000000 5.000000 -4.000000 91.867853 -10.448976 1173.488105 905.308281 11.985428 0.000000 0.159639
496.000000 82.322000 5.000000 5.000000 -4.000000 99.229649 -2.207255 1016.483546 765.976895 12.152798 0.000000 0.166379
497.000000 79.018000 6.000000 5.000000 -4.000000 104.493792 5.844728 864.825073 661.321879 12.659618 0.000000 0.156681
498.000000 74.615000 7.000000 5.000000 -4.000000 108.026378 13.417445 718.244201 580.914445 13.405700 0.000000 0.133993
499.000000 69.814000 8.000000 5.000000 -4.000000 110.228742 20.317630 576.490129 518.074155 14.326749 0.000000 0.101351
500.000000 65.033000 9.000000 5.000000 -4.000000 111.462956 26.459531 439.328303 468.327229 15.379616 0.000000 0.061461
501.000000 60.490000 10.000000 5.000000 -4.000000 112.020891 31.843436 306.539126 428.567650 16.534259 0.000000 0.021409
502.000000 56.286000 11.000000 5.000000 -4.000000 112.121625 36.522949 177.916782 396.573712 17.769124 0.000000 0.044563
503.000000 52.450000 12.000000 5.000000 -4.000000 111.922209 40.576547 53.268172 370.715909 19.068338 0.000000 0.098675
504.000000 48.979000 13.000000 5.000000 -4.000000 111.531948 44.088641 -67.588054 349.773307 20.419960 0.000000 0.157588
505.000000 45.847000 14.000000 5.000000 -4.000000 111.025465 47.139237 -184.822373 332.814147 21.814830 0.000000 0.219509
506.000000 49.249000 1.000000 6.000000 -4.000000 49.725660 -29.277176 1578.424547 1986.480933 20.329654 0.000000 0.205816
507.000000 58.981000 1.000000 3.000000 -2.000000 61.656466 -23.150870 1435.208280 1572.427121 8.486664 0.000000 0.104129
508.000000 65.565000 3.000000 6.000000 -4.000000 72.367364 -16.619655 1296.259335 1298.009782 15.266402 0.000000 0.111508
509.000000 69.612000 5.000000 6.000000 -4.000000 88.883490 -2.947779 1030.422578 962.003947 14.374786 0.000000 0.163631
510.000000 65.858000 7.000000 6.000000 -4.000000 98.922525 10.293167 779.536780 769.259351 15.190932 0.000000 0.158065
511.000000 62.710000 4.000000 3.000000 -2.000000 102.015258 16.346956 659.311803 702.276604 7.976230 0.000000 0.139125
512.000000 59.289000 9.000000 6.000000 -4.000000 104.160700 21.898044 542.375151 648.324209 16.872106 0.000000 0.112836
513.000000 55.839000 5.000000 3.000000 -2.000000 105.583691 26.915706 428.593733 604.355983 8.956910 0.000000 0.081646
514.000000 52.502000 11.000000 6.000000 -4.000000 106.469402 31.407199 317.841546 568.190111 19.051738 0.000000 0.050118
515.000000 49.354000 6.000000 3.000000 -2.000000 106.963035 35.404183 209.999206 538.223787 10.133410 0.000000 0.037563
516.000000 46.426000 13.000000 6.000000 -4.000000 107.174833 38.951114 104.953522 513.253847 21.544742 0.000000 0.065667
517.000000 47.375000 2.000000 7.000000 -4.000000 54.649362 -20.906097 1386.128064 1758.293071 21.133694 0.000000 0.113053
518.000000 53.394000 3.000000 7.000000 -4.000000 64.351405 -15.226437 1267.956030 1476.598647 18.749109 0.000000 0.079878
519.000000 57.155000 4.000000 7.000000 -4.000000 72.889750 -9.378092 1152.756564 1276.810390 17.512926 0.000000 0.113732
520.000000 58.863000 5.000000 7.000000 -4.000000 80.126111 -3.478250 1040.418897 1128.683754 17.002585 0.000000 0.143659
521.000000 58.934000 6.000000 7.000000 -4.000000 86.059695 2.349631 930.837700 1015.197453 16.980188 0.000000 0.159113
522.000000 57.834000 7.000000 7.000000 -4.000000 90.788573 7.990810 823.912746 926.040567 17.301560 0.000000 0.161843
523.000000 55.976000 8.000000 7.000000 -4.000000 94.465865 13.351727 719.548611 854.603747 17.874234 0.000000 0.154514
524.000000 53.684000 9.000000 7.000000 -4.000000 97.263553 18.366929 617.654388 796.456003 18.636176 0.000000 0.139458
525.000000 51.187000 10.000000 7.000000 -4.000000 99.348329 22.999854 518.143422 748.516409 19.544217 0.000000 0.118702
526.000000 48.639000 11.000000 7.000000 -4.000000 100.868522 27.239016 420.933064 708.576983 20.567390 0.000000 0.094343
527.000000 46.135000 12.000000 7.000000 -4.000000 101.949085 31.091933 325.944444 675.014510 21.682900 0.000000 0.069646
528.000000 47.734000 1.000000 2.000000 -1.000000 65.730332 -9.042474 1146.286256 1432.386629 5.243072 0.000000 0.075728
529.000000 49.956000 5.000000 8.000000 -4.000000 72.701163 -3.876879 1047.938054 1276.973205 20.037024 0.000000 0.112921
530.000000 50.849000 3.000000 4.000000 -2.000000 78.638951 1.239779 951.707271 1157.308292 9.841451 0.000000 0.138712
531.000000 50.702000 7.000000 8.000000 -4.000000 83.582837 6.228976 857.526252 1062.771122 19.738118 0.000000 0.151876
532.000000 49.803000 2.000000 2.000000 -1.000000 87.621062 11.023563 765.330197 986.554294 5.023128 0.000000 0.154657
533.000000 48.403000 9.000000 8.000000 -4.000000 90.866882 15.572155 675.057007 924.093912 20.672198 0.000000 0.149280
534.000000 46.698000 5.000000 4.000000 -2.000000 93.440162 19.840663 586.647147 872.216214 10.712885 0.000000 0.137640
535.000000 81.930000 8.000000 3.000000 -3.000000 117.909804 41.357167 27.548006 181.473846 12.206018 0.000000 0.140475
539.000000 82.474000 1.000000 4.000000 -3.000000 58.671449 -29.602734 1586.488173 1694.483134 12.138480 0.000000 0.149736
540.000000 89.897000 6.000000 4.000000 -3.000000 107.423559 18.859840 607.344730 584.060433 11.126838 0.000000 0.117015
541.000000 82.275000 7.000000 4.000000 -3.000000 109.350070 26.631081 435.301522 518.173747 12.156996 0.000000 0.069249
542.000000 75.085000 8.000000 4.000000 -3.000000 110.160839 33.222625 270.085599 468.625241 13.320712 0.000000 0.025143
543.000000 68.586000 9.000000 4.000000 -3.000000 110.285856 38.746245 111.298472 430.911118 14.582752 0.000000 0.067526
544.000000 62.827000 10.000000 4.000000 -3.000000 110.006395 43.361391 -41.427928 401.997371 15.919274 0.000000 0.138449
545.000000 57.768000 11.000000 4.000000 -3.000000 109.499342 47.228050 -188.434101 379.769003 17.313568 0.000000 0.215462
549.000000 60.505000 1.000000 5.000000 -3.000000 49.577419 -25.380339 1485.609579 1955.662663 16.548262 0.000000 0.178619
550.000000 73.761000 2.000000 5.000000 -3.000000 63.638065 -17.653037 1317.517525 1500.744318 13.572111 0.000000 0.084348
551.000000 81.063000 3.000000 5.000000 -3.000000 75.579653 -9.512215 1155.345792 1221.611148 12.347244 0.000000 0.125168
552.000000 83.059000 4.000000 5.000000 -3.000000 85.002221 -1.266079 998.787016 1035.144491 12.048396 0.000000 0.157251
553.000000 81.359000 5.000000 5.000000 -3.000000 91.987899 6.753015 847.554747 903.381577 12.298435 0.000000 0.163967
554.000000 77.553000 6.000000 5.000000 -3.000000 96.904392 14.263720 701.381701 806.524756 12.900540 0.000000 0.151367
555.000000 72.799000 7.000000 5.000000 -3.000000 100.209890 21.084913 560.018183 733.242582 13.741945 0.000000 0.125245
556.000000 67.804000 8.000000 5.000000 -3.000000 102.331833 27.142244 423.230663 676.585172 14.753396 0.000000 0.090742
557.000000 62.952000 9.000000 5.000000 -3.000000 103.617078 32.444091 290.800490 632.055987 15.890011 0.000000 0.056354
558.000000 58.423000 10.000000 5.000000 -3.000000 104.325736 37.048569 162.522723 596.619282 17.121427 0.000000 0.051300
559.000000 54.284000 11.000000 5.000000 -3.000000 104.644052 41.035959 38.205077 568.153177 18.426365 0.000000 0.090938
560.000000 50.545000 12.000000 5.000000 -3.000000 104.701866 44.490834 -82.333043 545.131203 19.789473 0.000000 0.146236
561.000000 47.183000 13.000000 5.000000 -3.000000 104.588376 47.492523 -199.261414 526.428232 21.199394 0.000000 0.207304
562.000000 45.619000 1.000000 6.000000 -3.000000 42.661756 -22.437804 1419.447491 2204.593239 21.949772 0.000000 0.237461
563.000000 56.467000 2.000000 6.000000 -3.000000 54.903979 -15.862722 1280.833542 1727.262009 17.731179 0.000000 0.083667
564.000000 67.184000 4.000000 6.000000 -3.000000 74.794575 -2.161844 1015.629259 1233.740467 14.898423 0.000000 0.123016
565.000000 67.797000 5.000000 6.000000 -3.000000 82.040588 4.584512 888.696231 1091.968890 14.761466 0.000000 0.148759
566.000000 63.814000 7.000000 6.000000 -3.000000 91.793521 17.027304 645.382886 905.752873 15.679599 0.000000 0.146010
567.000000 60.620000 8.000000 6.000000 -3.000000 94.839047 22.521361 528.714130 842.359713 16.504579 0.000000 0.127234
568.000000 57.209000 3.000000 2.000000 -1.000000 97.015356 27.480116 415.191320 791.710710 5.829204 0.000000 0.102379
569.000000 53.813000 10.000000 6.000000 -3.000000 98.537452 31.914459 304.688905 750.654480 18.590338 0.000000 0.077044
570.000000 50.560000 11.000000 6.000000 -3.000000 99.574888 35.858234 197.087925 716.986008 19.785881 0.000000 0.063248
571.000000 47.511000 4.000000 2.000000 -1.000000 100.256849 39.356944 92.275590 689.116958 7.018284 0.000000 0.076467
572.000000 50.742000 3.000000 7.000000 -3.000000 57.931050 -8.706436 1139.819894 1623.206749 19.731433 0.000000 0.038844
573.000000 54.793000 4.000000 7.000000 -3.000000 66.491613 -2.803765 1027.710474 1409.734528 18.270169 0.000000 0.076063
574.000000 56.632000 5.000000 7.000000 -3.000000 73.684475 3.012928 918.350285 1256.483173 17.674701 0.000000 0.117445
575.000000 56.755000 6.000000 7.000000 -3.000000 79.551223 8.630515 811.639425 1141.757510 17.634157 0.000000 0.138978
576.000000 55.687000 7.000000 7.000000 -3.000000 84.226063 13.958240 707.482773 1053.142734 17.970586 0.000000 0.145028
577.000000 53.871000 8.000000 7.000000 -3.000000 87.884951 18.933938 605.789708 983.022703 18.574775 0.000000 0.139774
578.000000 51.640000 9.000000 7.000000 -3.000000 90.709340 23.524175 506.473845 926.466599 19.375982 0.000000 0.126630
579.000000 49.223000 10.000000 7.000000 -3.000000 92.865522 27.720031 409.452794 880.141986 20.326368 0.000000 0.108775
580.000000 46.768000 11.000000 7.000000 -3.000000 94.495723 31.530877 314.647925 841.716245 21.392424 0.000000 0.090151
581.000000 47.581000 5.000000 8.000000 -3.000000 66.651995 1.823258 940.738745 1405.830294 21.039158 0.000000 0.076652
582.000000 48.601000 6.000000 8.000000 -3.000000 72.574542 6.796670 846.723122 1281.206273 20.595649 0.000000 0.111537
583.000000 48.549000 7.000000 8.000000 -3.000000 77.503529 11.568354 754.687964 1184.485277 20.615536 0.000000 0.130167
584.000000 47.737000 8.000000 8.000000 -3.000000 81.543387 16.088809 664.571345 1107.543069 20.964495 0.000000 0.136564
585.000000 46.424000 9.000000 8.000000 -3.000000 84.816550 20.325880 576.313894 1045.120339 21.555545 0.000000 0.133970
587.000000 87.453000 7.000000 3.000000 -2.000000 107.186744 42.096963 2.597101 492.360134 11.437257 0.000000 0.109522
588.000000 77.967000 8.000000 3.000000 -2.000000 106.834883 47.375342 -194.450732 460.091774 12.828570 0.000000 0.210101
593.000000 77.197000 1.000000 4.000000 -2.000000 48.926274 -19.191236 1349.620747 1934.240206 12.970496 0.000000 0.148001
594.000000 78.245000 7.000000 4.000000 -2.000000 99.107818 33.944988 250.532925 733.007686 12.785241 0.000000 0.067545
595.000000 65.053000 9.000000 4.000000 -2.000000 100.817064 43.878038 -59.946829 655.703743 15.377068 0.000000 0.133039
596.000000 59.600000 5.000000 2.000000 -1.000000 101.013754 47.667213 -206.473071 629.940505 8.391814 0.000000 0.206122
597.000000 54.840000 11.000000 4.000000 -2.000000 100.988178 50.862644 -347.616991 609.906799 18.240485 0.000000 0.286093
600.000000 53.399000 1.000000 5.000000 -2.000000 40.245562 -16.750638 1298.940888 2268.915803 18.752380 0.000000 0.248263
601.000000 68.374000 2.000000 5.000000 -2.000000 54.629849 -8.571907 1137.234453 1713.670007 14.643824 0.000000 0.050190
602.000000 76.487000 3.000000 5.000000 -2.000000 66.620192 -0.325800 981.120176 1406.311383 13.088242 0.000000 0.076401
603.000000 78.748000 4.000000 5.000000 -2.000000 75.935302 7.656416 830.312904 1213.067085 12.710176 0.000000 0.126395
604.000000 77.148000 5.000000 5.000000 -2.000000 82.809073 15.102331 684.546546 1081.652281 12.971804 0.000000 0.140616
605.000000 73.471000 6.000000 5.000000 -2.000000 87.707109 21.843149 543.572510 987.427949 13.619558 0.000000 0.132049
606.000000 68.917000 7.000000 5.000000 -2.000000 91.117335 27.815665 407.158284 917.265956 14.518244 0.000000 0.110811
607.000000 64.179000 8.000000 5.000000 -2.000000 93.453005 33.035937 275.086158 863.532861 15.589184 0.000000 0.088012
608.000000 59.609000 9.000000 5.000000 -2.000000 95.029912 37.566226 147.152065 821.489664 16.783482 0.000000 0.081825
609.000000 55.366000 10.000000 5.000000 -2.000000 96.076730 41.488374 23.164527 788.040332 18.069147 0.000000 0.106423
610.000000 51.502000 11.000000 5.000000 -2.000000 96.754572 44.886975 -97.056299 761.077840 19.424370 0.000000 0.152572
611.000000 48.017000 12.000000 5.000000 -2.000000 97.175565 47.840616 -213.679492 739.119447 20.833772 0.000000 0.209181
612.000000 50.736000 1.000000 3.000000 -1.000000 46.528738 -8.257767 1131.204210 1972.029409 9.868109 0.000000 0.137173
613.000000 58.679000 3.000000 6.000000 -2.000000 57.463511 -1.376198 1000.856678 1627.837218 17.062674 0.000000 0.004681
614.000000 62.686000 2.000000 3.000000 -1.000000 66.543842 5.349265 874.221726 1410.049889 7.984884 0.000000 0.077013
615.000000 63.612000 5.000000 6.000000 -2.000000 73.780921 11.749362 751.142970 1260.781222 15.734945 0.000000 0.116069
616.000000 62.481000 3.000000 3.000000 -1.000000 79.383524 17.701836 631.472683 1152.770308 8.008910 0.000000 0.129590
617.000000 60.150000 7.000000 6.000000 -2.000000 83.638212 23.138290 515.071211 1071.496185 16.637014 0.000000 0.126653
618.000000 57.222000 4.000000 3.000000 -1.000000 86.830913 28.038074 401.806428 1008.515637 8.743509 0.000000 0.114328
619.000000 54.078000 9.000000 6.000000 -2.000000 89.209756 32.415544 291.553230 958.585748 18.502277 0.000000 0.099835
620.000000 50.943000 5.000000 3.000000 -1.000000 90.974592 36.306575 184.193082 918.279735 9.819958 0.000000 0.092605
621.000000 47.937000 11.000000 6.000000 -2.000000 92.279753 39.757612 79.613587 885.263925 20.870709 0.000000 0.101996
622.000000 46.001000 3.000000 7.000000 -2.000000 50.346265 -2.129315 1015.017348 1833.706020 21.767404 0.000000 0.079865
623.000000 50.497000 4.000000 7.000000 -2.000000 58.963130 3.674630 905.877718 1589.980098 19.826814 0.000000 0.022664
624.000000 52.678000 5.000000 7.000000 -2.000000 66.189537 9.267311 799.380521 1422.218116 19.003586 0.000000 0.077760
625.000000 53.089000 6.000000 7.000000 -2.000000 72.098150 14.560879 695.430938 1300.209389 18.854157 0.000000 0.108862
626.000000 52.285000 7.000000 7.000000 -2.000000 76.844167 19.496479 593.938634 1207.869124 19.142304 0.000000 0.121744
627.000000 50.721000 8.000000 7.000000 -2.000000 80.612342 24.043765 494.817496 1135.847175 19.730671 0.000000 0.122406
628.000000 48.734000 9.000000 7.000000 -2.000000 83.583447 28.196307 397.985386 1078.337975 20.533947 0.000000 0.115830
629.000000 46.549000 10.000000 7.000000 -2.000000 85.917616 31.965253 303.363918 1031.546806 21.496345 0.000000 0.106935
631.000000 90.237000 6.000000 3.000000 -1.000000 93.241648 42.818121 -22.291902 857.894633 11.087026 0.000000 0.128974
632.000000 80.218000 7.000000 3.000000 -1.000000 94.460227 47.955509 -218.480868 815.640071 12.471223 0.000000 0.213877
633.000000 71.803000 8.000000 3.000000 -1.000000 95.088534 52.051018 -405.125173 785.152983 13.932533 0.000000 0.317601
637.000000 82.467000 2.000000 4.000000 -1.000000 52.781377 2.405752 929.781664 1759.224498 12.141553 0.000000 0.052976
638.000000 90.474000 3.000000 4.000000 -1.000000 65.777418 12.110479 744.056602 1436.237372 11.064767 0.000000 0.079115
639.000000 89.682000 4.000000 4.000000 -1.000000 74.894977 20.807591 565.990977 1251.777027 11.160373 0.000000 0.116458
640.000000 84.669000 5.000000 4.000000 -1.000000 81.041851 28.314636 395.120542 1133.720257 11.819423 0.000000 0.116516
641.000000 78.221000 6.000000 4.000000 -1.000000 85.127548 34.653942 231.017822 1052.536048 12.792450 0.000000 0.107753
642.000000 71.683000 7.000000 4.000000 -1.000000 87.842598 39.956028 73.288551 993.894598 13.958320 0.000000 0.118420
643.000000 65.603000 8.000000 4.000000 -1.000000 89.657414 44.384949 -78.431499 950.005050 15.251108 0.000000 0.160108
644.000000 60.155000 9.000000 4.000000 -1.000000 90.879143 48.098332 -224.479321 916.270221 16.631866 0.000000 0.222993
645.000000 55.347000 10.000000 4.000000 -1.000000 91.706043 51.231896 -365.167171 889.804169 18.076104 0.000000 0.297379
648.000000 57.221000 2.000000 5.000000 -1.000000 43.415433 0.613079 963.482953 2078.600478 17.500316 0.000000 0.178131
649.000000 66.746000 3.000000 5.000000 -1.000000 55.555930 8.554525 813.099474 1687.475399 15.000641 0.000000 0.049561
650.000000 70.146000 4.000000 5.000000 -1.000000 65.016323 15.933026 667.738671 1462.547157 14.271289 0.000000 0.083278
651.000000 69.548000 5.000000 5.000000 -1.000000 72.109810 22.592236 527.153048 1317.307017 14.391856 0.000000 0.111039
652.000000 66.784000 6.000000 5.000000 -1.000000 77.325758 28.479800 391.111107 1216.368667 14.985731 0.000000 0.117210
653.000000 63.056000 7.000000 5.000000 -1.000000 81.135855 33.619042 259.396075 1142.568025 15.870176 0.000000 0.115738
654.000000 59.050000 8.000000 5.000000 -1.000000 83.922547 38.076017 131.804753 1086.573297 16.945797 0.000000 0.120885
655.000000 55.117000 9.000000 5.000000 -1.000000 85.972161 41.933895 8.146469 1042.876172 18.153893 0.000000 0.142362
656.000000 51.422000 10.000000 5.000000 -1.000000 87.491180 45.277162 -111.757871 1008.016479 19.457564 0.000000 0.180405
657.000000 48.027000 11.000000 5.000000 -1.000000 88.626232 48.183605 -228.076653 979.711922 20.832449 0.000000 0.230289
658.000000 50.520000 3.000000 6.000000 -1.000000 47.801577 6.111059 859.767209 1922.447237 19.820424 0.000000 0.121926
659.000000 55.381000 4.000000 6.000000 -1.000000 57.009557 12.470377 736.975058 1656.580612 18.078681 0.000000 0.062631
660.000000 57.077000 5.000000 6.000000 -1.000000 64.406000 18.370441 617.581156 1484.218324 17.538912 0.000000 0.088175
661.000000 56.653000 6.000000 6.000000 -1.000000 70.221342 23.748788 501.446361 1363.843359 17.668068 0.000000 0.109538
662.000000 54.969000 7.000000 6.000000 -1.000000 74.743329 28.589588 388.439023 1275.331136 18.207703 0.000000 0.117885
663.000000 52.624000 8.000000 6.000000 -1.000000 78.246546 32.910488 278.434489 1207.744218 19.017316 0.000000 0.120206
664.000000 50.000000 9.000000 6.000000 -1.000000 80.963486 36.749258 171.314643 1154.627452 20.013962 0.000000 0.124471
665.000000 47.322000 10.000000 6.000000 -1.000000 83.079192 40.153176 66.967486 1111.925755 21.145518 0.000000 0.137151
666.000000 47.088000 5.000000 7.000000 -1.000000 57.867950 15.159551 683.393082 1641.369283 21.262251 0.000000 0.073920
667.000000 48.035000 6.000000 7.000000 -1.000000 63.926953 20.054499 582.101145 1501.636607 20.840667 0.000000 0.092938
668.000000 47.730000 7.000000 7.000000 -1.000000 68.859067 24.558602 483.174352 1398.585799 20.971812 0.000000 0.109898
669.000000 46.626000 8.000000 7.000000 -1.000000 72.846242 28.667850 386.530819 1319.631436 21.466379 0.000000 0.118734
672.000000 147.931000 2.000000 2.000000 0.000000 60.522464 29.134666 375.089071 1637.504313 6.767238 0.000000 0.145665
673.000000 135.520000 3.000000 2.000000 0.000000 72.501144 40.543699 54.337255 1387.540336 7.385122 0.000000 0.184828
674.000000 116.944000 4.000000 2.000000 0.000000 78.778393 48.521578 -242.452941 1263.394082 8.556990 0.000000 0.274522
676.000000 91.647000 2.000000 3.000000 0.000000 46.666995 19.033017 603.708269 2015.142095 10.925681 0.000000 0.186526
677.000000 94.158000 4.000000 3.000000 0.000000 69.360767 37.186339 158.452579 1449.857737 10.630052 0.000000 0.168119
678.000000 86.212000 5.000000 3.000000 0.000000 75.033255 43.521115 -47.119231 1337.792921 11.608342 0.000000 0.207786
681.000000 71.367000 3.000000 4.000000 0.000000 50.716830 21.760380 545.376094 1888.958045 14.029720 0.000000 0.158466
682.000000 71.853000 5.000000 4.000000 0.000000 67.510248 35.349646 211.540183 1487.309706 13.930396 0.000000 0.161451
683.000000 63.086000 7.000000 4.000000 0.000000 76.114452 44.882318 -96.882036 1316.506236 15.863160 0.000000 0.221927
684.000000 54.177000 9.000000 4.000000 0.000000 80.780741 51.594674 -382.686130 1222.209161 18.469937 0.000000 0.339675
686.000000 52.625000 3.000000 5.000000 0.000000 43.112897 16.755573 650.958008 2141.608195 19.027944 0.000000 0.223509
687.000000 57.962000 4.000000 5.000000 0.000000 52.947035 23.332087 510.759733 1825.976081 17.273745 0.000000 0.149502
688.000000 57.999000 6.000000 5.000000 0.000000 66.296062 34.193480 243.730183 1512.300869 17.258473 0.000000 0.157807
689.000000 55.618000 7.000000 5.000000 0.000000 70.700014 38.578041 116.480734 1423.133696 17.995393 0.000000 0.174172
690.000000 52.730000 8.000000 5.000000 0.000000 74.084037 42.372625 -6.849146 1356.435955 18.979635 0.000000 0.197764
691.000000 49.717000 9.000000 5.000000 0.000000 76.712285 45.661493 -126.437807 1304.689999 20.128504 0.000000 0.231262
692.000000 48.664000 5.000000 6.000000 0.000000 54.354641 24.352818 487.839543 1788.223489 20.573670 0.000000 0.146020
693.000000 48.586000 7.000000 6.000000 0.000000 65.439675 33.399333 265.332649 1530.162438 20.602406 0.000000 0.155497
714.000000 47.260000 5.000000 5.000000 1.000000 48.742302 34.759331 228.088428 2090.212950 21.184942 0.000000 0.288382
715.000000 47.998000 6.000000 5.000000 1.000000 55.162201 39.072398 101.179957 1905.896504 20.857232 0.000000 0.278119
716.000000 47.231000 7.000000 5.000000 1.000000 60.228273 42.804669 -21.822368 1780.192916 21.193728 0.000000 0.289687
717.000000 45.670000 8.000000 5.000000 1.000000 64.257329 46.040065 -141.096153 1688.632569 21.916684 0.000000 0.314155
#UB matrix in q= (UB) B0 G* 
#[[-0.707787317  0.004025281  0.705773701]
# [ 0.701289961 -0.11642342   0.703970361]
# [ 0.085026494  0.994010429  0.079682189]]
#B0 matrix in q= UB (B0) G*
#[[ 0.19670273 -0.          0.03056101]
# [ 0.          0.19187965 -0.        ]
# [ 0.          0.          0.18806537]]
#UBB0 matrix in q= (UB B0) G* i.e. recip. basis vectors are columns in LT frame: astar = UBB0[:,0], bstar = UBB0[:,1], cstar = UBB0[:,2]. (abcstar as columns on xyzlab1, xlab1 = ui, ui = unit vector along incident beam)
#[[-0.1392237   0.00077237  0.1111009 ]
# [ 0.13794565 -0.02233929  0.15382457]
# [ 0.01672494  0.19073038  0.01758396]]
#Euler angles phi theta psi (deg)
#[175.107  85.439  45.126]
#deviatoric strain in direct crystal frame (10-3 unit)
#[[ 5.32 -0.   -0.82]
# [-0.    4.36 -0.08]
# [-0.82 -0.08 -9.68]]
#deviatoric strain in sample2 frame (10-3 unit)
#[[ 0.08 -6.27  2.6 ]
# [-6.28 -2.92  4.11]
# [ 2.59  4.1   2.84]]
#new lattice parameters
#[ 5.1505     5.2066029  5.316418  90.0049925 99.2814359 90.0004153]
#CCDLabel
#sCMOS
#DetectorParameters
#[79.0, 975.0, 941.0, 0.0, 0.0]
#pixelsize
#0.0734
#Frame dimensions
#[2018, 2016]
#
