#Strain and Orientation Refinement from experimental file: /home/micha/LaueProjects/DepthEffects/testZrO2_3.cor
#File created at Wed Jun 28 16:33:41 2023 with indexingSpotsSet.py
#Number of indexed spots: 519
#Element
#ZrO2
#grainIndex
#G_0
#Mean Deviation(pixel): 0.091
##spot_index intensity h k l 2theta Chi Xexp Yexp Energy GrainIndex PixDev
8.000000 52.573000 5.000000 -3.000000 0.000000 43.599639 -24.445656 1464.263235 2182.532795 19.011979 0.000000 0.174684
9.000000 85.262000 3.000000 -2.000000 0.000000 43.680799 -27.350355 1531.715351 2209.876436 11.723011 0.000000 0.188464
10.000000 67.925000 2.000000 -1.000000 0.000000 43.256336 -19.778049 1362.024059 2156.587963 7.357305 0.000000 0.159164
11.000000 55.502000 5.000000 -2.000000 0.000000 42.594366 -14.756250 1258.490184 2151.620767 18.007906 0.000000 0.151512
12.000000 46.532000 3.000000 -1.000000 0.000000 41.949196 -11.231968 1188.736128 2161.863136 10.739526 0.000000 0.151849
13.000000 69.586000 4.000000 -1.000000 0.000000 40.891767 -6.661769 1100.707498 2192.317473 14.362807 0.000000 0.159297
14.000000 55.220000 5.000000 -1.000000 0.000000 40.118131 -3.850417 1047.438703 2221.209667 18.099245 0.000000 0.167687
15.000000 45.641000 6.000000 -1.000000 0.000000 39.543887 -1.954856 1011.735984 2245.372760 21.897824 0.000000 0.174909
24.000000 55.834000 5.000000 -5.000000 1.000000 58.354148 -39.096829 1849.581716 1795.715286 17.904830 0.000000 0.177780
25.000000 49.794000 6.000000 -5.000000 1.000000 57.413746 -33.370067 1683.878842 1764.764856 20.076027 0.000000 0.138236
28.000000 73.161000 4.000000 -4.000000 1.000000 62.072559 -39.003324 1846.669301 1675.167685 13.665001 0.000000 0.159979
29.000000 63.148000 5.000000 -4.000000 1.000000 60.426961 -31.972298 1646.819950 1660.966392 15.830979 0.000000 0.118444
30.000000 54.619000 6.000000 -4.000000 1.000000 58.615473 -26.545229 1512.681771 1674.945083 18.302207 0.000000 0.095536
31.000000 47.587000 7.000000 -4.000000 1.000000 56.864346 -22.300048 1416.421504 1700.376403 21.006260 0.000000 0.080394
33.000000 104.186000 3.000000 -3.000000 1.000000 68.114216 -38.843250 1841.701270 1496.112250 9.596384 0.000000 0.136180
34.000000 85.184000 4.000000 -3.000000 1.000000 64.977614 -29.748473 1590.114813 1519.656238 11.736179 0.000000 0.097460
35.000000 70.217000 5.000000 -3.000000 1.000000 61.871520 -23.312683 1438.808004 1567.525638 14.237007 0.000000 0.077058
36.000000 58.801000 6.000000 -3.000000 1.000000 59.131136 -18.627512 1337.788473 1619.919827 17.000316 0.000000 0.061323
37.000000 50.079000 7.000000 -3.000000 1.000000 56.800036 -15.107562 1265.558880 1670.519755 19.960433 0.000000 0.050142
38.000000 171.429000 2.000000 -2.000000 1.000000 79.537034 -38.506236 1831.314411 1194.993102 5.833073 0.000000 0.101875
39.000000 126.667000 3.000000 -2.000000 1.000000 72.551285 -25.679273 1492.506008 1316.369211 7.893259 0.000000 0.087614
40.000000 96.078000 4.000000 -2.000000 1.000000 66.638294 -18.020137 1325.127474 1429.880983 10.405219 0.000000 0.070774
41.000000 75.595000 5.000000 -2.000000 1.000000 62.080694 -13.093827 1225.339287 1526.557151 13.223781 0.000000 0.049144
42.000000 61.476000 6.000000 -2.000000 1.000000 58.586026 -9.705358 1159.077939 1607.877749 16.259954 0.000000 0.030307
43.000000 51.375000 7.000000 -2.000000 1.000000 55.863352 -7.247652 1111.877104 1676.587701 19.456150 0.000000 0.021971
44.000000 143.233000 3.000000 -1.000000 1.000000 73.806372 -8.069766 1127.599960 1256.688587 6.980188 0.000000 0.092975
45.000000 101.750000 4.000000 -1.000000 1.000000 65.728601 -4.054176 1051.284558 1427.536328 9.824847 0.000000 0.058024
46.000000 77.354000 5.000000 -1.000000 1.000000 60.397821 -1.660245 1006.196226 1552.731192 12.922567 0.000000 0.026043
47.000000 61.721000 6.000000 -1.000000 1.000000 56.651645 -0.075796 976.423815 1649.294807 16.194934 0.000000 0.006137
48.000000 51.016000 7.000000 -1.000000 1.000000 53.886712 1.048790 955.296409 1726.361268 19.592900 0.000000 0.025499
49.000000 170.218000 2.000000 1.000000 1.000000 63.955958 40.043572 70.486204 1628.041462 5.873496 0.000000 0.173497
50.000000 115.191000 3.000000 1.000000 1.000000 57.751321 30.294039 346.214605 1727.447364 8.678261 0.000000 0.130703
51.000000 84.423000 4.000000 1.000000 1.000000 53.519159 24.909016 475.194949 1818.484651 11.840252 0.000000 0.119847
52.000000 65.699000 5.000000 1.000000 1.000000 50.582364 21.549710 549.957352 1892.116819 15.214130 0.000000 0.119937
53.000000 53.382000 6.000000 1.000000 1.000000 48.457634 19.268518 598.750882 1951.235408 18.723983 0.000000 0.124774
63.000000 46.781000 6.000000 -7.000000 2.000000 65.565197 -43.899445 2010.721050 1619.664819 21.371929 0.000000 0.191312
65.000000 57.416000 5.000000 -6.000000 2.000000 69.394846 -44.763350 2042.439904 1510.930664 17.414124 0.000000 0.184396
66.000000 47.101000 7.000000 -6.000000 2.000000 66.585309 -33.892233 1698.027988 1502.484888 21.226358 0.000000 0.112097
68.000000 73.368000 4.000000 -5.000000 2.000000 74.732570 -46.042068 2091.174230 1364.239551 13.628989 0.000000 0.178341
69.000000 65.237000 5.000000 -5.000000 2.000000 72.794111 -38.711225 1837.620582 1368.126219 15.326692 0.000000 0.120942
70.000000 57.735000 6.000000 -5.000000 2.000000 70.531538 -32.814255 1669.003383 1393.706790 17.317419 0.000000 0.100413
71.000000 51.146000 7.000000 -5.000000 2.000000 68.232911 -28.061846 1548.766886 1428.024474 19.547328 0.000000 0.089550
72.000000 45.494000 8.000000 -5.000000 2.000000 66.040919 -24.199787 1458.701024 1465.355889 21.975004 0.000000 0.080309
74.000000 99.112000 3.000000 -4.000000 2.000000 82.625394 -48.125744 2175.634436 1149.691500 10.089934 0.000000 0.179980
75.000000 73.583000 5.000000 -4.000000 2.000000 75.995688 -31.221397 1627.376471 1254.897944 13.588606 0.000000 0.091514
76.000000 54.910000 7.000000 -4.000000 2.000000 69.415104 -21.395494 1396.697468 1375.148186 18.207155 0.000000 0.080455
77.000000 144.563000 2.000000 -3.000000 2.000000 95.232376 -52.105528 2357.836128 780.527444 6.918852 0.000000 0.233085
78.000000 120.440000 3.000000 -3.000000 2.000000 89.991570 -38.144711 1820.279622 941.201352 8.303696 0.000000 0.074442
79.000000 98.869000 4.000000 -3.000000 2.000000 83.987915 -28.634820 1562.663495 1070.148520 10.114294 0.000000 0.089327
80.000000 81.607000 5.000000 -3.000000 2.000000 78.488833 -22.074924 1411.489160 1177.532447 12.252529 0.000000 0.095763
81.000000 68.254000 6.000000 -3.000000 2.000000 73.793735 -17.389926 1312.082362 1268.802938 14.648285 0.000000 0.089849
82.000000 57.956000 7.000000 -3.000000 2.000000 69.867226 -13.919252 1241.739725 1347.502689 17.250117 0.000000 0.078311
83.000000 49.936000 8.000000 -3.000000 2.000000 66.589674 -11.262916 1189.340478 1416.134922 20.019430 0.000000 0.064659
84.000000 185.341000 2.000000 -2.000000 2.000000 107.917972 -37.336736 1796.007616 503.302734 5.397322 0.000000 0.032726
85.000000 142.547000 3.000000 -2.000000 2.000000 96.494847 -23.737048 1448.290433 807.146101 7.016342 0.000000 0.094432
86.000000 110.565000 4.000000 -2.000000 2.000000 86.943536 -16.056320 1284.767700 1000.802714 9.044408 0.000000 0.114018
87.000000 87.845000 5.000000 -2.000000 2.000000 79.533272 -11.282775 1189.728352 1143.751421 11.382268 0.000000 0.107849
88.000000 59.762000 7.000000 -2.000000 2.000000 69.315703 -5.772842 1083.810579 1349.432013 16.728557 0.000000 0.075555
89.000000 158.037000 3.000000 -1.000000 2.000000 98.985436 -4.434638 1058.470878 770.301119 6.328697 0.000000 0.129422
90.000000 117.028000 4.000000 -1.000000 2.000000 86.808940 -1.178519 997.141466 1001.018427 8.544800 0.000000 0.126490
91.000000 90.436000 5.000000 -1.000000 2.000000 78.340143 0.699941 961.851048 1163.120089 11.055885 0.000000 0.109346
92.000000 72.487000 6.000000 -1.000000 2.000000 72.191107 1.919960 938.920287 1286.938782 13.792326 0.000000 0.088794
93.000000 59.845000 7.000000 -1.000000 2.000000 67.554195 2.775395 922.823735 1386.145579 16.704808 0.000000 0.068660
94.000000 50.597000 8.000000 -1.000000 2.000000 63.945908 3.408168 910.902368 1468.134512 19.757430 0.000000 0.050507
95.000000 156.986000 3.000000 0.000000 2.000000 94.077839 16.826346 649.507499 860.836611 6.370721 0.000000 0.115542
96.000000 114.582000 4.000000 0.000000 2.000000 82.421946 14.369530 699.264623 1088.813040 8.726760 0.000000 0.112727
97.000000 87.935000 5.000000 0.000000 2.000000 74.483883 12.945264 727.600656 1247.601302 11.369920 0.000000 0.096546
98.000000 70.261000 6.000000 0.000000 2.000000 68.790216 12.016712 745.898452 1368.036167 14.228751 0.000000 0.078332
99.000000 57.940000 7.000000 0.000000 2.000000 64.529533 11.363751 758.689524 1463.936852 17.253696 0.000000 0.062248
100.000000 48.979000 8.000000 0.000000 2.000000 61.230942 10.879660 768.134609 1542.757219 20.409299 0.000000 0.050444
101.000000 188.541000 2.000000 1.000000 2.000000 92.948262 46.685603 -166.560886 860.195954 5.304805 0.000000 0.146125
102.000000 136.744000 3.000000 1.000000 2.000000 82.276508 35.050551 219.954581 1119.306784 7.312843 0.000000 0.091175
103.000000 102.733000 4.000000 1.000000 2.000000 74.199998 28.501671 390.579255 1287.562952 9.732551 0.000000 0.095488
104.000000 80.333000 5.000000 1.000000 2.000000 68.258482 24.402880 486.706028 1412.319504 12.445194 0.000000 0.089654
105.000000 65.026000 6.000000 1.000000 2.000000 63.808017 21.622184 548.382818 1510.488047 15.373694 0.000000 0.081516
106.000000 54.135000 7.000000 1.000000 2.000000 60.386278 19.620507 591.314735 1590.471283 18.465833 0.000000 0.075440
107.000000 46.097000 8.000000 1.000000 2.000000 57.688543 18.114084 622.919952 1657.201698 21.684980 0.000000 0.072850
109.000000 106.559000 3.000000 2.000000 2.000000 67.791476 48.271165 -231.782917 1601.171836 9.383058 0.000000 0.255812
110.000000 69.256000 5.000000 2.000000 2.000000 60.570124 34.369745 238.880413 1676.633210 14.434965 0.000000 0.144585
111.000000 48.877000 7.000000 2.000000 2.000000 55.432953 27.252927 420.602443 1775.170594 20.452013 0.000000 0.123319
115.000000 49.146000 6.000000 3.000000 2.000000 51.226970 37.830336 139.227463 2035.575495 20.340142 0.000000 0.227468
118.000000 46.407000 6.000000 -8.000000 3.000000 73.165643 -48.132393 2175.914770 1428.939866 21.546465 0.000000 0.212756
120.000000 55.813000 5.000000 -7.000000 3.000000 77.572967 -49.699291 2244.090817 1307.684212 17.916668 0.000000 0.220957
121.000000 51.545000 6.000000 -7.000000 3.000000 76.327836 -43.754907 2005.504297 1303.476319 19.399260 0.000000 0.147655
122.000000 47.344000 7.000000 -7.000000 3.000000 74.755381 -38.653525 1835.841876 1316.603664 21.120025 0.000000 0.115131
123.000000 69.036000 4.000000 -6.000000 3.000000 83.379354 -51.945649 2349.903508 1143.665094 14.485962 0.000000 0.245514
124.000000 63.063000 5.000000 -6.000000 3.000000 81.701663 -44.623366 2037.236452 1161.561636 15.857286 0.000000 0.138892
125.000000 51.618000 7.000000 -6.000000 3.000000 77.183311 -33.428128 1685.443669 1234.391288 19.371181 0.000000 0.092907
126.000000 46.635000 8.000000 -6.000000 3.000000 74.821519 -29.207224 1576.698646 1275.519256 21.440327 0.000000 0.090449
128.000000 79.753000 4.000000 -5.000000 3.000000 89.010445 -45.929294 2086.786377 967.727975 12.540132 0.000000 0.134378
129.000000 71.050000 5.000000 -5.000000 3.000000 85.929774 -38.292430 1824.775122 1038.581426 14.075247 0.000000 0.085095
130.000000 63.000000 6.000000 -5.000000 3.000000 82.601176 -32.216742 1653.217972 1106.198079 15.872765 0.000000 0.086052
131.000000 55.886000 7.000000 -5.000000 3.000000 79.336564 -27.369404 1532.169004 1169.201248 17.892011 0.000000 0.091195
132.000000 49.744000 8.000000 -5.000000 3.000000 76.282581 -23.464133 1442.185149 1227.401640 20.100305 0.000000 0.091772
133.000000 105.028000 3.000000 -4.000000 3.000000 99.397527 -48.111146 2175.019150 674.211178 9.523692 0.000000 0.156331
134.000000 91.672000 4.000000 -4.000000 3.000000 94.842283 -37.953916 1814.500009 825.364957 10.910328 0.000000 0.061469
135.000000 79.351000 5.000000 -4.000000 3.000000 89.911568 -30.400698 1606.475722 942.925985 12.603140 0.000000 0.080793
136.000000 68.727000 6.000000 -4.000000 3.000000 85.213243 -24.745768 1471.082070 1040.241372 14.550233 0.000000 0.096755
137.000000 59.837000 7.000000 -4.000000 3.000000 80.971539 -20.431061 1375.934563 1123.496695 16.710814 0.000000 0.100965
138.000000 52.479000 8.000000 -4.000000 3.000000 77.229653 -17.065898 1305.410261 1196.178401 19.052371 0.000000 0.098112
139.000000 46.398000 9.000000 -4.000000 3.000000 73.957077 -14.385042 1251.045914 1260.512539 21.548675 0.000000 0.091363
141.000000 103.781000 4.000000 -3.000000 3.000000 100.166542 -27.385675 1532.556603 723.632607 9.637767 0.000000 0.075117
142.000000 87.125000 5.000000 -3.000000 3.000000 93.057064 -20.718470 1382.094270 879.544552 11.478870 0.000000 0.105841
143.000000 63.046000 7.000000 -3.000000 3.000000 81.791469 -12.654416 1216.653778 1100.125253 15.859993 0.000000 0.111372
144.000000 54.557000 8.000000 -3.000000 3.000000 77.461559 -10.079322 1166.316473 1184.118603 18.326620 0.000000 0.103434
145.000000 173.335000 2.000000 -2.000000 3.000000 128.200218 -35.856859 1752.872750 -104.014896 5.772606 0.000000 0.099264
146.000000 141.115000 3.000000 -2.000000 3.000000 115.080251 -21.457630 1398.044454 399.765369 7.089388 0.000000 0.060495
147.000000 114.038000 4.000000 -2.000000 3.000000 103.685078 -13.853703 1240.433134 671.072567 8.771161 0.000000 0.112131
148.000000 93.061000 5.000000 -2.000000 3.000000 94.543938 -9.306379 1151.372997 854.322392 10.746784 0.000000 0.126606
149.000000 77.145000 6.000000 -2.000000 3.000000 87.292969 -6.316062 1094.129401 992.199900 12.962475 0.000000 0.125056
150.000000 65.027000 7.000000 -2.000000 3.000000 81.494591 -4.210514 1054.236675 1102.392725 15.376825 0.000000 0.116271
151.000000 55.678000 8.000000 -2.000000 3.000000 76.793966 -2.651533 1024.844308 1193.832813 17.957428 0.000000 0.104311
152.000000 48.348000 9.000000 -2.000000 3.000000 72.927057 -1.452383 1002.288684 1271.661296 20.678565 0.000000 0.091173
153.000000 194.899000 2.000000 -1.000000 3.000000 136.360487 -5.397434 1076.691122 -192.687286 5.134301 0.000000 0.014516
154.000000 152.302000 3.000000 -1.000000 3.000000 117.497219 -0.248697 979.671763 380.777770 6.568784 0.000000 0.093650
155.000000 119.525000 4.000000 -1.000000 3.000000 103.719309 1.991858 937.568111 678.084582 8.368500 0.000000 0.125926
156.000000 95.619000 5.000000 -1.000000 3.000000 93.540766 3.241734 914.039359 874.295607 10.459103 0.000000 0.131373
157.000000 78.213000 6.000000 -1.000000 3.000000 85.837520 4.038315 899.014884 1019.524489 12.785142 0.000000 0.124821
158.000000 65.333000 7.000000 -1.000000 3.000000 79.857829 4.590147 888.589698 1134.154146 15.304417 0.000000 0.113117
159.000000 55.594000 8.000000 -1.000000 3.000000 75.106664 4.994940 880.932238 1228.336911 17.984245 0.000000 0.099500
160.000000 48.068000 9.000000 -1.000000 3.000000 71.253546 5.304524 875.069483 1307.849466 20.798921 0.000000 0.085575
162.000000 136.659000 3.000000 1.000000 3.000000 100.185870 39.900007 75.078092 688.926610 7.319318 0.000000 0.061475
163.000000 108.142000 4.000000 1.000000 3.000000 90.729953 32.202601 297.153094 924.794236 9.248010 0.000000 0.076807
164.000000 87.131000 5.000000 1.000000 3.000000 83.201322 27.347006 418.364391 1085.459875 11.476718 0.000000 0.094544
165.000000 71.712000 6.000000 1.000000 3.000000 77.269594 24.048474 494.711421 1207.265190 13.943065 0.000000 0.096581
166.000000 60.226000 7.000000 1.000000 3.000000 72.551421 21.675987 547.212921 1305.034411 16.600845 0.000000 0.091606
167.000000 51.494000 8.000000 1.000000 3.000000 68.741893 19.893196 585.531472 1386.294668 19.415102 0.000000 0.084168
168.000000 113.543000 3.000000 2.000000 3.000000 85.515587 52.247189 -414.912471 1078.869739 8.807999 0.000000 0.262372
169.000000 93.305000 4.000000 2.000000 3.000000 80.084802 43.370360 -41.746739 1199.811183 10.717369 0.000000 0.140040
170.000000 77.241000 5.000000 2.000000 3.000000 75.136754 37.154519 159.393946 1299.390413 12.945142 0.000000 0.113828
171.000000 64.831000 6.000000 2.000000 3.000000 70.906219 32.656680 285.179939 1383.524152 15.421974 0.000000 0.106646
172.000000 55.244000 7.000000 2.000000 3.000000 67.356635 29.289285 371.276447 1455.783667 18.097295 0.000000 0.101491
173.000000 47.757000 8.000000 2.000000 3.000000 64.382999 26.690301 433.908636 1518.612662 20.933358 0.000000 0.096483
175.000000 65.815000 5.000000 3.000000 3.000000 66.488831 45.163374 -107.449761 1605.081343 15.191409 0.000000 0.216700
176.000000 49.335000 7.000000 3.000000 3.000000 61.635131 36.046317 191.696332 1659.698436 20.264016 0.000000 0.151724
182.000000 46.170000 7.000000 -8.000000 4.000000 81.192212 -42.986808 1978.197438 1168.978846 21.658849 0.000000 0.125086
184.000000 59.193000 5.000000 -7.000000 4.000000 88.130523 -49.748284 2246.292919 995.369017 16.895745 0.000000 0.193161
185.000000 54.709000 6.000000 -7.000000 4.000000 86.291365 -43.600687 1999.965802 1037.336965 18.279696 0.000000 0.115900
186.000000 50.304000 7.000000 -7.000000 4.000000 84.139797 -38.354450 1826.668027 1081.870338 19.879706 0.000000 0.089760
187.000000 46.147000 8.000000 -7.000000 4.000000 81.863352 -33.895443 1698.115488 1126.387108 21.669524 0.000000 0.086900
188.000000 66.232000 5.000000 -6.000000 4.000000 92.852333 -44.472028 2031.639068 865.852031 15.100930 0.000000 0.109904
189.000000 54.571000 7.000000 -6.000000 4.000000 86.972110 -32.933982 1672.191841 1008.832393 18.325414 0.000000 0.079768
191.000000 82.166000 4.000000 -5.000000 4.000000 101.532409 -45.804937 2081.968504 625.969768 12.173859 0.000000 0.121217
192.000000 73.766000 5.000000 -5.000000 4.000000 97.632572 -37.836014 1810.943499 758.375707 13.559240 0.000000 0.053960
193.000000 65.868000 6.000000 -5.000000 4.000000 93.506414 -31.572798 1636.436480 863.591774 15.183871 0.000000 0.071974
194.000000 58.773000 7.000000 -5.000000 4.000000 89.492012 -26.630383 1514.682078 951.675212 17.015685 0.000000 0.091417
195.000000 52.554000 8.000000 -5.000000 4.000000 85.747569 -22.685370 1424.900778 1027.738817 19.028098 0.000000 0.101146
196.000000 47.169000 9.000000 -5.000000 4.000000 82.329989 -19.491682 1355.959952 1094.759036 21.198890 0.000000 0.103964
197.000000 104.550000 3.000000 -4.000000 4.000000 113.360748 -48.094511 2174.318391 244.973232 9.568937 0.000000 0.187547
198.000000 81.349000 5.000000 -4.000000 4.000000 102.074149 -29.500383 1583.947491 676.475410 12.295852 0.000000 0.061558
199.000000 62.612000 7.000000 -4.000000 4.000000 91.433210 -19.401205 1354.048491 912.450542 15.972608 0.000000 0.109385
200.000000 49.115000 9.000000 -4.000000 4.000000 82.996443 -13.414175 1231.690877 1076.928470 20.359020 0.000000 0.112681
201.000000 119.167000 3.000000 -3.000000 4.000000 122.210566 -36.391833 1768.275802 98.671895 8.396023 0.000000 0.069916
202.000000 102.806000 4.000000 -3.000000 4.000000 113.578906 -25.976146 1499.389213 418.461733 9.730965 0.000000 0.044508
203.000000 88.213000 5.000000 -3.000000 4.000000 105.529515 -19.227153 1350.377339 624.251940 11.339401 0.000000 0.094879
204.000000 75.883000 6.000000 -3.000000 4.000000 98.493825 -14.616697 1255.688627 774.889263 13.180456 0.000000 0.116724
205.000000 65.704000 7.000000 -3.000000 4.000000 92.478508 -11.306777 1190.197219 893.490373 15.221015 0.000000 0.123956
206.000000 57.359000 8.000000 -3.000000 4.000000 87.361391 -8.830327 1142.202552 991.195987 17.433964 0.000000 0.123238
207.000000 50.509000 9.000000 -3.000000 4.000000 82.998191 -6.914338 1105.519209 1074.155211 19.796889 0.000000 0.118084
209.000000 131.885000 3.000000 -2.000000 4.000000 129.172103 -18.754363 1340.444086 14.897257 7.586869 0.000000 0.023293
210.000000 110.933000 4.000000 -2.000000 4.000000 117.130223 -11.373765 1191.506186 378.468563 9.018366 0.000000 0.083906
211.000000 93.289000 5.000000 -2.000000 4.000000 107.139477 -7.146321 1109.943253 606.478049 10.722585 0.000000 0.116845
212.000000 67.623000 7.000000 -2.000000 4.000000 92.314621 -2.555181 1023.030604 897.453157 14.788917 0.000000 0.130964
213.000000 51.181000 9.000000 -2.000000 4.000000 82.215388 -0.127811 977.400916 1088.139877 19.536807 0.000000 0.118760
215.000000 139.230000 3.000000 -1.000000 4.000000 130.836018 4.567333 889.021010 7.823008 7.186753 0.000000 0.037495
216.000000 115.020000 4.000000 -1.000000 4.000000 116.933402 5.482078 871.704424 391.662966 8.697942 0.000000 0.092869
217.000000 95.420000 5.000000 -1.000000 4.000000 106.095956 5.975713 862.338152 628.729059 10.482923 0.000000 0.119975
218.000000 80.025000 6.000000 -1.000000 4.000000 97.554491 6.284578 856.469236 797.398718 12.497925 0.000000 0.129217
219.000000 67.993000 7.000000 -1.000000 4.000000 90.720396 6.496046 852.446994 927.379287 14.708035 0.000000 0.128654
220.000000 58.528000 8.000000 -1.000000 4.000000 85.165246 6.649909 849.518317 1032.653053 17.085065 0.000000 0.122822
221.000000 50.999000 9.000000 -1.000000 4.000000 80.580939 6.766882 847.290598 1120.799775 19.606008 0.000000 0.114244
223.000000 138.030000 3.000000 0.000000 4.000000 124.862356 27.613670 411.999948 94.833198 7.248794 0.000000 0.025082
224.000000 113.455000 4.000000 0.000000 4.000000 112.164104 22.039836 539.278171 467.992982 8.817460 0.000000 0.066537
225.000000 93.798000 5.000000 0.000000 4.000000 102.081711 18.865006 607.236365 697.544102 10.663667 0.000000 0.102399
226.000000 66.603000 7.000000 0.000000 4.000000 87.652986 15.409828 678.340538 986.758063 15.014432 0.000000 0.117118
227.000000 49.906000 9.000000 0.000000 4.000000 78.101232 13.573623 715.141433 1174.302962 20.035099 0.000000 0.105322
228.000000 127.676000 3.000000 1.000000 4.000000 113.002093 44.774620 -92.859937 297.363853 7.835723 0.000000 0.138967
229.000000 106.044000 4.000000 1.000000 4.000000 103.593055 35.984722 193.464828 619.381904 9.432774 0.000000 0.036672
230.000000 88.393000 5.000000 1.000000 4.000000 95.511603 30.370277 344.292196 820.626549 11.314947 0.000000 0.072921
231.000000 74.446000 6.000000 1.000000 4.000000 88.808147 26.541715 437.400705 966.029976 13.433243 0.000000 0.093777
232.000000 63.493000 7.000000 1.000000 4.000000 83.279033 23.786482 500.600969 1079.609004 15.749285 0.000000 0.100533
233.000000 54.841000 8.000000 1.000000 4.000000 78.695169 21.717509 546.309442 1172.598141 18.232581 0.000000 0.099858
234.000000 47.934000 9.000000 1.000000 4.000000 74.860551 20.110661 580.905118 1251.108868 20.858604 0.000000 0.095408
236.000000 80.037000 5.000000 2.000000 4.000000 87.305092 39.960726 73.138359 1007.095094 12.495193 0.000000 0.092676
237.000000 58.958000 7.000000 2.000000 4.000000 77.927130 31.357854 319.113369 1210.581191 16.959820 0.000000 0.094932
239.000000 70.061000 5.000000 3.000000 4.000000 78.444277 47.670657 -206.615726 1267.800892 14.272927 0.000000 0.198563
240.000000 61.047000 6.000000 3.000000 4.000000 75.094834 42.261612 -3.035051 1328.097282 16.379607 0.000000 0.147503
241.000000 53.467000 7.000000 3.000000 4.000000 71.991717 38.011529 133.757920 1385.075488 18.700472 0.000000 0.127434
242.000000 47.161000 8.000000 3.000000 4.000000 69.200159 34.618624 231.997851 1437.799986 21.200116 0.000000 0.117914
244.000000 47.532000 7.000000 4.000000 4.000000 65.841624 43.757297 -55.590356 1609.395978 21.034307 0.000000 0.202583
248.000000 46.954000 6.000000 -9.000000 5.000000 87.485643 -51.997410 2352.465498 1017.762159 21.299944 0.000000 0.237840
250.000000 51.533000 6.000000 -8.000000 5.000000 91.373721 -48.118676 2175.336469 902.338339 19.408100 0.000000 0.160835
251.000000 48.090000 7.000000 -8.000000 5.000000 89.530158 -42.828970 1972.670764 953.034755 20.796609 0.000000 0.100898
253.000000 60.898000 5.000000 -7.000000 5.000000 97.710932 -49.800966 2248.665827 715.218006 16.424773 0.000000 0.186031
254.000000 56.470000 6.000000 -7.000000 5.000000 95.408058 -43.435781 1994.074856 800.680340 17.711924 0.000000 0.094759
255.000000 52.096000 7.000000 -7.000000 5.000000 92.794177 -38.036542 1816.999258 874.305313 19.197897 0.000000 0.066978
256.000000 47.940000 8.000000 -7.000000 5.000000 90.068726 -33.475230 1686.714674 939.452255 20.861172 0.000000 0.073758
258.000000 67.392000 5.000000 -6.000000 5.000000 102.820957 -44.307897 2025.601258 598.709205 14.842897 0.000000 0.101298
259.000000 61.641000 6.000000 -6.000000 5.000000 99.443241 -37.755932 1808.534326 714.579456 16.226738 0.000000 0.049167
260.000000 56.167000 7.000000 -6.000000 5.000000 95.912926 -32.406862 1658.217948 808.968263 17.806971 0.000000 0.064512
261.000000 51.125000 8.000000 -6.000000 5.000000 92.437152 -28.028615 1547.965511 889.104045 19.561825 0.000000 0.084776
262.000000 46.573000 9.000000 -6.000000 5.000000 89.128230 -24.418294 1463.643157 958.986195 21.472634 0.000000 0.097430
263.000000 81.752000 4.000000 -5.000000 5.000000 112.357548 -45.667118 2076.654142 307.532001 12.237282 0.000000 0.141891
264.000000 66.820000 6.000000 -5.000000 5.000000 103.235372 -30.876976 1618.561556 646.053994 14.969503 0.000000 0.052072
265.000000 60.108000 7.000000 -5.000000 5.000000 98.672405 -25.840191 1496.232711 758.596361 16.639878 0.000000 0.083984
266.000000 54.112000 8.000000 -5.000000 5.000000 94.402194 -21.859910 1406.792996 851.722918 18.482373 0.000000 0.102050
267.000000 48.835000 9.000000 -5.000000 5.000000 90.489727 -18.663926 1338.550386 931.289675 20.478149 0.000000 0.110961
269.000000 90.527000 4.000000 -4.000000 5.000000 118.943281 -36.642733 1775.572860 199.190491 11.051826 0.000000 0.055702
270.000000 80.703000 5.000000 -4.000000 5.000000 112.563175 -28.508792 1559.593986 432.084162 12.396032 0.000000 0.034085
271.000000 71.660000 6.000000 -4.000000 5.000000 106.417540 -22.644348 1423.995808 597.382705 13.959049 0.000000 0.080908
272.000000 63.649000 7.000000 -4.000000 5.000000 100.790161 -18.299774 1330.945582 724.951121 15.714361 0.000000 0.105633
273.000000 56.698000 8.000000 -4.000000 5.000000 95.754613 -14.987130 1263.133083 828.715858 17.639568 0.000000 0.117701
274.000000 50.724000 9.000000 -4.000000 5.000000 91.292421 -12.393810 1211.516742 916.138517 19.715622 0.000000 0.122135
275.000000 45.607000 10.000000 -4.000000 5.000000 87.350000 -10.316353 1170.913181 991.634002 21.926217 0.000000 0.121820
277.000000 98.589000 4.000000 -3.000000 5.000000 124.576956 -24.375312 1462.669663 126.554630 10.148642 0.000000 0.018190
278.000000 86.441000 5.000000 -3.000000 5.000000 116.071643 -17.582163 1316.051910 388.582941 11.573478 0.000000 0.071366
279.000000 75.688000 6.000000 -3.000000 5.000000 108.507961 -13.059945 1224.668477 571.144051 13.216340 0.000000 0.104672
280.000000 66.459000 7.000000 -3.000000 5.000000 101.938786 -9.869576 1162.254564 710.009627 15.050090 0.000000 0.121413
281.000000 58.652000 8.000000 -3.000000 5.000000 96.273702 -7.511649 1116.919446 821.651788 17.051913 0.000000 0.128228
282.000000 52.079000 9.000000 -3.000000 5.000000 91.387029 -5.703597 1082.496702 914.810079 19.202492 0.000000 0.128984
283.000000 46.543000 10.000000 -3.000000 5.000000 87.156268 -4.275788 1055.469593 994.612289 21.485360 0.000000 0.125992
284.000000 120.414000 3.000000 -2.000000 5.000000 139.858548 -15.513066 1273.747163 -383.518259 8.310540 0.000000 0.039426
285.000000 104.719000 4.000000 -2.000000 5.000000 127.833773 -8.571901 1137.234329 95.681417 9.554820 0.000000 0.046710
286.000000 90.531000 5.000000 -2.000000 5.000000 117.579770 -4.782824 1065.054042 376.846293 11.050780 0.000000 0.091508
287.000000 78.366000 6.000000 -2.000000 5.000000 108.990967 -2.415544 1020.402604 570.262531 12.764782 0.000000 0.116588
288.000000 68.186000 7.000000 -2.000000 5.000000 101.806759 -0.801306 990.053415 715.995900 14.668929 0.000000 0.128399
289.000000 59.745000 8.000000 -2.000000 5.000000 95.767742 0.368196 968.083381 832.283942 16.739888 0.000000 0.131973
290.000000 52.750000 9.000000 -2.000000 5.000000 90.653327 1.253824 951.443308 928.723856 18.957992 0.000000 0.130475
291.000000 46.933000 10.000000 -2.000000 5.000000 86.285707 1.947442 938.403435 1010.910830 21.306551 0.000000 0.125866
292.000000 125.089000 3.000000 -1.000000 5.000000 140.471771 10.082218 783.627407 -383.797620 7.999961 0.000000 0.029989
293.000000 107.576000 4.000000 -1.000000 5.000000 127.182844 9.313037 798.498584 113.650648 9.301032 0.000000 0.047915
294.000000 92.152000 5.000000 -1.000000 5.000000 116.343786 8.910606 806.252683 401.527646 10.856237 0.000000 0.090498
295.000000 79.197000 6.000000 -1.000000 5.000000 107.484000 8.663142 811.012349 598.063552 12.630592 0.000000 0.114380
296.000000 68.529000 7.000000 -1.000000 5.000000 100.188669 8.495590 814.231425 745.417756 14.595253 0.000000 0.125301
297.000000 59.792000 8.000000 -1.000000 5.000000 94.123200 8.374626 816.553698 862.575961 16.726225 0.000000 0.128197
298.000000 52.623000 9.000000 -1.000000 5.000000 89.027604 8.283191 818.308110 959.460676 19.003384 0.000000 0.126203
299.000000 46.706000 10.000000 -1.000000 5.000000 84.702576 8.211649 819.680256 1041.829790 21.409727 0.000000 0.121264
301.000000 100.465000 4.000000 1.000000 5.000000 113.531980 39.816965 77.725388 330.787478 9.957949 0.000000 0.072915
302.000000 86.354000 5.000000 1.000000 5.000000 105.532162 33.458492 263.737124 582.449398 11.583814 0.000000 0.033090
303.000000 74.443000 6.000000 1.000000 5.000000 98.567995 29.094910 376.067522 755.423860 13.435927 0.000000 0.071403
304.000000 64.595000 7.000000 1.000000 5.000000 92.617146 25.948282 451.258298 886.287395 15.482695 0.000000 0.092300
305.000000 56.505000 8.000000 1.000000 5.000000 87.550652 23.584934 505.115594 991.234986 17.698147 0.000000 0.101507
306.000000 49.847000 9.000000 1.000000 5.000000 83.224698 21.750526 545.590678 1078.671143 20.060735 0.000000 0.103886
307.000000 91.319000 4.000000 2.000000 5.000000 103.111643 49.967421 -306.197363 551.256383 10.954095 0.000000 0.205945
308.000000 79.487000 5.000000 2.000000 5.000000 97.340846 42.775058 -20.789499 752.101363 12.583514 0.000000 0.091142
309.000000 69.231000 6.000000 2.000000 5.000000 91.972681 37.467779 150.091582 894.292897 14.446285 0.000000 0.070894
310.000000 60.577000 7.000000 2.000000 5.000000 87.177355 33.453895 263.861189 1004.603142 16.508801 0.000000 0.081453
311.000000 53.351000 8.000000 2.000000 5.000000 82.965581 30.340187 345.051304 1094.884457 18.743613 0.000000 0.090549
312.000000 47.327000 9.000000 2.000000 5.000000 79.286977 27.867891 405.903532 1171.333614 21.128081 0.000000 0.094651
314.000000 71.091000 5.000000 3.000000 5.000000 88.487947 50.155025 -314.748522 985.341767 14.068180 0.000000 0.212200
315.000000 62.829000 6.000000 3.000000 5.000000 84.709841 44.477822 -81.852836 1080.671094 15.917048 0.000000 0.136612
316.000000 55.637000 7.000000 3.000000 5.000000 81.129668 39.985350 72.350733 1160.225167 17.973514 0.000000 0.110785
317.000000 49.482000 8.000000 3.000000 5.000000 77.848950 36.382960 181.981399 1228.851580 20.208170 0.000000 0.103930
319.000000 55.874000 6.000000 4.000000 5.000000 77.277519 50.269629 -320.005356 1321.172810 17.896991 0.000000 0.247225
320.000000 50.195000 7.000000 4.000000 5.000000 74.831076 45.582651 -123.410001 1357.923004 19.920921 0.000000 0.183909
323.000000 45.511000 7.000000 -9.000000 6.000000 93.719347 -46.863825 2123.698570 838.671127 21.976632 0.000000 0.139042
325.000000 49.151000 7.000000 -8.000000 6.000000 97.227473 -42.661592 1966.840749 755.389894 20.349922 0.000000 0.084508
326.000000 61.282000 5.000000 -7.000000 6.000000 106.328095 -49.857770 2251.230218 451.920301 16.323708 0.000000 0.198703
327.000000 57.090000 6.000000 -7.000000 6.000000 103.680392 -43.259040 1987.796707 581.264390 17.521584 0.000000 0.088534
328.000000 52.912000 7.000000 -7.000000 6.000000 100.712555 -37.697989 1806.794406 683.668599 18.904046 0.000000 0.045906
329.000000 48.902000 8.000000 -7.000000 6.000000 97.634322 -33.030453 1674.767263 768.924800 20.453084 0.000000 0.058456
330.000000 67.069000 5.000000 -6.000000 6.000000 111.657924 -44.129283 2019.068911 345.553120 14.916106 0.000000 0.116153
331.000000 56.669000 7.000000 -6.000000 6.000000 104.014423 -31.843453 1643.461321 624.766490 17.651204 0.000000 0.045302
333.000000 72.905000 5.000000 -5.000000 6.000000 116.889292 -36.788350 1779.829737 259.498830 13.722809 0.000000 0.047847
334.000000 66.371000 6.000000 -5.000000 6.000000 111.846354 -30.122976 1599.482732 442.130405 15.072564 0.000000 0.027231
335.000000 60.243000 7.000000 -5.000000 6.000000 106.905807 -24.993657 1476.739199 580.079033 16.604715 0.000000 0.069889
336.000000 54.656000 8.000000 -5.000000 6.000000 102.255243 -20.983799 1387.801528 690.604679 18.300674 0.000000 0.095391
337.000000 49.650000 9.000000 -5.000000 6.000000 97.969649 -17.791977 1320.394045 782.749282 20.144295 0.000000 0.110095
338.000000 78.409000 5.000000 -4.000000 6.000000 121.551593 -27.412001 1533.184013 196.521342 12.760130 0.000000 0.012246
339.000000 63.396000 7.000000 -4.000000 6.000000 109.093861 -17.119942 1306.521453 551.155038 15.779155 0.000000 0.093203
340.000000 51.418000 9.000000 -4.000000 6.000000 98.849725 -11.320760 1190.470389 770.099140 19.451882 0.000000 0.122250
341.000000 92.922000 4.000000 -3.000000 6.000000 133.583647 -22.544485 1421.795024 -168.111531 10.768648 0.000000 0.040949
342.000000 83.060000 5.000000 -3.000000 6.000000 124.937254 -15.761637 1278.782385 159.750946 12.046076 0.000000 0.043770
343.000000 65.853000 7.000000 -3.000000 6.000000 110.248996 -8.335579 1132.696982 539.716336 15.190503 0.000000 0.108770
344.000000 58.784000 8.000000 -3.000000 6.000000 104.234723 -6.118807 1090.380008 666.397124 17.015584 0.000000 0.122719
345.000000 47.426000 10.000000 -3.000000 6.000000 94.394366 -3.113819 1033.550364 858.167833 21.087549 0.000000 0.131305
347.000000 86.250000 5.000000 -2.000000 6.000000 126.198391 -2.195010 1016.253177 152.739710 11.600584 0.000000 0.059483
348.000000 67.334000 7.000000 -2.000000 6.000000 110.071117 1.056585 955.149923 547.680453 14.856322 0.000000 0.114565
349.000000 53.306000 9.000000 -2.000000 6.000000 98.260386 2.694576 924.345362 784.572588 18.762544 0.000000 0.130814
351.000000 99.382000 4.000000 -1.000000 6.000000 135.144548 13.497694 716.650422 -171.465715 10.068850 0.000000 0.025251
352.000000 87.416000 5.000000 -1.000000 6.000000 124.679382 12.052248 745.200578 179.526662 11.445776 0.000000 0.053166
353.000000 76.781000 6.000000 -1.000000 6.000000 115.846226 11.177109 762.334831 409.547078 13.029484 0.000000 0.088109
354.000000 67.607000 7.000000 -1.000000 6.000000 108.379884 10.590618 773.759399 577.186809 14.795949 0.000000 0.109580
355.000000 59.805000 8.000000 -1.000000 6.000000 102.038574 10.170267 781.920655 707.805034 16.724730 0.000000 0.121152
356.000000 53.204000 9.000000 -1.000000 6.000000 96.617972 9.854249 788.042061 814.256429 18.798323 0.000000 0.126087
357.000000 47.619000 10.000000 -1.000000 6.000000 91.951250 9.608023 792.803429 903.810147 21.001654 0.000000 0.126635
358.000000 98.138000 4.000000 0.000000 6.000000 129.726388 30.513139 340.681732 -97.167345 10.195978 0.000000 0.070441
359.000000 86.203000 5.000000 0.000000 6.000000 120.313081 25.345034 465.202652 244.714751 11.606275 0.000000 0.021885
360.000000 66.549000 7.000000 0.000000 6.000000 105.184037 19.758093 588.399243 630.627108 15.030735 0.000000 0.093771
361.000000 58.839000 8.000000 0.000000 6.000000 99.209698 18.093018 623.357976 757.413728 16.998743 0.000000 0.108590
362.000000 46.828000 10.000000 0.000000 6.000000 89.645266 15.831266 669.804960 947.926455 21.355504 0.000000 0.117459
363.000000 93.684000 4.000000 1.000000 6.000000 121.235002 43.665664 -52.295825 38.673371 10.679803 0.000000 0.161775
364.000000 82.615000 5.000000 1.000000 6.000000 113.663112 36.595340 175.809147 353.562070 12.109567 0.000000 0.038590
365.000000 72.734000 6.000000 1.000000 6.000000 106.771770 31.699774 310.272982 559.748455 13.753124 0.000000 0.035830
366.000000 64.182000 7.000000 1.000000 6.000000 100.684326 28.156915 398.937702 710.680693 15.584310 0.000000 0.070617
367.000000 56.888000 8.000000 1.000000 6.000000 95.367164 25.492912 461.797400 828.975682 17.581060 0.000000 0.090597
368.000000 50.702000 9.000000 1.000000 6.000000 90.734806 23.425079 508.686437 925.956089 19.724641 0.000000 0.100994
369.000000 45.457000 10.000000 1.000000 6.000000 86.692342 21.777407 545.005234 1007.983548 21.999043 0.000000 0.105362
370.000000 77.030000 5.000000 2.000000 6.000000 105.583761 45.583979 -123.460923 512.090453 12.986425 0.000000 0.130629
371.000000 60.679000 7.000000 2.000000 6.000000 95.209472 35.572251 205.237129 820.355836 16.482893 0.000000 0.060781
372.000000 48.408000 9.000000 2.000000 6.000000 86.740660 29.521779 365.521796 1011.437446 20.658425 0.000000 0.088342
374.000000 56.326000 7.000000 3.000000 6.000000 89.127716 41.963130 7.153648 963.038143 17.755661 0.000000 0.100700
375.000000 50.582000 8.000000 3.000000 6.000000 85.553294 38.157368 129.335917 1047.444299 19.770591 0.000000 0.089942
377.000000 51.455000 7.000000 4.000000 6.000000 82.776162 47.400048 -195.463203 1142.547522 19.435178 0.000000 0.179834
381.000000 46.115000 7.000000 -9.000000 7.000000 100.614725 -46.821108 2121.983465 646.223364 21.690889 0.000000 0.135982
383.000000 52.698000 6.000000 -8.000000 7.000000 106.714062 -48.103109 2174.680530 457.029492 18.982578 0.000000 0.166256
384.000000 49.506000 7.000000 -8.000000 7.000000 104.293463 -42.483783 1960.681713 569.169624 20.205867 0.000000 0.079686
385.000000 46.336000 8.000000 -8.000000 7.000000 101.651507 -37.654119 1805.478878 660.671144 21.587163 0.000000 0.043580
387.000000 56.838000 6.000000 -7.000000 7.000000 111.145527 -43.069149 1981.091884 371.153175 17.600775 0.000000 0.099744
388.000000 49.184000 8.000000 -7.000000 7.000000 104.572518 -32.558953 1662.232981 609.023505 20.337607 0.000000 0.040383
389.000000 45.614000 9.000000 -7.000000 7.000000 101.251784 -28.567752 1561.029083 697.194103 21.928156 0.000000 0.067720
391.000000 65.733000 5.000000 -6.000000 7.000000 119.456901 -43.934185 2011.978673 96.897471 15.220660 0.000000 0.146548
392.000000 60.995000 6.000000 -6.000000 7.000000 115.479463 -36.883459 1782.618829 299.770442 16.402121 0.000000 0.043117
393.000000 56.342000 7.000000 -6.000000 7.000000 111.317349 -31.239996 1627.854299 449.767394 17.755547 0.000000 0.022775
394.000000 51.923000 8.000000 -6.000000 7.000000 107.200102 -26.702731 1516.383914 568.054529 19.265364 0.000000 0.061158
395.000000 47.818000 9.000000 -6.000000 7.000000 103.255936 -23.018504 1432.270093 665.514079 20.917820 0.000000 0.086410
397.000000 70.677000 5.000000 -5.000000 7.000000 124.690426 -36.183353 1762.248222 17.984221 14.156673 0.000000 0.081685
398.000000 64.973000 6.000000 -5.000000 7.000000 119.436118 -29.303480 1579.074145 244.523711 15.398411 0.000000 0.007181
399.000000 59.506000 7.000000 -5.000000 7.000000 114.254325 -24.084944 1456.110321 409.823599 16.811860 0.000000 0.051642
400.000000 54.422000 8.000000 -5.000000 7.000000 109.344382 -20.052677 1367.860068 538.766625 18.381151 0.000000 0.083194
401.000000 49.784000 9.000000 -5.000000 7.000000 104.790691 -16.872637 1301.441828 644.034153 20.092315 0.000000 0.103127
402.000000 45.603000 10.000000 -5.000000 7.000000 100.615700 -14.315093 1249.645940 732.807479 21.933003 0.000000 0.115279
404.000000 75.205000 5.000000 -4.000000 7.000000 129.242498 -26.193278 1504.445608 -38.744085 13.304939 0.000000 0.036110
405.000000 68.517000 6.000000 -4.000000 7.000000 122.617583 -20.165377 1370.260923 207.237057 14.602480 0.000000 0.038282
406.000000 62.248000 7.000000 -4.000000 7.000000 116.430208 -15.854145 1280.659431 384.859987 16.071754 0.000000 0.075428
407.000000 56.528000 8.000000 -4.000000 7.000000 110.787430 -12.651041 1216.587179 522.258137 17.696567 0.000000 0.100094
408.000000 51.394000 9.000000 -4.000000 7.000000 105.698512 -10.191651 1168.494004 633.647891 19.462696 0.000000 0.115457
409.000000 46.831000 10.000000 -4.000000 7.000000 101.130575 -8.250512 1131.065072 727.028361 21.357603 0.000000 0.124358
411.000000 78.912000 5.000000 -3.000000 7.000000 132.391443 -13.740230 1238.173021 -70.441835 12.680250 0.000000 0.022839
412.000000 71.322000 6.000000 -3.000000 7.000000 124.534233 -9.544634 1155.971924 189.939102 14.028311 0.000000 0.059222
413.000000 64.343000 7.000000 -3.000000 7.000000 117.519063 -6.697101 1101.380305 376.408996 15.548480 0.000000 0.089862
414.000000 58.078000 8.000000 -3.000000 7.000000 111.311618 -4.647157 1062.488212 519.734060 17.224185 0.000000 0.109999
415.000000 52.533000 9.000000 -3.000000 7.000000 105.832516 -3.104494 1033.374690 635.331012 19.040917 0.000000 0.122286
416.000000 47.661000 10.000000 -3.000000 7.000000 100.992440 -1.903154 1010.763671 731.821574 20.985914 0.000000 0.128977
418.000000 81.360000 5.000000 -2.000000 7.000000 133.316698 0.638462 963.006074 -73.903815 12.298806 0.000000 0.027872
419.000000 73.079000 6.000000 -2.000000 7.000000 124.712938 2.075820 935.988897 194.889261 13.691172 0.000000 0.065757
420.000000 65.575000 7.000000 -2.000000 7.000000 117.238867 3.023759 918.146267 386.164121 15.256458 0.000000 0.093684
421.000000 58.921000 8.000000 -2.000000 7.000000 110.743530 3.695544 905.483226 532.518160 16.977658 0.000000 0.111989
422.000000 53.093000 9.000000 -2.000000 7.000000 105.083299 4.196381 896.030246 650.150319 18.839924 0.000000 0.122981
423.000000 48.016000 10.000000 -2.000000 7.000000 100.130886 4.584100 888.704018 748.066960 20.830235 0.000000 0.128707
425.000000 82.164000 5.000000 -1.000000 7.000000 131.465874 15.402356 678.491546 -45.513672 12.178387 0.000000 0.024851
426.000000 73.525000 6.000000 -1.000000 7.000000 122.875365 13.827857 710.081837 224.607923 13.607766 0.000000 0.056236
427.000000 65.768000 7.000000 -1.000000 7.000000 115.440297 12.782127 730.824989 415.999607 15.211420 0.000000 0.086003
428.000000 58.940000 8.000000 -1.000000 7.000000 109.000147 12.037551 745.489233 562.066750 16.971833 0.000000 0.105540
429.000000 52.997000 9.000000 -1.000000 7.000000 103.404040 11.480584 756.405251 679.273782 18.873762 0.000000 0.117242
430.000000 47.846000 10.000000 -1.000000 7.000000 98.519688 11.048329 764.847281 776.723906 20.903875 0.000000 0.123387
432.000000 78.160000 5.000000 1.000000 7.000000 120.272626 39.762836 79.447498 123.714757 12.800844 0.000000 0.102913
433.000000 70.071000 6.000000 1.000000 7.000000 113.656199 34.346834 239.511935 369.951328 14.277195 0.000000 0.018305
434.000000 62.785000 7.000000 1.000000 7.000000 107.628208 30.407155 343.361206 544.450915 15.932688 0.000000 0.039399
435.000000 56.357000 8.000000 1.000000 7.000000 102.234291 27.438416 416.186183 678.041506 17.748493 0.000000 0.070121
436.000000 50.749000 9.000000 1.000000 7.000000 97.443371 25.132486 470.082569 785.680894 19.708331 0.000000 0.088918
437.000000 45.881000 10.000000 1.000000 7.000000 93.196319 23.295196 511.581438 875.560518 21.798052 0.000000 0.099813
438.000000 73.620000 5.000000 2.000000 7.000000 112.361706 48.374104 -236.156395 274.435072 13.589102 0.000000 0.200091
439.000000 66.370000 6.000000 2.000000 7.000000 107.128455 42.338558 -5.677250 492.262966 15.072291 0.000000 0.087220
440.000000 59.759000 7.000000 2.000000 7.000000 102.156792 37.707412 142.922810 647.938967 16.738473 0.000000 0.045034
441.000000 53.867000 8.000000 2.000000 7.000000 97.574324 34.085375 246.694575 768.195306 18.567961 0.000000 0.056320
442.000000 48.683000 9.000000 2.000000 7.000000 93.414964 31.196439 323.264441 865.916983 20.543794 0.000000 0.074349
444.000000 61.722000 6.000000 3.000000 7.000000 99.986865 48.878500 -257.845124 652.817814 16.206137 0.000000 0.180506
445.000000 55.969000 7.000000 3.000000 7.000000 96.097906 43.940166 -62.195364 781.315926 17.870626 0.000000 0.105671
446.000000 50.762000 8.000000 3.000000 7.000000 92.381794 39.938508 73.848525 882.612721 19.702468 0.000000 0.078729
447.000000 46.121000 9.000000 3.000000 7.000000 88.915713 36.659949 173.924716 966.393664 21.683880 0.000000 0.077731
449.000000 51.675000 7.000000 4.000000 7.000000 89.764415 49.205914 -272.159147 947.773566 19.354186 0.000000 0.192207
450.000000 47.229000 8.000000 4.000000 7.000000 86.891796 45.030813 -102.452547 1023.697601 21.175277 0.000000 0.136754
454.000000 46.202000 7.000000 -9.000000 8.000000 106.969762 -46.775862 2120.169805 461.430498 21.651489 0.000000 0.144019
456.000000 49.307000 7.000000 -8.000000 8.000000 110.755168 -42.294541 1954.164994 389.580398 20.289039 0.000000 0.088430
458.000000 55.958000 6.000000 -7.000000 8.000000 117.861238 -42.864586 1973.915361 164.785992 17.879148 0.000000 0.123319
459.000000 52.416000 7.000000 -7.000000 8.000000 114.452137 -36.950454 1784.587649 328.590945 19.086493 0.000000 0.040094
460.000000 48.936000 8.000000 -7.000000 8.000000 110.912194 -32.058317 1649.067497 455.743043 20.442520 0.000000 0.020001
461.000000 45.603000 9.000000 -7.000000 8.000000 107.389759 -27.999779 1547.270502 559.235294 21.935430 0.000000 0.054168
463.000000 55.419000 7.000000 -6.000000 8.000000 117.881023 -30.592211 1611.321190 279.516806 18.052779 0.000000 0.003281
464.000000 47.618000 9.000000 -6.000000 8.000000 109.438869 -22.259758 1415.537620 530.569113 21.007514 0.000000 0.074640
465.000000 67.896000 5.000000 -5.000000 8.000000 131.474518 -35.512660 1743.072114 -227.779711 14.737769 0.000000 0.116183
466.000000 62.982000 6.000000 -5.000000 8.000000 126.116450 -28.409951 1557.191751 48.149720 15.886624 0.000000 0.031214
467.000000 58.177000 7.000000 -5.000000 8.000000 120.797172 -23.107454 1434.243909 243.512749 17.197502 0.000000 0.032726
468.000000 53.623000 8.000000 -5.000000 8.000000 115.724193 -19.061735 1346.895506 392.371903 18.656708 0.000000 0.067511
469.000000 49.395000 9.000000 -5.000000 8.000000 110.989332 -15.902449 1281.640232 511.647768 20.252050 0.000000 0.091763
470.000000 45.524000 10.000000 -5.000000 8.000000 106.621784 -13.381239 1231.037060 610.730871 21.972633 0.000000 0.107953
471.000000 71.584000 5.000000 -4.000000 8.000000 135.833366 -24.832404 1473.056643 -279.957657 13.978903 0.000000 0.063261
472.000000 60.524000 7.000000 -4.000000 8.000000 122.899308 -14.494015 1253.228686 221.844450 16.531010 0.000000 0.055292
473.000000 50.835000 9.000000 -4.000000 8.000000 111.884529 -9.002923 1145.524546 503.277431 19.678478 0.000000 0.103752
475.000000 74.518000 5.000000 -3.000000 8.000000 138.673997 -11.488716 1193.753817 -308.024812 13.428935 0.000000 0.022920
476.000000 68.231000 6.000000 -3.000000 8.000000 130.892288 -7.557811 1117.801766 0.770101 14.665128 0.000000 0.034741
477.000000 62.282000 7.000000 -3.000000 8.000000 123.869166 -4.946063 1068.142682 215.900668 16.064467 0.000000 0.067708
478.000000 56.802000 8.000000 -3.000000 8.000000 117.586202 -3.091931 1033.137988 377.837135 17.612636 0.000000 0.092593
479.000000 51.840000 9.000000 -3.000000 8.000000 111.982688 -1.710175 1007.134978 506.333506 19.296945 0.000000 0.109783
480.000000 47.393000 10.000000 -3.000000 8.000000 106.985721 -0.641818 987.056982 612.216468 21.106107 0.000000 0.120974
481.000000 76.382000 5.000000 -2.000000 8.000000 139.210509 3.738331 904.676084 -309.021162 13.101290 0.000000 0.011482
482.000000 63.284000 7.000000 -2.000000 8.000000 123.447326 5.105085 878.847017 227.206967 15.809935 0.000000 0.069018
483.000000 52.324000 9.000000 -2.000000 8.000000 111.183708 5.761003 866.414067 521.767580 19.118364 0.000000 0.109340
485.000000 76.913000 5.000000 -1.000000 8.000000 137.005833 18.957204 605.301159 -279.624788 13.010572 0.000000 0.047938
486.000000 69.909000 6.000000 -1.000000 8.000000 128.787599 16.614584 653.844406 38.334214 14.312664 0.000000 0.027847
487.000000 63.401000 7.000000 -1.000000 8.000000 121.519200 15.070079 685.196418 257.441229 15.780464 0.000000 0.058218
488.000000 57.499000 8.000000 -1.000000 8.000000 115.108602 13.976646 707.115624 421.242030 17.398852 0.000000 0.084206
489.000000 52.225000 9.000000 -1.000000 8.000000 109.452353 13.162405 723.302401 550.615204 19.154490 0.000000 0.102134
490.000000 47.551000 10.000000 -1.000000 8.000000 104.450913 12.532766 735.745464 656.864565 21.035575 0.000000 0.113700
491.000000 75.963000 5.000000 0.000000 8.000000 132.267835 32.281973 295.068871 -216.101842 13.172692 0.000000 0.100456
492.000000 62.568000 7.000000 0.000000 8.000000 118.158711 24.388185 487.038854 308.451220 15.990202 0.000000 0.034311
493.000000 51.514000 9.000000 0.000000 8.000000 106.828119 20.259162 577.738533 594.004615 19.418007 0.000000 0.088353
495.000000 66.947000 6.000000 1.000000 8.000000 119.440009 37.025596 163.199980 180.132442 14.944586 0.000000 0.067645
496.000000 60.799000 7.000000 1.000000 8.000000 113.599490 32.693072 284.215131 382.274523 16.454503 0.000000 0.007732
497.000000 55.211000 8.000000 1.000000 8.000000 108.253542 29.417954 368.094924 533.470746 18.118580 0.000000 0.042577
498.000000 50.208000 9.000000 1.000000 8.000000 103.417453 26.870604 429.658891 653.166540 19.922616 0.000000 0.069766
499.000000 45.767000 10.000000 1.000000 8.000000 99.065224 24.840136 476.767008 751.768503 21.854103 0.000000 0.087359
501.000000 58.194000 7.000000 2.000000 8.000000 108.158844 39.853594 76.558469 481.161222 17.190068 0.000000 0.059634
502.000000 48.359000 9.000000 2.000000 8.000000 99.372411 32.889353 278.997685 729.445221 20.683141 0.000000 0.054597
504.000000 54.916000 7.000000 3.000000 8.000000 102.162628 45.911764 -136.105955 607.599769 18.215089 0.000000 0.131284
505.000000 50.281000 8.000000 3.000000 8.000000 98.417754 41.722963 15.282721 727.602120 19.892899 0.000000 0.079273
506.000000 46.058000 9.000000 3.000000 8.000000 94.864728 38.277278 125.686814 824.310859 21.715647 0.000000 0.065061
507.000000 51.164000 7.000000 4.000000 8.000000 95.897633 50.996811 -353.961501 764.346554 19.549423 0.000000 0.222022
509.000000 45.885000 7.000000 -9.000000 9.000000 112.810862 -46.727856 2118.248844 280.611877 21.802682 0.000000 0.161047
511.000000 48.691000 7.000000 -8.000000 9.000000 116.650628 -42.092731 1947.258504 213.083890 20.547163 0.000000 0.107325
512.000000 45.945000 8.000000 -8.000000 9.000000 113.670361 -37.000196 1786.051671 350.245576 21.774170 0.000000 0.038071
514.000000 54.649000 6.000000 -7.000000 9.000000 123.895056 -42.643589 1966.215545 -42.037915 18.308875 0.000000 0.152527
515.000000 51.459000 7.000000 -7.000000 9.000000 120.366957 -36.536487 1772.477070 156.132104 19.442682 0.000000 0.061677
516.000000 48.290000 8.000000 -7.000000 9.000000 116.692243 -31.525842 1635.221901 306.163925 20.717560 0.000000 0.002112
518.000000 54.092000 7.000000 -6.000000 9.000000 123.773091 -29.895215 1593.777047 110.739797 18.497002 0.000000 0.027253
519.000000 50.485000 8.000000 -6.000000 9.000000 119.353257 -25.201854 1481.508193 272.017386 19.817297 0.000000 0.027733
521.000000 60.656000 6.000000 -5.000000 9.000000 131.999415 -27.432382 1533.669923 -150.853081 16.496819 0.000000 0.057297
522.000000 56.470000 7.000000 -5.000000 9.000000 126.618831 -22.053709 1411.025161 77.979100 17.718430 0.000000 0.021129
523.000000 52.433000 8.000000 -5.000000 9.000000 121.457049 -18.005673 1324.827033 248.648029 19.081345 0.000000 0.050397
524.000000 48.624000 9.000000 -5.000000 9.000000 116.610733 -14.877680 1260.930846 383.076034 20.574838 0.000000 0.077522
526.000000 63.112000 6.000000 -4.000000 9.000000 134.878902 -17.209401 1308.362257 -180.985752 15.855182 0.000000 0.028013
527.000000 58.460000 7.000000 -4.000000 9.000000 128.602449 -13.030316 1224.082023 59.020064 17.115860 0.000000 0.035848
528.000000 54.029000 8.000000 -4.000000 9.000000 122.787813 -10.016104 1165.091656 236.969434 18.518221 0.000000 0.065529
529.000000 49.894000 9.000000 -4.000000 9.000000 117.461361 -7.750832 1121.493148 376.481386 20.051326 0.000000 0.088764
530.000000 46.089000 10.000000 -4.000000 9.000000 112.608574 -5.991287 1087.957609 490.331307 21.705340 0.000000 0.105501
532.000000 59.920000 7.000000 -3.000000 9.000000 129.416093 -3.074084 1032.801775 55.140789 16.698831 0.000000 0.044836
533.000000 55.164000 8.000000 -3.000000 9.000000 123.143850 -1.448297 1002.211876 237.973643 18.137037 0.000000 0.072532
534.000000 46.753000 10.000000 -3.000000 9.000000 112.417438 0.672136 962.373430 496.969698 21.396741 0.000000 0.108835
536.000000 66.047000 6.000000 -2.000000 9.000000 136.040156 7.234022 838.383065 -184.055015 15.150734 0.000000 0.018458
537.000000 60.724000 7.000000 -2.000000 9.000000 128.826207 7.304808 837.031715 67.738774 16.477581 0.000000 0.043698
538.000000 55.746000 8.000000 -2.000000 9.000000 122.383399 7.353919 836.093924 252.738899 17.947560 0.000000 0.070771
539.000000 51.175000 9.000000 -2.000000 9.000000 116.629152 7.389987 835.405042 396.826762 19.549238 0.000000 0.091730
540.000000 47.026000 10.000000 -2.000000 9.000000 111.483495 7.417600 834.877582 513.819681 21.272369 0.000000 0.106802
542.000000 66.223000 6.000000 -1.000000 9.000000 133.769319 19.533836 593.148740 -152.988713 15.110257 0.000000 0.035763
543.000000 60.776000 7.000000 -1.000000 9.000000 126.755307 17.453206 636.611884 98.343632 16.463117 0.000000 0.031613
544.000000 55.706000 8.000000 -1.000000 9.000000 120.464628 15.987078 666.640265 282.438273 17.960268 0.000000 0.059588
545.000000 51.068000 9.000000 -1.000000 9.000000 114.834682 14.899555 688.629189 425.561377 19.589980 0.000000 0.082678
546.000000 46.872000 10.000000 -1.000000 9.000000 109.795304 14.061310 705.426078 541.643666 21.341761 0.000000 0.099244
548.000000 63.668000 6.000000 1.000000 9.000000 124.312065 39.724760 80.657283 -14.022677 15.715360 0.000000 0.125723
549.000000 58.498000 7.000000 1.000000 9.000000 118.738301 35.008089 221.144164 220.440548 17.102864 0.000000 0.044272
550.000000 53.676000 8.000000 1.000000 9.000000 113.526450 31.427585 317.315696 391.864790 18.638112 0.000000 0.010344
551.000000 49.257000 9.000000 1.000000 9.000000 108.729348 28.636989 387.283616 525.218989 20.308653 0.000000 0.045218
553.000000 56.256000 7.000000 2.000000 9.000000 113.347608 42.004829 5.736006 315.790272 17.783630 0.000000 0.099863
554.000000 51.756000 8.000000 2.000000 9.000000 108.882025 37.896641 137.229108 474.504861 19.328395 0.000000 0.041127
555.000000 47.610000 9.000000 2.000000 9.000000 104.681446 34.597821 232.574711 598.431441 21.010442 0.000000 0.033420
556.000000 53.426000 7.000000 3.000000 9.000000 107.440977 47.873308 -215.043502 436.900841 18.724487 0.000000 0.174033
557.000000 49.346000 8.000000 3.000000 9.000000 103.748090 43.507278 -46.624988 577.930571 20.271331 0.000000 0.098173
560.000000 46.562000 8.000000 4.000000 9.000000 98.329891 48.332015 -234.366070 703.959169 21.482112 0.000000 0.169704
563.000000 47.774000 7.000000 -8.000000 10.000000 122.023581 -41.877064 1939.926193 36.919228 20.942857 0.000000 0.131407
565.000000 50.218000 7.000000 -7.000000 10.000000 125.718326 -36.091797 1759.611277 -16.731352 19.924402 0.000000 0.086743
566.000000 47.358000 8.000000 -7.000000 10.000000 121.956543 -30.958493 1620.642095 158.052701 21.126669 0.000000 0.024275
568.000000 52.509000 7.000000 -6.000000 10.000000 129.062584 -29.143409 1575.126205 -59.126734 19.055812 0.000000 0.051321
569.000000 46.182000 9.000000 -6.000000 10.000000 120.221331 -20.608633 1379.737513 271.181176 21.663829 0.000000 0.045494
570.000000 58.176000 6.000000 -5.000000 10.000000 137.189360 -26.358990 1508.317249 -355.674777 17.200981 0.000000 0.079349
571.000000 54.547000 7.000000 -5.000000 10.000000 131.801707 -20.915228 1386.324620 -89.260058 18.344338 0.000000 0.028005
572.000000 50.991000 8.000000 -5.000000 10.000000 126.606842 -16.878646 1301.565102 105.481310 19.622469 0.000000 0.034331
573.000000 47.584000 9.000000 -5.000000 10.000000 121.703645 -13.794304 1239.249783 256.428069 21.025872 0.000000 0.061779
575.000000 56.223000 7.000000 -4.000000 10.000000 133.634785 -11.452896 1193.053235 -106.036186 17.797709 0.000000 0.021371
576.000000 48.693000 9.000000 -4.000000 10.000000 122.484937 -6.431472 1096.324422 251.382580 20.547186 0.000000 0.071867
578.000000 61.705000 6.000000 -3.000000 10.000000 141.073465 -3.046737 1032.286594 -393.489095 16.217656 0.000000 0.004637
579.000000 57.429000 7.000000 -3.000000 10.000000 134.266375 -1.072621 995.151417 -108.262990 17.424169 0.000000 0.023576
580.000000 53.317000 8.000000 -3.000000 10.000000 128.066810 0.288557 969.579453 98.073136 18.766699 0.000000 0.051583
581.000000 49.443000 9.000000 -3.000000 10.000000 122.438448 1.282869 950.897430 256.777840 20.235350 0.000000 0.075330
582.000000 45.847000 10.000000 -3.000000 10.000000 117.334150 2.040600 936.651368 384.317432 21.821167 0.000000 0.093806
584.000000 58.067000 7.000000 -2.000000 10.000000 133.491431 9.626274 792.450744 -94.641650 17.232520 0.000000 0.023904
585.000000 49.780000 9.000000 -2.000000 10.000000 121.487147 9.084586 802.902548 273.403979 20.098432 0.000000 0.071718
587.000000 62.630000 6.000000 -1.000000 10.000000 137.975783 22.579086 527.442814 -352.474613 15.977747 0.000000 0.069856
588.000000 58.067000 7.000000 -1.000000 10.000000 131.271151 19.928818 584.774524 -63.755846 17.232173 0.000000 0.027931
589.000000 53.722000 8.000000 -1.000000 10.000000 125.162386 18.067634 623.885622 143.491317 18.624725 0.000000 0.035141
590.000000 49.664000 9.000000 -1.000000 10.000000 119.622020 16.691457 652.271156 302.113230 20.145026 0.000000 0.060587
591.000000 45.925000 10.000000 -1.000000 10.000000 114.605623 15.633683 673.811080 429.170766 21.783713 0.000000 0.081376
593.000000 57.396000 7.000000 0.000000 10.000000 127.744265 29.262519 371.937284 -14.059681 17.433198 0.000000 0.049943
594.000000 53.094000 8.000000 0.000000 10.000000 122.094268 26.190035 445.630044 188.763667 18.844284 0.000000 0.014978
595.000000 49.079000 9.000000 0.000000 10.000000 116.904196 23.860825 498.932169 343.825576 20.384302 0.000000 0.041630
597.000000 56.064000 7.000000 1.000000 10.000000 123.168551 37.345087 153.744217 56.135821 17.846384 0.000000 0.091483
598.000000 51.916000 8.000000 1.000000 10.000000 118.148020 33.462956 263.616664 250.736243 19.271010 0.000000 0.027707
599.000000 48.037000 9.000000 1.000000 10.000000 113.450584 30.428900 342.811919 399.534989 20.826050 0.000000 0.016588
600.000000 54.129000 7.000000 2.000000 10.000000 117.841289 44.155066 -70.009413 148.677845 18.483307 0.000000 0.150938
601.000000 46.571000 9.000000 2.000000 10.000000 109.410507 36.318985 183.834045 470.316352 21.480733 0.000000 0.028602
604.000000 48.116000 8.000000 3.000000 10.000000 108.456642 45.287998 -112.169047 430.416695 20.790741 0.000000 0.132296
610.000000 48.796000 7.000000 -7.000000 11.000000 130.561979 -35.612891 1745.917355 -192.200292 20.506252 0.000000 0.111442
611.000000 46.230000 8.000000 -7.000000 11.000000 126.750351 -30.352850 1605.268087 9.617949 21.643307 0.000000 0.046167
613.000000 50.780000 7.000000 -6.000000 11.000000 133.815690 -28.330356 1555.260535 -232.215722 19.705676 0.000000 0.073038
614.000000 47.929000 8.000000 -6.000000 11.000000 129.303481 -23.491427 1442.794596 -19.666129 20.876867 0.000000 0.026249
616.000000 52.520000 7.000000 -5.000000 11.000000 136.422131 -19.682380 1359.995760 -260.280690 19.053343 0.000000 0.041970
617.000000 49.398000 8.000000 -5.000000 11.000000 131.235103 -15.674220 1277.010208 -38.826217 20.256344 0.000000 0.023494
618.000000 46.366000 9.000000 -5.000000 11.000000 126.316930 -12.647992 1216.527013 130.218844 21.579591 0.000000 0.045875
620.000000 53.928000 7.000000 -4.000000 11.000000 138.081899 -9.750659 1159.953935 -275.358825 18.556029 0.000000 0.017616
621.000000 50.567000 8.000000 -4.000000 11.000000 132.337122 -7.034629 1107.812676 -47.065737 19.788259 0.000000 0.029116
622.000000 47.328000 9.000000 -4.000000 11.000000 127.009972 -5.040789 1069.935671 126.510234 21.141184 0.000000 0.054262
624.000000 54.920000 7.000000 -3.000000 11.000000 138.513660 1.066821 954.957585 -276.324955 18.220931 0.000000 0.008017
625.000000 51.368000 8.000000 -3.000000 11.000000 132.430690 2.123316 935.095499 -43.525405 19.479524 0.000000 0.031583
626.000000 47.967000 9.000000 -3.000000 11.000000 126.866234 2.887336 920.715789 132.860904 20.859405 0.000000 0.056127
628.000000 55.422000 7.000000 -2.000000 11.000000 137.543371 12.071606 744.820338 -261.956557 18.055699 0.000000 0.027438
629.000000 51.745000 8.000000 -2.000000 11.000000 131.412710 11.360775 758.747702 -27.277636 19.337478 0.000000 0.028420
630.000000 48.240000 9.000000 -2.000000 11.000000 125.821681 10.845701 768.796027 150.003595 20.741302 0.000000 0.050927
632.000000 55.382000 7.000000 -1.000000 11.000000 135.171966 22.492637 529.346351 -230.924264 18.068471 0.000000 0.054458
633.000000 51.657000 8.000000 -1.000000 11.000000 129.286557 20.216279 578.653589 2.679614 19.369918 0.000000 0.024115
634.000000 48.116000 9.000000 -1.000000 11.000000 123.881146 18.537072 614.102443 178.726060 20.794351 0.000000 0.038204
636.000000 53.613000 7.000000 1.000000 11.000000 126.996777 39.696518 81.553763 -112.951832 18.663265 0.000000 0.142362
637.000000 50.047000 8.000000 1.000000 11.000000 122.203757 35.519338 206.738538 108.144573 19.991941 0.000000 0.067428
638.000000 46.650000 9.000000 1.000000 11.000000 117.648472 32.243321 296.084279 274.365313 21.446160 0.000000 0.015402
640.000000 48.568000 8.000000 2.000000 11.000000 117.625320 41.741417 14.660276 186.093564 20.599749 0.000000 0.114784
642.000000 46.709000 8.000000 3.000000 11.000000 112.620652 47.061712 -181.679541 282.652149 21.418580 0.000000 0.176269
649.000000 47.729000 8.000000 -5.000000 12.000000 135.398851 -14.385319 1251.051469 -185.710203 20.965272 0.000000 0.022958
650.000000 51.648000 7.000000 -4.000000 12.000000 142.018723 -7.911571 1124.569725 -450.769456 19.375703 0.000000 0.019644
651.000000 45.869000 9.000000 -4.000000 12.000000 131.087879 -3.574616 1042.235985 0.660074 21.814729 0.000000 0.037036
652.000000 52.463000 7.000000 -3.000000 12.000000 142.238478 3.352404 911.953532 -450.857818 19.074794 0.000000 0.013885
653.000000 49.393000 8.000000 -3.000000 12.000000 136.303013 4.060405 898.597832 -188.230649 20.259196 0.000000 0.016232
655.000000 46.627000 9.000000 -2.000000 12.000000 129.691431 12.673799 732.963736 25.406693 21.459605 0.000000 0.032208
658.000000 49.587000 8.000000 -1.000000 12.000000 132.911535 22.430076 530.722414 -141.450038 20.179544 0.000000 0.042637
659.000000 46.497000 9.000000 -1.000000 12.000000 127.672944 20.434852 573.984332 54.146941 21.519332 0.000000 0.023425
662.000000 48.145000 8.000000 1.000000 12.000000 125.768845 37.591693 146.390394 -37.520971 20.782601 0.000000 0.109850
668.000000 46.039000 8.000000 -5.000000 13.000000 139.149607 -13.004187 1223.564954 -336.445883 21.735787 0.000000 0.028574
671.000000 46.885000 8.000000 -4.000000 13.000000 139.959490 -3.653194 1043.717962 -342.445303 21.343695 0.000000 0.005560
674.000000 47.441000 8.000000 -3.000000 13.000000 139.743000 6.103819 859.904757 -337.302077 21.093405 0.000000 0.017275
676.000000 47.673000 8.000000 -2.000000 13.000000 138.440616 15.723415 671.992675 -320.183802 20.990635 0.000000 0.041755
678.000000 47.557000 8.000000 -1.000000 13.000000 136.101780 24.705135 479.843067 -290.195203 21.041415 0.000000 0.071192
#UB matrix in q= (UB) B0 G* 
#[[-0.30923244   0.207360286 -0.9290409  ]
# [ 0.126228379  0.976438561  0.175929494]
# [ 0.942571851 -0.062794469 -0.327705399]]
#B0 matrix in q= UB (B0) G*
#[[ 0.19670273 -0.          0.03056101]
# [ 0.          0.19187965 -0.        ]
# [ 0.          0.          0.18806537]]
#UBB0 matrix in q= (UB B0) G* i.e. recip. basis vectors are columns in LT frame: astar = UBB0[:,0], bstar = UBB0[:,1], cstar = UBB0[:,2]. (abcstar as columns on xyzlab1, xlab1 = ui, ui = unit vector along incident beam)
#[[-0.06082687  0.03978822 -0.18417088]
# [ 0.02482947  0.18735869  0.03694391]
# [ 0.18540646 -0.01204898 -0.03282409]]
#Euler angles phi theta psi (deg)
#[ 86.193 109.151  79.262]
#deviatoric strain in direct crystal frame (10-3 unit)
#[[ 2.34  0.01 -0.33]
# [ 0.01  2.07  0.27]
# [-0.33  0.27 -4.41]]
#deviatoric strain in sample2 frame (10-3 unit)
#[[-3.24  0.84  2.45]
# [ 0.84  1.96 -0.34]
# [ 2.45 -0.34  1.28]]
#new lattice parameters
#[ 5.1505     5.2102201  5.3130118 89.9837587 99.2574707 89.9994144]
#CCDLabel
#sCMOS
#DetectorParameters
#[79.0, 975.0, 941.0, 0.0, 0.0]
#pixelsize
#0.0734
#Frame dimensions
#[2018, 2016]
#
