#Strain and Orientation Refinement from experimental file: /home/micha/LaueProjects/DepthEffects/testZrO2_1.cor
#File created at Wed Jun 28 16:31:32 2023 with indexingSpotsSet.py
#Number of indexed spots: 542
#Element
#ZrO2
#grainIndex
#G_0
#Mean Deviation(pixel): 0.090
##spot_index intensity h k l 2theta Chi Xexp Yexp Energy GrainIndex PixDev
14.000000 47.299000 9.000000 7.000000 -13.000000 131.454903 35.236779 214.722741 -222.987502 21.154694 0.000000 0.119041
17.000000 48.148000 8.000000 8.000000 -13.000000 136.992350 24.323497 488.503020 -325.277179 20.782859 0.000000 0.069701
18.000000 45.925000 9.000000 8.000000 -13.000000 131.023333 27.732411 409.155976 -116.898345 21.787499 0.000000 0.056883
21.000000 48.242000 7.000000 9.000000 -13.000000 140.726076 11.107728 763.688692 -400.323790 20.743021 0.000000 0.028407
22.000000 46.402000 8.000000 9.000000 -13.000000 135.361629 16.645406 653.213779 -196.638820 21.564349 0.000000 0.028591
25.000000 47.621000 6.000000 10.000000 -13.000000 142.212657 -3.471446 1040.290606 -449.735209 21.013497 0.000000 0.014762
26.000000 46.201000 7.000000 10.000000 -13.000000 137.898990 4.071623 898.386049 -253.130180 21.658569 0.000000 0.007177
34.000000 49.766000 3.000000 2.000000 -4.000000 126.630022 40.080789 69.292645 -104.827975 6.701731 0.000000 0.142575
35.000000 46.650000 5.000000 3.000000 -6.000000 120.119081 41.112883 35.662395 112.260879 10.723168 0.000000 0.118563
38.000000 51.248000 8.000000 7.000000 -12.000000 133.326815 29.899487 356.116167 -230.067524 19.524854 0.000000 0.085011
39.000000 48.442000 9.000000 7.000000 -12.000000 126.807326 32.518763 288.829312 -14.136246 20.654629 0.000000 0.066420
40.000000 45.566000 10.000000 7.000000 -12.000000 120.610808 34.486914 235.645318 168.432872 21.956336 0.000000 0.049000
43.000000 51.803000 7.000000 8.000000 -12.000000 138.314347 17.071019 644.484476 -323.319243 19.316717 0.000000 0.041479
44.000000 49.426000 2.000000 2.000000 -3.000000 132.229031 21.860243 543.199748 -111.606047 5.061036 0.000000 0.033711
45.000000 46.884000 9.000000 8.000000 -12.000000 126.243155 25.432534 463.188762 67.363330 21.340661 0.000000 0.020792
48.000000 51.437000 2.000000 3.000000 -4.000000 140.949267 2.159752 934.410086 -386.652140 6.484774 0.000000 0.003961
49.000000 49.566000 7.000000 9.000000 -12.000000 135.838918 9.298328 798.782306 -182.039149 20.187861 0.000000 0.015149
50.000000 47.448000 8.000000 9.000000 -12.000000 130.481663 14.746664 691.702377 -8.936787 21.087738 0.000000 0.023211
52.000000 50.251000 5.000000 10.000000 -12.000000 140.962832 -13.122426 1225.905646 -421.941486 19.913656 0.000000 0.042627
53.000000 48.904000 3.000000 5.000000 -6.000000 137.263756 -4.281933 1055.585669 -227.150185 10.230633 0.000000 0.013171
54.000000 47.259000 7.000000 10.000000 -12.000000 132.946987 2.862028 921.192382 -62.051582 21.172530 0.000000 0.026232
57.000000 47.554000 5.000000 11.000000 -12.000000 136.512325 -17.464371 1313.618607 -248.497623 21.042046 0.000000 0.041373
58.000000 46.384000 6.000000 11.000000 -12.000000 133.483102 -9.321519 1151.665049 -93.421618 21.572256 0.000000 0.022927
60.000000 45.670000 1.000000 3.000000 -3.000000 133.988773 -29.052517 1572.889971 -247.500974 5.477466 0.000000 0.087556
65.000000 52.049000 9.000000 5.000000 -11.000000 120.720546 44.727463 -91.103508 40.770742 19.222176 0.000000 0.174216
66.000000 48.238000 10.000000 5.000000 -11.000000 113.923805 45.142848 -106.674477 264.047132 20.738966 0.000000 0.148543
69.000000 54.420000 8.000000 6.000000 -11.000000 128.625812 35.401783 210.067046 -114.058625 18.386080 0.000000 0.102960
70.000000 50.874000 9.000000 6.000000 -11.000000 121.598852 37.214983 157.604484 109.590665 19.666079 0.000000 0.080626
71.000000 47.336000 10.000000 6.000000 -11.000000 115.034474 38.574766 116.581377 298.027381 21.134387 0.000000 0.065077
74.000000 55.674000 7.000000 7.000000 -11.000000 135.010908 23.233995 512.943593 -230.729746 17.972923 0.000000 0.053473
75.000000 52.585000 8.000000 7.000000 -11.000000 128.191353 27.143671 423.196825 -10.489010 19.027218 0.000000 0.037823
76.000000 49.366000 9.000000 7.000000 -11.000000 121.643387 30.021498 353.062642 174.961933 20.266435 0.000000 0.019881
77.000000 46.126000 10.000000 7.000000 -11.000000 115.442219 32.218140 296.745338 335.775932 21.688610 0.000000 0.008183
80.000000 55.748000 6.000000 8.000000 -11.000000 139.037507 8.323193 817.540669 -311.970308 17.949719 0.000000 0.015888
81.000000 53.256000 7.000000 8.000000 -11.000000 133.039834 14.825794 690.112360 -98.673018 18.788650 0.000000 0.020058
82.000000 50.508000 8.000000 8.000000 -11.000000 126.959569 19.654586 590.593049 81.040795 19.809220 0.000000 0.022470
83.000000 47.619000 9.000000 8.000000 -11.000000 120.989252 23.333921 510.718873 236.992597 21.009549 0.000000 0.027276
85.000000 54.721000 5.000000 9.000000 -11.000000 140.137716 -7.875180 1123.872978 -360.228797 18.286829 0.000000 0.023375
86.000000 52.887000 6.000000 9.000000 -11.000000 135.573492 0.885695 958.361004 -157.190026 18.920053 0.000000 0.015435
87.000000 50.709000 7.000000 9.000000 -11.000000 130.473990 7.715668 829.179597 14.211862 19.731732 0.000000 0.033355
88.000000 48.287000 8.000000 9.000000 -11.000000 125.144112 13.048922 725.549715 163.245646 20.720067 0.000000 0.046681
89.000000 45.717000 9.000000 9.000000 -11.000000 119.787945 17.261122 640.572652 295.844881 21.883281 0.000000 0.056124
91.000000 52.784000 4.000000 10.000000 -11.000000 138.437044 -23.004311 1431.955388 -377.708967 18.957541 0.000000 0.075635
92.000000 51.594000 5.000000 10.000000 -11.000000 135.600656 -13.225742 1227.952767 -188.047314 19.394090 0.000000 0.026334
93.000000 50.014000 6.000000 10.000000 -11.000000 131.870836 -4.982344 1068.829346 -27.374184 20.006007 0.000000 0.030577
94.000000 48.122000 7.000000 10.000000 -11.000000 127.563874 1.796440 941.243027 112.815353 20.791567 0.000000 0.050952
95.000000 46.001000 8.000000 10.000000 -11.000000 122.938170 7.324092 836.663498 237.960299 21.749068 0.000000 0.066271
98.000000 49.569000 4.000000 11.000000 -11.000000 133.452598 -25.954999 1498.897764 -193.057359 20.186053 0.000000 0.064648
99.000000 48.556000 5.000000 11.000000 -11.000000 131.191225 -17.267048 1309.549416 -45.388156 20.606760 0.000000 0.025088
100.000000 47.199000 6.000000 11.000000 -11.000000 128.127429 -9.639456 1157.804013 84.147208 21.198187 0.000000 0.041314
101.000000 45.563000 7.000000 11.000000 -11.000000 124.493775 -3.109655 1033.471913 200.365042 21.958699 0.000000 0.063710
103.000000 47.034000 3.000000 12.000000 -11.000000 129.785458 -36.492787 1771.206208 -173.860675 21.273554 0.000000 0.124662
104.000000 46.514000 4.000000 12.000000 -11.000000 128.820466 -28.168694 1551.346996 -41.343232 21.511072 0.000000 0.051082
105.000000 45.652000 5.000000 12.000000 -11.000000 126.995512 -20.398488 1375.237919 75.832653 21.916473 0.000000 0.023599
111.000000 49.284000 5.000000 2.000000 -5.000000 106.583450 48.984979 -262.479544 452.595565 10.148520 0.000000 0.193497
114.000000 57.476000 8.000000 5.000000 -10.000000 122.672091 40.734105 48.125679 30.103104 17.407330 0.000000 0.127447
115.000000 53.013000 9.000000 5.000000 -10.000000 115.218844 41.763034 13.930667 261.426236 18.871026 0.000000 0.104389
116.000000 48.695000 4.000000 2.000000 -4.000000 108.375335 42.536226 -12.494631 455.798248 8.217136 0.000000 0.093387
119.000000 59.775000 7.000000 6.000000 -10.000000 130.569156 29.460287 367.046417 -117.337627 16.739031 0.000000 0.065580
120.000000 55.745000 4.000000 3.000000 -5.000000 123.038221 32.406945 291.779875 111.904209 8.973866 0.000000 0.044283
121.000000 51.673000 9.000000 6.000000 -10.000000 115.975368 34.558848 233.654675 304.274896 19.360438 0.000000 0.028808
122.000000 47.692000 5.000000 3.000000 -5.000000 109.415945 36.195075 187.413745 470.920028 10.487375 0.000000 0.029630
125.000000 60.581000 6.000000 7.000000 -10.000000 136.236145 14.936894 687.877984 -222.067240 16.517290 0.000000 0.026470
126.000000 57.228000 7.000000 7.000000 -10.000000 129.281872 20.570526 571.079345 0.677246 17.483902 0.000000 0.020578
127.000000 53.644000 8.000000 7.000000 -10.000000 122.461636 24.656828 480.942143 187.649199 18.650548 0.000000 0.016857
128.000000 49.983000 9.000000 7.000000 -10.000000 115.934097 27.727546 409.272622 349.687416 20.014938 0.000000 0.022417
129.000000 46.365000 10.000000 7.000000 -10.000000 109.778725 30.106831 350.922573 493.604147 21.574818 0.000000 0.032386
132.000000 59.903000 5.000000 8.000000 -10.000000 138.759724 -1.896450 1010.637604 -287.371490 16.704616 0.000000 0.007763
133.000000 57.370000 3.000000 4.000000 -5.000000 133.169843 6.527919 851.840461 -75.230713 8.720556 0.000000 0.023103
134.000000 54.454000 7.000000 8.000000 -10.000000 127.195179 12.855482 729.375685 103.190686 18.373797 0.000000 0.038635
135.000000 51.304000 4.000000 4.000000 -5.000000 121.153748 17.673738 632.054170 258.128941 9.750245 0.000000 0.049481
136.000000 48.051000 9.000000 8.000000 -10.000000 115.238944 21.416211 552.853548 396.010382 20.819041 0.000000 0.057141
138.000000 57.950000 4.000000 9.000000 -10.000000 137.923365 -18.510517 1335.342712 -316.174840 17.267603 0.000000 0.051537
139.000000 56.261000 5.000000 9.000000 -10.000000 134.239223 -8.407367 1134.074729 -118.470543 17.785098 0.000000 0.021299
140.000000 54.099000 6.000000 9.000000 -10.000000 129.667576 -0.210982 978.963287 48.465644 18.495068 0.000000 0.041800
141.000000 51.584000 7.000000 9.000000 -10.000000 124.599451 6.321660 855.764157 193.987234 19.395430 0.000000 0.060603
142.000000 48.839000 8.000000 9.000000 -10.000000 119.324780 11.524426 755.547573 323.959837 20.484129 0.000000 0.073200
143.000000 45.974000 9.000000 9.000000 -10.000000 114.041845 15.701783 672.431186 442.248998 21.759140 0.000000 0.081013
146.000000 54.130000 2.000000 5.000000 -5.000000 132.659269 -22.362553 1417.793773 -131.410832 9.242611 0.000000 0.042705
147.000000 52.708000 2.000000 4.000000 -4.000000 129.744850 -13.314510 1229.713010 21.298094 7.593177 0.000000 0.029540
148.000000 50.871000 3.000000 5.000000 -5.000000 126.001470 -5.593505 1080.408399 155.242819 9.833776 0.000000 0.055435
149.000000 48.715000 7.000000 10.000000 -10.000000 121.724312 0.851208 959.008982 275.562600 20.537090 0.000000 0.075763
150.000000 46.337000 4.000000 5.000000 -5.000000 117.157273 6.185106 858.360100 385.641359 10.794809 0.000000 0.089194
152.000000 51.274000 3.000000 11.000000 -10.000000 129.131611 -34.074563 1703.009340 -116.174171 19.513995 0.000000 0.097050
153.000000 50.509000 4.000000 11.000000 -10.000000 127.755920 -25.207293 1481.632988 19.736767 19.809219 0.000000 0.030753
154.000000 49.316000 5.000000 11.000000 -10.000000 125.423032 -17.094232 1305.992760 140.083732 20.287945 0.000000 0.035424
155.000000 47.759000 6.000000 11.000000 -10.000000 122.342867 -9.920597 1163.242141 249.122077 20.948295 0.000000 0.064593
156.000000 45.915000 7.000000 11.000000 -10.000000 118.734817 -3.717656 1044.933884 349.651365 21.788415 0.000000 0.085764
159.000000 47.761000 3.000000 12.000000 -10.000000 124.308561 -35.217390 1734.731433 42.027040 20.948521 0.000000 0.077906
160.000000 47.125000 2.000000 6.000000 -5.000000 123.230751 -27.384271 1532.523155 146.879685 10.615289 0.000000 0.018526
161.000000 46.123000 5.000000 12.000000 -10.000000 121.343022 -20.071060 1368.251448 243.111007 21.691056 0.000000 0.040094
168.000000 60.084000 8.000000 4.000000 -9.000000 115.220927 45.817419 -132.451140 213.619280 16.650402 0.000000 0.165049
169.000000 54.532000 9.000000 4.000000 -9.000000 107.475801 46.115778 -144.051860 452.175801 18.343851 0.000000 0.143934
170.000000 49.346000 10.000000 4.000000 -9.000000 100.489131 46.341218 -152.901001 652.357039 20.269859 0.000000 0.138029
172.000000 69.075000 6.000000 5.000000 -9.000000 133.511221 32.759002 282.465176 -274.007934 14.485914 0.000000 0.109086
173.000000 63.906000 7.000000 5.000000 -9.000000 124.691002 35.604995 204.307038 24.683126 15.656071 0.000000 0.081516
174.000000 58.653000 8.000000 5.000000 -9.000000 116.524343 37.563314 147.239126 263.309768 17.056760 0.000000 0.060062
175.000000 53.537000 9.000000 5.000000 -9.000000 109.042273 38.990170 103.739772 463.052823 18.684917 0.000000 0.053515
176.000000 48.703000 10.000000 5.000000 -9.000000 102.231096 40.074825 69.484008 636.095090 20.537535 0.000000 0.061900
178.000000 70.055000 5.000000 6.000000 -9.000000 140.335844 15.104243 684.508017 -403.502250 14.284078 0.000000 0.041566
179.000000 61.352000 7.000000 6.000000 -9.000000 124.289934 26.425459 440.126661 121.447138 16.307596 0.000000 0.016182
180.000000 56.666000 8.000000 6.000000 -9.000000 116.754572 29.678829 361.619552 316.465458 17.654647 0.000000 0.006552
181.000000 52.042000 3.000000 2.000000 -3.000000 109.727341 32.100410 299.831145 485.398038 6.407137 0.000000 0.022799
182.000000 47.619000 10.000000 6.000000 -9.000000 103.242691 33.966894 249.934808 635.597527 21.005086 0.000000 0.039233
185.000000 65.906000 5.000000 7.000000 -9.000000 136.565460 4.819753 884.247351 -199.809725 15.182631 0.000000 0.011144
186.000000 62.355000 6.000000 7.000000 -9.000000 129.790637 12.589647 734.623907 22.478585 16.046141 0.000000 0.028905
187.000000 58.414000 7.000000 7.000000 -9.000000 122.868934 18.218499 620.747334 208.839138 17.127483 0.000000 0.040912
188.000000 54.299000 8.000000 7.000000 -9.000000 116.102996 22.409529 531.174086 370.582686 18.423955 0.000000 0.049751
189.000000 50.184000 9.000000 7.000000 -9.000000 109.655386 25.619567 458.874173 514.660487 19.932899 0.000000 0.056459
190.000000 46.197000 10.000000 7.000000 -9.000000 103.605587 28.142314 399.290496 645.581139 21.651698 0.000000 0.061878
192.000000 64.095000 4.000000 8.000000 -9.000000 136.985975 -13.201409 1227.470464 -243.931900 15.611695 0.000000 0.029811
193.000000 61.657000 5.000000 8.000000 -9.000000 132.228406 -2.964853 1030.744171 -37.206192 16.228239 0.000000 0.029892
194.000000 58.654000 6.000000 8.000000 -9.000000 126.660367 4.984375 881.132199 136.871629 17.058058 0.000000 0.053061
195.000000 55.278000 7.000000 8.000000 -9.000000 120.743601 11.116411 763.519303 288.594163 18.098585 0.000000 0.068678
196.000000 51.706000 8.000000 8.000000 -9.000000 114.785124 15.889079 668.631299 424.279211 19.347294 0.000000 0.078108
197.000000 48.087000 9.000000 8.000000 -9.000000 108.974836 19.660766 590.462148 548.020583 20.801699 0.000000 0.083171
199.000000 59.506000 4.000000 9.000000 -9.000000 131.486421 -18.182384 1328.500907 -60.791517 16.814908 0.000000 0.026452
200.000000 57.481000 5.000000 9.000000 -9.000000 127.747719 -8.860513 1142.783319 97.648118 17.406301 0.000000 0.044041
201.000000 54.959000 2.000000 3.000000 -3.000000 123.193036 -1.164251 996.873322 236.734176 6.068045 0.000000 0.069825
202.000000 52.088000 7.000000 9.000000 -9.000000 118.186902 5.085861 879.210997 361.933024 19.206007 0.000000 0.086724
203.000000 49.013000 8.000000 9.000000 -9.000000 113.004146 10.149808 782.317324 476.783454 20.409550 0.000000 0.096615
204.000000 45.858000 3.000000 3.000000 -3.000000 107.835092 14.275835 701.139414 583.678262 7.270812 0.000000 0.101421
206.000000 56.301000 3.000000 10.000000 -9.000000 128.241598 -31.242075 1627.907718 -51.096320 17.771605 0.000000 0.068281
207.000000 55.166000 4.000000 10.000000 -9.000000 126.326986 -21.810231 1405.709950 88.586317 18.136686 0.000000 0.022048
208.000000 53.490000 5.000000 10.000000 -9.000000 123.359130 -13.391600 1231.242728 212.610675 18.704090 0.000000 0.053227
209.000000 51.379000 6.000000 10.000000 -9.000000 119.627049 -6.131338 1090.618116 325.385976 19.471529 0.000000 0.080442
210.000000 48.950000 7.000000 10.000000 -9.000000 115.407548 0.007469 974.859696 429.764121 20.436748 0.000000 0.098060
211.000000 46.316000 8.000000 10.000000 -9.000000 110.930630 5.154688 877.907720 527.672172 21.597525 0.000000 0.108424
213.000000 52.472000 2.000000 11.000000 -9.000000 123.491298 -41.552322 1928.978359 -10.624652 19.067609 0.000000 0.144583
214.000000 52.061000 3.000000 11.000000 -9.000000 123.051116 -32.848761 1669.921444 107.390645 19.217604 0.000000 0.050129
215.000000 51.133000 4.000000 11.000000 -9.000000 121.563291 -24.550169 1466.634163 214.095797 19.565948 0.000000 0.020819
216.000000 49.747000 5.000000 11.000000 -9.000000 119.182247 -16.941627 1302.857541 312.647892 20.110459 0.000000 0.059267
217.000000 47.982000 6.000000 11.000000 -9.000000 116.109433 -10.170969 1168.092965 405.087373 20.848985 0.000000 0.086880
218.000000 45.930000 7.000000 11.000000 -9.000000 112.552282 -4.264624 1055.258712 492.792287 21.779408 0.000000 0.104827
220.000000 48.517000 2.000000 12.000000 -9.000000 118.676649 -41.744010 1935.427242 152.013789 20.620839 0.000000 0.120084
221.000000 48.189000 1.000000 4.000000 -3.000000 118.369960 -34.076206 1703.054326 239.290573 6.920227 0.000000 0.035384
222.000000 47.429000 4.000000 12.000000 -9.000000 117.199511 -26.683622 1515.934198 321.941643 21.092953 0.000000 0.023544
223.000000 46.281000 5.000000 12.000000 -9.000000 115.270009 -19.777898 1362.020854 401.077840 21.615600 0.000000 0.063287
228.000000 61.696000 8.000000 3.000000 -8.000000 106.013124 50.595161 -335.076515 454.403747 16.213616 0.000000 0.225642
229.000000 54.949000 9.000000 3.000000 -8.000000 98.183627 50.238884 -318.592659 698.996695 18.202660 0.000000 0.206991
230.000000 48.893000 10.000000 3.000000 -8.000000 91.250137 49.967437 -306.198096 904.484808 20.455160 0.000000 0.204751
232.000000 67.650000 7.000000 4.000000 -8.000000 117.024369 41.534167 21.630446 207.624282 14.788393 0.000000 0.109098
233.000000 54.547000 9.000000 4.000000 -8.000000 100.638518 43.268525 -38.132679 663.348214 18.337145 0.000000 0.095629
234.000000 48.803000 5.000000 2.000000 -4.000000 93.740336 43.826903 -58.099662 843.469763 10.246569 0.000000 0.108868
236.000000 77.465000 5.000000 5.000000 -8.000000 136.078683 23.808521 500.106444 -280.557730 12.917317 0.000000 0.062025
237.000000 71.531000 6.000000 5.000000 -8.000000 126.608988 28.904745 380.737346 27.627517 13.987521 0.000000 0.039442
238.000000 65.336000 7.000000 5.000000 -8.000000 117.726348 32.270532 295.369532 271.958954 15.312228 0.000000 0.016621
239.000000 59.234000 8.000000 5.000000 -8.000000 109.566628 34.644258 231.286610 476.011435 16.887721 0.000000 0.021389
240.000000 53.459000 9.000000 5.000000 -8.000000 102.157733 36.402653 181.410483 652.912295 18.710358 0.000000 0.041892
241.000000 48.138000 10.000000 5.000000 -8.000000 95.473619 37.755181 141.488234 810.553813 20.776564 0.000000 0.062121
243.000000 72.799000 5.000000 6.000000 -8.000000 133.175981 12.201447 742.268489 -92.198240 13.744737 0.000000 0.019477
244.000000 67.747000 3.000000 3.000000 -4.000000 125.085309 18.970821 605.015157 141.557617 7.384127 0.000000 0.030026
245.000000 62.383000 7.000000 6.000000 -8.000000 117.189626 23.720965 502.070054 337.084681 16.036599 0.000000 0.039582
246.000000 57.010000 4.000000 3.000000 -4.000000 109.736402 27.194157 421.998616 506.872000 8.773169 0.000000 0.048250
247.000000 51.841000 9.000000 6.000000 -8.000000 102.831485 29.826486 357.939559 658.417829 19.294102 0.000000 0.056216
248.000000 47.007000 5.000000 3.000000 -4.000000 96.503865 31.882327 305.526343 796.497836 10.638291 0.000000 0.064170
251.000000 71.458000 4.000000 7.000000 -8.000000 135.375023 -6.952596 1106.248505 -157.554884 14.002839 0.000000 0.018592
252.000000 67.865000 5.000000 7.000000 -8.000000 129.277033 3.113388 916.457754 59.482465 14.743370 0.000000 0.042698
253.000000 63.631000 6.000000 7.000000 -8.000000 122.559017 10.566511 774.228041 241.910665 15.723009 0.000000 0.062604
254.000000 59.060000 7.000000 7.000000 -8.000000 115.730204 16.132997 663.672029 401.052047 16.938514 0.000000 0.074273
255.000000 54.403000 8.000000 7.000000 -8.000000 109.087986 20.374756 575.269458 543.695222 18.386703 0.000000 0.080343
256.000000 49.850000 9.000000 7.000000 -8.000000 102.792087 23.680887 502.967989 674.159369 20.064453 0.000000 0.082868
257.000000 45.525000 10.000000 7.000000 -8.000000 96.917537 26.313958 442.735941 795.324724 21.968692 0.000000 0.083549
258.000000 68.012000 3.000000 8.000000 -8.000000 133.221720 -24.816869 1472.702360 -173.384691 14.712181 0.000000 0.057123
259.000000 62.948000 5.000000 8.000000 -8.000000 124.971668 -3.868030 1047.771062 186.444703 15.894141 0.000000 0.061233
260.000000 59.434000 3.000000 4.000000 -4.000000 119.464169 3.644921 906.438085 331.717754 8.416240 0.000000 0.083243
261.000000 55.580000 7.000000 8.000000 -8.000000 113.654424 9.572835 793.483292 462.903104 17.998363 0.000000 0.095691
262.000000 47.626000 9.000000 8.000000 -8.000000 102.188265 18.050737 624.236780 696.493696 21.000979 0.000000 0.102593
264.000000 63.209000 2.000000 9.000000 -8.000000 128.138118 -38.841767 1841.655362 -143.991682 15.829470 0.000000 0.139856
265.000000 62.329000 3.000000 9.000000 -8.000000 127.005143 -27.897019 1544.796795 23.137825 16.052506 0.000000 0.039384
266.000000 60.622000 4.000000 9.000000 -8.000000 124.378785 -17.903670 1322.709718 167.157614 16.503885 0.000000 0.036681
267.000000 58.231000 5.000000 9.000000 -8.000000 120.618899 -9.250962 1150.304208 295.607868 17.180706 0.000000 0.072454
268.000000 55.331000 6.000000 9.000000 -8.000000 116.117570 -2.000077 1012.586465 412.997874 18.080120 0.000000 0.095469
269.000000 52.101000 7.000000 9.000000 -8.000000 111.215263 3.983763 900.044670 522.191143 19.199324 0.000000 0.108565
270.000000 48.708000 8.000000 9.000000 -8.000000 106.170785 8.905372 806.353432 625.094520 20.535563 0.000000 0.114619
272.000000 57.823000 1.000000 5.000000 -4.000000 122.235489 -39.484042 1861.725169 61.616006 8.651325 0.000000 0.110978
273.000000 57.131000 3.000000 10.000000 -8.000000 121.420955 -30.105926 1599.054716 180.956544 17.511799 0.000000 0.021907
274.000000 55.761000 2.000000 5.000000 -4.000000 119.403033 -21.329951 1395.277893 289.862125 8.970739 0.000000 0.042133
275.000000 53.816000 5.000000 10.000000 -8.000000 116.413575 -13.459174 1232.584424 391.308277 18.588984 0.000000 0.078949
276.000000 51.427000 3.000000 5.000000 -4.000000 112.726184 -6.608213 1099.687842 487.183273 9.725828 0.000000 0.102243
277.000000 48.730000 7.000000 10.000000 -8.000000 108.600563 -0.749977 989.089035 578.744140 20.526881 0.000000 0.115804
278.000000 45.856000 4.000000 5.000000 -4.000000 104.252622 4.218602 895.610568 666.860903 10.906042 0.000000 0.122370
280.000000 52.983000 2.000000 11.000000 -8.000000 117.013655 -39.959326 1876.816876 225.119937 18.882264 0.000000 0.089288
281.000000 52.438000 3.000000 11.000000 -8.000000 116.423585 -31.762917 1641.366704 311.961730 19.078037 0.000000 0.007633
282.000000 51.336000 4.000000 11.000000 -8.000000 114.850958 -23.968252 1453.482661 395.480348 19.487049 0.000000 0.046627
283.000000 49.751000 5.000000 11.000000 -8.000000 112.450252 -16.805886 1300.073043 476.437194 20.106771 0.000000 0.082454
284.000000 47.781000 6.000000 11.000000 -8.000000 109.414530 -10.395354 1172.446751 555.339947 20.934719 0.000000 0.105469
285.000000 45.531000 7.000000 11.000000 -8.000000 105.939636 -4.759224 1064.607621 632.540863 21.968443 0.000000 0.119280
287.000000 48.600000 1.000000 12.000000 -8.000000 111.943720 -47.655962 2156.007125 297.243817 20.583787 0.000000 0.182619
288.000000 48.661000 1.000000 6.000000 -4.000000 112.380536 -40.325206 1888.578271 359.680127 10.278934 0.000000 0.074984
289.000000 48.231000 3.000000 12.000000 -8.000000 111.952961 -33.049885 1675.286716 423.431841 20.740768 0.000000 0.010910
290.000000 47.341000 1.000000 3.000000 -2.000000 110.712893 -26.054187 1501.204419 487.990200 5.282521 0.000000 0.050514
291.000000 46.047000 5.000000 12.000000 -8.000000 108.766329 -19.513904 1356.429763 553.019799 21.723447 0.000000 0.084088
299.000000 70.233000 7.000000 3.000000 -7.000000 107.174899 47.140809 -184.886191 451.948808 14.242992 0.000000 0.160609
300.000000 61.692000 8.000000 3.000000 -7.000000 98.310317 47.265231 -189.949731 709.330378 16.212916 0.000000 0.152350
301.000000 54.124000 9.000000 3.000000 -7.000000 90.576256 47.356843 -193.693201 925.020097 18.478098 0.000000 0.160715
302.000000 47.544000 10.000000 3.000000 -7.000000 83.827806 47.427109 -196.573286 1113.046928 21.033364 0.000000 0.177235
303.000000 85.507000 5.000000 4.000000 -7.000000 129.614939 32.612088 286.361120 -116.604057 11.701664 0.000000 0.083858
304.000000 76.979000 6.000000 4.000000 -7.000000 118.863315 35.861416 196.996940 208.989943 12.996488 0.000000 0.053241
305.000000 68.594000 7.000000 4.000000 -7.000000 109.191624 37.986876 134.503701 465.674138 14.583414 0.000000 0.044031
306.000000 60.776000 8.000000 4.000000 -7.000000 100.599601 39.481796 88.345657 680.040817 16.457508 0.000000 0.059139
307.000000 53.729000 9.000000 4.000000 -7.000000 93.013164 40.589132 52.858312 866.395649 18.613945 0.000000 0.081512
308.000000 47.512000 10.000000 4.000000 -7.000000 86.328785 41.441732 24.724820 1033.122701 21.048010 0.000000 0.104534
309.000000 87.149000 4.000000 5.000000 -7.000000 137.765846 11.581213 754.436278 -269.204637 11.482069 0.000000 0.021578
310.000000 80.499000 5.000000 5.000000 -7.000000 128.055435 20.076745 581.627499 43.915978 12.429319 0.000000 0.020107
311.000000 73.235000 6.000000 5.000000 -7.000000 118.593041 25.530115 460.939374 290.876037 13.660608 0.000000 0.024924
312.000000 65.935000 7.000000 5.000000 -7.000000 109.780812 29.264766 371.881822 497.286163 15.171329 0.000000 0.036969
313.000000 58.985000 8.000000 5.000000 -7.000000 101.760082 31.961546 303.460689 676.895585 16.956979 0.000000 0.050146
314.000000 52.601000 9.000000 5.000000 -7.000000 94.547619 33.992038 249.247921 837.749811 19.013146 0.000000 0.063564
315.000000 46.872000 10.000000 5.000000 -7.000000 88.101002 35.572360 205.234049 984.873033 21.335516 0.000000 0.077720
317.000000 84.531000 3.000000 6.000000 -7.000000 139.227900 -13.158696 1226.624110 -340.782546 11.837792 0.000000 0.036861
318.000000 80.294000 4.000000 6.000000 -7.000000 132.689297 0.317526 969.035243 -51.818824 12.461673 0.000000 0.028103
319.000000 74.877000 5.000000 6.000000 -7.000000 124.962037 9.785329 789.375506 177.322520 13.361904 0.000000 0.054118
320.000000 68.831000 6.000000 6.000000 -7.000000 116.971893 16.463771 656.927251 369.847829 14.534176 0.000000 0.069002
321.000000 62.620000 7.000000 6.000000 -7.000000 109.222494 21.305928 555.242107 538.190240 15.974275 0.000000 0.076505
322.000000 56.579000 8.000000 6.000000 -7.000000 101.958699 24.929923 474.717454 689.614242 17.678068 0.000000 0.079686
323.000000 50.918000 9.000000 6.000000 -7.000000 95.279247 27.723460 409.370596 828.651080 19.641511 0.000000 0.081029
324.000000 45.746000 10.000000 6.000000 -7.000000 89.203067 29.932931 355.279911 958.275657 21.860638 0.000000 0.082694
326.000000 76.816000 3.000000 7.000000 -7.000000 131.929481 -19.647193 1359.250360 -85.463579 13.025769 0.000000 0.030535
327.000000 73.476000 4.000000 7.000000 -7.000000 127.137615 -7.663917 1119.830545 118.547061 13.617096 0.000000 0.048248
328.000000 69.123000 5.000000 7.000000 -7.000000 121.084699 1.676720 943.494026 291.851789 14.473405 0.000000 0.078068
329.000000 64.164000 6.000000 7.000000 -7.000000 114.490442 8.808835 808.210906 444.869284 15.590741 0.000000 0.094383
330.000000 53.793000 8.000000 7.000000 -7.000000 101.402479 18.528191 614.288034 712.066321 18.593063 0.000000 0.102490
331.000000 48.856000 9.000000 7.000000 -7.000000 95.342828 21.895843 542.423183 832.518188 20.470522 0.000000 0.100069
333.000000 71.144000 2.000000 8.000000 -7.000000 127.103430 -35.836947 1752.303476 -63.206079 14.063672 0.000000 0.100842
334.000000 69.644000 3.000000 8.000000 -7.000000 125.246111 -23.916692 1452.323162 109.022972 14.366129 0.000000 0.019877
335.000000 67.024000 4.000000 8.000000 -7.000000 121.676193 -13.409314 1231.594359 258.272351 14.926822 0.000000 0.059810
336.000000 63.549000 5.000000 8.000000 -7.000000 116.936665 -4.641196 1062.375505 392.299243 15.742036 0.000000 0.091280
337.000000 59.514000 6.000000 8.000000 -7.000000 111.546840 2.472802 928.519849 515.623564 16.808124 0.000000 0.108497
338.000000 55.196000 7.000000 8.000000 -7.000000 105.909114 8.195451 819.990851 631.059157 18.121510 0.000000 0.116014
339.000000 50.824000 8.000000 8.000000 -7.000000 100.297919 12.812666 730.221722 740.450957 19.678685 0.000000 0.117014
340.000000 46.567000 9.000000 8.000000 -7.000000 94.883303 16.571026 654.735286 845.060303 21.476207 0.000000 0.113795
342.000000 64.309000 2.000000 9.000000 -7.000000 120.590506 -37.028047 1786.872261 143.999566 15.557325 0.000000 0.074638
343.000000 63.156000 3.000000 9.000000 -7.000000 119.259998 -26.908693 1521.240594 264.784939 15.840872 0.000000 0.015637
344.000000 61.101000 4.000000 9.000000 -7.000000 116.554326 -17.664003 1317.744404 376.489300 16.372711 0.000000 0.066378
345.000000 58.331000 5.000000 9.000000 -7.000000 112.819024 -9.590855 1156.864858 481.727551 17.149407 0.000000 0.097939
346.000000 55.058000 6.000000 9.000000 -7.000000 108.420490 -2.738605 1026.483572 582.127127 18.167590 0.000000 0.115644
347.000000 51.493000 7.000000 9.000000 -7.000000 103.675579 2.995479 918.678975 678.755382 19.423950 0.000000 0.123833
348.000000 47.818000 8.000000 9.000000 -7.000000 98.825364 7.774485 828.054283 772.342659 20.915238 0.000000 0.125422
350.000000 58.347000 1.000000 10.000000 -7.000000 114.630031 -46.858808 2123.496982 219.371463 17.145975 0.000000 0.179552
351.000000 58.267000 2.000000 10.000000 -7.000000 114.911585 -37.885843 1812.445206 307.648511 17.169187 0.000000 0.056786
352.000000 57.378000 3.000000 10.000000 -7.000000 113.943092 -29.110910 1574.326182 393.983990 17.434728 0.000000 0.021189
353.000000 55.762000 4.000000 10.000000 -7.000000 111.860143 -20.908538 1386.180593 478.764307 17.939357 0.000000 0.070078
354.000000 53.549000 5.000000 10.000000 -7.000000 108.889272 -13.518892 1233.770755 562.232698 18.679893 0.000000 0.100620
355.000000 50.894000 6.000000 10.000000 -7.000000 105.288948 -7.033881 1107.798413 644.551244 19.653208 0.000000 0.118412
356.000000 47.955000 7.000000 10.000000 -7.000000 101.301774 -1.433496 1001.933671 725.833192 20.856232 0.000000 0.127198
358.000000 53.009000 1.000000 11.000000 -7.000000 109.653613 -46.400012 2105.220806 383.610888 18.871420 0.000000 0.152274
359.000000 52.966000 2.000000 11.000000 -7.000000 109.942592 -38.532798 1832.129501 441.776709 18.886258 0.000000 0.048614
360.000000 52.278000 3.000000 11.000000 -7.000000 109.230584 -30.795015 1616.473256 503.924691 19.134654 0.000000 0.029885
361.000000 50.999000 4.000000 11.000000 -7.000000 107.605092 -23.449432 1441.856995 568.728786 19.613596 0.000000 0.072162
362.000000 49.224000 5.000000 11.000000 -7.000000 105.218935 -16.684359 1297.583534 635.326758 20.320128 0.000000 0.100914
363.000000 47.064000 6.000000 11.000000 -7.000000 102.256183 -10.597591 1176.376171 703.134741 21.251341 0.000000 0.118429
365.000000 48.345000 1.000000 12.000000 -7.000000 105.285420 -46.041783 2091.163104 517.239460 20.690714 0.000000 0.135241
366.000000 48.329000 2.000000 12.000000 -7.000000 105.575474 -39.038020 1847.749104 554.751378 20.697379 0.000000 0.049111
367.000000 47.792000 3.000000 12.000000 -7.000000 105.049640 -32.122487 1650.746919 599.298149 20.929445 0.000000 0.038555
368.000000 46.774000 4.000000 12.000000 -7.000000 103.766345 -25.485766 1488.037857 648.881619 21.384108 0.000000 0.073412
371.000000 70.376000 7.000000 2.000000 -6.000000 94.755316 52.353158 -420.235485 794.413912 14.211842 0.000000 0.253222
372.000000 60.136000 4.000000 1.000000 -3.000000 86.096633 51.708659 -388.248464 1059.513171 8.314972 0.000000 0.249143
373.000000 51.558000 9.000000 2.000000 -6.000000 78.734927 51.228890 -365.023170 1283.348956 19.394807 0.000000 0.260210
374.000000 70.086000 7.000000 3.000000 -6.000000 98.250033 43.470659 -45.318142 725.966070 14.270906 0.000000 0.099209
375.000000 60.421000 8.000000 3.000000 -6.000000 89.565556 44.130843 -69.125786 952.370422 16.551906 0.000000 0.120490
376.000000 52.185000 3.000000 1.000000 -2.000000 82.118534 44.621943 -87.183679 1150.331697 6.387341 0.000000 0.146063
377.000000 88.518000 5.000000 4.000000 -6.000000 120.463111 28.179738 398.386038 222.821979 11.302320 0.000000 0.007626
378.000000 68.266000 7.000000 4.000000 -6.000000 100.203508 34.747324 228.422543 705.232487 14.651602 0.000000 0.047053
379.000000 59.500000 4.000000 2.000000 -3.000000 91.863556 36.647021 174.302023 897.353224 8.404067 0.000000 0.069465
380.000000 51.872000 9.000000 4.000000 -6.000000 84.597156 38.073887 131.869312 1070.308412 19.277854 0.000000 0.091359
381.000000 90.769000 4.000000 5.000000 -6.000000 128.286904 8.588699 812.442927 81.757705 11.022971 0.000000 0.041729
382.000000 82.430000 5.000000 5.000000 -6.000000 118.675102 16.937801 647.221003 325.661437 12.136633 0.000000 0.061357
383.000000 73.738000 6.000000 5.000000 -6.000000 109.381645 22.570332 527.635676 530.959058 13.565763 0.000000 0.071017
384.000000 65.352000 7.000000 5.000000 -6.000000 100.810294 26.555666 437.073220 711.246576 15.304649 0.000000 0.075463
385.000000 57.649000 8.000000 5.000000 -6.000000 93.090025 29.498007 366.111406 874.244590 17.347716 0.000000 0.078467
386.000000 50.788000 9.000000 5.000000 -6.000000 86.218025 31.748484 309.008286 1024.666663 19.689520 0.000000 0.083147
387.000000 75.852000 5.000000 6.000000 -6.000000 115.603916 7.749747 828.527622 420.481581 13.188477 0.000000 0.092414
388.000000 61.776000 7.000000 6.000000 -6.000000 100.364025 19.143577 601.382699 732.639103 16.190347 0.000000 0.102270
389.000000 55.162000 4.000000 3.000000 -3.000000 93.418991 22.864241 521.146875 871.215199 9.064792 0.000000 0.098850
390.000000 49.129000 3.000000 2.000000 -2.000000 87.083575 25.777831 455.212690 1001.891551 6.784795 0.000000 0.094360
392.000000 81.203000 2.000000 7.000000 -6.000000 125.579511 -32.102892 1650.233834 32.047737 12.321261 0.000000 0.058902
393.000000 78.606000 3.000000 7.000000 -6.000000 122.673904 -19.152745 1348.810274 210.275834 12.727781 0.000000 0.038636
394.000000 74.483000 4.000000 7.000000 -6.000000 117.855760 -8.252988 1131.112550 366.242864 13.431432 0.000000 0.084086
395.000000 69.336000 5.000000 7.000000 -6.000000 111.928596 0.451939 966.510201 507.694893 14.427278 0.000000 0.107976
396.000000 63.666000 6.000000 7.000000 -6.000000 105.552940 7.270329 837.689990 639.018052 15.710491 0.000000 0.117712
397.000000 57.891000 7.000000 7.000000 -6.000000 99.173720 12.614789 734.128020 762.885324 17.276350 0.000000 0.118493
398.000000 52.303000 8.000000 7.000000 -6.000000 93.052985 16.848226 649.058843 881.021160 19.120237 0.000000 0.113853
399.000000 47.085000 9.000000 7.000000 -6.000000 87.325443 20.249950 577.935145 994.590058 21.237631 0.000000 0.106515
400.000000 72.765000 1.000000 8.000000 -6.000000 118.489759 -45.599166 2074.043536 106.137936 13.749152 0.000000 0.176877
401.000000 70.350000 3.000000 8.000000 -6.000000 116.321291 -23.159713 1435.404791 361.895719 14.220405 0.000000 0.045210
402.000000 67.207000 2.000000 4.000000 -3.000000 112.724370 -13.489927 1233.195273 477.449447 7.442200 0.000000 0.090506
403.000000 63.196000 5.000000 8.000000 -6.000000 108.088742 -5.310310 1075.040137 587.931514 15.827931 0.000000 0.114737
404.000000 58.674000 3.000000 4.000000 -3.000000 102.893323 1.439326 947.956750 694.549945 8.523293 0.000000 0.125361
405.000000 53.955000 7.000000 8.000000 -6.000000 97.508580 6.960152 843.607430 798.086028 18.536047 0.000000 0.127015
406.000000 49.282000 4.000000 4.000000 -3.000000 92.186421 11.481228 756.392652 899.069360 10.146040 0.000000 0.122836
407.000000 64.901000 1.000000 9.000000 -6.000000 112.185883 -45.220970 2059.628239 317.868039 15.413847 0.000000 0.141806
408.000000 64.570000 2.000000 9.000000 -6.000000 112.189613 -35.454303 1741.418833 402.070958 15.492562 0.000000 0.024787
409.000000 60.716000 4.000000 9.000000 -6.000000 107.983910 -17.455722 1313.440059 574.759184 16.474632 0.000000 0.092622
410.000000 57.584000 5.000000 9.000000 -6.000000 104.332497 -9.889394 1162.638135 661.858078 17.369637 0.000000 0.116417
411.000000 53.979000 2.000000 3.000000 -2.000000 100.099345 -3.395683 1038.862276 748.958314 6.176176 0.000000 0.127711
412.000000 50.136000 7.000000 9.000000 -6.000000 95.576464 2.104750 935.444725 835.843827 19.947337 0.000000 0.130411
413.000000 46.249000 8.000000 9.000000 -6.000000 90.984893 6.743056 847.744438 922.368209 21.622176 0.000000 0.127235
415.000000 58.177000 1.000000 10.000000 -6.000000 106.789796 -44.943384 2049.169333 482.196813 17.194354 0.000000 0.121361
416.000000 57.951000 1.000000 5.000000 -3.000000 106.871301 -36.470118 1770.547524 535.096218 8.630481 0.000000 0.030439
417.000000 56.857000 3.000000 10.000000 -6.000000 105.789385 -28.232770 1552.896735 595.558672 17.592513 0.000000 0.055137
418.000000 55.002000 2.000000 5.000000 -3.000000 103.687282 -20.535831 1378.177284 661.093618 9.092565 0.000000 0.092459
419.000000 52.543000 5.000000 10.000000 -6.000000 100.783952 -13.572047 1234.827233 730.109295 19.035011 0.000000 0.115193
420.000000 49.662000 3.000000 5.000000 -3.000000 97.321708 -7.416130 1115.094340 801.542439 10.069213 0.000000 0.126834
421.000000 46.532000 7.000000 10.000000 -6.000000 93.524997 -2.053238 1013.586349 874.657085 21.491719 0.000000 0.130474
423.000000 52.433000 1.000000 11.000000 -6.000000 102.138373 -44.730984 2041.234571 615.147838 19.076706 0.000000 0.111586
424.000000 52.281000 2.000000 11.000000 -6.000000 102.269466 -37.249461 1793.417207 646.945908 19.131694 0.000000 0.041969
425.000000 51.448000 3.000000 11.000000 -6.000000 101.467700 -29.927304 1594.579349 689.063862 19.441181 0.000000 0.059456
426.000000 50.004000 4.000000 11.000000 -6.000000 99.826447 -22.984047 1431.506181 738.504662 20.001593 0.000000 0.091236
427.000000 48.061000 5.000000 11.000000 -6.000000 97.494781 -16.574928 1295.344494 793.264103 20.809416 0.000000 0.112404
428.000000 45.746000 6.000000 11.000000 -6.000000 94.646509 -10.780802 1179.940385 851.952340 21.861207 0.000000 0.124052
430.000000 47.060000 0.000000 4.000000 -2.000000 97.167843 -51.192381 2313.275645 725.023760 7.084488 0.000000 0.220876
431.000000 47.517000 1.000000 12.000000 -6.000000 98.100161 -44.563225 2035.008581 726.000023 21.049092 0.000000 0.108926
432.000000 47.418000 1.000000 6.000000 -3.000000 98.262873 -37.866085 1811.849522 743.010733 10.546472 0.000000 0.053588
433.000000 46.776000 1.000000 4.000000 -2.000000 97.664532 -31.280790 1628.903032 771.521037 7.127216 0.000000 0.063706
434.000000 45.643000 2.000000 6.000000 -3.000000 96.367958 -24.969994 1476.198204 808.498657 10.955948 0.000000 0.089702
439.000000 81.991000 6.000000 2.000000 -5.000000 94.486248 48.779615 -253.558830 812.848596 12.198385 0.000000 0.179574
440.000000 68.203000 7.000000 2.000000 -5.000000 84.512961 48.642804 -247.656361 1097.472839 14.662469 0.000000 0.194465
441.000000 57.038000 8.000000 2.000000 -5.000000 76.266503 48.545131 -243.461982 1338.321926 17.530576 0.000000 0.220024
442.000000 48.085000 9.000000 2.000000 -5.000000 69.400765 48.471903 -240.327969 1551.171656 20.792844 0.000000 0.249019
443.000000 80.663000 6.000000 3.000000 -5.000000 97.794749 38.512925 118.480398 752.706617 12.399382 0.000000 0.059064
444.000000 68.027000 7.000000 3.000000 -5.000000 88.004748 40.072643 69.554012 989.999370 14.700644 0.000000 0.091181
445.000000 57.526000 8.000000 3.000000 -5.000000 79.776163 41.192384 33.028281 1198.963555 17.382203 0.000000 0.122049
446.000000 48.927000 9.000000 3.000000 -5.000000 72.838091 42.034712 4.718947 1388.512058 20.435372 0.000000 0.152509
447.000000 89.604000 5.000000 4.000000 -5.000000 109.563072 24.383550 487.143803 521.073825 11.163665 0.000000 0.062583
448.000000 77.219000 6.000000 4.000000 -5.000000 99.137191 28.754462 384.415686 743.540028 12.952399 0.000000 0.069949
449.000000 66.192000 7.000000 4.000000 -5.000000 90.033020 31.795297 307.791570 940.270202 15.108279 0.000000 0.077270
450.000000 56.740000 8.000000 4.000000 -5.000000 82.178595 34.021474 248.443270 1119.376759 17.623369 0.000000 0.088615
451.000000 48.797000 9.000000 4.000000 -5.000000 75.424342 35.716987 201.120140 1285.699859 20.489961 0.000000 0.105407
452.000000 72.496000 6.000000 5.000000 -5.000000 98.928698 19.966530 583.972791 761.090503 13.795927 0.000000 0.101818
453.000000 63.208000 7.000000 5.000000 -5.000000 90.810141 24.111846 493.283234 924.325759 15.821258 0.000000 0.097016
454.000000 54.981000 8.000000 5.000000 -5.000000 83.579102 27.235904 421.007009 1077.226757 18.186934 0.000000 0.092357
455.000000 47.872000 9.000000 5.000000 -5.000000 77.207489 29.661406 362.053070 1222.231251 20.886070 0.000000 0.092389
456.000000 89.611000 3.000000 6.000000 -5.000000 118.792416 -13.437596 1232.155898 332.838443 11.164091 0.000000 0.070634
457.000000 82.928000 4.000000 6.000000 -5.000000 112.347397 -2.380426 1019.741760 498.156956 12.062694 0.000000 0.106411
458.000000 75.181000 5.000000 6.000000 -5.000000 105.041877 6.015478 861.582948 650.163059 13.304227 0.000000 0.119803
459.000000 67.203000 6.000000 6.000000 -5.000000 97.656622 12.355044 739.246518 792.878538 14.881999 0.000000 0.120144
460.000000 59.562000 7.000000 6.000000 -5.000000 90.625453 17.201515 641.800087 928.700319 16.789491 0.000000 0.113292
461.000000 52.572000 8.000000 6.000000 -5.000000 84.147634 20.976812 562.349025 1059.150287 19.020350 0.000000 0.103603
462.000000 46.357000 9.000000 6.000000 -5.000000 78.285734 23.976583 496.329906 1185.244822 21.568387 0.000000 0.094995
463.000000 83.401000 1.000000 7.000000 -5.000000 115.980332 -43.277365 1988.445948 220.594660 11.995395 0.000000 0.128246
464.000000 82.222000 2.000000 7.000000 -5.000000 115.261497 -30.483098 1608.558177 351.663919 12.167067 0.000000 0.006683
465.000000 78.910000 3.000000 7.000000 -5.000000 112.206419 -18.744597 1340.239491 477.022612 12.676883 0.000000 0.076952
466.000000 73.992000 4.000000 7.000000 -5.000000 107.467574 -8.748732 1140.633159 598.328240 13.518512 0.000000 0.112277
467.000000 68.105000 5.000000 7.000000 -5.000000 101.781656 -0.603701 986.340868 716.497552 14.685778 0.000000 0.126800
468.000000 61.838000 6.000000 7.000000 -5.000000 95.747858 5.914264 863.504986 832.083770 16.172657 0.000000 0.128502
469.000000 55.638000 7.000000 7.000000 -5.000000 89.767849 11.122749 763.395634 945.444445 17.973275 0.000000 0.122404
470.000000 49.792000 8.000000 7.000000 -5.000000 84.074386 15.315822 680.239730 1056.824054 20.081898 0.000000 0.112101
472.000000 72.921000 1.000000 8.000000 -5.000000 108.967438 -43.253325 1987.594295 433.107745 13.718113 0.000000 0.102321
473.000000 72.117000 2.000000 8.000000 -5.000000 108.562144 -32.574704 1662.649570 512.109800 13.870666 0.000000 0.023889
474.000000 69.731000 3.000000 8.000000 -5.000000 106.401512 -22.514492 1421.134659 598.060583 14.344527 0.000000 0.079145
475.000000 66.089000 4.000000 8.000000 -5.000000 102.864078 -13.559314 1234.574105 688.158522 15.133980 0.000000 0.112353
476.000000 61.609000 5.000000 8.000000 -5.000000 98.424143 -5.894900 1086.127368 780.755868 16.233444 0.000000 0.127474
477.000000 56.700000 6.000000 8.000000 -5.000000 93.518272 0.521835 965.197125 874.823757 17.637471 0.000000 0.130655
478.000000 51.703000 7.000000 8.000000 -5.000000 88.481034 5.847022 864.781519 969.689531 19.340736 0.000000 0.126054
479.000000 46.860000 8.000000 8.000000 -5.000000 83.537543 10.265760 780.068543 1064.897292 21.338041 0.000000 0.116675
481.000000 64.244000 1.000000 9.000000 -5.000000 103.120389 -43.236232 1986.989164 596.658148 15.569532 0.000000 0.092566
482.000000 63.693000 2.000000 9.000000 -5.000000 102.911245 -34.077830 1703.098799 643.120725 15.704080 0.000000 0.039015
483.000000 61.952000 3.000000 9.000000 -5.000000 101.349592 -25.308360 1483.954121 702.029929 16.144703 0.000000 0.079651
484.000000 59.228000 4.000000 9.000000 -5.000000 98.665850 -17.273044 1309.672938 769.212791 16.886216 0.000000 0.109608
485.000000 55.797000 5.000000 9.000000 -5.000000 95.170773 -10.153680 1167.757757 842.053433 17.923554 0.000000 0.124714
486.000000 51.944000 6.000000 9.000000 -5.000000 91.177113 -3.983933 1049.958537 918.831387 19.251759 0.000000 0.129093
487.000000 47.922000 7.000000 9.000000 -5.000000 86.949573 1.298186 950.609555 998.370825 20.865989 0.000000 0.126044
489.000000 57.050000 1.000000 10.000000 -5.000000 98.194835 -43.223455 1986.537049 728.292678 17.531761 0.000000 0.092895
490.000000 56.669000 2.000000 10.000000 -5.000000 98.112460 -35.208771 1734.488882 753.230674 17.649358 0.000000 0.051784
491.000000 55.381000 3.000000 10.000000 -5.000000 96.964437 -27.452404 1534.147452 792.842326 18.059184 0.000000 0.079789
492.000000 53.319000 4.000000 10.000000 -5.000000 94.896903 -20.203874 1371.081822 842.741777 18.756515 0.000000 0.105725
493.000000 50.669000 2.000000 4.000000 -2.000000 92.118092 -13.619666 1235.774069 900.042044 7.894691 0.000000 0.120233
494.000000 47.629000 6.000000 10.000000 -5.000000 88.852015 -7.761251 1121.692490 962.767043 20.995296 0.000000 0.125412
496.000000 50.583000 0.000000 11.000000 -5.000000 93.119011 -50.301266 2271.460999 849.182988 19.772433 0.000000 0.202894
497.000000 51.053000 1.000000 11.000000 -5.000000 94.003409 -43.213542 1986.186426 837.644516 19.590075 0.000000 0.098147
498.000000 50.788000 2.000000 11.000000 -5.000000 94.004893 -36.089900 1759.556712 847.750689 19.691716 0.000000 0.062812
499.000000 49.822000 3.000000 11.000000 -5.000000 93.150182 -29.145335 1575.173643 873.177276 20.072942 0.000000 0.080266
500.000000 48.243000 4.000000 11.000000 -5.000000 91.535268 -22.564299 1422.231424 909.761986 20.729430 0.000000 0.101696
501.000000 46.174000 5.000000 11.000000 -5.000000 89.302961 -16.475872 1293.319936 954.655124 21.656947 0.000000 0.115087
502.000000 45.629000 0.000000 12.000000 -5.000000 89.628097 -49.586878 2239.054867 951.776366 21.917681 0.000000 0.193151
503.000000 46.018000 1.000000 12.000000 -5.000000 90.402445 -43.205628 1985.906569 930.628211 21.732249 0.000000 0.105262
504.000000 45.835000 2.000000 12.000000 -5.000000 90.460295 -36.795446 1780.037579 930.202061 21.818862 0.000000 0.072557
510.000000 63.335000 7.000000 2.000000 -4.000000 72.849042 45.160664 -107.347384 1412.067203 15.786738 0.000000 0.185685
511.000000 51.886000 4.000000 1.000000 -2.000000 65.376225 45.549750 -122.149008 1645.431813 9.634286 0.000000 0.225224
512.000000 77.122000 6.000000 3.000000 -4.000000 85.509402 34.874149 224.888412 1044.032006 12.966386 0.000000 0.082914
513.000000 63.505000 7.000000 3.000000 -4.000000 76.463392 36.938897 165.752223 1265.196563 15.744821 0.000000 0.107662
514.000000 52.727000 8.000000 3.000000 -4.000000 69.006160 38.446078 120.529457 1468.350927 18.961421 0.000000 0.137883
515.000000 87.607000 5.000000 4.000000 -4.000000 96.818080 21.122765 559.201216 803.046146 11.415975 0.000000 0.100884
516.000000 61.934000 7.000000 4.000000 -4.000000 78.723764 29.107864 375.748779 1186.621258 16.144315 0.000000 0.091747
517.000000 52.264000 4.000000 2.000000 -2.000000 71.614970 31.592683 313.048807 1360.964463 9.564785 0.000000 0.099806
518.000000 79.999000 5.000000 5.000000 -4.000000 95.498175 11.999057 746.245094 835.085116 12.501167 0.000000 0.121816
519.000000 68.957000 6.000000 5.000000 -4.000000 87.255691 17.667161 632.190263 995.144678 14.501316 0.000000 0.111324
520.000000 59.175000 7.000000 5.000000 -4.000000 79.836548 21.903858 542.248293 1148.959582 16.896910 0.000000 0.098586
521.000000 50.806000 8.000000 5.000000 -4.000000 73.300427 25.157746 469.503504 1297.734561 19.678674 0.000000 0.090721
522.000000 88.838000 3.000000 6.000000 -4.000000 106.251571 -13.537284 1234.136250 618.291249 11.259265 0.000000 0.106392
523.000000 72.282000 5.000000 6.000000 -4.000000 93.278264 4.522807 889.862708 879.158344 13.835329 0.000000 0.129419
524.000000 63.693000 3.000000 3.000000 -2.000000 86.476793 10.658909 772.431425 1008.430021 7.849744 0.000000 0.120209
525.000000 55.745000 7.000000 6.000000 -4.000000 80.069247 15.451557 677.496931 1136.505097 17.936382 0.000000 0.106047
526.000000 48.680000 4.000000 3.000000 -2.000000 74.217318 19.249126 599.159629 1263.223465 10.268904 0.000000 0.092185
528.000000 82.798000 1.000000 7.000000 -4.000000 104.568016 -40.851518 1905.722427 571.209536 12.080843 0.000000 0.066117
529.000000 81.079000 2.000000 7.000000 -4.000000 103.558657 -29.130091 1574.798297 643.855075 12.336449 0.000000 0.057317
530.000000 77.079000 3.000000 7.000000 -4.000000 100.485173 -18.402002 1333.077214 731.074166 12.975906 0.000000 0.104405
531.000000 71.481000 4.000000 7.000000 -4.000000 95.967774 -9.171642 1148.774998 827.031865 13.991037 0.000000 0.125619
532.000000 65.045000 5.000000 7.000000 -4.000000 90.671164 -1.522385 1003.604551 928.387238 15.373892 0.000000 0.129470
533.000000 58.418000 6.000000 7.000000 -4.000000 85.125688 4.711286 886.299062 1033.096057 17.116747 0.000000 0.122611
534.000000 52.042000 7.000000 7.000000 -4.000000 79.681508 9.776917 789.538216 1139.842595 19.212092 0.000000 0.109753
535.000000 46.173000 8.000000 7.000000 -4.000000 74.536480 13.914282 708.359365 1247.745942 21.652623 0.000000 0.094835
536.000000 71.305000 1.000000 8.000000 -4.000000 98.278543 -41.211829 1917.616995 732.828890 14.026801 0.000000 0.073078
537.000000 67.372000 3.000000 8.000000 -4.000000 95.489210 -21.958113 1408.936105 829.479220 14.844387 0.000000 0.100342
538.000000 58.538000 5.000000 8.000000 -4.000000 87.984084 -6.409930 1095.914622 979.122699 17.082328 0.000000 0.125546
539.000000 53.423000 3.000000 4.000000 -2.000000 83.476384 -0.297758 980.593398 1064.079315 9.358163 0.000000 0.120940
540.000000 48.337000 7.000000 8.000000 -4.000000 78.888972 4.839519 883.873400 1153.131964 20.684656 0.000000 0.110085
542.000000 61.580000 0.000000 9.000000 -4.000000 92.198348 -50.108308 2262.612889 876.578514 16.241040 0.000000 0.199837
543.000000 62.145000 1.000000 9.000000 -4.000000 93.135754 -41.473958 1926.352994 862.303840 16.093177 0.000000 0.084660
544.000000 61.373000 2.000000 9.000000 -4.000000 92.770246 -32.865051 1670.355085 878.997200 16.295100 0.000000 0.070200
545.000000 59.384000 3.000000 9.000000 -4.000000 91.195786 -24.651929 1468.946437 916.281136 16.840113 0.000000 0.096242
546.000000 56.427000 4.000000 9.000000 -4.000000 88.637321 -17.111526 1306.348374 967.788403 17.721691 0.000000 0.113780
547.000000 52.813000 5.000000 9.000000 -4.000000 85.381293 -10.389279 1172.328788 1029.399557 18.933471 0.000000 0.119777
548.000000 48.847000 6.000000 9.000000 -4.000000 81.708732 -4.513525 1059.961834 1098.334775 20.469251 0.000000 0.116972
550.000000 54.308000 0.000000 5.000000 -2.000000 88.059342 -49.280365 2225.440514 996.903285 9.207412 0.000000 0.190307
551.000000 54.764000 1.000000 10.000000 -4.000000 88.868566 -41.673217 1933.041083 969.457911 18.261240 0.000000 0.096408
552.000000 54.233000 1.000000 5.000000 -2.000000 88.664849 -34.078902 1703.128166 971.286363 9.219743 0.000000 0.076930
553.000000 52.788000 3.000000 10.000000 -4.000000 87.504742 -26.754590 1517.605118 993.526055 18.943533 0.000000 0.093128
554.000000 50.585000 2.000000 5.000000 -2.000000 85.532095 -19.906351 1364.748026 1030.443812 9.883751 0.000000 0.107506
555.000000 47.829000 5.000000 10.000000 -4.000000 82.940439 -13.662571 1236.627491 1078.169576 20.905652 0.000000 0.113447
557.000000 48.368000 0.000000 11.000000 -4.000000 84.569361 -48.627622 2197.003332 1095.808159 20.675197 0.000000 0.186941
558.000000 48.743000 1.000000 11.000000 -4.000000 85.280351 -41.829797 1938.325824 1060.253277 20.515951 0.000000 0.107209
559.000000 48.373000 2.000000 11.000000 -4.000000 85.184896 -35.037858 1729.689692 1051.732405 20.672338 0.000000 0.083838
560.000000 47.304000 3.000000 11.000000 -4.000000 84.318295 -28.437250 1557.854778 1062.774819 21.138904 0.000000 0.091448
561.000000 45.637000 4.000000 11.000000 -4.000000 82.775667 -22.183828 1413.873215 1088.338410 21.910321 0.000000 0.102115
565.000000 90.674000 5.000000 2.000000 -3.000000 78.269531 39.183645 97.707261 1229.323619 11.027449 0.000000 0.113646
566.000000 70.140000 6.000000 2.000000 -3.000000 67.911959 40.795947 46.100553 1517.951529 14.254113 0.000000 0.160531
567.000000 55.348000 7.000000 2.000000 -3.000000 59.897933 41.909661 8.968744 1779.428845 18.062012 0.000000 0.209771
568.000000 87.482000 5.000000 3.000000 -3.000000 81.363105 28.110070 400.069248 1126.345828 11.429958 0.000000 0.091659
569.000000 56.169000 7.000000 3.000000 -3.000000 63.767083 34.056404 247.487729 1581.168077 17.798164 0.000000 0.127393
570.000000 45.928000 8.000000 3.000000 -3.000000 57.404227 35.885096 196.319460 1790.434714 21.765429 0.000000 0.166192
571.000000 81.334000 5.000000 4.000000 -3.000000 82.275712 18.308795 618.866397 1094.769550 12.293691 0.000000 0.105982
572.000000 66.875000 6.000000 4.000000 -3.000000 73.683012 23.126224 515.339226 1283.608293 14.950183 0.000000 0.090701
573.000000 55.232000 7.000000 4.000000 -3.000000 66.417469 26.661326 434.590315 1466.729109 18.100100 0.000000 0.091369
574.000000 46.006000 8.000000 4.000000 -3.000000 60.315024 29.347130 369.847138 1644.862631 21.728642 0.000000 0.112061
575.000000 86.611000 4.000000 5.000000 -3.000000 89.578355 2.583495 926.436449 948.928747 11.545651 0.000000 0.128404
576.000000 74.023000 5.000000 5.000000 -3.000000 81.748504 10.035355 784.535418 1099.509065 13.507664 0.000000 0.113789
577.000000 62.715000 6.000000 5.000000 -3.000000 74.486253 15.628035 673.925473 1251.229861 15.941573 0.000000 0.094062
578.000000 53.079000 7.000000 5.000000 -3.000000 68.025527 19.904829 585.284303 1402.886790 18.834206 0.000000 0.080084
579.000000 75.798000 4.000000 6.000000 -3.000000 86.506374 -4.255505 1055.086458 1006.890460 13.192076 0.000000 0.124913
580.000000 66.684000 5.000000 6.000000 -3.000000 80.413058 3.226201 914.332082 1123.077823 14.993854 0.000000 0.114203
581.000000 58.006000 2.000000 2.000000 -1.000000 74.416649 9.152706 801.589962 1245.040731 5.745193 0.000000 0.096028
582.000000 50.221000 7.000000 6.000000 -3.000000 68.821287 13.869371 709.254606 1370.530127 19.905870 0.000000 0.077696
584.000000 78.647000 0.000000 7.000000 -3.000000 90.736482 -49.808712 2249.015173 919.560980 12.716360 0.000000 0.195713
585.000000 79.220000 1.000000 7.000000 -3.000000 91.657399 -38.779483 1839.728453 901.051005 12.624095 0.000000 0.073741
586.000000 77.003000 2.000000 7.000000 -3.000000 90.490552 -27.984174 1546.894539 930.564698 12.987065 0.000000 0.087383
587.000000 72.494000 3.000000 7.000000 -3.000000 87.561439 -18.110360 1327.002600 989.224823 13.793927 0.000000 0.111625
588.000000 66.510000 4.000000 7.000000 -3.000000 83.437944 -9.536631 1155.817353 1066.544270 15.033713 0.000000 0.117713
589.000000 59.884000 5.000000 7.000000 -3.000000 78.700019 -2.328749 1018.769376 1156.242203 16.695813 0.000000 0.110368
590.000000 53.263000 6.000000 7.000000 -3.000000 73.799382 3.637759 906.573177 1254.336315 18.769960 0.000000 0.095055
591.000000 47.053000 7.000000 7.000000 -3.000000 69.028269 8.558094 813.030908 1358.186674 21.246218 0.000000 0.076820
593.000000 66.961000 0.000000 8.000000 -3.000000 85.669717 -48.829283 2205.709628 1064.801415 14.934695 0.000000 0.187592
594.000000 67.427000 1.000000 8.000000 -3.000000 86.464464 -39.423363 1859.813316 1027.085718 14.831012 0.000000 0.090151
595.000000 65.994000 2.000000 8.000000 -3.000000 85.734190 -30.155283 1600.294202 1033.846274 15.152619 0.000000 0.087291
596.000000 62.929000 3.000000 8.000000 -3.000000 83.657974 -21.473496 1398.388563 1069.545894 15.889615 0.000000 0.103785
597.000000 58.703000 4.000000 8.000000 -3.000000 80.574778 -13.672641 1236.827851 1124.876863 17.032407 0.000000 0.109652
598.000000 53.834000 5.000000 8.000000 -3.000000 76.866928 -6.867047 1104.617872 1193.930966 18.571689 0.000000 0.104636
599.000000 48.771000 6.000000 8.000000 -3.000000 72.869946 -1.034040 994.426426 1272.783476 20.498444 0.000000 0.092062
601.000000 57.945000 0.000000 3.000000 -1.000000 81.593158 -48.099916 2174.546036 1179.180027 5.752472 0.000000 0.186838
602.000000 58.331000 1.000000 9.000000 -3.000000 82.292152 -39.901567 1874.971725 1130.886285 17.142971 0.000000 0.103891
603.000000 57.376000 2.000000 9.000000 -3.000000 81.836392 -31.789322 1642.053051 1122.647383 17.427579 0.000000 0.089643
604.000000 55.234000 1.000000 3.000000 -1.000000 80.330143 -24.069875 1455.770734 1141.856334 6.034174 0.000000 0.097987
605.000000 52.185000 4.000000 9.000000 -3.000000 77.984162 -16.967694 1303.392707 1180.510404 19.159337 0.000000 0.102273
606.000000 48.557000 5.000000 9.000000 -3.000000 75.054163 -10.600613 1176.434921 1233.290367 20.589799 0.000000 0.098512
609.000000 50.846000 0.000000 10.000000 -3.000000 78.251805 -47.535854 2151.045741 1272.542953 19.665967 0.000000 0.189192
610.000000 51.169000 1.000000 10.000000 -3.000000 78.875606 -40.270704 1886.818227 1218.374505 19.541429 0.000000 0.115714
611.000000 50.518000 2.000000 10.000000 -3.000000 78.599114 -33.061729 1675.603417 1199.967467 19.792765 0.000000 0.093957
612.000000 48.983000 3.000000 10.000000 -3.000000 77.485884 -26.127066 1502.901727 1207.074506 20.412239 0.000000 0.094688
613.000000 46.737000 4.000000 10.000000 -3.000000 75.671866 -19.638181 1359.059503 1232.884723 21.392329 0.000000 0.096406
618.000000 76.046000 5.000000 2.000000 -2.000000 60.423235 35.034018 220.417916 1687.011949 13.145550 0.000000 0.145925
619.000000 57.158000 3.000000 1.000000 -1.000000 52.186981 37.293607 155.273246 1990.915844 8.744079 0.000000 0.209188
620.000000 74.595000 5.000000 3.000000 -2.000000 64.276758 24.809858 477.457486 1512.246292 13.401317 0.000000 0.086915
621.000000 58.060000 6.000000 3.000000 -2.000000 56.420213 28.636942 387.284751 1755.130185 17.216490 0.000000 0.121716
622.000000 46.093000 7.000000 3.000000 -2.000000 50.197009 31.409041 317.794041 1991.805860 21.685643 0.000000 0.173901
623.000000 70.076000 5.000000 4.000000 -2.000000 66.216783 15.866833 669.082997 1434.113544 14.265517 0.000000 0.071285
624.000000 56.605000 3.000000 2.000000 -1.000000 59.218634 20.758843 567.038605 1626.637025 8.829513 0.000000 0.076201
625.000000 46.174000 7.000000 4.000000 -2.000000 53.368495 24.432496 486.035038 1819.956533 21.647618 0.000000 0.111989
626.000000 89.462000 3.000000 5.000000 -2.000000 79.932594 -8.074381 1127.688398 1133.998857 11.176189 0.000000 0.111898
627.000000 76.463000 4.000000 5.000000 -2.000000 73.362275 1.204628 952.367866 1262.700141 13.074901 0.000000 0.093739
628.000000 64.251000 5.000000 5.000000 -2.000000 66.843160 8.328098 817.446559 1406.247020 15.558760 0.000000 0.067609
629.000000 53.720000 6.000000 5.000000 -2.000000 60.869738 13.811722 710.403282 1558.661928 18.607610 0.000000 0.053802
631.000000 87.023000 1.000000 6.000000 -2.000000 82.205226 -35.814174 1751.652733 1122.687618 11.490629 0.000000 0.090810
632.000000 75.634000 3.000000 6.000000 -2.000000 76.576092 -13.688889 1237.151151 1205.394224 13.218911 0.000000 0.101350
633.000000 66.988000 2.000000 3.000000 -1.000000 71.785083 -4.992737 1069.026069 1296.527046 7.461974 0.000000 0.088115
634.000000 58.235000 5.000000 6.000000 -2.000000 66.671015 2.090511 935.712576 1405.480282 17.165866 0.000000 0.065167
635.000000 50.161000 3.000000 3.000000 -1.000000 61.689971 7.807996 827.413003 1526.193175 9.963905 0.000000 0.043739
637.000000 71.772000 0.000000 7.000000 -2.000000 76.799205 -47.299222 2141.337154 1313.264217 13.931865 0.000000 0.190905
638.000000 71.964000 1.000000 7.000000 -2.000000 77.384747 -36.993522 1785.855130 1242.590157 13.894152 0.000000 0.104514
639.000000 69.438000 2.000000 7.000000 -2.000000 76.218307 -27.001921 1523.444774 1237.297626 14.398855 0.000000 0.093972
640.000000 64.794000 3.000000 7.000000 -2.000000 73.616712 -17.859103 1321.785375 1273.449066 15.429865 0.000000 0.092958
641.000000 58.904000 4.000000 7.000000 -2.000000 70.070515 -9.854813 1161.968852 1337.084039 16.971705 0.000000 0.082160
642.000000 52.587000 5.000000 7.000000 -2.000000 66.059695 -3.041937 1032.196168 1419.528333 19.009497 0.000000 0.062623
643.000000 46.430000 6.000000 7.000000 -2.000000 61.949384 2.674500 924.723327 1515.121381 21.528939 0.000000 0.039778
645.000000 60.755000 0.000000 4.000000 -1.000000 73.117010 -46.720630 2117.959969 1417.480523 8.228664 0.000000 0.196827
646.000000 60.970000 1.000000 8.000000 -2.000000 73.666487 -37.846547 1811.260782 1340.431692 16.398985 0.000000 0.117430
647.000000 59.366000 1.000000 4.000000 -1.000000 72.925321 -29.168036 1575.732796 1319.599378 8.420564 0.000000 0.095058
648.000000 56.260000 3.000000 8.000000 -2.000000 71.070368 -21.047655 1389.178092 1336.507340 17.770045 0.000000 0.088181
649.000000 52.142000 2.000000 4.000000 -1.000000 68.399116 -13.719513 1237.760628 1379.670230 9.586258 0.000000 0.077697
650.000000 47.521000 5.000000 8.000000 -2.000000 65.233535 -7.275450 1112.407759 1441.583833 21.035797 0.000000 0.060672
653.000000 52.458000 0.000000 9.000000 -2.000000 70.206419 -46.283065 2100.611349 1501.491663 19.059572 0.000000 0.202919
654.000000 52.669000 1.000000 9.000000 -2.000000 70.718819 -38.491965 1830.876729 1422.050547 18.982947 0.000000 0.129299
655.000000 51.612000 2.000000 9.000000 -2.000000 70.245982 -30.829298 1617.346332 1391.116752 19.370908 0.000000 0.099738
656.000000 49.463000 3.000000 9.000000 -2.000000 68.892310 -23.550338 1444.110864 1394.222560 20.211638 0.000000 0.087174
657.000000 46.510000 4.000000 9.000000 -2.000000 66.845331 -16.838796 1300.747764 1421.912502 21.493716 0.000000 0.075599
658.000000 46.025000 0.000000 5.000000 -1.000000 67.851108 -45.940604 2087.225650 1571.005292 10.861401 0.000000 0.208677
659.000000 46.222000 1.000000 10.000000 -2.000000 68.328492 -38.997226 1846.479654 1491.312183 21.629891 0.000000 0.140074
660.000000 45.504000 1.000000 5.000000 -1.000000 68.031841 -32.141745 1651.251389 1453.740997 10.985240 0.000000 0.106481
663.000000 76.272000 4.000000 2.000000 -1.000000 48.495203 27.271000 420.172810 2012.481327 13.104575 0.000000 0.158187
665.000000 74.182000 4.000000 3.000000 -1.000000 52.908968 16.208024 662.144139 1788.410873 13.473904 0.000000 0.074874
666.000000 55.740000 5.000000 3.000000 -1.000000 45.922278 21.916530 541.971730 2064.378694 17.931214 0.000000 0.148869
667.000000 85.627000 3.000000 4.000000 -1.000000 61.850082 -1.698890 1006.922792 1517.146478 11.673798 0.000000 0.038991
668.000000 68.297000 4.000000 4.000000 -1.000000 55.167306 7.188725 839.247593 1695.889119 14.634869 0.000000 0.029566
669.000000 54.247000 5.000000 4.000000 -1.000000 49.198828 13.735017 711.930759 1897.420315 18.424471 0.000000 0.088315
671.000000 83.614000 2.000000 5.000000 -1.000000 65.432398 -19.395234 1353.922423 1462.632512 11.955659 0.000000 0.076013
672.000000 72.785000 3.000000 5.000000 -1.000000 61.089455 -8.620895 1138.175714 1542.197303 13.733406 0.000000 0.043173
673.000000 61.390000 4.000000 5.000000 -1.000000 56.111821 0.027427 974.484779 1663.917535 16.281615 0.000000 0.000889
674.000000 51.084000 5.000000 5.000000 -1.000000 51.226965 6.832646 846.037656 1811.713062 19.565631 0.000000 0.051005
676.000000 73.544000 0.000000 6.000000 -1.000000 64.277913 -45.439169 2067.921538 1679.950511 13.594046 0.000000 0.218795
677.000000 73.161000 1.000000 6.000000 -1.000000 64.600270 -34.080232 1703.164563 1558.028163 13.664604 0.000000 0.122132
678.000000 69.018000 2.000000 6.000000 -1.000000 63.018872 -23.310972 1438.769906 1537.657639 14.483955 0.000000 0.082776
679.000000 62.391000 3.000000 6.000000 -1.000000 60.046016 -13.747872 1238.325169 1579.540405 16.021392 0.000000 0.052321
680.000000 54.775000 4.000000 6.000000 -1.000000 56.330253 -5.631652 1081.131913 1661.455673 18.247869 0.000000 0.020010
681.000000 47.289000 5.000000 6.000000 -1.000000 52.402331 1.088279 954.554349 1769.937940 21.135881 0.000000 0.030513
683.000000 60.980000 0.000000 7.000000 -1.000000 61.699428 -45.089738 2054.671019 1761.878059 16.394342 0.000000 0.227163
684.000000 60.875000 1.000000 7.000000 -1.000000 62.074084 -35.441066 1741.044136 1641.237213 16.422095 0.000000 0.137513
685.000000 58.386000 2.000000 7.000000 -1.000000 61.075506 -26.151078 1503.461405 1603.570882 17.121116 0.000000 0.093839
686.000000 54.129000 3.000000 7.000000 -1.000000 58.978099 -17.640393 1317.255983 1620.200790 18.466734 0.000000 0.063802
687.000000 48.912000 4.000000 7.000000 -1.000000 56.171701 -10.134632 1167.388477 1673.718909 20.435470 0.000000 0.036873
690.000000 51.953000 0.000000 8.000000 -1.000000 59.753055 -44.832309 2045.012529 1825.973224 19.242571 0.000000 0.234112
691.000000 51.971000 1.000000 8.000000 -1.000000 60.141866 -36.447925 1769.903057 1709.091492 19.235197 0.000000 0.151348
692.000000 50.394000 2.000000 8.000000 -1.000000 59.498671 -28.295538 1554.416646 1661.055791 19.836123 0.000000 0.106125
693.000000 47.542000 3.000000 8.000000 -1.000000 57.980396 -20.670549 1381.065606 1660.364101 21.025090 0.000000 0.075889
696.000000 137.587000 1.000000 2.000000 0.000000 43.156899 -13.798731 1239.337953 2122.978584 7.264031 0.000000 0.134267
698.000000 101.782000 1.000000 3.000000 0.000000 45.137175 -22.662684 1424.400227 2101.777467 9.819829 0.000000 0.147815
699.000000 80.419000 2.000000 3.000000 0.000000 40.675775 -6.190558 1091.743510 2200.724004 12.427551 0.000000 0.148468
701.000000 79.237000 1.000000 4.000000 0.000000 45.803707 -27.519225 1535.742425 2121.028269 12.614158 0.000000 0.167591
702.000000 56.120000 3.000000 4.000000 0.000000 39.361838 -2.851652 1028.612206 2254.709673 17.808416 0.000000 0.162135
704.000000 64.455000 1.000000 5.000000 0.000000 46.068738 -30.543937 1610.098007 2144.930560 15.507205 0.000000 0.184249
705.000000 58.826000 2.000000 5.000000 0.000000 44.432329 -18.972028 1345.010198 2101.898698 16.990062 0.000000 0.138465
706.000000 50.983000 3.000000 5.000000 0.000000 41.703071 -9.081818 1147.044113 2164.210093 19.603205 0.000000 0.140201
708.000000 54.173000 1.000000 6.000000 0.000000 46.182998 -32.598216 1663.271700 2166.851839 18.450563 0.000000 0.197644
#UB matrix in q= (UB) B0 G* 
#[[-0.045016413 -0.390464206  0.920425164]
# [ 0.742011333 -0.629591681 -0.230803294]
# [ 0.668874207  0.671844611  0.31768215 ]]
#B0 matrix in q= UB (B0) G*
#[[ 0.19670273 -0.          0.03056101]
# [ 0.          0.19187965 -0.        ]
# [ 0.          0.          0.18806537]]
#UBB0 matrix in q= (UB B0) G* i.e. recip. basis vectors are columns in LT frame: astar = UBB0[:,0], bstar = UBB0[:,1], cstar = UBB0[:,2]. (abcstar as columns on xyzlab1, xlab1 = ui, ui = unit vector along incident beam)
#[[-0.00885485 -0.07492214  0.17172435]
# [ 0.14595566 -0.12080583 -0.02072949]
# [ 0.13156938  0.12891331  0.08018648]]
#Euler angles phi theta psi (deg)
#[135.13   71.456 104.096]
#deviatoric strain in direct crystal frame (10-3 unit)
#[[-2.04  0.05  0.39]
# [ 0.05 -2.1   0.64]
# [ 0.39  0.64  4.14]]
#deviatoric strain in sample2 frame (10-3 unit)
#[[ 3.5  -1.45 -1.39]
# [-1.45 -1.73  0.41]
# [-1.39  0.42 -1.77]]
#new lattice parameters
#[ 5.1505     5.2112794  5.3139151 89.9628877 99.2124133 89.9942167]
#CCDLabel
#sCMOS
#DetectorParameters
#[79.0, 975.0, 941.0, 0.0, 0.0]
#pixelsize
#0.0734
#Frame dimensions
#[2018, 2016]
#
