#Strain and Orientation Refinement from experimental file: /home/micha/LaueProjects/DepthEffects/testZrO2_171.cor
#File created at Wed Jun 28 14:28:32 2023 with indexingSpotsSet.py
#Number of indexed spots: 534
#Element
#ZrO2
#grainIndex
#G_0
#Mean Deviation(pixel): 0.115
##spot_index intensity h k l 2theta Chi Xexp Yexp Energy GrainIndex PixDev
10.000000 58.337000 1.000000 5.000000 -1.000000 42.027847 19.665388 590.364228 2209.143933 17.155366 0.000000 0.257327
15.000000 56.813000 0.000000 6.000000 -1.000000 48.528761 31.386243 318.381816 2055.312887 17.613381 0.000000 0.247837
16.000000 53.575000 1.000000 6.000000 -1.000000 46.070660 20.982472 562.227073 2051.436184 18.679583 0.000000 0.205695
17.000000 47.842000 2.000000 6.000000 -1.000000 42.481420 11.269243 760.535959 2139.440329 20.919257 0.000000 0.225030
21.000000 51.282000 0.000000 7.000000 -1.000000 51.091686 31.022884 327.711952 1954.718662 19.512401 0.000000 0.219445
22.000000 48.953000 1.000000 7.000000 -1.000000 48.990478 21.963004 540.957085 1950.161805 20.442312 0.000000 0.176309
24.000000 46.810000 -1.000000 8.000000 -1.000000 53.943508 38.822231 108.949411 1946.777600 21.374832 0.000000 0.273881
25.000000 46.556000 0.000000 8.000000 -1.000000 53.023912 30.743608 334.834744 1883.846245 21.492638 0.000000 0.200446
28.000000 166.954000 1.000000 2.000000 0.000000 53.009076 -1.819464 1009.189905 1752.187626 5.994033 0.000000 0.062076
31.000000 129.877000 1.000000 3.000000 0.000000 58.644780 6.985751 843.119373 1601.723718 7.704518 0.000000 0.031319
32.000000 92.734000 2.000000 3.000000 0.000000 47.253334 -9.121322 1147.805236 1948.540533 10.792038 0.000000 0.152874
33.000000 113.157000 -1.000000 4.000000 0.000000 67.524946 45.872373 -134.578473 1580.513152 8.840157 0.000000 0.274861
34.000000 115.529000 0.000000 4.000000 0.000000 66.683231 28.610636 387.926099 1469.422543 8.659597 0.000000 0.124197
35.000000 103.660000 1.000000 4.000000 0.000000 61.207490 11.955173 747.106555 1545.628989 9.652610 0.000000 0.056659
36.000000 63.067000 3.000000 4.000000 0.000000 44.478262 -12.258845 1208.860393 2062.652058 15.868870 0.000000 0.203524
38.000000 91.803000 -1.000000 5.000000 0.000000 67.738933 42.518950 -11.897069 1538.739655 10.896631 0.000000 0.225264
39.000000 85.587000 1.000000 5.000000 0.000000 62.605298 15.102553 684.542065 1518.725766 11.690571 0.000000 0.071689
40.000000 73.575000 2.000000 5.000000 0.000000 56.444475 3.278612 913.344365 1656.054953 13.600825 0.000000 0.025420
41.000000 60.006000 3.000000 5.000000 0.000000 49.535805 -6.372521 1095.203087 1864.787399 16.677813 0.000000 0.114449
42.000000 47.513000 4.000000 5.000000 0.000000 42.866996 -13.993531 1243.221239 2136.034346 21.064046 0.000000 0.234933
43.000000 77.020000 -1.000000 6.000000 0.000000 67.780559 40.241340 64.128867 1516.967876 12.988223 0.000000 0.199155
44.000000 72.650000 1.000000 6.000000 0.000000 63.465129 17.262705 640.540052 1503.790010 13.772116 0.000000 0.081063
46.000000 63.844000 -2.000000 7.000000 0.000000 67.267671 48.211787 -229.268156 1617.697973 15.668093 0.000000 0.319137
47.000000 66.248000 -1.000000 7.000000 0.000000 67.758545 38.598177 115.861627 1504.165104 15.100248 0.000000 0.183436
48.000000 63.013000 1.000000 7.000000 0.000000 64.039866 18.833048 607.906653 1494.658161 15.878088 0.000000 0.087446
49.000000 57.757000 2.000000 7.000000 0.000000 60.140462 9.781316 789.453117 1568.000154 17.324524 0.000000 0.045456
50.000000 51.181000 3.000000 7.000000 0.000000 55.474458 1.765285 941.828833 1681.774773 19.552221 0.000000 0.032367
52.000000 58.076000 -1.000000 8.000000 0.000000 67.713066 37.358649 153.341047 1495.987997 17.225209 0.000000 0.173061
53.000000 55.587000 1.000000 8.000000 0.000000 64.447864 20.024482 582.740028 1488.677849 17.999121 0.000000 0.092086
54.000000 47.020000 3.000000 8.000000 0.000000 57.281459 4.640046 887.646239 1634.734234 21.281484 0.000000 0.024098
56.000000 50.713000 -2.000000 9.000000 0.000000 67.665677 44.019644 -65.078672 1555.897599 19.725192 0.000000 0.245651
57.000000 51.675000 -1.000000 9.000000 0.000000 67.660301 36.391133 181.744488 1490.440718 19.358876 0.000000 0.165747
58.000000 49.702000 1.000000 9.000000 0.000000 64.750916 20.958637 562.740576 1484.554476 20.130096 0.000000 0.095626
59.000000 46.912000 2.000000 9.000000 0.000000 61.999056 13.689338 712.839911 1530.031057 21.328505 0.000000 0.065144
60.000000 46.532000 -1.000000 10.000000 0.000000 67.607048 35.615354 204.012637 1486.500324 21.498681 0.000000 0.160330
63.000000 145.663000 2.000000 2.000000 1.000000 65.849112 -32.505057 1660.808647 1513.242570 6.868104 0.000000 0.150159
66.000000 199.687000 -1.000000 3.000000 1.000000 102.028319 49.978815 -306.714807 584.383810 5.006483 0.000000 0.248698
67.000000 173.961000 1.000000 3.000000 1.000000 88.449676 -3.587683 1042.482416 970.186968 5.749017 0.000000 0.161257
68.000000 127.728000 2.000000 3.000000 1.000000 71.645144 -18.962771 1344.815747 1318.585415 7.832198 0.000000 0.106195
69.000000 88.861000 3.000000 3.000000 1.000000 57.062177 -28.245495 1553.204728 1732.545206 11.260147 0.000000 0.160717
71.000000 146.854000 -1.000000 4.000000 1.000000 94.627258 43.854559 -59.098285 820.195865 6.808642 0.000000 0.131431
72.000000 148.350000 0.000000 4.000000 1.000000 93.306132 23.164578 514.487102 873.373556 6.740623 0.000000 0.128469
73.000000 132.813000 1.000000 4.000000 1.000000 85.207482 4.525763 889.806829 1031.519664 7.530627 0.000000 0.155055
74.000000 107.951000 2.000000 4.000000 1.000000 73.749110 -9.468991 1154.511130 1259.062987 9.266968 0.000000 0.112870
75.000000 83.030000 3.000000 4.000000 1.000000 62.282064 -19.267172 1351.220740 1540.049662 12.050516 0.000000 0.089025
76.000000 62.553000 4.000000 4.000000 1.000000 52.312401 -26.137827 1503.152528 1867.198617 15.997000 0.000000 0.181080
79.000000 114.673000 -1.000000 5.000000 1.000000 89.643635 40.419327 58.375582 949.793112 8.720263 0.000000 0.112275
80.000000 114.754000 0.000000 5.000000 1.000000 88.176105 24.405411 486.648692 978.636232 8.714890 0.000000 0.126758
81.000000 106.018000 1.000000 5.000000 1.000000 82.540128 9.500329 794.883754 1083.889822 9.434351 0.000000 0.145569
82.000000 91.434000 2.000000 5.000000 1.000000 74.306391 -2.784337 1027.344637 1243.760566 10.941028 0.000000 0.116364
83.000000 75.201000 3.000000 5.000000 1.000000 65.339820 -12.261592 1208.914433 1446.669340 13.304673 0.000000 0.073309
84.000000 60.266000 4.000000 5.000000 1.000000 56.854027 -19.429980 1354.656180 1686.304710 16.603528 0.000000 0.104409
85.000000 47.822000 5.000000 5.000000 1.000000 49.359428 -24.883486 1474.222157 1959.357484 20.925661 0.000000 0.201737
86.000000 88.958000 -2.000000 6.000000 1.000000 84.699723 50.691922 -339.596439 1098.619003 11.241554 0.000000 0.284021
87.000000 93.477000 -1.000000 6.000000 1.000000 86.118634 38.235615 126.956084 1033.966632 10.698295 0.000000 0.113376
88.000000 93.119000 0.000000 6.000000 1.000000 84.686080 25.186290 468.848884 1051.625867 10.740315 0.000000 0.124514
89.000000 87.665000 1.000000 6.000000 1.000000 80.453203 12.815984 730.156164 1126.638419 11.409851 0.000000 0.137164
90.000000 78.441000 2.000000 6.000000 1.000000 74.240391 2.055790 936.365645 1244.936865 12.753305 0.000000 0.116341
91.000000 67.502000 3.000000 6.000000 1.000000 67.129943 -6.794826 1103.241751 1398.193050 14.821769 0.000000 0.075973
92.000000 56.622000 4.000000 6.000000 1.000000 59.989907 -13.885084 1241.058570 1581.363683 17.671637 0.000000 0.065418
93.000000 46.837000 5.000000 6.000000 1.000000 53.325930 -19.531346 1356.798588 1791.421930 21.365302 0.000000 0.129109
95.000000 75.988000 -2.000000 7.000000 1.000000 82.798895 47.411690 -195.940656 1141.950925 13.160813 0.000000 0.222587
96.000000 78.627000 -1.000000 7.000000 1.000000 83.511130 36.728913 171.909765 1093.739159 12.719645 0.000000 0.116829
97.000000 78.146000 0.000000 7.000000 1.000000 82.163664 25.722788 456.487226 1105.423004 12.798742 0.000000 0.122597
98.000000 74.474000 1.000000 7.000000 1.000000 78.813837 15.169462 683.193220 1161.525878 13.431113 0.000000 0.130509
99.000000 68.273000 2.000000 7.000000 1.000000 73.933360 5.674701 868.051508 1252.504196 14.652622 0.000000 0.114851
100.000000 60.627000 3.000000 7.000000 1.000000 68.182971 -2.482892 1021.670041 1372.262979 16.502299 0.000000 0.081015
101.000000 52.599000 4.000000 7.000000 1.000000 62.166995 -9.305227 1151.350780 1516.835628 19.022702 0.000000 0.051396
103.000000 66.100000 -2.000000 8.000000 1.000000 81.213706 44.956522 -99.662049 1176.083938 15.130190 0.000000 0.190562
104.000000 67.711000 -1.000000 8.000000 1.000000 81.510623 35.628037 203.652089 1138.645333 14.770815 0.000000 0.119677
105.000000 67.220000 0.000000 8.000000 1.000000 80.257620 26.114040 447.401797 1146.802162 14.879696 0.000000 0.121127
106.000000 64.604000 1.000000 8.000000 1.000000 77.505300 16.921086 647.564078 1190.297190 15.483340 0.000000 0.125439
107.000000 60.227000 2.000000 8.000000 1.000000 73.545615 8.462290 814.870872 1262.379942 16.610293 0.000000 0.112966
108.000000 54.697000 3.000000 8.000000 1.000000 68.801725 0.968870 956.798167 1358.489451 18.291342 0.000000 0.085074
109.000000 48.666000 4.000000 8.000000 1.000000 63.696002 -5.504134 1078.713724 1475.495627 20.559737 0.000000 0.051676
111.000000 56.081000 -3.000000 9.000000 1.000000 78.755814 50.891619 -348.984060 1280.217396 17.833477 0.000000 0.312495
112.000000 58.365000 -2.000000 9.000000 1.000000 79.887567 43.056338 -30.641056 1203.710718 17.135765 0.000000 0.172708
113.000000 59.381000 -1.000000 9.000000 1.000000 79.930033 34.789054 227.260893 1173.734583 16.843388 0.000000 0.121703
114.000000 58.918000 0.000000 9.000000 1.000000 78.767581 26.411972 440.442541 1179.656145 16.976713 0.000000 0.120047
115.000000 56.973000 1.000000 9.000000 1.000000 76.442165 18.273222 619.607647 1214.328061 17.557492 0.000000 0.121637
116.000000 53.758000 2.000000 9.000000 1.000000 73.145215 10.665848 772.296454 1272.808216 18.608989 0.000000 0.111151
117.000000 49.636000 3.000000 9.000000 1.000000 69.159458 3.775546 903.974001 1351.608704 20.156106 0.000000 0.087967
119.000000 50.569000 -3.000000 10.000000 1.000000 77.994510 48.659147 -248.359765 1287.507677 19.777962 0.000000 0.266915
120.000000 52.178000 -2.000000 10.000000 1.000000 78.769157 41.545145 21.262368 1226.548683 19.168338 0.000000 0.162115
121.000000 52.832000 -1.000000 10.000000 1.000000 78.651032 34.128706 245.507294 1201.965156 18.931841 0.000000 0.123098
122.000000 52.409000 0.000000 10.000000 1.000000 77.571221 26.646402 434.941290 1206.392420 19.085583 0.000000 0.119273
123.000000 50.913000 1.000000 10.000000 1.000000 75.563918 19.347439 597.086385 1234.651385 19.647738 0.000000 0.118808
124.000000 48.474000 2.000000 10.000000 1.000000 72.760568 12.446623 737.443045 1283.019010 20.637625 0.000000 0.109582
125.000000 45.971000 -3.000000 11.000000 1.000000 77.296318 46.819380 -171.914174 1295.560717 21.756416 0.000000 0.236585
126.000000 47.131000 -2.000000 11.000000 1.000000 77.816959 40.316175 61.713576 1245.752759 21.221582 0.000000 0.155438
127.000000 47.556000 -1.000000 11.000000 1.000000 77.595509 33.595562 260.031957 1225.198419 21.032402 0.000000 0.124052
128.000000 47.175000 0.000000 11.000000 1.000000 76.589752 26.835672 430.483299 1228.584330 21.203453 0.000000 0.118731
129.000000 45.992000 1.000000 11.000000 1.000000 74.827518 20.220867 578.555694 1252.037804 21.750145 0.000000 0.116715
132.000000 156.471000 2.000000 2.000000 2.000000 86.099175 -45.216981 2059.477232 1045.184357 6.391092 0.000000 0.182970
135.000000 180.790000 1.000000 3.000000 2.000000 110.771638 -17.079658 1305.693110 513.928729 5.529379 0.000000 0.114626
136.000000 139.117000 2.000000 3.000000 2.000000 90.601112 -29.817713 1591.841491 927.984688 7.188177 0.000000 0.106061
137.000000 102.058000 3.000000 3.000000 2.000000 73.615520 -36.784812 1779.726099 1336.127694 9.801037 0.000000 0.150628
138.000000 74.305000 4.000000 3.000000 2.000000 60.374530 -41.058688 1912.545579 1752.701683 13.464227 0.000000 0.264659
140.000000 160.863000 -1.000000 4.000000 2.000000 119.302260 40.813989 45.509036 142.882047 6.213170 0.000000 0.132458
141.000000 160.012000 0.000000 4.000000 2.000000 116.414075 15.417510 678.185264 386.436889 6.246751 0.000000 0.099845
142.000000 143.677000 1.000000 4.000000 2.000000 105.331519 -4.847976 1066.286602 644.863270 6.958448 0.000000 0.156698
143.000000 119.014000 2.000000 4.000000 2.000000 91.149898 -18.190040 1328.660246 918.260012 8.402593 0.000000 0.142669
144.000000 94.013000 3.000000 4.000000 2.000000 77.539906 -26.766466 1517.884932 1207.363293 10.639479 0.000000 0.117908
145.000000 56.313000 5.000000 4.000000 2.000000 56.217023 -36.539779 1772.572848 1837.208696 17.767668 0.000000 0.241816
147.000000 127.271000 -1.000000 5.000000 2.000000 110.168397 37.548737 147.674840 442.377727 7.854297 0.000000 0.045485
148.000000 126.223000 0.000000 5.000000 2.000000 107.744218 18.863813 607.261393 577.047241 7.920169 0.000000 0.118340
149.000000 116.564000 1.000000 5.000000 2.000000 100.264208 2.609802 925.941255 745.896297 8.577897 0.000000 0.165606
150.000000 101.338000 2.000000 5.000000 2.000000 90.060461 -9.748012 1159.902730 939.847604 9.868623 0.000000 0.158073
151.000000 84.499000 3.000000 5.000000 2.000000 79.359215 -18.683724 1338.964774 1154.465426 11.837394 0.000000 0.126904
152.000000 68.834000 4.000000 5.000000 2.000000 69.415945 -25.154483 1480.421678 1387.560143 14.533637 0.000000 0.111708
153.000000 55.548000 5.000000 5.000000 2.000000 60.695349 -29.943881 1594.994004 1638.164232 18.011701 0.000000 0.153426
154.000000 104.023000 -1.000000 6.000000 2.000000 103.599410 35.655009 202.884937 620.559427 9.610789 0.000000 0.048293
155.000000 103.032000 0.000000 6.000000 2.000000 101.521982 20.891249 564.191519 706.156545 9.703969 0.000000 0.125713
156.000000 96.873000 1.000000 6.000000 2.000000 96.073752 7.478561 833.712863 825.493460 10.322304 0.000000 0.164075
157.000000 75.400000 3.000000 6.000000 2.000000 79.986585 -12.263929 1208.960403 1135.477636 13.266093 0.000000 0.135040
158.000000 53.405000 5.000000 6.000000 2.000000 63.938737 -24.159253 1457.786085 1517.898883 18.734164 0.000000 0.109670
160.000000 84.875000 -2.000000 7.000000 2.000000 97.943716 46.421090 -156.053692 723.135874 11.779754 0.000000 0.167996
161.000000 87.335000 -1.000000 7.000000 2.000000 98.694184 34.421163 237.461846 741.480777 11.448312 0.000000 0.069739
162.000000 86.462000 0.000000 7.000000 2.000000 96.882306 22.223372 535.260193 800.666855 11.564717 0.000000 0.128185
163.000000 82.284000 1.000000 7.000000 2.000000 92.685747 10.862058 768.477453 889.590512 12.153141 0.000000 0.159228
164.000000 75.542000 2.000000 7.000000 2.000000 86.775922 1.007817 956.066325 1001.637293 13.239530 0.000000 0.159190
165.000000 67.350000 3.000000 7.000000 2.000000 79.978364 -7.161046 1110.224234 1132.694094 14.851764 0.000000 0.138571
166.000000 58.778000 4.000000 7.000000 2.000000 72.985034 -13.789636 1239.156801 1280.138468 17.019847 0.000000 0.109312
167.000000 50.591000 5.000000 7.000000 2.000000 66.250453 -19.142153 1348.587318 1442.287904 19.776107 0.000000 0.092452
169.000000 74.928000 -1.000000 8.000000 2.000000 94.909683 33.554206 261.151103 830.058935 13.344927 0.000000 0.084986
170.000000 71.198000 1.000000 8.000000 2.000000 89.936691 13.334142 719.897519 942.222206 14.046245 0.000000 0.153609
171.000000 60.443000 3.000000 8.000000 2.000000 79.647653 -3.067963 1032.686465 1137.894003 16.549040 0.000000 0.138998
172.000000 47.547000 5.000000 8.000000 2.000000 67.881992 -14.812254 1259.615483 1393.467974 21.041974 0.000000 0.088697
174.000000 62.144000 -3.000000 9.000000 2.000000 90.578972 50.474868 -329.483151 923.910125 16.090461 0.000000 0.263346
175.000000 64.477000 -2.000000 9.000000 2.000000 91.905651 41.922774 8.523889 892.870418 15.508239 0.000000 0.116751
176.000000 65.417000 -1.000000 9.000000 2.000000 91.909259 32.911944 278.395690 898.262420 15.285959 0.000000 0.095136
177.000000 64.771000 0.000000 9.000000 2.000000 90.472746 23.864577 498.847894 931.289083 15.439501 0.000000 0.127800
178.000000 62.562000 1.000000 9.000000 2.000000 87.680875 15.212924 682.316596 986.171208 15.985690 0.000000 0.148169
179.000000 59.035000 2.000000 9.000000 2.000000 83.794283 7.286137 837.388200 1058.984334 16.942375 0.000000 0.150298
180.000000 54.576000 3.000000 9.000000 2.000000 79.165018 0.256479 970.182044 1146.997297 18.328499 0.000000 0.137700
181.000000 49.612000 4.000000 9.000000 2.000000 74.144855 -5.844841 1085.177074 1248.277170 20.164191 0.000000 0.115214
182.000000 55.696000 -3.000000 10.000000 2.000000 88.745607 48.111915 -225.051521 976.297549 17.954096 0.000000 0.215631
183.000000 57.934000 -1.000000 10.000000 2.000000 89.476098 32.417160 291.510619 952.658485 17.261221 0.000000 0.102005
184.000000 55.685000 1.000000 10.000000 2.000000 85.805613 16.686184 652.379115 1023.401897 17.960556 0.000000 0.143248
185.000000 49.593000 3.000000 10.000000 2.000000 78.622037 2.993021 918.725260 1157.884093 20.170226 0.000000 0.135538
188.000000 50.354000 -3.000000 11.000000 2.000000 87.141412 46.195178 -147.160224 1018.640161 19.859485 0.000000 0.186364
189.000000 51.533000 -2.000000 11.000000 2.000000 87.739817 39.217504 96.648155 995.829602 19.405450 0.000000 0.112052
190.000000 51.915000 -1.000000 11.000000 2.000000 87.465345 32.024343 301.820691 997.196012 19.263419 0.000000 0.106767
191.000000 51.432000 0.000000 11.000000 2.000000 86.278798 24.835754 476.866959 1018.134535 19.445175 0.000000 0.125619
192.000000 50.101000 1.000000 11.000000 2.000000 84.226782 17.870974 627.968463 1055.334362 19.963103 0.000000 0.138931
193.000000 48.018000 2.000000 11.000000 2.000000 81.432240 11.310819 759.723823 1106.366599 20.830229 0.000000 0.141154
194.000000 45.876000 -3.000000 12.000000 2.000000 85.734299 44.612470 -86.832474 1053.771572 21.798510 0.000000 0.168126
195.000000 46.981000 -1.000000 12.000000 2.000000 85.776990 31.704945 310.138783 1034.413126 21.287195 0.000000 0.110149
196.000000 45.488000 1.000000 12.000000 2.000000 82.881816 18.843689 607.683494 1083.018138 21.987693 0.000000 0.135207
202.000000 166.777000 1.000000 3.000000 3.000000 124.508620 -32.824312 1669.270877 60.454100 5.992446 0.000000 0.065995
203.000000 134.737000 2.000000 3.000000 3.000000 103.572260 -41.002710 1910.697714 596.705772 7.419856 0.000000 0.088127
204.000000 79.693000 4.000000 3.000000 3.000000 72.166110 -47.760742 2160.354058 1456.097051 12.551119 0.000000 0.292713
207.000000 155.290000 0.000000 4.000000 3.000000 134.209732 4.082693 898.177048 -108.669933 6.434924 0.000000 0.031662
208.000000 140.561000 1.000000 4.000000 3.000000 120.268954 -16.320587 1290.150311 286.471892 7.110709 0.000000 0.077850
209.000000 119.238000 2.000000 4.000000 3.000000 104.391062 -27.745580 1541.159804 628.955831 8.384504 0.000000 0.082634
210.000000 97.121000 3.000000 4.000000 3.000000 89.695420 -34.534009 1715.657564 947.945414 10.296408 0.000000 0.098071
211.000000 77.594000 4.000000 4.000000 3.000000 77.109518 -38.917408 1844.000035 1257.580419 12.890185 0.000000 0.152257
212.000000 61.699000 5.000000 4.000000 3.000000 66.647966 -41.948830 1942.360619 1565.792833 16.213698 0.000000 0.234071
213.000000 49.237000 6.000000 4.000000 3.000000 58.023692 -44.158824 2020.146544 1877.595932 20.319393 0.000000 0.331202
214.000000 129.791000 -1.000000 5.000000 3.000000 128.171595 33.413978 264.937894 -72.636839 7.699702 0.000000 0.099741
215.000000 127.673000 0.000000 5.000000 3.000000 124.218936 11.401448 757.952690 194.295733 7.828010 0.000000 0.074821
216.000000 118.198000 1.000000 5.000000 3.000000 114.790191 -5.790874 1084.152785 441.356024 8.456929 0.000000 0.128517
217.000000 103.976000 2.000000 5.000000 3.000000 102.983720 -17.577312 1315.951630 680.686018 9.615647 0.000000 0.133918
218.000000 88.218000 3.000000 5.000000 3.000000 91.079121 -25.533915 1489.148282 918.532010 11.335668 0.000000 0.120138
219.000000 73.268000 4.000000 5.000000 3.000000 80.176525 -31.069150 1623.472067 1158.574618 13.651042 0.000000 0.117145
220.000000 60.266000 5.000000 5.000000 3.000000 70.633844 -35.073529 1730.689653 1403.245261 16.598630 0.000000 0.150126
221.000000 49.482000 6.000000 5.000000 3.000000 62.448781 -38.077955 1818.253990 1654.321251 20.218401 0.000000 0.214508
223.000000 108.307000 -1.000000 6.000000 3.000000 119.458593 32.227842 296.490688 222.372382 9.228222 0.000000 0.024801
224.000000 100.331000 1.000000 6.000000 3.000000 109.628342 1.078540 954.737371 557.080815 9.963946 0.000000 0.148903
225.000000 90.621000 2.000000 6.000000 3.000000 100.710377 -9.976880 1164.331936 734.304484 11.033399 0.000000 0.156895
226.000000 68.027000 4.000000 6.000000 3.000000 81.894272 -24.299641 1460.957375 1109.189767 14.702664 0.000000 0.123029
227.000000 57.625000 5.000000 6.000000 3.000000 73.408069 -28.924908 1569.756990 1307.398893 17.358984 0.000000 0.119966
228.000000 90.005000 -2.000000 7.000000 3.000000 112.210563 45.163628 -107.459353 317.728547 11.105724 0.000000 0.171130
229.000000 91.984000 -1.000000 7.000000 3.000000 112.781138 31.511101 315.159149 410.800648 10.867101 0.000000 0.021591
230.000000 90.698000 0.000000 7.000000 3.000000 110.305621 17.931633 626.710087 522.413609 11.021909 0.000000 0.113890
231.000000 86.272000 1.000000 7.000000 3.000000 105.159799 5.788491 865.892440 647.893527 11.588624 0.000000 0.156425
232.000000 79.440000 2.000000 7.000000 3.000000 98.244658 -4.266682 1055.297586 784.613791 12.586900 0.000000 0.165877
233.000000 71.241000 3.000000 7.000000 3.000000 90.518212 -12.265941 1208.999983 931.037760 14.037661 0.000000 0.154805
234.000000 62.656000 4.000000 7.000000 3.000000 82.708823 -18.552743 1336.225056 1086.256849 15.963204 0.000000 0.133724
235.000000 54.402000 5.000000 7.000000 3.000000 75.262480 -23.512794 1443.271873 1249.749093 18.387318 0.000000 0.115844
236.000000 46.890000 6.000000 7.000000 3.000000 68.401841 -27.470878 1534.588211 1421.244858 21.335407 0.000000 0.119077
238.000000 78.184000 -2.000000 8.000000 3.000000 107.412327 42.504472 -11.396543 483.141568 12.785913 0.000000 0.107187
239.000000 79.404000 -1.000000 8.000000 3.000000 107.535933 31.031286 327.497017 544.101746 12.589923 0.000000 0.050835
240.000000 78.370000 0.000000 8.000000 3.000000 105.450174 19.647542 590.742242 625.134851 12.756734 0.000000 0.121618
241.000000 75.165000 1.000000 8.000000 3.000000 101.383112 9.176807 801.125438 721.501753 13.301988 0.000000 0.158030
242.000000 70.211000 2.000000 8.000000 3.000000 95.874365 0.100266 973.116523 830.262299 14.242237 0.000000 0.168022
243.000000 64.128000 3.000000 8.000000 3.000000 89.549896 -7.481634 1116.345858 949.527919 15.595012 0.000000 0.160039
244.000000 57.552000 4.000000 8.000000 3.000000 82.947247 -13.704982 1237.471406 1078.060642 17.378899 0.000000 0.141215
245.000000 51.001000 5.000000 8.000000 3.000000 76.447638 -18.792505 1341.243362 1215.044868 19.613618 0.000000 0.119703
247.000000 68.772000 -2.000000 9.000000 3.000000 103.459088 40.570616 53.461294 601.899123 14.536821 0.000000 0.077690
248.000000 69.534000 -1.000000 9.000000 3.000000 103.324043 30.687626 336.257579 644.589280 14.378078 0.000000 0.070146
249.000000 66.290000 1.000000 9.000000 3.000000 98.201212 11.714997 751.816357 782.580458 15.083856 0.000000 0.156826
250.000000 62.594000 2.000000 9.000000 3.000000 93.703829 3.511396 908.956150 871.195891 15.975921 0.000000 0.166782
251.000000 52.885000 4.000000 9.000000 3.000000 82.831604 -9.615746 1157.345823 1078.293421 18.912975 0.000000 0.145301
252.000000 47.656000 5.000000 9.000000 3.000000 77.158950 -14.692181 1257.203530 1194.632281 20.990304 0.000000 0.124328
254.000000 59.607000 -3.000000 10.000000 3.000000 99.210372 47.472712 -198.446611 682.809550 16.772862 0.000000 0.188379
255.000000 61.172000 -2.000000 10.000000 3.000000 100.165097 39.104002 100.194547 692.316343 16.344025 0.000000 0.070383
256.000000 61.649000 -1.000000 10.000000 3.000000 99.876528 30.429385 342.799674 723.675297 16.218081 0.000000 0.083271
257.000000 60.946000 0.000000 10.000000 3.000000 98.290234 21.833281 543.787638 772.054530 16.406110 0.000000 0.127695
258.000000 59.100000 1.000000 10.000000 3.000000 95.507882 13.680228 713.021184 834.184950 16.919738 0.000000 0.154322
259.000000 56.273000 2.000000 10.000000 3.000000 91.756900 6.231685 857.474758 907.790262 17.771173 0.000000 0.163901
260.000000 52.713000 3.000000 10.000000 3.000000 87.326955 -0.384329 982.219678 991.250428 18.973242 0.000000 0.160216
261.000000 48.698000 4.000000 10.000000 3.000000 82.506433 -6.153109 1091.031814 1083.394227 20.539428 0.000000 0.146918
264.000000 53.818000 -3.000000 11.000000 3.000000 96.762186 45.477296 -119.377242 758.995668 18.578090 0.000000 0.152317
265.000000 54.946000 -2.000000 11.000000 3.000000 97.388164 37.954934 135.469206 764.004349 18.196771 0.000000 0.073805
266.000000 55.242000 -1.000000 11.000000 3.000000 97.007638 30.228244 347.871282 787.882086 18.099917 0.000000 0.092425
267.000000 54.649000 0.000000 11.000000 3.000000 95.590982 22.571159 527.617446 826.899771 18.297254 0.000000 0.128443
268.000000 53.194000 1.000000 11.000000 3.000000 93.210841 15.243427 681.701153 878.419787 18.798961 0.000000 0.151282
269.000000 50.983000 2.000000 11.000000 3.000000 90.024547 8.442440 815.251989 940.533839 19.615687 0.000000 0.160293
270.000000 48.180000 3.000000 11.000000 3.000000 86.237469 2.281596 932.117827 1011.836621 20.758588 0.000000 0.157946
272.000000 47.557000 -4.000000 12.000000 3.000000 93.485031 50.359112 -324.127569 838.257920 21.024865 0.000000 0.256196
273.000000 49.778000 -2.000000 12.000000 3.000000 95.020971 37.031046 163.039359 822.549020 20.086884 0.000000 0.080329
274.000000 49.956000 -1.000000 12.000000 3.000000 94.585910 30.067154 351.918100 841.246912 20.015995 0.000000 0.098954
275.000000 48.279000 1.000000 12.000000 3.000000 91.235309 16.514754 655.885627 916.792640 20.713490 0.000000 0.148103
276.000000 46.516000 2.000000 12.000000 3.000000 88.485990 10.269486 779.996246 969.910248 21.500230 0.000000 0.156449
277.000000 45.535000 -1.000000 13.000000 3.000000 92.516140 29.935237 355.222236 886.423094 21.960457 0.000000 0.103697
283.000000 130.464000 1.000000 4.000000 4.000000 130.083516 -29.479940 1583.440661 -99.511961 7.659764 0.000000 0.076068
284.000000 113.292000 2.000000 4.000000 4.000000 113.674736 -37.679684 1806.245326 344.752586 8.822867 0.000000 0.060269
285.000000 95.038000 3.000000 4.000000 4.000000 98.854057 -42.293955 1954.144899 714.342404 10.520076 0.000000 0.109242
286.000000 63.941000 5.000000 4.000000 4.000000 75.347145 -47.224942 2138.307484 1355.379478 15.642394 0.000000 0.264373
288.000000 122.528000 0.000000 5.000000 4.000000 137.072021 1.246711 951.576982 -216.370933 8.155200 0.000000 0.017102
289.000000 113.956000 1.000000 5.000000 4.000000 125.794450 -15.769052 1278.932775 134.560121 8.770083 0.000000 0.052051
290.000000 101.578000 2.000000 5.000000 4.000000 112.919008 -26.103071 1502.342662 434.247970 9.840723 0.000000 0.059514
291.000000 87.776000 3.000000 5.000000 4.000000 100.399640 -32.645826 1664.532450 706.409732 11.390394 0.000000 0.069884
292.000000 74.383000 4.000000 5.000000 4.000000 89.044505 -37.053872 1787.633674 963.492432 13.443978 0.000000 0.102308
293.000000 62.401000 5.000000 5.000000 4.000000 79.083392 -40.191250 1884.257473 1212.745846 16.028115 0.000000 0.154399
294.000000 52.177000 6.000000 5.000000 4.000000 70.479127 -42.525303 1962.116781 1458.758520 19.171355 0.000000 0.219283
296.000000 107.516000 -1.000000 6.000000 4.000000 133.250533 27.498203 414.759569 -200.450449 9.294284 0.000000 0.084817
297.000000 105.422000 0.000000 6.000000 4.000000 128.917638 8.356774 816.896306 62.666893 9.479578 0.000000 0.056025
298.000000 99.336000 1.000000 6.000000 4.000000 120.758798 -6.522502 1098.056442 296.275309 10.061674 0.000000 0.101748
299.000000 80.050000 3.000000 6.000000 4.000000 100.442664 -24.491871 1465.311162 723.020724 12.490141 0.000000 0.110781
300.000000 59.749000 5.000000 6.000000 4.000000 81.621348 -33.766534 1694.606182 1131.691456 16.739244 0.000000 0.116943
302.000000 93.015000 -1.000000 7.000000 4.000000 125.416415 27.750524 408.721608 76.185208 10.744413 0.000000 0.031788
303.000000 91.399000 0.000000 7.000000 4.000000 122.080481 12.612923 734.164834 249.669195 10.935180 0.000000 0.082461
304.000000 86.984000 1.000000 7.000000 4.000000 115.925370 -0.171656 978.224547 417.788174 11.491497 0.000000 0.127837
305.000000 80.435000 2.000000 7.000000 4.000000 108.092583 -10.167996 1168.035314 583.756274 12.428772 0.000000 0.142614
306.000000 72.647000 3.000000 7.000000 4.000000 99.613129 -17.766944 1319.875453 749.574856 13.763292 0.000000 0.138963
307.000000 64.466000 4.000000 7.000000 4.000000 91.191113 -23.549972 1444.102690 916.588697 15.512283 0.000000 0.126813
308.000000 56.525000 5.000000 7.000000 4.000000 83.228238 -28.014346 1547.621536 1085.764412 17.693985 0.000000 0.117259
309.000000 49.207000 6.000000 7.000000 4.000000 75.913463 -31.525446 1635.211671 1257.840754 20.327723 0.000000 0.122924
311.000000 81.281000 -1.000000 8.000000 4.000000 119.111874 27.909550 404.901802 262.762717 12.296758 0.000000 0.018944
312.000000 76.724000 1.000000 8.000000 4.000000 111.591904 4.357015 892.995872 513.806290 13.029140 0.000000 0.141404
313.000000 65.910000 3.000000 8.000000 4.000000 98.333740 -12.267692 1209.034421 779.654044 15.170690 0.000000 0.154801
314.000000 53.098000 5.000000 8.000000 4.000000 84.147611 -22.932362 1430.361057 1060.787727 18.835839 0.000000 0.127351
316.000000 71.229000 -2.000000 9.000000 4.000000 114.338698 38.931941 105.548879 315.154355 14.032918 0.000000 0.076249
317.000000 71.753000 -1.000000 9.000000 4.000000 113.957980 28.018949 402.267512 399.251296 13.930856 0.000000 0.042452
318.000000 70.727000 0.000000 9.000000 4.000000 111.700021 17.396218 637.787840 492.160135 14.133735 0.000000 0.111112
319.000000 68.229000 1.000000 9.000000 4.000000 107.801224 7.710777 829.273150 592.261044 14.652501 0.000000 0.148183
320.000000 64.510000 2.000000 9.000000 4.000000 102.695086 -0.692939 988.017410 698.525862 15.498624 0.000000 0.163264
321.000000 59.933000 3.000000 9.000000 4.000000 96.861613 -7.764600 1121.756580 810.287234 16.684141 0.000000 0.163013
322.000000 54.882000 4.000000 9.000000 4.000000 90.718616 -13.629389 1235.967446 927.109020 18.221685 0.000000 0.152560
323.000000 49.698000 5.000000 9.000000 4.000000 84.577954 -18.476690 1334.636199 1048.709765 20.124523 0.000000 0.136758
324.000000 62.232000 -3.000000 10.000000 4.000000 109.231277 46.716437 -167.792399 393.364353 16.062827 0.000000 0.191128
325.000000 63.952000 -1.000000 10.000000 4.000000 109.682274 28.098815 400.340971 504.567011 15.631364 0.000000 0.061490
326.000000 61.167000 1.000000 10.000000 4.000000 104.509428 10.278140 779.828342 657.919887 16.345132 0.000000 0.151125
327.000000 54.694000 3.000000 10.000000 4.000000 95.343319 -4.052349 1051.250068 840.082088 18.282832 0.000000 0.166632
328.000000 46.453000 5.000000 10.000000 4.000000 84.670456 -14.583027 1255.013208 1044.746917 21.530544 0.000000 0.143480
330.000000 56.296000 -3.000000 11.000000 4.000000 106.032558 44.643223 -87.973021 506.304158 17.757500 0.000000 0.140769
331.000000 57.317000 -2.000000 11.000000 4.000000 106.630335 36.490389 178.863487 541.130370 17.441287 0.000000 0.039471
332.000000 57.500000 -1.000000 11.000000 4.000000 106.087322 28.159686 398.870734 588.928964 17.386553 0.000000 0.075468
333.000000 56.800000 0.000000 11.000000 4.000000 104.391598 19.994313 583.381903 647.109010 17.601467 0.000000 0.122908
334.000000 55.256000 1.000000 11.000000 4.000000 101.650107 12.299173 740.346165 713.874593 18.094543 0.000000 0.151843
335.000000 52.976000 2.000000 11.000000 4.000000 98.059354 5.281590 875.503996 787.949753 18.874654 0.000000 0.165532
336.000000 50.123000 3.000000 11.000000 4.000000 93.857855 -0.963688 993.104465 868.410677 19.951059 0.000000 0.167477
337.000000 46.879000 4.000000 11.000000 4.000000 89.281701 -6.433345 1096.360042 954.579370 21.333417 0.000000 0.160635
339.000000 51.259000 -3.000000 12.000000 4.000000 103.239029 42.986972 -28.203221 594.843996 19.503463 0.000000 0.109849
340.000000 52.106000 -1.000000 12.000000 4.000000 103.028202 28.207616 397.711851 658.398204 19.187303 0.000000 0.085750
341.000000 50.268000 1.000000 12.000000 4.000000 99.157361 13.927734 708.091148 762.244855 19.891073 0.000000 0.151268
342.000000 46.134000 3.000000 12.000000 4.000000 92.444810 1.632193 944.331153 895.027995 21.676755 0.000000 0.166648
343.000000 45.919000 -4.000000 13.000000 4.000000 99.877887 48.044662 -222.221327 660.669298 21.772314 0.000000 0.200711
344.000000 46.954000 -3.000000 13.000000 4.000000 100.787953 41.635490 18.228381 666.604441 21.292759 0.000000 0.092697
345.000000 47.514000 -2.000000 13.000000 4.000000 100.978996 34.979116 221.955125 686.166098 21.042016 0.000000 0.059625
346.000000 47.551000 -1.000000 13.000000 4.000000 100.396962 28.246337 396.774889 716.827819 21.026413 0.000000 0.093389
347.000000 47.047000 0.000000 13.000000 4.000000 99.042764 21.619896 548.432557 756.745619 21.252516 0.000000 0.127343
348.000000 46.022000 1.000000 13.000000 4.000000 96.973053 15.266014 681.245300 804.546547 21.727138 0.000000 0.149948
354.000000 90.219000 3.000000 4.000000 5.000000 105.475536 -49.772039 2247.362252 479.597115 11.080480 0.000000 0.258498
355.000000 76.281000 4.000000 4.000000 5.000000 93.074011 -51.261786 2316.600154 848.632138 13.107722 0.000000 0.290221
358.000000 106.751000 1.000000 5.000000 5.000000 133.433107 -27.051412 1524.616372 -203.151123 9.360855 0.000000 0.081201
359.000000 96.390000 2.000000 5.000000 5.000000 120.106574 -35.008895 1728.878414 179.067180 10.368977 0.000000 0.059915
360.000000 84.753000 3.000000 5.000000 5.000000 107.510780 -39.809632 1872.041161 498.943781 11.794981 0.000000 0.073884
361.000000 73.207000 4.000000 5.000000 5.000000 96.135086 -42.979820 1977.952171 782.866735 13.657849 0.000000 0.123035
362.000000 53.268000 6.000000 5.000000 5.000000 77.348400 -46.875532 2124.169109 1294.427936 18.776029 0.000000 0.247640
364.000000 101.068000 0.000000 6.000000 5.000000 138.849333 -0.763408 989.341385 -290.688410 9.886671 0.000000 0.008115
365.000000 95.507000 1.000000 6.000000 5.000000 129.392335 -15.350247 1270.455572 24.466271 10.463627 0.000000 0.036450
366.000000 87.609000 2.000000 6.000000 5.000000 118.643168 -24.771155 1471.660399 293.561118 11.408748 0.000000 0.041404
367.000000 78.485000 3.000000 6.000000 5.000000 107.895640 -31.042436 1622.788278 535.363940 12.737213 0.000000 0.048419
368.000000 69.122000 4.000000 6.000000 5.000000 97.785911 -35.420609 1740.465342 760.412369 14.465050 0.000000 0.071781
369.000000 60.208000 5.000000 6.000000 5.000000 88.581123 -38.616142 1834.691010 975.119228 16.609189 0.000000 0.109424
370.000000 52.124000 6.000000 6.000000 5.000000 80.349179 -41.037335 1911.840355 1183.646256 19.187535 0.000000 0.156610
372.000000 91.323000 -1.000000 7.000000 5.000000 136.410993 22.755039 523.561048 -285.084508 10.941853 0.000000 0.074071
373.000000 89.503000 0.000000 7.000000 5.000000 132.021303 5.981465 862.228924 -34.133519 11.165185 0.000000 0.042143
374.000000 85.295000 1.000000 7.000000 5.000000 124.845913 -7.106537 1109.184246 185.875191 11.717184 0.000000 0.079911
375.000000 79.265000 2.000000 7.000000 5.000000 116.238065 -16.667502 1297.238449 387.243178 12.610258 0.000000 0.095043
376.000000 72.142000 3.000000 7.000000 5.000000 107.215030 -23.599891 1445.218964 577.085286 13.857446 0.000000 0.096725
377.000000 64.622000 4.000000 7.000000 5.000000 98.397467 -28.718339 1564.701737 759.830034 15.472460 0.000000 0.094822
378.000000 57.242000 5.000000 7.000000 5.000000 90.116494 -32.595348 1663.195776 938.402566 17.469731 0.000000 0.099551
379.000000 50.347000 6.000000 7.000000 5.000000 82.519163 -35.608233 1745.784980 1114.834753 19.864452 0.000000 0.118295
381.000000 81.016000 -1.000000 8.000000 5.000000 129.465279 23.974273 496.381875 -28.800250 12.335066 0.000000 0.037593
382.000000 79.571000 0.000000 8.000000 5.000000 126.028959 10.296440 779.473257 145.382475 12.559847 0.000000 0.067903
383.000000 76.347000 1.000000 8.000000 5.000000 120.419443 -1.210742 997.747027 308.909738 13.091545 0.000000 0.108088
384.000000 71.703000 2.000000 8.000000 5.000000 113.469785 -10.329986 1171.177768 465.989369 13.940970 0.000000 0.125472
385.000000 66.123000 3.000000 8.000000 5.000000 105.919051 -17.400344 1312.297282 619.301159 15.119445 0.000000 0.127884
386.000000 60.093000 4.000000 8.000000 5.000000 98.296041 -22.887408 1429.365779 770.650110 16.638836 0.000000 0.121983
387.000000 54.020000 5.000000 8.000000 5.000000 90.932124 -27.196162 1528.048982 921.312063 18.511588 0.000000 0.114470
388.000000 48.197000 6.000000 8.000000 5.000000 84.010953 -30.633274 1612.362603 1072.228488 20.750759 0.000000 0.113047
390.000000 72.035000 -2.000000 9.000000 5.000000 124.400215 36.908670 166.640691 19.332009 13.873895 0.000000 0.111926
391.000000 72.306000 -1.000000 9.000000 5.000000 123.662121 24.773905 478.276945 151.576663 13.822169 0.000000 0.024214
392.000000 71.141000 0.000000 9.000000 5.000000 120.860537 13.263147 721.305674 280.232695 14.049231 0.000000 0.086556
393.000000 68.632000 1.000000 9.000000 5.000000 116.349041 3.130441 916.136452 407.118831 14.564183 0.000000 0.125186
394.000000 65.013000 2.000000 9.000000 5.000000 110.657991 -5.351142 1075.813841 533.427585 15.376527 0.000000 0.143040
395.000000 60.607000 3.000000 9.000000 5.000000 104.312583 -12.269229 1209.064657 659.985890 16.496187 0.000000 0.146606
396.000000 55.756000 4.000000 9.000000 5.000000 97.735281 -17.866941 1321.947907 787.396313 17.933535 0.000000 0.140895
397.000000 50.764000 5.000000 9.000000 5.000000 91.224361 -22.408434 1418.801851 916.118204 19.699412 0.000000 0.130507
398.000000 45.866000 6.000000 9.000000 5.000000 84.969654 -26.123317 1502.814368 1046.516675 21.805162 0.000000 0.120682
400.000000 63.626000 -3.000000 10.000000 5.000000 118.689171 45.808035 -132.088275 96.043050 15.708557 0.000000 0.221165
401.000000 64.816000 -2.000000 10.000000 5.000000 119.530562 35.684359 202.049548 190.367174 15.420158 0.000000 0.062498
402.000000 64.958000 -1.000000 10.000000 5.000000 118.767459 25.338542 465.351956 287.198969 15.387009 0.000000 0.038708
403.000000 62.020000 1.000000 10.000000 5.000000 112.695149 6.425400 853.791085 488.038095 16.117845 0.000000 0.135549
404.000000 59.161000 2.000000 10.000000 5.000000 107.961079 -1.391872 1001.151295 591.995946 16.898331 0.000000 0.153079
405.000000 55.647000 3.000000 10.000000 5.000000 102.585848 -8.016190 1126.573440 698.327619 17.967106 0.000000 0.157590
406.000000 51.720000 4.000000 10.000000 5.000000 96.897531 -13.561477 1234.617119 807.066929 19.333312 0.000000 0.152982
408.000000 57.807000 -3.000000 11.000000 5.000000 114.852216 43.662721 -52.190214 251.896868 17.290833 0.000000 0.155267
409.000000 58.683000 -2.000000 11.000000 5.000000 115.362813 34.773655 227.689685 319.866394 17.032893 0.000000 0.028731
410.000000 58.740000 -1.000000 11.000000 5.000000 114.598944 25.758428 455.662096 393.894496 17.016939 0.000000 0.055530
411.000000 57.949000 0.000000 11.000000 5.000000 112.576521 17.048760 644.941984 472.930269 17.249929 0.000000 0.109236
412.000000 56.355000 1.000000 11.000000 5.000000 109.446179 8.995966 804.609403 556.269188 17.739091 0.000000 0.141709
413.000000 54.065000 2.000000 11.000000 5.000000 105.447663 1.803546 941.109414 643.428251 18.491937 0.000000 0.158530
414.000000 51.232000 3.000000 11.000000 5.000000 100.850563 -4.470216 1059.143260 734.071850 19.516274 0.000000 0.163705
415.000000 48.028000 4.000000 11.000000 5.000000 95.907252 -9.867830 1162.220775 827.965855 20.820220 0.000000 0.160308
417.000000 51.563000 -4.000000 12.000000 5.000000 110.248170 49.540124 -286.967170 329.168515 19.386041 0.000000 0.262256
418.000000 52.799000 -3.000000 12.000000 5.000000 111.485287 41.984548 6.425740 371.068651 18.931994 0.000000 0.110615
419.000000 53.449000 -2.000000 12.000000 5.000000 111.767088 34.070072 247.113608 422.175318 18.701934 0.000000 0.018038
420.000000 53.451000 -1.000000 12.000000 5.000000 111.015645 26.082870 448.127838 480.627332 18.701912 0.000000 0.069257
421.000000 52.787000 0.000000 12.000000 5.000000 109.246330 18.324892 618.530898 545.144315 18.938200 0.000000 0.115832
422.000000 51.487000 1.000000 12.000000 5.000000 106.564499 11.049706 764.820415 614.821819 19.417301 0.000000 0.145177
423.000000 49.628000 2.000000 12.000000 5.000000 103.139424 4.421542 891.776589 689.007707 20.145956 0.000000 0.161112
424.000000 47.318000 3.000000 12.000000 5.000000 99.168618 -1.489929 1002.994450 767.224539 21.131162 0.000000 0.166706
426.000000 47.508000 -4.000000 13.000000 5.000000 107.598099 47.512422 -200.080470 435.572067 21.041732 0.000000 0.203038
427.000000 48.471000 -3.000000 13.000000 5.000000 108.520054 40.638057 51.263439 465.876792 20.623544 0.000000 0.081459
428.000000 48.957000 -2.000000 13.000000 5.000000 108.640396 33.510321 262.337507 505.567105 20.419085 0.000000 0.031467
429.000000 48.923000 -1.000000 13.000000 5.000000 107.908439 26.341073 442.101879 552.893731 20.433848 0.000000 0.079985
430.000000 48.358000 0.000000 13.000000 5.000000 106.338221 19.349541 597.042036 606.601436 20.673515 0.000000 0.120428
431.000000 47.285000 1.000000 13.000000 5.000000 104.006040 12.724248 731.967942 665.769927 21.143966 0.000000 0.146894
432.000000 45.757000 2.000000 13.000000 5.000000 101.034766 6.597173 850.522311 729.712694 21.851287 0.000000 0.161870
438.000000 80.390000 3.000000 5.000000 6.000000 112.746815 -46.806322 2121.390463 281.716903 12.433844 0.000000 0.213419
439.000000 70.644000 4.000000 5.000000 6.000000 101.674256 -48.725501 2201.220337 603.882232 14.151718 0.000000 0.225499
440.000000 61.453000 5.000000 5.000000 6.000000 91.823793 -50.079004 2261.275375 887.595491 16.270949 0.000000 0.261716
441.000000 53.171000 6.000000 5.000000 6.000000 83.140901 -51.083776 2308.093515 1147.096528 18.808181 0.000000 0.311448
443.000000 90.196000 1.000000 6.000000 6.000000 135.652668 -25.213907 1481.784769 -276.055022 11.078629 0.000000 0.083438
444.000000 59.465000 5.000000 6.000000 6.000000 94.369408 -43.405077 1992.981560 827.804229 16.814636 0.000000 0.132563
445.000000 45.605000 7.000000 6.000000 6.000000 78.722623 -46.629681 2114.330974 1253.537457 21.930568 0.000000 0.236604
447.000000 85.960000 0.000000 7.000000 6.000000 140.054700 -2.259180 1017.460431 -345.166995 11.624095 0.000000 0.005651
448.000000 82.078000 1.000000 7.000000 6.000000 131.916549 -15.021438 1263.823850 -59.451432 12.175162 0.000000 0.029179
449.000000 76.673000 2.000000 7.000000 6.000000 122.726385 -23.670454 1446.798329 185.795698 13.035039 0.000000 0.029728
450.000000 70.322000 3.000000 7.000000 6.000000 113.382965 -29.665953 1588.060061 405.425784 14.214401 0.000000 0.031511
451.000000 63.578000 4.000000 7.000000 6.000000 104.378997 -33.979644 1700.413438 608.254158 15.724425 0.000000 0.049374
452.000000 56.886000 5.000000 7.000000 6.000000 95.963050 -37.198541 1791.908629 799.863826 17.576812 0.000000 0.079350
453.000000 50.547000 6.000000 7.000000 6.000000 88.239582 -39.678059 1867.860691 983.980454 19.783822 0.000000 0.116456
454.000000 79.182000 -1.000000 8.000000 6.000000 138.506462 18.916281 606.160382 -345.273305 12.619327 0.000000 0.064867
455.000000 74.575000 1.000000 8.000000 6.000000 127.812302 -7.583457 1118.292040 98.400731 13.400877 0.000000 0.062768
456.000000 65.160000 3.000000 8.000000 6.000000 112.305021 -22.828088 1428.053445 461.946566 15.340860 0.000000 0.082187
457.000000 54.000000 5.000000 8.000000 6.000000 96.805184 -31.540691 1635.605852 790.297447 18.516095 0.000000 0.086031
459.000000 71.534000 -1.000000 9.000000 6.000000 132.347565 20.772543 566.744240 -108.188706 13.969557 0.000000 0.039915
460.000000 67.834000 1.000000 9.000000 6.000000 123.775419 -2.087487 1014.230555 220.674244 14.733679 0.000000 0.090944
461.000000 64.401000 2.000000 9.000000 6.000000 117.544549 -10.469035 1173.877765 370.149817 15.520494 0.000000 0.108863
462.000000 55.712000 4.000000 9.000000 6.000000 103.860908 -22.297751 1416.371093 653.959724 17.945274 0.000000 0.112978
463.000000 51.012000 5.000000 9.000000 6.000000 97.082270 -26.457265 1510.618577 791.635239 19.600937 0.000000 0.108462
465.000000 64.869000 -1.000000 10.000000 6.000000 127.048985 22.034808 539.388100 64.486505 15.406038 0.000000 0.028339
466.000000 61.865000 1.000000 10.000000 6.000000 119.993909 2.068633 936.124095 319.348622 16.156241 0.000000 0.109868
467.000000 55.736000 3.000000 10.000000 6.000000 109.010457 -12.270589 1209.091416 561.512958 17.936302 0.000000 0.135288
468.000000 48.056000 5.000000 10.000000 6.000000 96.951890 -21.933220 1408.392566 799.524958 20.806859 0.000000 0.127715
470.000000 58.439000 -3.000000 11.000000 6.000000 123.149827 42.494283 -11.044463 -12.369426 17.101890 0.000000 0.188167
471.000000 59.150000 -2.000000 11.000000 6.000000 123.512232 32.737513 283.035814 93.697758 16.896209 0.000000 0.057560
472.000000 59.084000 -1.000000 11.000000 6.000000 122.467517 22.948051 519.291434 197.327261 16.915762 0.000000 0.036883
473.000000 58.223000 0.000000 11.000000 6.000000 120.072436 13.668692 713.250728 299.620723 17.166548 0.000000 0.089100
474.000000 56.617000 1.000000 11.000000 6.000000 116.531891 5.290308 875.338830 401.332455 17.654781 0.000000 0.122543
475.000000 54.367000 2.000000 11.000000 6.000000 112.131535 -2.012222 1012.814893 503.001907 18.386903 0.000000 0.141024
476.000000 51.613000 3.000000 11.000000 6.000000 107.167526 -8.241338 1130.889121 605.030076 19.369587 0.000000 0.148447
477.000000 48.512000 4.000000 11.000000 6.000000 101.900916 -13.500133 1233.398029 707.725730 20.609754 0.000000 0.147845
478.000000 54.062000 -1.000000 12.000000 6.000000 118.481890 23.639125 503.903081 303.573257 18.488209 0.000000 0.051011
479.000000 52.014000 1.000000 12.000000 6.000000 113.395719 7.845873 826.688047 470.941070 19.218205 0.000000 0.131027
481.000000 48.530000 -4.000000 13.000000 6.000000 114.996888 46.900978 -175.192495 206.561966 20.596130 0.000000 0.222283
482.000000 49.400000 -3.000000 13.000000 6.000000 115.895967 39.492113 88.020255 263.899334 20.233536 0.000000 0.091966
483.000000 49.799000 -2.000000 13.000000 6.000000 115.909020 31.830103 306.886144 325.627866 20.071484 0.000000 0.002800
484.000000 49.693000 -1.000000 13.000000 6.000000 114.992467 24.180166 491.741923 391.035171 20.114785 0.000000 0.063933
485.000000 49.077000 0.000000 13.000000 6.000000 113.178335 16.805081 649.943443 459.623616 20.368406 0.000000 0.107891
486.000000 47.975000 1.000000 13.000000 6.000000 110.566696 9.914911 786.867929 531.038465 20.837474 0.000000 0.136647
487.000000 46.440000 2.000000 13.000000 6.000000 107.303435 3.639658 906.537345 605.023212 21.527285 0.000000 0.153705
488.000000 45.691000 -3.000000 14.000000 6.000000 112.869225 38.426082 121.141654 361.529419 21.876690 0.000000 0.063265
489.000000 45.879000 -1.000000 14.000000 6.000000 111.918231 24.615177 481.889115 464.646371 21.788395 0.000000 0.074668
497.000000 71.844000 3.000000 6.000000 7.000000 118.014151 -44.228412 2022.689402 141.886159 13.911753 0.000000 0.188086
498.000000 64.828000 4.000000 6.000000 7.000000 108.137006 -46.460699 2107.620557 429.196603 15.419775 0.000000 0.187997
499.000000 57.925000 5.000000 6.000000 7.000000 99.112453 -48.069686 2173.273561 682.652835 17.259982 0.000000 0.209042
500.000000 51.426000 6.000000 6.000000 7.000000 90.951905 -49.282692 2225.543194 913.585750 19.443915 0.000000 0.244669
501.000000 45.490000 7.000000 6.000000 7.000000 83.618199 -50.229095 2268.143232 1129.175604 21.983653 0.000000 0.288494
502.000000 78.029000 1.000000 7.000000 7.000000 137.225388 -23.777805 1449.204378 -330.233109 12.805862 0.000000 0.084169
503.000000 73.266000 2.000000 7.000000 7.000000 127.688878 -31.009172 1621.937360 -29.173597 13.640074 0.000000 0.071739
504.000000 67.692000 3.000000 7.000000 7.000000 118.245155 -35.838141 1752.337589 227.770855 14.765347 0.000000 0.058638
505.000000 61.740000 4.000000 7.000000 7.000000 109.241627 -39.246779 1854.268406 455.890708 16.190964 0.000000 0.068858
506.000000 55.770000 5.000000 7.000000 7.000000 100.847775 -41.764994 1936.135533 664.489695 17.926607 0.000000 0.099852
507.000000 50.039000 6.000000 7.000000 7.000000 93.131192 -43.694516 2003.332085 859.568485 19.982377 0.000000 0.139504
509.000000 74.762000 0.000000 8.000000 7.000000 140.923658 -3.414177 1039.210921 -386.854490 13.365061 0.000000 0.009148
510.000000 71.905000 1.000000 8.000000 7.000000 133.783466 -14.756446 1258.494126 -125.716264 13.897332 0.000000 0.027866
511.000000 68.007000 2.000000 8.000000 7.000000 125.775608 -22.746206 1426.243846 100.044402 14.695536 0.000000 0.025000
512.000000 63.391000 3.000000 8.000000 7.000000 117.549394 -28.472695 1558.716155 302.280092 15.767589 0.000000 0.019352
513.000000 58.385000 4.000000 8.000000 7.000000 109.488916 -32.700444 1665.980417 488.357703 17.121726 0.000000 0.031620
514.000000 53.274000 5.000000 8.000000 7.000000 101.810443 -35.917448 1754.606748 663.108159 18.766513 0.000000 0.056946
515.000000 48.279000 6.000000 8.000000 7.000000 94.625300 -38.432819 1829.064564 829.841097 20.710869 0.000000 0.087924
517.000000 69.800000 -1.000000 9.000000 7.000000 139.966507 15.772094 671.005536 -390.277843 14.315331 0.000000 0.056659
518.000000 68.507000 0.000000 9.000000 7.000000 135.828958 2.533290 927.381426 -167.981278 14.586251 0.000000 0.023535
519.000000 66.173000 1.000000 9.000000 7.000000 130.060161 -7.980203 1125.884088 27.104274 15.101835 0.000000 0.049509
520.000000 62.981000 2.000000 9.000000 7.000000 123.356805 -16.024579 1284.122164 203.834525 15.868910 0.000000 0.063556
521.000000 59.164000 3.000000 9.000000 7.000000 116.253939 -22.153940 1413.218556 367.823058 16.894560 0.000000 0.068853
522.000000 54.969000 4.000000 9.000000 7.000000 109.114731 -26.879229 1520.544740 522.809029 18.186140 0.000000 0.070616
523.000000 50.619000 5.000000 9.000000 7.000000 102.169300 -30.586615 1611.179336 671.386782 19.751285 0.000000 0.073825
524.000000 46.296000 6.000000 9.000000 7.000000 95.553995 -33.550005 1688.735265 815.419665 21.597923 0.000000 0.082771
527.000000 63.925000 -1.000000 10.000000 7.000000 134.477628 18.039563 624.468964 -170.482935 15.632032 0.000000 0.039947
528.000000 62.847000 0.000000 10.000000 7.000000 131.112445 6.712432 848.327718 -4.806313 15.901025 0.000000 0.046326
529.000000 60.930000 1.000000 10.000000 7.000000 126.371246 -2.836850 1028.333473 147.348232 16.402411 0.000000 0.076443
530.000000 58.305000 2.000000 10.000000 7.000000 120.731466 -10.589693 1176.222606 290.056909 17.142346 0.000000 0.093873
531.000000 55.143000 3.000000 10.000000 7.000000 114.608345 -16.796785 1299.886497 426.075486 18.127210 0.000000 0.101367
532.000000 51.627000 4.000000 10.000000 7.000000 108.316704 -21.769701 1404.826920 557.339717 19.363610 0.000000 0.102440
533.000000 47.933000 5.000000 10.000000 7.000000 102.076610 -25.786877 1494.996891 685.254497 20.858394 0.000000 0.100401
535.000000 58.865000 -2.000000 11.000000 7.000000 131.032497 30.290600 346.301249 -143.776076 16.976210 0.000000 0.091377
536.000000 58.687000 -1.000000 11.000000 7.000000 129.644513 19.631930 591.072850 -5.836669 17.028214 0.000000 0.030625
537.000000 57.781000 0.000000 11.000000 7.000000 126.832704 9.779810 789.482247 122.982880 17.296120 0.000000 0.064700
538.000000 56.195000 1.000000 11.000000 7.000000 122.867625 1.141081 953.562091 245.438434 17.785330 0.000000 0.096089
539.000000 54.025000 2.000000 11.000000 7.000000 118.080833 -6.178413 1091.512701 363.420180 18.501426 0.000000 0.114572
540.000000 51.394000 3.000000 11.000000 7.000000 112.787424 -12.271801 1209.115265 478.272322 19.450181 0.000000 0.123147
541.000000 48.442000 4.000000 11.000000 7.000000 107.247894 -17.316221 1310.562633 590.981057 20.637566 0.000000 0.124655
543.000000 53.809000 -3.000000 12.000000 7.000000 126.646681 39.430398 89.965188 -95.628007 18.572434 0.000000 0.165036
544.000000 54.219000 -2.000000 12.000000 7.000000 126.629015 30.065057 351.970678 16.433497 18.432054 0.000000 0.056152
545.000000 54.042000 -1.000000 12.000000 7.000000 125.380859 20.809958 565.940087 123.316018 18.493206 0.000000 0.035740
546.000000 53.274000 0.000000 12.000000 7.000000 122.980514 12.114657 743.974509 226.657937 18.760666 0.000000 0.079317
547.000000 51.951000 1.000000 12.000000 7.000000 119.610797 4.281353 894.425288 327.599758 19.239360 0.000000 0.110156
548.000000 50.144000 2.000000 12.000000 7.000000 115.506718 -2.566412 1023.242006 426.963459 19.934373 0.000000 0.128717
549.000000 47.943000 3.000000 12.000000 7.000000 110.906407 -8.444000 1134.777975 525.359673 20.850954 0.000000 0.137868
552.000000 49.793000 -3.000000 13.000000 7.000000 122.874760 38.162983 129.165317 56.283826 20.071383 0.000000 0.117504
553.000000 50.101000 -2.000000 13.000000 7.000000 122.742807 29.892898 356.280856 142.686465 19.948196 0.000000 0.027701
554.000000 49.928000 -1.000000 13.000000 7.000000 121.606395 21.716042 546.341381 228.098411 20.018165 0.000000 0.047383
555.000000 49.271000 0.000000 13.000000 7.000000 119.521492 13.945771 707.731461 313.018714 20.285670 0.000000 0.090830
556.000000 48.159000 1.000000 13.000000 7.000000 116.616441 6.809249 846.483472 397.814212 20.755223 0.000000 0.120243
557.000000 46.643000 2.000000 13.000000 7.000000 113.061522 0.423291 967.048383 482.763136 21.431475 0.000000 0.138389
558.000000 45.611000 -4.000000 14.000000 7.000000 118.901937 44.399164 -78.954470 109.358183 21.912821 0.000000 0.193629
559.000000 46.220000 -3.000000 14.000000 7.000000 119.506010 37.159379 159.250217 176.735400 21.624270 0.000000 0.080810
560.000000 46.451000 -2.000000 14.000000 7.000000 119.295425 29.757177 359.668278 245.400770 21.517257 0.000000 0.008215
561.000000 46.283000 -1.000000 14.000000 7.000000 118.250943 22.434271 530.630170 315.309864 21.595700 0.000000 0.059260
567.000000 64.631000 3.000000 7.000000 8.000000 121.966871 -41.975554 1943.268513 37.514709 15.463565 0.000000 0.172601
568.000000 59.427000 4.000000 7.000000 8.000000 113.119667 -44.432059 2030.165620 297.494443 16.819898 0.000000 0.165708
569.000000 54.156000 5.000000 7.000000 8.000000 104.874336 -46.238533 2098.861287 527.697814 18.459512 0.000000 0.175585
570.000000 49.033000 6.000000 7.000000 8.000000 97.271271 -47.620311 2154.532075 737.261533 20.390874 0.000000 0.199891
571.000000 68.727000 1.000000 8.000000 8.000000 138.395295 -22.625868 1423.588288 -372.121159 14.538975 0.000000 0.084120
572.000000 61.117000 3.000000 8.000000 8.000000 121.748631 -34.233275 1707.362963 135.445331 16.352777 0.000000 0.061772
573.000000 52.052000 5.000000 8.000000 8.000000 106.017161 -40.275741 1886.980760 536.026526 19.205675 0.000000 0.078863
575.000000 66.135000 0.000000 9.000000 8.000000 141.578749 -4.332256 1056.536347 -419.799381 15.108306 0.000000 0.013241
576.000000 63.948000 1.000000 9.000000 8.000000 135.219461 -14.538345 1254.117247 -179.448012 15.626309 0.000000 0.029578
577.000000 61.019000 2.000000 9.000000 8.000000 128.134665 -21.959514 1408.966706 29.925483 16.377823 0.000000 0.025850
578.000000 57.543000 3.000000 9.000000 8.000000 120.808723 -27.429217 1533.594459 217.885645 17.368951 0.000000 0.014120
579.000000 53.723000 4.000000 9.000000 8.000000 113.544954 -31.558301 1636.061372 390.611444 18.606009 0.000000 0.017160
580.000000 49.747000 5.000000 9.000000 8.000000 106.527329 -34.755166 1721.795667 552.279060 20.095540 0.000000 0.039248
581.000000 45.769000 6.000000 9.000000 8.000000 99.862021 -37.288883 1794.586559 705.818426 21.844320 0.000000 0.066192
582.000000 62.358000 -1.000000 10.000000 8.000000 141.025044 13.164281 723.265234 -425.203627 16.023609 0.000000 0.049291
583.000000 59.433000 1.000000 10.000000 8.000000 131.820871 -8.315395 1132.309705 -32.255721 16.814135 0.000000 0.039415
584.000000 54.044000 3.000000 10.000000 8.000000 119.398701 -21.560171 1400.269813 288.948876 18.494031 0.000000 0.057316
585.000000 47.361000 5.000000 10.000000 8.000000 106.545623 -29.719848 1589.401661 572.824857 21.108328 0.000000 0.062585
588.000000 57.715000 -1.000000 11.000000 8.000000 136.100721 15.689496 672.680216 -220.748608 17.313457 0.000000 0.038627
589.000000 56.786000 0.000000 11.000000 8.000000 132.830946 5.302925 875.099781 -61.028477 17.597621 0.000000 0.038332
590.000000 55.247000 1.000000 11.000000 8.000000 128.435967 -3.484502 1040.536773 85.257030 18.089021 0.000000 0.064285
591.000000 53.183000 2.000000 11.000000 8.000000 123.288509 -10.695380 1178.278041 221.822030 18.792544 0.000000 0.080749
592.000000 50.704000 3.000000 11.000000 8.000000 117.711286 -16.545421 1294.741193 351.243097 19.713231 0.000000 0.088998
593.000000 47.929000 4.000000 11.000000 8.000000 111.953850 -21.294160 1394.503232 475.367453 20.856285 0.000000 0.091728
595.000000 53.505000 -1.000000 12.000000 8.000000 131.682842 17.514024 635.356063 -63.951436 18.676851 0.000000 0.031512
596.000000 51.411000 1.000000 12.000000 8.000000 125.187073 0.324244 968.909042 182.109369 19.439829 0.000000 0.083946
597.000000 47.566000 3.000000 12.000000 8.000000 115.883829 -12.272888 1209.136654 406.540525 21.014325 0.000000 0.111247
599.000000 49.724000 -3.000000 13.000000 8.000000 129.429626 36.604768 175.534354 -161.448832 20.097598 0.000000 0.147907
600.000000 49.942000 -2.000000 13.000000 8.000000 129.113384 27.640500 411.357870 -46.833860 20.010073 0.000000 0.055703
601.000000 49.708000 -1.000000 13.000000 8.000000 127.720942 18.891401 606.682554 61.121105 20.104894 0.000000 0.034755
602.000000 49.025000 0.000000 13.000000 8.000000 125.339581 10.726526 771.115956 164.252026 20.385949 0.000000 0.070586
603.000000 47.919000 1.000000 13.000000 8.000000 122.130592 3.379149 911.449386 263.863497 20.857240 0.000000 0.098758
604.000000 46.440000 2.000000 13.000000 8.000000 118.289078 -3.064401 1032.619361 360.910375 21.522885 0.000000 0.116894
605.000000 46.347000 -3.000000 14.000000 8.000000 125.780259 35.700026 201.603355 -14.178322 21.563043 0.000000 0.107235
606.000000 46.291000 -1.000000 14.000000 8.000000 124.162335 19.966917 583.964568 163.871811 21.590066 0.000000 0.044344
612.000000 47.695000 6.000000 7.000000 9.000000 100.746092 -51.423156 2324.368674 613.423511 20.961218 0.000000 0.294503
615.000000 58.571000 3.000000 8.000000 9.000000 125.021564 -39.995722 1877.981205 -43.519848 17.062818 0.000000 0.162279
616.000000 54.604000 4.000000 8.000000 9.000000 117.050378 -42.608844 1965.009991 194.264368 18.304391 0.000000 0.152115
617.000000 50.504000 5.000000 8.000000 9.000000 109.508385 -44.566137 2035.116364 405.779385 19.792858 0.000000 0.154199
618.000000 46.424000 6.000000 8.000000 9.000000 102.447292 -46.083703 2092.798723 598.485853 21.534694 0.000000 0.169382
621.000000 58.730000 2.000000 9.000000 9.000000 131.946104 -28.175744 1551.517404 -156.293555 17.015037 0.000000 0.079121
622.000000 52.144000 4.000000 9.000000 9.000000 117.218757 -36.274527 1764.880286 254.332275 19.168384 0.000000 0.058379
623.000000 48.540000 5.000000 9.000000 9.000000 110.213936 -38.919186 1844.055209 431.643025 20.593842 0.000000 0.066418
625.000000 59.288000 0.000000 10.000000 9.000000 142.089749 -5.079176 1070.662421 -446.498979 16.853102 0.000000 0.016887
626.000000 57.561000 1.000000 10.000000 9.000000 136.357918 -14.355705 1250.458654 -223.934309 17.359906 0.000000 0.032271
627.000000 55.289000 2.000000 10.000000 9.000000 130.011580 -21.282038 1394.240943 -28.611478 18.074844 0.000000 0.029305
628.000000 52.594000 3.000000 10.000000 9.000000 123.421729 -26.509563 1511.844852 147.276717 19.002765 0.000000 0.016761
629.000000 49.607000 4.000000 10.000000 9.000000 116.831318 -30.533088 1609.823270 308.942327 20.148669 0.000000 0.005648
630.000000 46.456000 5.000000 10.000000 9.000000 110.395944 -33.696735 1692.710455 460.001934 21.517712 0.000000 0.024886
633.000000 55.390000 0.000000 11.000000 9.000000 138.054452 0.162336 971.950530 -256.637651 18.039928 0.000000 0.011992
634.000000 53.916000 1.000000 11.000000 9.000000 133.236556 -8.602307 1137.818528 -82.514799 18.534284 0.000000 0.031967
635.000000 51.975000 2.000000 11.000000 9.000000 127.765932 -15.546241 1274.418473 75.500348 19.227817 0.000000 0.043095
636.000000 49.662000 3.000000 11.000000 9.000000 121.957896 -21.033322 1388.869003 221.625314 20.124970 0.000000 0.047740
637.000000 47.081000 4.000000 11.000000 9.000000 116.040495 -25.403963 1486.153334 358.820780 21.230319 0.000000 0.049712
639.000000 52.568000 -1.000000 12.000000 9.000000 137.369352 13.653609 713.550787 -262.207327 19.008310 0.000000 0.036535
640.000000 50.502000 1.000000 12.000000 9.000000 130.115827 -4.049699 1051.200046 31.897929 19.788227 0.000000 0.054124
641.000000 48.841000 2.000000 12.000000 9.000000 125.383658 -10.788721 1180.094536 162.824462 20.462650 0.000000 0.069433
644.000000 49.403000 -2.000000 13.000000 9.000000 135.003079 24.998171 473.157555 -246.669312 20.226580 0.000000 0.079176
645.000000 49.118000 -1.000000 13.000000 9.000000 133.317066 15.638109 673.721414 -112.864241 20.344532 0.000000 0.031427
646.000000 48.420000 0.000000 13.000000 9.000000 130.615153 7.099433 840.951282 10.879269 20.638654 0.000000 0.048574
647.000000 47.336000 1.000000 13.000000 9.000000 127.095932 -0.400304 982.519791 127.105280 21.112519 0.000000 0.073334
648.000000 45.910000 2.000000 13.000000 9.000000 122.978138 -6.830038 1103.912640 237.638489 21.769797 0.000000 0.090199
650.000000 46.130000 -3.000000 14.000000 9.000000 131.674884 34.002865 248.952038 -214.713068 21.662820 0.000000 0.134568
651.000000 46.224000 -2.000000 14.000000 9.000000 131.125550 25.438450 463.052490 -99.650853 21.618952 0.000000 0.055227
652.000000 45.965000 -1.000000 14.000000 9.000000 129.633161 17.163925 642.573728 8.010914 21.741578 0.000000 0.033721
657.000000 48.763000 5.000000 8.000000 10.000000 112.371989 -48.743714 2202.006830 269.204374 20.498269 0.000000 0.257683
661.000000 53.457000 3.000000 9.000000 10.000000 127.440880 -38.246092 1823.362971 -108.337206 18.694336 0.000000 0.154816
662.000000 50.360000 4.000000 9.000000 10.000000 120.214041 -40.964543 1909.439591 110.966134 19.846058 0.000000 0.143528
663.000000 47.112000 5.000000 9.000000 10.000000 113.295307 -43.035223 1979.898388 306.988095 21.216552 0.000000 0.140533
666.000000 50.916000 3.000000 10.000000 10.000000 126.732681 -31.578875 1636.593753 -1.811939 19.627647 0.000000 0.069973
670.000000 52.325000 1.000000 11.000000 10.000000 137.282435 -14.200531 1247.354941 -261.393153 19.096782 0.000000 0.035038
671.000000 50.515000 2.000000 11.000000 10.000000 131.539087 -20.692665 1381.540260 -78.289612 19.782294 0.000000 0.033345
672.000000 48.375000 3.000000 11.000000 10.000000 125.559668 -25.693327 1492.831082 87.174529 20.659483 0.000000 0.022409
673.000000 45.990000 4.000000 11.000000 10.000000 119.541459 -29.608287 1586.626178 239.424137 21.732403 0.000000 0.006169
675.000000 49.322000 1.000000 12.000000 10.000000 134.399169 -8.850658 1142.593701 -125.655618 20.260092 0.000000 0.026804
676.000000 45.890000 3.000000 12.000000 10.000000 124.078669 -20.562759 1378.754213 163.331422 21.778474 0.000000 0.040142
679.000000 48.241000 -1.000000 13.000000 10.000000 138.382379 11.877092 748.638618 -297.012929 20.713024 0.000000 0.034030
680.000000 47.540000 0.000000 13.000000 10.000000 135.338470 3.016924 918.275018 -149.597768 21.019654 0.000000 0.026030
681.000000 46.487000 1.000000 13.000000 10.000000 131.508314 -4.547153 1060.597510 -14.510738 21.496641 0.000000 0.045647
688.000000 45.554000 5.000000 9.000000 11.000000 115.840765 -47.062765 2131.722177 175.808451 21.941178 0.000000 0.235450
692.000000 49.110000 3.000000 10.000000 11.000000 129.396923 -36.691480 1776.996092 -161.407303 20.348791 0.000000 0.149035
693.000000 46.640000 4.000000 10.000000 11.000000 122.805071 -39.476399 1861.484180 42.216135 21.428257 0.000000 0.137836
696.000000 48.896000 2.000000 11.000000 11.000000 134.645861 -26.072849 1501.638832 -242.509652 20.436466 0.000000 0.082575
697.000000 46.925000 3.000000 11.000000 11.000000 128.559192 -30.471054 1608.253573 -54.422353 21.296543 0.000000 0.073340
701.000000 47.957000 1.000000 12.000000 11.000000 138.048030 -14.067063 1244.688772 -293.379566 20.836070 0.000000 0.037572
702.000000 46.484000 2.000000 12.000000 11.000000 132.805640 -20.175362 1370.473801 -121.020296 21.497395 0.000000 0.037177
706.000000 46.454000 0.000000 13.000000 11.000000 139.505018 -1.562565 1004.359871 -319.871055 21.509656 0.000000 0.005804
#UB matrix in q= (UB) B0 G* 
#[[ 0.093790031 -0.549206709 -0.829200055]
# [-0.84264746   0.39999053  -0.360230695]
# [ 0.53023456   0.733465739 -0.425903891]]
#B0 matrix in q= UB (B0) G*
#[[ 0.19670273 -0.          0.03056101]
# [ 0.          0.19187965 -0.        ]
# [ 0.          0.          0.18806537]]
#UBB0 matrix in q= (UB B0) G* i.e. recip. basis vectors are columns in LT frame: astar = UBB0[:,0], bstar = UBB0[:,1], cstar = UBB0[:,2]. (abcstar as columns on xyzlab1, xlab1 = ui, ui = unit vector along incident beam)
#[[ 0.01844876 -0.10538159 -0.1530775 ]
# [-0.16575106  0.07675004 -0.09349907]
# [ 0.10429859  0.14073715 -0.06389327]]
#Euler angles phi theta psi (deg)
#[144.135 115.173 113.444]
#deviatoric strain in direct crystal frame (10-3 unit)
#[[ 0.58 -0.26 -0.14]
# [-0.26  0.78  0.95]
# [-0.14  0.95 -1.36]]
#deviatoric strain in sample2 frame (10-3 unit)
#[[-1.02 -1.12 -0.47]
# [-1.12  0.18  0.19]
# [-0.47  0.19  0.84]]
#new lattice parameters
#[ 5.1505     5.2126231  5.3206312 89.9384972 99.2328628 90.0295393]
#CCDLabel
#sCMOS
#DetectorParameters
#[79.0, 975.0, 941.0, 0.0, 0.0]
#pixelsize
#0.0734
#Frame dimensions
#[2018, 2016]
#
