#Strain and Orientation Refinement from experimental file: /home/micha/LaueProjects/DepthEffects/testZrO2_140.cor
#File created at Wed Jun 28 14:26:47 2023 with indexingSpotsSet.py
#Number of indexed spots: 525
#Element
#ZrO2
#grainIndex
#G_0
#Mean Deviation(pixel): 0.111
##spot_index intensity h k l 2theta Chi Xexp Yexp Energy GrainIndex PixDev
89.000000 66.071000 -8.000000 1.000000 1.000000 79.803562 -51.332168 2319.981677 1250.835903 15.142652 0.000000 0.351560
90.000000 76.091000 -7.000000 1.000000 1.000000 80.714345 -49.589162 2239.156951 1212.453116 13.148451 0.000000 0.302088
91.000000 89.502000 -6.000000 1.000000 1.000000 81.840625 -47.241248 2138.971825 1168.300837 11.178172 0.000000 0.245553
92.000000 108.222000 -5.000000 1.000000 1.000000 83.241644 -43.921617 2011.523546 1118.077423 9.244441 0.000000 0.182784
93.000000 135.733000 -4.000000 1.000000 1.000000 84.946564 -38.915178 1843.930849 1063.320960 7.370666 0.000000 0.122155
94.000000 178.470000 -3.000000 1.000000 1.000000 86.734863 -30.685196 1613.680698 1012.398628 5.605670 0.000000 0.102059
97.000000 51.076000 -11.000000 2.000000 1.000000 87.069965 -51.798133 2342.634370 1030.077218 19.585699 0.000000 0.342044
98.000000 56.727000 -10.000000 2.000000 1.000000 88.423817 -50.566467 2283.739698 987.625766 17.634364 0.000000 0.304236
99.000000 63.692000 -9.000000 2.000000 1.000000 90.031442 -49.032502 2214.554368 940.099132 15.705458 0.000000 0.261919
100.000000 72.455000 -8.000000 2.000000 1.000000 91.963833 -47.072666 2132.123061 886.813504 13.805742 0.000000 0.214549
101.000000 83.739000 -7.000000 2.000000 1.000000 94.314453 -44.488287 2032.239031 827.177833 11.944997 0.000000 0.161853
102.000000 98.661000 -6.000000 2.000000 1.000000 97.199263 -40.942185 1908.703287 761.017598 10.137927 0.000000 0.104886
103.000000 118.959000 -5.000000 2.000000 1.000000 100.731396 -35.825868 1751.986839 689.422683 8.407694 0.000000 0.053641
104.000000 147.227000 -4.000000 2.000000 1.000000 104.886266 -27.973930 1546.647802 617.046055 6.793027 0.000000 0.064170
105.000000 186.442000 -3.000000 2.000000 1.000000 108.920904 -15.124634 1265.902968 558.825013 5.363941 0.000000 0.118396
107.000000 49.020000 -12.000000 3.000000 1.000000 94.023373 -50.005951 2257.948168 823.212386 20.404674 0.000000 0.282625
108.000000 53.976000 -11.000000 3.000000 1.000000 95.793085 -48.640793 2197.569820 775.748118 18.530646 0.000000 0.247326
109.000000 59.939000 -10.000000 3.000000 1.000000 97.849272 -46.959852 2127.564047 723.601154 16.686894 0.000000 0.208647
110.000000 67.211000 -9.000000 3.000000 1.000000 100.256666 -44.843449 2045.428701 666.324265 14.880851 0.000000 0.166328
111.000000 76.213000 -8.000000 3.000000 1.000000 103.092756 -42.106031 1947.712322 603.601021 13.122602 0.000000 0.120274
112.000000 87.524000 -7.000000 3.000000 1.000000 106.440457 -38.447587 1829.516750 535.476735 11.426175 0.000000 0.070829
113.000000 101.920000 -6.000000 3.000000 1.000000 110.356598 -33.361585 1683.650408 462.869675 9.811687 0.000000 0.020358
114.000000 120.344000 -5.000000 3.000000 1.000000 114.765122 -25.964049 1499.108070 388.736523 8.309044 0.000000 0.035109
115.000000 143.563000 -4.000000 3.000000 1.000000 119.127070 -14.739641 1258.156564 320.868763 6.964722 0.000000 0.078312
116.000000 170.765000 -3.000000 3.000000 1.000000 121.567621 2.380019 930.265894 279.126543 5.855085 0.000000 0.095867
117.000000 195.481000 -2.000000 3.000000 1.000000 117.619913 25.656305 458.025093 316.255420 5.115018 0.000000 0.038720
118.000000 199.730000 -1.000000 3.000000 1.000000 102.058247 49.401332 -280.793183 587.692361 5.007274 0.000000 0.241088
119.000000 46.576000 -13.000000 4.000000 1.000000 99.689663 -48.350203 2185.139357 664.471006 21.473674 0.000000 0.242528
120.000000 50.843000 -12.000000 4.000000 1.000000 101.678535 -46.879061 2124.310945 615.533789 19.670850 0.000000 0.210694
121.000000 55.861000 -11.000000 4.000000 1.000000 103.944319 -45.086879 2054.563243 562.491766 17.903064 0.000000 0.176544
122.000000 61.817000 -10.000000 4.000000 1.000000 106.536094 -42.860694 1973.779285 505.056884 16.177572 0.000000 0.140108
123.000000 68.948000 -9.000000 4.000000 1.000000 109.506250 -40.031115 1879.114615 443.063100 14.503781 0.000000 0.101648
124.000000 77.551000 -8.000000 4.000000 1.000000 112.899795 -36.335897 1766.655402 376.620511 12.894113 0.000000 0.062013
125.000000 87.978000 -7.000000 4.000000 1.000000 116.724371 -31.356967 1630.863778 306.421242 11.365314 0.000000 0.024671
126.000000 100.582000 -6.000000 4.000000 1.000000 120.871895 -24.418065 1463.637967 234.361574 9.940515 0.000000 0.024407
127.000000 115.547000 -5.000000 4.000000 1.000000 124.925371 -14.464351 1252.634286 164.856725 8.652604 0.000000 0.051768
128.000000 132.417000 -4.000000 4.000000 1.000000 127.745620 -0.163578 978.072809 107.772130 7.549965 0.000000 0.062018
129.000000 149.064000 -3.000000 4.000000 1.000000 126.942092 18.917031 606.144648 85.449145 6.706832 0.000000 0.029533
130.000000 160.148000 -2.000000 4.000000 1.000000 119.361806 39.937094 73.893703 151.282385 6.243210 0.000000 0.122960
132.000000 47.697000 -13.000000 5.000000 1.000000 106.451014 -45.264129 2061.263588 489.459306 20.966495 0.000000 0.186957
133.000000 51.911000 -12.000000 5.000000 1.000000 108.789405 -43.389532 1992.428483 437.108040 19.264024 0.000000 0.157407
134.000000 56.797000 -11.000000 5.000000 1.000000 111.412451 -41.089715 1913.571153 380.995528 17.605920 0.000000 0.126738
135.000000 62.493000 -10.000000 5.000000 1.000000 114.351345 -38.212190 1822.330928 321.028729 16.000629 0.000000 0.095581
136.000000 69.153000 -9.000000 5.000000 1.000000 117.623694 -34.529855 1715.542578 257.316147 14.458891 0.000000 0.065427
137.000000 76.942000 -8.000000 5.000000 1.000000 121.208544 -29.698161 1588.861634 190.354385 12.994566 0.000000 0.040395
138.000000 85.996000 -7.000000 5.000000 1.000000 124.991079 -23.193635 1436.158804 121.377721 11.625861 0.000000 0.031399
139.000000 96.339000 -6.000000 5.000000 1.000000 128.646169 -14.257730 1248.498506 53.033256 10.377178 0.000000 0.039066
140.000000 107.702000 -5.000000 5.000000 1.000000 131.424223 -1.986185 1012.325191 -9.260964 9.281998 0.000000 0.040896
141.000000 119.186000 -4.000000 5.000000 1.000000 131.900939 14.030839 706.034286 -54.433855 8.387526 0.000000 0.020773
142.000000 128.787000 -3.000000 5.000000 1.000000 128.130558 32.362274 292.956559 -59.200430 7.762536 0.000000 0.087386
144.000000 48.259000 -13.000000 6.000000 1.000000 112.710307 -41.846815 1938.901731 336.311691 20.720579 0.000000 0.146255
145.000000 52.300000 -12.000000 6.000000 1.000000 115.285098 -39.501202 1862.266444 282.093672 19.118821 0.000000 0.120653
146.000000 56.909000 -11.000000 6.000000 1.000000 118.117393 -36.607706 1774.551283 224.566889 17.569484 0.000000 0.095524
147.000000 62.171000 -10.000000 6.000000 1.000000 121.207407 -32.970502 1673.166132 163.818395 16.081806 0.000000 0.072242
148.000000 68.163000 -9.000000 6.000000 1.000000 124.520107 -28.304976 1554.645332 100.197648 14.667333 0.000000 0.053263
149.000000 74.938000 -8.000000 6.000000 1.000000 127.946522 -22.200731 1414.243587 34.522317 13.340682 0.000000 0.041797
150.000000 82.478000 -7.000000 6.000000 1.000000 131.231258 -14.096938 1245.285294 -31.550410 12.120643 0.000000 0.037147
151.000000 90.616000 -6.000000 6.000000 1.000000 133.853443 -3.353754 1038.071904 -94.831968 11.031775 0.000000 0.029854
152.000000 98.907000 -5.000000 6.000000 1.000000 134.897061 10.374798 777.952359 -149.258712 10.106807 0.000000 0.012365
153.000000 106.455000 -4.000000 6.000000 1.000000 133.102570 26.358284 441.699262 -183.139839 9.390346 0.000000 0.069702
155.000000 48.327000 -13.000000 7.000000 1.000000 118.421292 -38.070440 1818.026204 201.127371 20.689256 0.000000 0.118460
156.000000 52.111000 -12.000000 7.000000 1.000000 121.115884 -35.183976 1733.791382 146.109013 19.186201 0.000000 0.097849
157.000000 56.350000 -11.000000 7.000000 1.000000 124.008210 -31.612429 1637.462539 88.272455 17.742355 0.000000 0.079030
158.000000 61.081000 -10.000000 7.000000 1.000000 127.057637 -27.119657 1526.233636 27.861643 16.367429 0.000000 0.063140
159.000000 66.322000 -9.000000 7.000000 1.000000 130.165780 -21.379816 1396.357800 -34.572579 15.073383 0.000000 0.050846
160.000000 72.047000 -8.000000 7.000000 1.000000 133.129955 -13.968252 1242.716930 -97.956665 13.875110 0.000000 0.040614
161.000000 78.148000 -7.000000 7.000000 1.000000 135.573135 -4.416666 1058.131256 -160.315599 12.791400 0.000000 0.026973
162.000000 84.381000 -6.000000 7.000000 1.000000 136.871755 7.557458 832.204977 -218.085684 11.846304 0.000000 0.004672
163.000000 90.290000 -5.000000 7.000000 1.000000 136.173038 21.580045 549.298511 -264.814605 11.071109 0.000000 0.056887
166.000000 47.983000 -13.000000 8.000000 1.000000 123.552194 -33.913580 1698.610087 80.882359 20.836346 0.000000 0.100842
167.000000 51.457000 -12.000000 8.000000 1.000000 126.251186 -30.420296 1606.970712 25.802946 19.428660 0.000000 0.084887
168.000000 55.276000 -11.000000 8.000000 1.000000 129.059804 -26.099735 1502.264959 -31.604448 18.085811 0.000000 0.070732
169.000000 59.442000 -10.000000 8.000000 1.000000 131.891264 -20.690030 1381.483701 -90.963369 16.817743 0.000000 0.058153
170.000000 63.930000 -9.000000 8.000000 1.000000 134.582841 -13.862929 1240.616998 -151.559114 15.636544 0.000000 0.045528
171.000000 68.668000 -8.000000 8.000000 1.000000 136.852716 -5.265981 1074.200289 -212.119190 14.557058 0.000000 0.029024
172.000000 73.512000 -7.000000 8.000000 1.000000 138.257373 5.329882 874.589017 -270.436030 13.597711 0.000000 0.002517
173.000000 78.205000 -6.000000 8.000000 1.000000 138.196666 17.736690 630.751111 -322.696470 12.781669 0.000000 0.046298
176.000000 47.305000 -13.000000 9.000000 1.000000 128.084197 -29.366309 1580.627109 -26.803796 21.133369 0.000000 0.089712
177.000000 50.446000 -12.000000 9.000000 1.000000 130.677432 -25.213380 1481.772683 -81.431282 19.817028 0.000000 0.076623
178.000000 53.831000 -11.000000 9.000000 1.000000 133.270118 -20.102437 1368.919679 -137.917150 18.570128 0.000000 0.063991
179.000000 57.441000 -10.000000 9.000000 1.000000 135.730082 -13.775137 1238.868055 -195.775108 17.402671 0.000000 0.050345
180.000000 61.225000 -9.000000 9.000000 1.000000 137.841092 -5.959922 1087.361956 -254.159447 16.326678 0.000000 0.032881
181.000000 65.091000 -8.000000 9.000000 1.000000 139.276500 3.529482 908.615122 -311.645879 15.356725 0.000000 0.008622
182.000000 68.885000 -7.000000 9.000000 1.000000 139.599863 14.604552 694.555025 -365.861199 14.510656 0.000000 0.037323
185.000000 46.372000 -13.000000 10.000000 1.000000 132.010143 -24.436320 1464.051625 -123.830577 21.557602 0.000000 0.081246
186.000000 49.175000 -12.000000 10.000000 1.000000 134.396613 -19.595993 1358.166350 -177.651897 20.328273 0.000000 0.068675
187.000000 52.139000 -11.000000 10.000000 1.000000 136.658768 -13.700835 1237.388891 -232.892605 19.172108 0.000000 0.054636
188.000000 55.229000 -10.000000 10.000000 1.000000 138.627055 -6.537393 1098.339841 -288.976543 18.099041 0.000000 0.037021
189.000000 58.383000 -9.000000 10.000000 1.000000 140.053973 2.046859 936.533632 -344.954693 17.120892 0.000000 0.014132
190.000000 61.504000 -8.000000 10.000000 1.000000 140.613164 12.017367 745.885595 -399.289093 16.251829 0.000000 0.029799
194.000000 47.727000 -12.000000 11.000000 1.000000 137.425824 -13.637137 1236.121552 -264.505695 20.943967 0.000000 0.058350
195.000000 50.297000 -11.000000 11.000000 1.000000 139.266751 -7.025355 1107.635808 -318.294377 19.873381 0.000000 0.040925
196.000000 52.918000 -10.000000 11.000000 1.000000 140.664620 0.806257 959.853561 -372.449274 18.888711 0.000000 0.019051
197.000000 55.526000 -9.000000 11.000000 1.000000 141.369519 9.852555 788.074840 -425.940998 18.001482 0.000000 0.023736
201.000000 46.171000 -12.000000 12.000000 1.000000 139.797384 -7.443063 1115.608884 -343.325975 21.649192 0.000000 0.044456
202.000000 48.383000 -11.000000 12.000000 1.000000 141.155747 -0.246188 979.624635 -395.537238 20.659213 0.000000 0.023449
203.000000 50.591000 -10.000000 12.000000 1.000000 141.949776 8.019402 823.365030 -447.687717 19.757272 0.000000 0.019282
220.000000 64.708000 -6.000000 0.000000 2.000000 56.529390 -42.874725 1974.269941 1911.999028 15.467603 0.000000 0.319749
221.000000 72.085000 -5.000000 0.000000 2.000000 52.859051 -39.378497 1858.401834 1995.637297 13.885686 0.000000 0.297612
224.000000 49.470000 -10.000000 1.000000 2.000000 73.540903 -47.361194 2143.871339 1410.426234 20.226610 0.000000 0.286217
225.000000 54.797000 -9.000000 1.000000 2.000000 73.455851 -45.633695 2075.369307 1398.230444 18.260360 0.000000 0.254003
226.000000 61.310000 -8.000000 1.000000 2.000000 73.280620 -43.489655 1995.995859 1386.625387 16.320750 0.000000 0.220677
227.000000 69.398000 -7.000000 1.000000 2.000000 72.946404 -40.766661 1902.939962 1376.923221 14.419036 0.000000 0.187608
228.000000 79.584000 -6.000000 1.000000 2.000000 72.320858 -37.212772 1792.330038 1371.763127 12.573855 0.000000 0.157317
229.000000 92.501000 -5.000000 1.000000 2.000000 71.134384 -32.424456 1658.681727 1376.702898 10.818459 0.000000 0.133117
230.000000 108.563000 -4.000000 1.000000 2.000000 68.802925 -25.742128 1493.960464 1404.391785 9.218534 0.000000 0.114813
231.000000 126.305000 -3.000000 1.000000 2.000000 63.997784 -16.112177 1285.904204 1487.460168 7.924517 0.000000 0.086722
232.000000 135.771000 -2.000000 1.000000 2.000000 53.768263 -2.118923 1014.821870 1730.183852 7.373321 0.000000 0.030005
234.000000 49.015000 -11.000000 2.000000 2.000000 82.503279 -45.735995 2079.306812 1143.924300 20.411259 0.000000 0.214747
235.000000 60.283000 -9.000000 2.000000 2.000000 84.058644 -41.697061 1933.844175 1091.011483 16.595781 0.000000 0.150918
236.000000 77.318000 -7.000000 2.000000 2.000000 85.871260 -35.356253 1738.646382 1036.261492 12.939392 0.000000 0.102952
237.000000 104.301000 -5.000000 2.000000 2.000000 87.286367 -24.387524 1462.946179 997.011083 9.591984 0.000000 0.119804
238.000000 122.879000 -4.000000 2.000000 2.000000 86.909210 -15.701150 1277.555980 1001.369099 8.142067 0.000000 0.143887
239.000000 143.389000 -3.000000 2.000000 2.000000 84.163979 -3.668471 1044.006096 1051.235536 6.977957 0.000000 0.155662
240.000000 157.486000 -2.000000 2.000000 2.000000 76.157495 12.279706 740.729201 1212.419830 6.354215 0.000000 0.128271
241.000000 143.904000 -1.000000 2.000000 2.000000 59.252195 30.893370 331.020294 1687.129625 6.955362 0.000000 0.146932
242.000000 47.429000 -12.000000 3.000000 2.000000 89.752877 -44.241664 2023.174332 947.479877 21.091212 0.000000 0.166794
243.000000 52.007000 -11.000000 3.000000 2.000000 90.984945 -42.363753 1956.543838 915.956882 19.234438 0.000000 0.136340
244.000000 57.449000 -10.000000 3.000000 2.000000 92.362807 -40.086999 1880.906624 882.952547 17.412071 0.000000 0.106666
245.000000 63.986000 -9.000000 3.000000 2.000000 93.894604 -37.279365 1794.304102 848.913386 15.632980 0.000000 0.081847
246.000000 71.913000 -8.000000 3.000000 2.000000 95.571091 -33.750316 1694.165420 814.737165 13.909372 0.000000 0.071108
247.000000 81.596000 -7.000000 3.000000 2.000000 97.340184 -29.221389 1577.047936 782.139618 12.258522 0.000000 0.082539
248.000000 93.430000 -6.000000 3.000000 2.000000 99.050323 -23.286882 1438.233450 754.358154 10.705703 0.000000 0.109104
249.000000 107.674000 -5.000000 3.000000 2.000000 100.328340 -15.381012 1271.077126 737.567930 9.289431 0.000000 0.138842
250.000000 123.923000 -4.000000 3.000000 2.000000 100.341070 -4.828191 1065.912285 743.907729 8.071434 0.000000 0.161090
251.000000 139.759000 -3.000000 3.000000 2.000000 97.455860 8.813963 808.112258 798.463423 7.157255 0.000000 0.161682
252.000000 148.353000 -2.000000 3.000000 2.000000 89.222583 24.942022 474.441046 957.106776 6.743495 0.000000 0.122896
253.000000 138.150000 -1.000000 3.000000 2.000000 73.765723 41.414762 25.626020 1358.887402 7.243045 0.000000 0.173069
255.000000 53.999000 -11.000000 4.000000 2.000000 98.879577 -38.635135 1835.275585 725.736862 18.522545 0.000000 0.076761
256.000000 65.950000 -9.000000 4.000000 2.000000 102.747554 -32.349517 1656.707615 652.775189 15.165113 0.000000 0.047325
257.000000 82.667000 -7.000000 4.000000 2.000000 107.032180 -22.375531 1418.078845 584.436583 12.097808 0.000000 0.091224
258.000000 105.090000 -5.000000 4.000000 2.000000 110.006731 -5.728075 1082.961122 547.151158 9.516141 0.000000 0.138750
259.000000 117.342000 -4.000000 4.000000 2.000000 109.286361 6.158066 858.873985 562.188869 8.522628 0.000000 0.143280
260.000000 127.531000 -3.000000 4.000000 2.000000 105.240148 20.246823 578.001878 628.455342 7.842174 0.000000 0.117827
261.000000 131.028000 -2.000000 4.000000 2.000000 96.288728 35.204591 215.628745 795.840463 7.633858 0.000000 0.070529
262.000000 122.207000 -1.000000 4.000000 2.000000 81.926142 49.150870 -269.739494 1174.428378 8.186525 0.000000 0.259196
263.000000 46.513000 -13.000000 5.000000 2.000000 102.260287 -39.641317 1866.696133 637.269433 21.502360 0.000000 0.083853
264.000000 50.483000 -12.000000 5.000000 2.000000 104.089360 -37.320863 1795.536028 601.316855 19.810649 0.000000 0.056826
265.000000 55.051000 -11.000000 5.000000 2.000000 106.080571 -34.527410 1715.474920 564.403389 18.166235 0.000000 0.033203
266.000000 60.322000 -10.000000 5.000000 2.000000 108.223438 -31.118306 1624.731328 527.082618 16.578471 0.000000 0.028100
267.000000 66.405000 -9.000000 5.000000 2.000000 110.478208 -26.899117 1521.014387 490.292000 15.059351 0.000000 0.047953
268.000000 73.396000 -8.000000 5.000000 2.000000 112.748408 -21.608868 1401.327764 455.592861 13.624508 0.000000 0.073441
269.000000 81.332000 -7.000000 5.000000 2.000000 114.832367 -14.914699 1261.675454 425.579749 12.294716 0.000000 0.096979
270.000000 90.099000 -6.000000 5.000000 2.000000 116.345766 -6.446322 1096.606932 404.600700 11.098183 0.000000 0.114021
271.000000 99.256000 -5.000000 5.000000 2.000000 116.625442 4.066164 898.489117 400.072473 10.074214 0.000000 0.118402
272.000000 107.762000 -4.000000 5.000000 2.000000 114.688224 16.494848 656.292378 424.991739 9.279255 0.000000 0.100079
273.000000 113.673000 -3.000000 5.000000 2.000000 109.413172 30.005444 353.464840 502.996688 8.797380 0.000000 0.046412
274.000000 114.179000 -2.000000 5.000000 2.000000 100.050705 43.208784 -36.018163 679.274827 8.759562 0.000000 0.115145
276.000000 47.140000 -13.000000 6.000000 2.000000 108.326915 -36.126712 1760.616159 499.617543 21.214216 0.000000 0.045290
277.000000 55.284000 -11.000000 6.000000 2.000000 112.515574 -30.028601 1597.115362 425.671979 18.087960 0.000000 0.012635
278.000000 65.669000 -9.000000 6.000000 2.000000 117.022134 -20.955191 1387.185200 353.199981 15.226495 0.000000 0.058287
279.000000 78.432000 -7.000000 6.000000 2.000000 120.796499 -7.032713 1107.776145 294.625922 12.748038 0.000000 0.092291
280.000000 92.123000 -5.000000 6.000000 2.000000 120.772224 13.452091 717.556243 282.027773 10.853480 0.000000 0.081946
281.000000 100.865000 -3.000000 6.000000 2.000000 111.450527 37.993575 134.301085 404.391366 9.913971 0.000000 0.056802
283.000000 47.275000 -13.000000 7.000000 2.000000 113.839866 -32.309891 1655.665094 378.276037 21.151883 0.000000 0.018380
284.000000 50.859000 -12.000000 7.000000 2.000000 115.957915 -29.058001 1573.024775 341.585237 19.660391 0.000000 0.006340
285.000000 54.845000 -11.000000 7.000000 2.000000 118.144875 -25.143551 1480.171062 304.961485 18.231193 0.000000 0.026898
286.000000 59.251000 -10.000000 7.000000 2.000000 120.328554 -20.391376 1375.085861 269.248998 16.874841 0.000000 0.046649
287.000000 64.073000 -9.000000 7.000000 2.000000 122.379997 -14.591437 1255.181907 235.743066 15.604418 0.000000 0.063225
288.000000 69.256000 -8.000000 7.000000 2.000000 124.083257 -7.520410 1117.086891 206.434077 14.436334 0.000000 0.074464
289.000000 74.658000 -7.000000 7.000000 2.000000 125.101777 0.994250 956.321261 184.403922 13.391466 0.000000 0.077131
290.000000 80.003000 -6.000000 7.000000 2.000000 124.961833 10.947999 766.803155 174.488078 12.496780 0.000000 0.066197
291.000000 84.817000 -5.000000 7.000000 2.000000 123.094149 22.003993 540.061621 184.418072 11.787734 0.000000 0.033935
292.000000 88.389000 -4.000000 7.000000 2.000000 118.968997 33.451132 263.935762 226.870357 11.311900 0.000000 0.036705
293.000000 89.805000 -3.000000 7.000000 2.000000 112.288912 44.418874 -79.679984 323.314323 11.134619 0.000000 0.162604
295.000000 46.995000 -13.000000 8.000000 2.000000 118.773080 -28.188466 1551.825012 270.429995 21.276279 0.000000 0.015296
296.000000 53.887000 -11.000000 8.000000 2.000000 122.957934 -19.900174 1364.616789 198.853534 18.553758 0.000000 0.038900
297.000000 61.910000 -9.000000 8.000000 2.000000 126.605529 -7.932338 1124.967393 133.788567 16.148521 0.000000 0.060372
298.000000 70.505000 -7.000000 8.000000 2.000000 127.997946 8.858624 807.253020 90.017807 14.179738 0.000000 0.053083
299.000000 77.896000 -5.000000 8.000000 2.000000 124.161463 29.506203 365.908168 101.761743 12.834797 0.000000 0.033315
301.000000 46.380000 -13.000000 9.000000 2.000000 123.115239 -23.772187 1449.078364 173.878529 21.556850 0.000000 0.026738
302.000000 49.362000 -12.000000 9.000000 2.000000 125.096381 -19.468466 1355.469289 138.803757 20.253894 0.000000 0.035048
303.000000 52.553000 -11.000000 9.000000 2.000000 126.969503 -14.354169 1250.427905 104.745545 19.023548 0.000000 0.043802
304.000000 55.924000 -10.000000 9.000000 2.000000 128.600180 -8.284849 1131.723699 72.738806 17.876570 0.000000 0.049662
305.000000 59.415000 -9.000000 9.000000 2.000000 129.793529 -1.144680 996.505543 44.292395 16.825960 0.000000 0.050071
306.000000 62.924000 -8.000000 9.000000 2.000000 130.286949 7.093224 841.069715 21.621061 15.887564 0.000000 0.042308
307.000000 66.289000 -7.000000 9.000000 2.000000 129.762550 16.287939 660.515451 8.010449 15.080906 0.000000 0.025140
308.000000 69.279000 -6.000000 9.000000 2.000000 127.892471 26.078962 448.218827 8.406681 14.430319 0.000000 0.033476
309.000000 71.583000 -5.000000 9.000000 2.000000 124.413823 35.931092 195.002422 30.398188 13.966520 0.000000 0.101076
310.000000 72.827000 -4.000000 9.000000 2.000000 119.202278 45.289508 -112.226373 85.910531 13.728853 0.000000 0.218706
312.000000 45.506000 -13.000000 10.000000 2.000000 126.868215 -19.086103 1347.407972 86.875974 21.969361 0.000000 0.034503
313.000000 50.964000 -11.000000 10.000000 2.000000 130.216010 -8.589911 1137.580353 20.621003 19.615687 0.000000 0.042018
314.000000 56.761000 -9.000000 10.000000 2.000000 132.067695 5.584562 869.761208 -35.037374 17.612008 0.000000 0.033542
315.000000 62.201000 -7.000000 10.000000 2.000000 130.663920 23.094021 516.054319 -64.129171 16.071773 0.000000 0.033091
316.000000 65.932000 -5.000000 10.000000 2.000000 124.161738 41.365973 27.254374 -32.211217 15.163401 0.000000 0.178803
317.000000 46.795000 -12.000000 11.000000 2.000000 131.550978 -8.856486 1142.705830 -24.444162 21.362833 0.000000 0.037144
318.000000 49.219000 -11.000000 11.000000 2.000000 132.752066 -2.715610 1026.050635 -55.106780 20.310606 0.000000 0.034222
319.000000 51.667000 -10.000000 11.000000 2.000000 133.488679 4.282131 894.410575 -82.819065 19.348108 0.000000 0.026559
320.000000 54.071000 -9.000000 11.000000 2.000000 133.567694 12.077723 744.700173 -105.959420 18.487700 0.000000 0.016497
321.000000 56.337000 -8.000000 11.000000 2.000000 132.780774 20.484381 572.924434 -122.218635 17.744120 0.000000 0.031702
322.000000 58.341000 -7.000000 11.000000 2.000000 130.936415 29.186304 373.817055 -128.269164 17.135091 0.000000 0.077568
323.000000 59.927000 -6.000000 11.000000 2.000000 127.898038 37.795000 140.291022 -119.243033 16.682107 0.000000 0.151480
326.000000 47.393000 -11.000000 12.000000 2.000000 134.646574 3.147460 915.815802 -123.703443 21.092698 0.000000 0.021285
327.000000 51.426000 -9.000000 12.000000 2.000000 134.436197 18.192473 621.289125 -169.845845 19.438240 0.000000 0.029566
328.000000 54.753000 -7.000000 12.000000 2.000000 130.769478 34.555308 233.752702 -185.828339 18.257765 0.000000 0.131426
330.000000 45.542000 -11.000000 13.000000 2.000000 135.978071 8.879390 806.853433 -186.190914 21.949363 0.000000 0.008413
331.000000 47.267000 -10.000000 13.000000 2.000000 135.757077 16.169750 662.923725 -209.638312 21.148282 0.000000 0.026991
332.000000 48.877000 -9.000000 13.000000 2.000000 134.807731 23.835733 499.495623 -227.782945 20.451921 0.000000 0.062936
333.000000 50.300000 -8.000000 13.000000 2.000000 133.015790 31.620861 312.319025 -238.298607 19.873757 0.000000 0.115829
337.000000 46.452000 -9.000000 14.000000 2.000000 134.801055 28.963837 379.288074 -280.642025 21.519355 0.000000 0.103134
340.000000 45.872000 -10.000000 1.000000 3.000000 68.045047 -41.438570 1925.169477 1519.747393 21.815473 0.000000 0.220512
341.000000 50.096000 -9.000000 1.000000 3.000000 67.165058 -39.193682 1852.606592 1525.769979 19.976474 0.000000 0.198814
342.000000 54.988000 -8.000000 1.000000 3.000000 65.970829 -36.460707 1770.274196 1537.636788 18.200043 0.000000 0.178029
343.000000 60.601000 -7.000000 1.000000 3.000000 64.302929 -33.078682 1676.056907 1559.097854 16.514982 0.000000 0.158302
344.000000 66.855000 -6.000000 1.000000 3.000000 61.897059 -28.819754 1567.181114 1597.011917 14.970977 0.000000 0.138846
345.000000 73.268000 -5.000000 1.000000 3.000000 58.304051 -23.363368 1439.937358 1664.988793 13.661716 0.000000 0.117901
346.000000 78.285000 -4.000000 1.000000 3.000000 52.756975 -16.276398 1289.249264 1793.389499 12.787444 0.000000 0.101732
347.000000 77.812000 -3.000000 1.000000 3.000000 44.012678 -7.043404 1107.980023 2063.512934 12.866662 0.000000 0.152461
349.000000 46.218000 -11.000000 2.000000 3.000000 77.360443 -40.123185 1882.068548 1256.644053 21.649159 0.000000 0.161438
350.000000 50.542000 -10.000000 2.000000 3.000000 77.395221 -37.859724 1811.657803 1245.838181 19.797107 0.000000 0.142647
351.000000 55.618000 -9.000000 2.000000 3.000000 77.321331 -35.135147 1732.419075 1237.078887 17.990452 0.000000 0.127837
352.000000 61.597000 -8.000000 2.000000 3.000000 77.059417 -31.809625 1642.581066 1232.016181 16.244700 0.000000 0.118836
353.000000 68.616000 -7.000000 2.000000 3.000000 76.471664 -27.691549 1539.864642 1233.455670 14.583319 0.000000 0.116173
354.000000 76.719000 -6.000000 2.000000 3.000000 75.314980 -22.521402 1421.286781 1246.346555 13.043617 0.000000 0.117327
355.000000 85.617000 -5.000000 2.000000 3.000000 73.158270 -15.962790 1282.866104 1279.874780 11.688698 0.000000 0.115793
356.000000 94.113000 -4.000000 2.000000 3.000000 69.253362 -7.629223 1119.167078 1352.340409 10.634427 0.000000 0.100261
357.000000 98.917000 -3.000000 2.000000 3.000000 62.409568 2.788902 922.569402 1504.111172 10.119121 0.000000 0.053890
358.000000 93.355000 -2.000000 2.000000 3.000000 51.153945 15.226252 682.047715 1839.322638 10.723442 0.000000 0.092853
360.000000 49.284000 -11.000000 3.000000 3.000000 85.563020 -36.646600 1775.685681 1045.090470 20.299630 0.000000 0.107720
361.000000 53.988000 -10.000000 3.000000 3.000000 86.173853 -33.943794 1699.434495 1027.767076 18.530704 0.000000 0.100295
362.000000 65.928000 -8.000000 3.000000 3.000000 87.164078 -26.708933 1516.529886 1000.684226 15.175033 0.000000 0.112412
363.000000 73.410000 -7.000000 3.000000 3.000000 87.311870 -21.802812 1405.548270 995.426548 13.628538 0.000000 0.127934
364.000000 91.086000 -5.000000 3.000000 3.000000 85.485810 -8.107205 1128.317457 1026.832226 10.984470 0.000000 0.154566
365.000000 99.709000 -4.000000 3.000000 3.000000 82.269590 1.220814 952.063690 1087.135608 10.035243 0.000000 0.152394
366.000000 102.101000 -2.000000 3.000000 3.000000 66.006466 24.580235 482.683052 1467.789380 9.802377 0.000000 0.103331
367.000000 86.215000 -1.000000 3.000000 3.000000 51.493223 37.116630 160.513857 2014.892058 11.610090 0.000000 0.255536
368.000000 47.227000 -12.000000 4.000000 3.000000 92.164395 -35.539557 1743.834949 891.010419 21.181234 0.000000 0.082727
369.000000 51.392000 -11.000000 4.000000 3.000000 93.185348 -32.868138 1670.437287 869.686091 19.464558 0.000000 0.080808
370.000000 56.192000 -10.000000 4.000000 3.000000 94.218748 -29.682739 1588.477745 849.616524 17.801557 0.000000 0.088906
371.000000 61.727000 -9.000000 4.000000 3.000000 95.207598 -25.845912 1496.365408 832.002600 16.205300 0.000000 0.104581
372.000000 68.078000 -8.000000 4.000000 3.000000 96.046779 -21.182514 1392.089188 818.726904 14.693475 0.000000 0.124019
373.000000 75.264000 -7.000000 4.000000 3.000000 96.549237 -15.479557 1273.069298 812.783806 13.290629 0.000000 0.143607
374.000000 83.139000 -6.000000 4.000000 3.000000 96.394549 -8.504566 1135.940940 819.036848 12.031837 0.000000 0.159664
375.000000 91.197000 -5.000000 4.000000 3.000000 95.064709 -0.065538 976.231128 845.611414 10.969042 0.000000 0.167596
376.000000 98.247000 -4.000000 4.000000 3.000000 91.803923 9.863578 787.861527 906.593754 10.182570 0.000000 0.161156
377.000000 102.054000 -3.000000 4.000000 3.000000 85.702756 20.976429 562.357271 1027.615082 9.803585 0.000000 0.134457
378.000000 99.448000 -2.000000 4.000000 3.000000 76.042643 32.567662 287.536700 1258.410390 10.061867 0.000000 0.116466
379.000000 87.788000 -1.000000 4.000000 3.000000 62.865928 43.734342 -54.764087 1704.370397 11.399954 0.000000 0.261243
381.000000 48.482000 -12.000000 5.000000 3.000000 98.831254 -31.892765 1644.745636 744.047333 20.630584 0.000000 0.064790
382.000000 52.591000 -11.000000 5.000000 3.000000 100.128294 -28.783954 1566.305315 721.629269 19.018419 0.000000 0.076263
383.000000 57.253000 -10.000000 5.000000 3.000000 101.417754 -25.082236 1478.766229 701.002181 17.469593 0.000000 0.093674
384.000000 62.518000 -9.000000 5.000000 3.000000 102.618479 -20.641752 1380.447774 683.526146 15.998090 0.000000 0.113392
385.000000 68.400000 -8.000000 5.000000 3.000000 103.590109 -15.289475 1269.228303 671.266702 14.622337 0.000000 0.132636
386.000000 74.823000 -7.000000 5.000000 3.000000 104.100003 -8.840085 1142.390280 667.403476 13.367124 0.000000 0.148768
387.000000 81.536000 -6.000000 5.000000 3.000000 103.783058 -1.138813 996.395286 676.922047 12.266605 0.000000 0.158563
388.000000 87.975000 -5.000000 5.000000 3.000000 102.112580 7.853150 826.548738 707.828509 11.369182 0.000000 0.157602
389.000000 93.084000 -4.000000 5.000000 3.000000 98.428098 17.942446 626.485681 773.375129 10.745803 0.000000 0.140205
390.000000 95.228000 -3.000000 5.000000 3.000000 92.085028 28.634048 387.355322 896.355626 10.504817 0.000000 0.105707
391.000000 92.463000 -2.000000 5.000000 3.000000 82.742069 39.222998 96.476179 1117.939405 10.820359 0.000000 0.121144
392.000000 83.447000 -1.000000 5.000000 3.000000 70.657796 49.042419 -264.987824 1517.358642 11.991214 0.000000 0.310659
394.000000 45.575000 -13.000000 6.000000 3.000000 103.450498 -31.004769 1621.824792 640.679405 21.945011 0.000000 0.050857
395.000000 52.990000 -11.000000 6.000000 3.000000 106.328156 -24.401914 1463.272094 594.766190 18.873455 0.000000 0.081826
396.000000 57.345000 -10.000000 6.000000 3.000000 107.709873 -20.166230 1370.279103 574.860659 17.439542 0.000000 0.100613
397.000000 67.348000 -8.000000 6.000000 3.000000 109.784670 -9.127139 1147.917338 548.870656 14.848960 0.000000 0.133195
398.000000 72.808000 -7.000000 6.000000 3.000000 110.032908 -2.047307 1013.474781 548.310038 13.735425 0.000000 0.142594
399.000000 83.069000 -5.000000 6.000000 3.000000 107.065086 15.366617 679.213737 598.356927 12.039295 0.000000 0.130702
400.000000 86.485000 -4.000000 6.000000 3.000000 102.861216 25.229218 467.863803 669.349569 11.564444 0.000000 0.100261
401.000000 84.518000 -2.000000 6.000000 3.000000 87.266403 44.714615 -90.625501 1013.316129 11.836260 0.000000 0.160676
403.000000 45.800000 -13.000000 7.000000 3.000000 108.784694 -27.240419 1529.100285 529.255274 21.834929 0.000000 0.053039
404.000000 49.100000 -12.000000 7.000000 3.000000 110.293132 -23.792170 1449.526640 506.048926 20.367234 0.000000 0.070325
405.000000 52.725000 -11.000000 7.000000 3.000000 111.754949 -19.744869 1361.320327 484.664711 18.966463 0.000000 0.087807
406.000000 56.675000 -10.000000 7.000000 3.000000 113.080448 -14.980320 1262.995984 466.220080 17.644344 0.000000 0.103901
407.000000 60.916000 -9.000000 7.000000 3.000000 114.131326 -9.375510 1152.706746 452.316020 16.415508 0.000000 0.117096
408.000000 65.364000 -8.000000 7.000000 3.000000 114.703908 -2.825893 1028.127146 445.268177 15.298462 0.000000 0.125521
409.000000 69.845000 -7.000000 7.000000 3.000000 114.516394 4.711906 886.287341 448.467869 14.316951 0.000000 0.126615
410.000000 74.062000 -6.000000 7.000000 3.000000 113.212988 13.160845 723.333307 466.960064 13.501957 0.000000 0.116787
411.000000 77.553000 -5.000000 7.000000 3.000000 110.402671 22.273027 534.171336 508.395231 12.894687 0.000000 0.091398
412.000000 79.681000 -4.000000 7.000000 3.000000 105.742600 31.636030 311.925993 584.648945 12.551164 0.000000 0.051222
413.000000 79.698000 -3.000000 7.000000 3.000000 99.048778 40.765855 47.086439 714.684684 12.549548 0.000000 0.084673
414.000000 76.933000 -2.000000 7.000000 3.000000 90.387592 49.245216 -273.890121 929.846927 13.002265 0.000000 0.237956
416.000000 45.614000 -13.000000 8.000000 3.000000 113.553444 -23.242680 1437.249641 430.378494 21.922331 0.000000 0.059853
417.000000 48.658000 -12.000000 8.000000 3.000000 115.038099 -19.368953 1353.367636 408.082346 20.550339 0.000000 0.075940
418.000000 51.942000 -11.000000 8.000000 3.000000 116.408357 -14.852925 1260.433074 388.051529 19.250768 0.000000 0.090382
419.000000 55.441000 -10.000000 8.000000 3.000000 117.553349 -9.592516 1156.896939 371.479166 18.035432 0.000000 0.102026
420.000000 59.100000 -9.000000 8.000000 3.000000 118.314355 -3.500342 1040.835429 360.043535 16.918859 0.000000 0.109404
421.000000 62.811000 -8.000000 8.000000 3.000000 118.476256 3.465086 909.829309 356.128030 15.919128 0.000000 0.110496
422.000000 66.399000 -7.000000 8.000000 3.000000 117.769204 11.256058 760.793445 363.158530 15.059012 0.000000 0.102468
423.000000 69.596000 -6.000000 8.000000 3.000000 115.890786 19.695285 589.730769 386.132774 14.367615 0.000000 0.081374
424.000000 72.030000 -5.000000 8.000000 3.000000 112.555272 28.469215 391.368436 432.472946 13.882736 0.000000 0.043120
425.000000 73.239000 -4.000000 8.000000 3.000000 107.562658 37.181199 158.604697 513.440480 13.654374 0.000000 0.042392
426.000000 72.736000 -3.000000 8.000000 3.000000 100.863568 45.450642 -118.359351 646.566579 13.750085 0.000000 0.153159
429.000000 50.777000 -11.000000 9.000000 3.000000 120.312735 -9.783739 1160.593750 302.456592 19.691153 0.000000 0.088530
430.000000 53.823000 -10.000000 9.000000 3.000000 121.182257 -4.090082 1051.962473 287.965282 18.576766 0.000000 0.094918
431.000000 59.964000 -8.000000 9.000000 3.000000 121.259751 9.598051 792.996112 278.362162 16.674093 0.000000 0.089135
432.000000 62.786000 -7.000000 9.000000 3.000000 120.021857 17.436364 636.959493 289.099033 15.924957 0.000000 0.071559
433.000000 66.800000 -5.000000 9.000000 3.000000 113.867258 33.936904 250.753567 367.010166 14.969023 0.000000 0.018720
434.000000 67.379000 -4.000000 9.000000 3.000000 108.670238 41.943081 7.834607 452.054042 14.841637 0.000000 0.105363
436.000000 46.782000 -12.000000 10.000000 3.000000 122.582439 -9.953515 1163.879476 242.634216 21.372049 0.000000 0.076741
437.000000 49.348000 -11.000000 10.000000 3.000000 123.511928 -4.610024 1061.786112 225.980883 20.260544 0.000000 0.082210
438.000000 51.962000 -10.000000 10.000000 3.000000 124.042106 1.427794 948.173516 213.653138 19.241041 0.000000 0.082953
439.000000 54.552000 -9.000000 10.000000 3.000000 124.007877 8.144090 820.975548 207.416794 18.327390 0.000000 0.077196
440.000000 57.013000 -8.000000 10.000000 3.000000 123.221208 15.446434 677.600522 209.709338 17.536370 0.000000 0.062485
441.000000 59.202000 -7.000000 10.000000 3.000000 121.490704 23.152623 514.752766 223.934273 16.888504 0.000000 0.035442
442.000000 60.933000 -6.000000 10.000000 3.000000 118.651295 31.004732 328.176169 254.909330 16.409162 0.000000 0.010559
443.000000 61.991000 -5.000000 10.000000 3.000000 114.596686 38.714551 112.276825 309.565139 16.130090 0.000000 0.078665
444.000000 62.144000 -4.000000 10.000000 3.000000 109.303917 46.023420 -140.447427 398.063801 16.091536 0.000000 0.182858
447.000000 45.521000 -12.000000 11.000000 3.000000 125.439953 -5.071796 1070.522694 171.976398 21.962919 0.000000 0.071225
448.000000 47.750000 -11.000000 11.000000 3.000000 126.064235 0.585863 963.994251 157.140358 20.937788 0.000000 0.071713
449.000000 49.970000 -10.000000 11.000000 3.000000 126.221033 6.860262 845.511414 146.979901 20.007188 0.000000 0.066684
450.000000 52.113000 -9.000000 11.000000 3.000000 125.758961 13.684192 712.942322 143.279649 19.184498 0.000000 0.054295
451.000000 54.084000 -8.000000 11.000000 3.000000 124.520767 20.917978 563.616167 148.475615 18.485749 0.000000 0.032460
452.000000 55.761000 -7.000000 11.000000 3.000000 122.363582 28.355018 394.141400 165.930610 17.930312 0.000000 0.014433
453.000000 56.998000 -6.000000 11.000000 3.000000 119.182296 35.751192 200.145008 200.348895 17.541819 0.000000 0.064300
454.000000 57.633000 -5.000000 11.000000 3.000000 114.929153 42.870157 -24.110192 258.414711 17.349395 0.000000 0.146461
455.000000 57.505000 -4.000000 11.000000 3.000000 109.623798 49.525220 -286.302491 349.801263 17.389363 0.000000 0.267018
457.000000 46.058000 -11.000000 12.000000 3.000000 128.037519 5.719447 867.202583 94.758412 21.706117 0.000000 0.057510
458.000000 47.929000 -10.000000 12.000000 3.000000 127.813044 12.115501 743.957913 86.720257 20.858694 0.000000 0.046976
459.000000 51.252000 -8.000000 12.000000 3.000000 125.302014 25.958654 451.017317 93.366799 19.506794 0.000000 0.018842
460.000000 52.522000 -7.000000 12.000000 3.000000 122.794644 33.035630 275.094357 113.783363 19.035837 0.000000 0.056732
461.000000 53.715000 -5.000000 12.000000 3.000000 114.994873 46.481755 -158.454430 212.307649 18.614941 0.000000 0.219151
463.000000 45.896000 -10.000000 13.000000 3.000000 128.911676 17.119134 643.495153 31.899897 21.782432 0.000000 0.026605
464.000000 47.330000 -9.000000 13.000000 3.000000 127.668937 23.788243 500.561452 32.929513 21.122744 0.000000 0.021584
465.000000 48.561000 -8.000000 13.000000 3.000000 125.687148 30.548799 339.778861 43.376976 20.587514 0.000000 0.052507
466.000000 49.509000 -7.000000 13.000000 3.000000 122.905274 37.215762 157.581399 66.491693 20.193925 0.000000 0.107135
467.000000 50.085000 -6.000000 13.000000 3.000000 119.299013 43.618794 -50.614603 106.733178 19.962474 0.000000 0.185818
470.000000 46.032000 -8.000000 14.000000 3.000000 125.776070 34.695042 229.876294 -2.287627 21.718452 0.000000 0.095888
471.000000 46.728000 -7.000000 14.000000 3.000000 122.788222 40.933790 41.573063 23.274874 21.395884 0.000000 0.161679
474.000000 47.760000 -8.000000 1.000000 4.000000 58.323023 -30.302496 1603.998484 1710.233154 20.957618 0.000000 0.163831
475.000000 50.863000 -7.000000 1.000000 4.000000 55.443156 -26.543244 1512.635184 1769.629590 19.679863 0.000000 0.150989
476.000000 53.461000 -6.000000 1.000000 4.000000 51.552145 -21.969141 1409.176957 1862.434491 18.724982 0.000000 0.144133
477.000000 54.590000 -5.000000 1.000000 4.000000 46.202295 -16.364778 1291.051818 2016.622683 18.339245 0.000000 0.160156
478.000000 52.406000 -4.000000 1.000000 4.000000 38.776582 -9.489281 1154.902909 2299.348087 19.104766 0.000000 0.231495
479.000000 50.074000 -9.000000 2.000000 4.000000 70.169547 -29.375130 1580.845297 1386.403000 19.985452 0.000000 0.123652
480.000000 58.753000 -7.000000 2.000000 4.000000 66.842665 -21.379551 1396.352058 1435.371629 17.034714 0.000000 0.104044
481.000000 66.710000 -5.000000 2.000000 4.000000 59.837675 -9.748139 1159.905195 1575.634265 15.005015 0.000000 0.055946
482.000000 64.084000 -3.000000 2.000000 4.000000 45.100591 6.836560 845.963077 2021.202238 15.622800 0.000000 0.131162
483.000000 45.946000 -11.000000 3.000000 4.000000 79.727025 -31.515929 1634.965646 1169.824183 21.776972 0.000000 0.113771
484.000000 49.773000 -10.000000 3.000000 4.000000 79.554919 -28.538767 1560.323373 1166.855213 20.102864 0.000000 0.114319
485.000000 54.072000 -9.000000 3.000000 4.000000 79.155205 -25.027967 1477.524013 1168.553263 18.505181 0.000000 0.118197
486.000000 58.833000 -8.000000 3.000000 4.000000 78.401396 -20.860793 1385.153140 1177.400593 17.008139 0.000000 0.123398
487.000000 63.952000 -7.000000 3.000000 4.000000 77.098746 -15.893046 1281.449257 1197.327312 15.647391 0.000000 0.126956
488.000000 69.122000 -6.000000 3.000000 4.000000 74.952606 -9.969570 1164.190379 1234.782771 14.477680 0.000000 0.124847
489.000000 73.655000 -5.000000 3.000000 4.000000 71.535954 -2.953644 1030.533043 1300.850232 13.587605 0.000000 0.111630
490.000000 76.226000 -4.000000 3.000000 4.000000 66.284545 5.214301 876.778683 1415.771186 13.130568 0.000000 0.081488
491.000000 74.716000 -3.000000 3.000000 4.000000 58.587275 14.431386 698.026067 1619.716668 13.397284 0.000000 0.060071
492.000000 66.677000 -2.000000 3.000000 4.000000 48.060880 24.361669 487.639199 2002.551669 15.013710 0.000000 0.171420
494.000000 48.168000 -11.000000 4.000000 4.000000 87.075766 -27.780947 1542.008282 1003.141835 20.770215 0.000000 0.109172
495.000000 56.585000 -9.000000 4.000000 4.000000 87.276978 -20.400896 1375.289416 995.615883 17.680863 0.000000 0.132084
496.000000 66.583000 -7.000000 4.000000 4.000000 85.973567 -10.161138 1167.902348 1017.968014 15.026557 0.000000 0.152763
497.000000 76.124000 -5.000000 4.000000 4.000000 81.061493 3.832489 902.899590 1110.663773 13.144695 0.000000 0.148723
498.000000 77.925000 -3.000000 4.000000 4.000000 68.965507 21.437226 552.397990 1385.656212 12.843210 0.000000 0.102627
500.000000 45.985000 -12.000000 5.000000 4.000000 93.185567 -27.091334 1525.562217 873.715420 21.753732 0.000000 0.102679
501.000000 49.530000 -11.000000 5.000000 4.000000 93.779092 -23.810082 1449.928578 863.293365 20.196534 0.000000 0.116131
502.000000 53.456000 -10.000000 5.000000 4.000000 94.228129 -19.990431 1366.535537 856.329175 18.713164 0.000000 0.130819
503.000000 57.754000 -9.000000 5.000000 4.000000 94.428560 -15.531713 1274.124453 854.484637 17.320655 0.000000 0.145133
504.000000 62.360000 -8.000000 5.000000 4.000000 94.224521 -10.328499 1171.148907 860.189307 16.041712 0.000000 0.157355
505.000000 67.107000 -7.000000 5.000000 4.000000 93.390306 -4.287322 1055.687474 877.060153 14.907298 0.000000 0.165425
506.000000 71.659000 -6.000000 5.000000 4.000000 91.616012 2.642661 925.322702 910.603031 13.960752 0.000000 0.166730
507.000000 75.424000 -5.000000 5.000000 4.000000 88.511801 10.425388 776.970019 969.431280 13.264667 0.000000 0.158080
508.000000 77.484000 -4.000000 5.000000 4.000000 83.655624 18.893880 606.630543 1067.482712 12.912916 0.000000 0.137203
509.000000 76.660000 -3.000000 5.000000 4.000000 76.707627 27.737865 409.025208 1228.287153 13.052984 0.000000 0.114464
510.000000 71.838000 -2.000000 5.000000 4.000000 67.580134 36.553152 177.037908 1493.782920 13.930606 0.000000 0.155804
513.000000 50.125000 -11.000000 6.000000 4.000000 99.780850 -19.621871 1358.714163 744.023589 19.954704 0.000000 0.124228
514.000000 57.814000 -9.000000 6.000000 4.000000 100.572312 -10.475967 1174.012423 736.710033 17.300877 0.000000 0.151640
515.000000 66.093000 -7.000000 6.000000 4.000000 99.401010 1.608247 944.781330 762.730917 15.134167 0.000000 0.165257
516.000000 72.810000 -5.000000 6.000000 4.000000 94.169006 16.669999 652.710437 859.105423 13.739108 0.000000 0.147650
517.000000 73.161000 -3.000000 6.000000 4.000000 82.414419 33.305618 267.855734 1112.501089 13.675406 0.000000 0.107409
519.000000 46.892000 -12.000000 7.000000 4.000000 104.298329 -19.289137 1351.683827 650.374808 21.328700 0.000000 0.115170
520.000000 50.075000 -11.000000 7.000000 4.000000 105.057584 -15.246105 1268.352898 640.885671 19.972767 0.000000 0.129218
521.000000 53.472000 -10.000000 7.000000 4.000000 105.578807 -10.606887 1176.556909 635.705845 18.703681 0.000000 0.141552
522.000000 57.026000 -9.000000 7.000000 4.000000 105.727818 -5.304865 1074.936974 636.599618 17.538210 0.000000 0.150966
523.000000 60.623000 -8.000000 7.000000 4.000000 105.324519 0.701225 961.826907 646.042003 16.497730 0.000000 0.155945
524.000000 64.072000 -7.000000 7.000000 4.000000 104.141088 7.402755 835.161155 667.553704 15.609938 0.000000 0.154546
525.000000 67.076000 -6.000000 7.000000 4.000000 101.913411 14.714541 692.347511 706.226299 14.911362 0.000000 0.144394
526.000000 69.216000 -5.000000 7.000000 4.000000 98.373724 22.458933 530.087843 769.568547 14.451192 0.000000 0.123463
527.000000 69.966000 -4.000000 7.000000 4.000000 93.306952 30.377091 344.120229 868.913974 14.297287 0.000000 0.096020
528.000000 68.776000 -3.000000 7.000000 4.000000 86.620378 38.173715 128.839165 1021.850088 14.545960 0.000000 0.103521
529.000000 65.229000 -2.000000 7.000000 4.000000 78.401919 45.579240 -123.279202 1256.597839 15.338637 0.000000 0.206408
532.000000 49.512000 -11.000000 8.000000 4.000000 109.614152 -10.723896 1178.832868 550.631595 20.198168 0.000000 0.129895
533.000000 55.637000 -9.000000 8.000000 4.000000 109.956846 -0.100192 976.882090 550.178110 17.974474 0.000000 0.143737
534.000000 61.466000 -7.000000 8.000000 4.000000 107.787120 12.985503 726.804710 586.644643 16.270681 0.000000 0.135381
535.000000 65.242000 -5.000000 8.000000 4.000000 101.449848 27.735993 409.070100 694.707741 15.330348 0.000000 0.090236
536.000000 64.218000 -3.000000 8.000000 4.000000 89.740541 42.408175 -8.073375 947.601054 15.577328 0.000000 0.123885
538.000000 45.967000 -12.000000 9.000000 4.000000 112.928240 -10.829099 1180.880676 477.475758 21.754739 0.000000 0.118034
539.000000 48.563000 -11.000000 9.000000 4.000000 113.478180 -6.106300 1090.142380 470.833614 20.591625 0.000000 0.126167
540.000000 51.218000 -10.000000 9.000000 4.000000 113.665428 -0.813167 990.276270 469.266710 19.524031 0.000000 0.130853
541.000000 53.856000 -9.000000 9.000000 4.000000 113.348327 5.053057 879.832080 474.585166 18.567811 0.000000 0.130795
542.000000 56.362000 -8.000000 9.000000 4.000000 112.361002 11.448377 757.035138 489.252298 17.742532 0.000000 0.124323
543.000000 58.575000 -7.000000 9.000000 4.000000 110.525255 18.269256 619.690269 516.659885 17.072631 0.000000 0.109401
544.000000 60.285000 -6.000000 9.000000 4.000000 107.672242 25.351696 465.049423 561.542031 16.589029 0.000000 0.084286
545.000000 61.239000 -5.000000 9.000000 4.000000 103.671866 32.488601 289.625907 630.611199 16.331433 0.000000 0.054517
546.000000 61.168000 -4.000000 9.000000 4.000000 98.463384 39.463312 88.928345 733.560172 16.351699 0.000000 0.074116
547.000000 59.830000 -3.000000 9.000000 4.000000 92.078294 46.087047 -142.929295 884.685658 16.718857 0.000000 0.170759
548.000000 57.078000 -2.000000 9.000000 4.000000 84.647964 52.225270 -413.814584 1105.605972 17.526873 0.000000 0.328188
550.000000 47.338000 -11.000000 10.000000 4.000000 116.694310 -1.451387 1002.269958 399.640618 21.123192 0.000000 0.118304
551.000000 51.844000 -9.000000 10.000000 4.000000 116.005291 10.074778 783.771579 407.709991 19.287336 0.000000 0.112920
552.000000 55.601000 -7.000000 10.000000 4.000000 112.531107 23.195641 513.796599 455.232704 17.984824 0.000000 0.077863
553.000000 57.396000 -5.000000 10.000000 4.000000 105.257790 36.735239 171.724773 574.658825 17.424222 0.000000 0.042315
554.000000 55.758000 -3.000000 10.000000 4.000000 93.849807 49.287933 -275.774588 829.959301 17.939148 0.000000 0.234530
556.000000 45.930000 -11.000000 11.000000 4.000000 119.318750 3.179912 915.204334 335.616474 21.769637 0.000000 0.106683
557.000000 47.882000 -10.000000 11.000000 4.000000 118.966730 8.841282 807.586685 338.052805 20.882127 0.000000 0.101936
558.000000 49.722000 -9.000000 11.000000 4.000000 118.034506 14.896754 688.685528 347.960812 20.109766 0.000000 0.090786
559.000000 51.356000 -8.000000 11.000000 4.000000 116.401282 21.241858 556.628105 367.745587 19.470166 0.000000 0.071333
560.000000 52.671000 -7.000000 11.000000 4.000000 113.959191 27.734623 409.102949 400.640688 18.984730 0.000000 0.041824
561.000000 53.534000 -6.000000 11.000000 4.000000 110.629000 34.211933 243.223429 451.045758 18.679719 0.000000 0.021247
562.000000 53.802000 -5.000000 11.000000 4.000000 106.374271 40.512952 55.336988 525.029312 18.587719 0.000000 0.079404
563.000000 53.341000 -4.000000 11.000000 4.000000 101.210583 46.501751 -159.246945 631.093605 18.749664 0.000000 0.173944
564.000000 52.046000 -3.000000 11.000000 4.000000 95.207924 52.081773 -406.653889 781.366547 19.217698 0.000000 0.308399
566.000000 47.574000 -9.000000 12.000000 4.000000 119.538977 19.467120 594.559175 294.114501 21.017210 0.000000 0.064982
567.000000 49.858000 -7.000000 12.000000 4.000000 114.939126 31.879920 305.589035 351.600284 20.055567 0.000000 0.007143
568.000000 50.489000 -5.000000 12.000000 4.000000 107.145863 43.867514 -59.566401 480.416948 19.806880 0.000000 0.133996
570.000000 45.456000 -9.000000 13.000000 4.000000 120.613084 23.751834 501.378065 245.215619 21.995700 0.000000 0.036216
571.000000 46.474000 -8.000000 13.000000 4.000000 118.447182 29.725142 360.466481 269.550598 21.514795 0.000000 0.003770
572.000000 47.200000 -7.000000 13.000000 4.000000 115.576050 35.642702 203.235028 307.135252 21.184577 0.000000 0.043484
573.000000 47.555000 -6.000000 13.000000 4.000000 111.978401 41.383362 26.674273 362.061660 21.027487 0.000000 0.107536
574.000000 47.460000 -5.000000 13.000000 4.000000 107.664513 46.846773 -173.013610 439.860937 21.070650 0.000000 0.194899
577.000000 46.606000 -8.000000 2.000000 5.000000 60.600935 -20.609412 1379.754213 1588.902126 21.476816 0.000000 0.098989
578.000000 48.812000 -7.000000 2.000000 5.000000 57.534046 -16.208791 1287.871486 1654.122302 20.507235 0.000000 0.081810
579.000000 50.227000 -6.000000 2.000000 5.000000 53.458003 -11.064194 1185.462128 1753.744043 19.930930 0.000000 0.070127
580.000000 50.049000 -5.000000 2.000000 5.000000 48.038466 -5.076261 1070.607227 1912.602931 20.003425 0.000000 0.097428
581.000000 47.087000 -4.000000 2.000000 5.000000 40.907008 1.815146 940.891299 2183.824656 21.262803 0.000000 0.185850
582.000000 48.144000 -9.000000 3.000000 5.000000 71.489560 -20.210035 1371.213221 1324.981901 20.786791 0.000000 0.111021
583.000000 51.270000 -8.000000 3.000000 5.000000 69.713831 -16.020896 1284.047264 1354.913956 19.520518 0.000000 0.104667
584.000000 54.221000 -7.000000 3.000000 5.000000 67.239564 -11.167896 1187.485358 1401.273999 18.459158 0.000000 0.091855
585.000000 56.575000 -6.000000 3.000000 5.000000 63.806933 -5.567842 1079.921721 1472.950408 17.692000 0.000000 0.067916
586.000000 57.632000 -5.000000 3.000000 5.000000 59.094281 0.832390 959.362554 1585.362749 17.369015 0.000000 0.026865
587.000000 56.358000 -4.000000 3.000000 5.000000 52.756186 8.022727 823.301319 1767.337335 17.762981 0.000000 0.048673
588.000000 51.532000 -3.000000 3.000000 5.000000 44.527063 15.893448 668.542579 2078.702070 19.427519 0.000000 0.163405
589.000000 47.603000 -10.000000 4.000000 5.000000 80.194995 -19.849361 1363.537544 1138.753961 21.019711 0.000000 0.127576
590.000000 50.897000 -9.000000 4.000000 5.000000 79.286468 -15.852658 1280.629247 1152.682039 19.660156 0.000000 0.132162
591.000000 54.262000 -8.000000 4.000000 5.000000 77.883798 -11.259960 1189.282746 1176.590662 18.441370 0.000000 0.133691
592.000000 57.481000 -7.000000 4.000000 5.000000 75.790162 -6.000929 1088.140740 1215.042670 17.409491 0.000000 0.129810
593.000000 60.167000 -6.000000 4.000000 5.000000 72.751456 -0.028658 975.538335 1275.168313 16.633297 0.000000 0.117645
594.000000 61.705000 -5.000000 4.000000 5.000000 68.466480 6.655562 849.410681 1368.572612 16.220024 0.000000 0.094825
595.000000 61.232000 -4.000000 4.000000 5.000000 62.630938 13.974161 707.165194 1515.153074 16.346628 0.000000 0.069950
596.000000 57.770000 -3.000000 4.000000 5.000000 55.032090 21.754623 545.501451 1751.452026 17.327429 0.000000 0.105455
597.000000 50.611000 -2.000000 4.000000 5.000000 45.685010 29.737769 360.151922 2151.245039 19.779499 0.000000 0.234661
598.000000 46.020000 -11.000000 5.000000 5.000000 87.237614 -19.522051 1356.602021 996.098793 21.740153 0.000000 0.134555
599.000000 52.435000 -9.000000 5.000000 5.000000 86.219234 -11.342241 1190.890107 1013.541234 19.081155 0.000000 0.151356
600.000000 55.749000 -8.000000 5.000000 5.000000 85.016954 -6.385335 1095.446809 1035.428435 17.947264 0.000000 0.155448
601.000000 58.879000 -7.000000 5.000000 5.000000 83.105273 -0.788963 989.821505 1071.157763 16.993835 0.000000 0.154307
602.000000 61.470000 -6.000000 5.000000 5.000000 80.241814 5.451027 872.293047 1126.940364 16.278337 0.000000 0.145783
603.000000 62.761000 -4.000000 5.000000 5.000000 70.604155 19.566578 592.456127 1343.158806 15.945898 0.000000 0.106118
604.000000 60.036000 -3.000000 5.000000 5.000000 63.435701 27.106650 424.074749 1545.531220 16.671156 0.000000 0.113056
605.000000 54.313000 -2.000000 5.000000 5.000000 54.704451 34.647488 231.196986 1867.176390 18.429297 0.000000 0.204371
607.000000 46.823000 -11.000000 6.000000 5.000000 93.071939 -15.563995 1274.777809 881.039987 21.364713 0.000000 0.145676
608.000000 49.835000 -10.000000 6.000000 5.000000 92.858363 -11.416219 1192.336064 886.176746 20.073940 0.000000 0.155440
609.000000 52.938000 -9.000000 6.000000 5.000000 92.252550 -6.728801 1101.984037 898.370679 18.897626 0.000000 0.162708
610.000000 56.006000 -8.000000 6.000000 5.000000 91.100442 -1.465001 1002.525869 920.319028 17.862834 0.000000 0.166151
611.000000 58.830000 -7.000000 6.000000 5.000000 89.210285 4.382631 892.511862 955.879153 17.005888 0.000000 0.164155
612.000000 61.093000 -6.000000 6.000000 5.000000 86.360735 10.775268 770.167347 1010.683906 16.376704 0.000000 0.154965
613.000000 62.357000 -5.000000 6.000000 5.000000 82.325506 17.613693 633.296226 1093.166653 16.045811 0.000000 0.137656
614.000000 62.090000 -4.000000 6.000000 5.000000 76.919416 24.735667 479.147976 1216.340125 16.116205 0.000000 0.117265
615.000000 59.765000 -3.000000 6.000000 5.000000 70.061799 31.932023 304.230905 1401.039909 16.744468 0.000000 0.123471
616.000000 55.048000 -2.000000 6.000000 5.000000 61.837878 38.980370 104.044465 1682.210016 18.180829 0.000000 0.205471
618.000000 47.010000 -11.000000 7.000000 5.000000 98.237576 -11.483090 1193.643765 782.000425 21.278092 0.000000 0.152362
619.000000 49.803000 -10.000000 7.000000 5.000000 98.035401 -7.037515 1107.867719 787.905119 20.084661 0.000000 0.160734
620.000000 52.622000 -9.000000 7.000000 5.000000 97.401332 -2.069886 1013.899489 801.097057 19.009003 0.000000 0.166022
621.000000 55.338000 -8.000000 7.000000 5.000000 96.183033 3.429161 910.506609 824.190347 18.076437 0.000000 0.166972
622.000000 57.757000 -7.000000 7.000000 5.000000 94.201782 9.432345 796.196338 860.844512 17.320094 0.000000 0.162112
623.000000 59.604000 -6.000000 7.000000 5.000000 91.265951 15.863871 669.143120 916.273664 16.784192 0.000000 0.150010
624.000000 60.527000 -5.000000 7.000000 5.000000 87.197723 22.595080 527.090362 998.062369 16.529093 0.000000 0.130696
625.000000 60.131000 -4.000000 7.000000 5.000000 81.872662 29.453473 367.215233 1117.517263 16.639408 0.000000 0.112343
626.000000 58.049000 -3.000000 7.000000 5.000000 75.264528 36.246164 185.939170 1291.996140 17.237540 0.000000 0.129189
627.000000 54.071000 -2.000000 7.000000 5.000000 67.479919 42.790935 -21.343167 1549.115248 18.507428 0.000000 0.220118
629.000000 46.694000 -11.000000 8.000000 5.000000 102.740443 -7.316483 1113.191194 695.650514 21.420013 0.000000 0.154128
630.000000 49.215000 -10.000000 8.000000 5.000000 102.464936 -2.614174 1024.141046 702.834406 20.322863 0.000000 0.160021
631.000000 51.701000 -9.000000 8.000000 5.000000 101.717336 2.573471 926.625129 717.545176 19.346153 0.000000 0.162260
632.000000 54.027000 -8.000000 8.000000 5.000000 100.353255 8.227516 819.375968 742.325746 18.513617 0.000000 0.159623
633.000000 56.020000 -7.000000 8.000000 5.000000 98.214110 14.289815 700.859777 780.672472 17.855662 0.000000 0.150752
634.000000 57.450000 -6.000000 8.000000 5.000000 95.143287 20.658047 569.202642 837.466703 17.411896 0.000000 0.134643
635.000000 58.044000 -5.000000 8.000000 5.000000 91.011076 27.190278 422.090707 919.645252 17.234884 0.000000 0.113062
636.000000 57.511000 -4.000000 8.000000 5.000000 85.745151 33.720921 256.633005 1037.271639 17.395927 0.000000 0.100982
637.000000 55.603000 -3.000000 8.000000 5.000000 79.359137 40.084624 69.169584 1205.304176 17.994221 0.000000 0.138793
638.000000 52.192000 -2.000000 8.000000 5.000000 71.969247 46.140083 -145.002404 1446.627402 19.171977 0.000000 0.246479
640.000000 45.991000 -11.000000 9.000000 5.000000 106.607020 -3.106451 1033.411546 619.526772 21.745883 0.000000 0.151235
641.000000 48.218000 -10.000000 9.000000 5.000000 106.194517 1.801583 941.146321 628.264717 20.741759 0.000000 0.153971
642.000000 50.360000 -9.000000 9.000000 5.000000 105.275775 7.141442 840.149831 644.750050 19.859984 0.000000 0.152495
643.000000 52.302000 -8.000000 9.000000 5.000000 103.720069 12.868361 729.121135 671.458594 19.122812 0.000000 0.145606
644.000000 53.895000 -7.000000 9.000000 5.000000 101.393707 18.900704 606.487329 711.742787 18.558247 0.000000 0.132107
645.000000 54.952000 -6.000000 9.000000 5.000000 98.176194 25.121752 470.328568 770.204101 18.202020 0.000000 0.111775
646.000000 55.264000 -5.000000 9.000000 5.000000 93.980858 31.390316 318.276825 853.257399 18.100460 0.000000 0.090164
647.000000 54.621000 -4.000000 9.000000 5.000000 88.776075 37.558702 147.376998 970.007117 18.314725 0.000000 0.094861
648.000000 52.858000 -3.000000 9.000000 5.000000 82.601530 43.492770 -46.107043 1133.645720 18.927266 0.000000 0.160318
649.000000 49.898000 -2.000000 9.000000 5.000000 75.574023 49.087688 -266.968738 1363.758036 20.051966 0.000000 0.285217
651.000000 48.750000 -9.000000 10.000000 5.000000 108.163857 11.579864 754.462671 580.547939 20.514675 0.000000 0.137664
652.000000 50.340000 -8.000000 10.000000 5.000000 106.398200 17.302044 639.729545 609.254690 19.867184 0.000000 0.126130
653.000000 51.580000 -7.000000 10.000000 5.000000 103.882399 23.228562 513.064443 651.530183 19.389945 0.000000 0.107799
654.000000 52.324000 -6.000000 10.000000 5.000000 100.529648 29.239557 372.503920 711.732419 19.115368 0.000000 0.084223
655.000000 51.694000 -4.000000 10.000000 5.000000 91.157387 40.999035 39.423495 912.188909 19.350945 0.000000 0.105937
656.000000 50.060000 -3.000000 10.000000 5.000000 85.190280 46.518701 -159.919163 1072.609487 19.984105 0.000000 0.196046
658.000000 45.474000 -10.000000 11.000000 5.000000 111.810306 10.407642 777.314650 503.083553 21.990902 0.000000 0.128567
659.000000 46.986000 -9.000000 11.000000 5.000000 110.471963 15.843684 669.552922 523.322732 21.283478 0.000000 0.118540
660.000000 48.266000 -8.000000 11.000000 5.000000 108.498299 21.492974 551.188874 554.001613 20.719714 0.000000 0.102168
661.000000 49.209000 -7.000000 11.000000 5.000000 105.808199 27.254004 420.576859 598.219318 20.323518 0.000000 0.079324
662.000000 49.698000 -6.000000 11.000000 5.000000 102.343911 33.012513 275.712078 660.117679 20.124414 0.000000 0.056884
663.000000 49.615000 -5.000000 11.000000 5.000000 98.081506 38.654538 114.126938 745.302999 20.159293 0.000000 0.069864
664.000000 48.854000 -4.000000 11.000000 5.000000 93.038404 44.079374 -67.250658 861.474015 20.474868 0.000000 0.136646
665.000000 47.340000 -3.000000 11.000000 5.000000 87.276236 49.208990 -272.294508 1019.377475 21.131173 0.000000 0.243788
666.000000 46.169000 -8.000000 12.000000 5.000000 110.121183 25.419583 463.487027 504.414509 21.660132 0.000000 0.074554
667.000000 46.866000 -7.000000 12.000000 5.000000 107.281453 30.972087 329.010602 550.471549 21.338884 0.000000 0.049058
668.000000 47.154000 -6.000000 12.000000 5.000000 103.734059 36.453442 179.936772 613.961432 21.209264 0.000000 0.045155
669.000000 46.946000 -5.000000 12.000000 5.000000 99.474871 41.768316 13.752310 700.166069 21.304511 0.000000 0.095636
670.000000 46.166000 -4.000000 12.000000 5.000000 94.533441 46.838167 -172.668068 816.247602 21.666025 0.000000 0.181126
671.000000 48.654000 -7.000000 4.000000 6.000000 66.290614 -2.690121 1025.570761 1414.191923 20.571634 0.000000 0.081929
672.000000 48.986000 -5.000000 4.000000 6.000000 57.415977 8.784945 808.670410 1637.061916 20.434829 0.000000 0.034576
673.000000 46.882000 -9.000000 5.000000 6.000000 78.221849 -7.879748 1123.960432 1167.560463 21.344370 0.000000 0.137353
674.000000 49.013000 -8.000000 5.000000 6.000000 76.216073 -3.203914 1035.247947 1205.456464 20.417543 0.000000 0.132318
675.000000 50.739000 -7.000000 5.000000 6.000000 73.488255 1.964283 938.086727 1260.240478 19.723986 0.000000 0.121043
676.000000 51.741000 -6.000000 5.000000 6.000000 69.862203 7.609530 831.209476 1339.179629 19.342889 0.000000 0.102494
677.000000 51.609000 -5.000000 5.000000 6.000000 65.166629 13.677167 713.082099 1453.614686 19.393863 0.000000 0.080834
678.000000 49.882000 -4.000000 5.000000 6.000000 59.274335 20.067254 581.829592 1622.055565 20.066498 0.000000 0.084983
679.000000 46.172000 -3.000000 5.000000 6.000000 52.155176 26.638130 435.135783 1876.507308 21.680310 0.000000 0.154348
680.000000 51.513000 -7.000000 6.000000 6.000000 79.653192 6.550795 851.405099 1138.795673 19.425163 0.000000 0.143501
681.000000 52.462000 -5.000000 6.000000 6.000000 71.639880 18.328180 618.462345 1317.292569 19.076117 0.000000 0.109349
682.000000 45.841000 -10.000000 7.000000 6.000000 90.612898 -4.090491 1051.970195 929.456947 21.823916 0.000000 0.164376
683.000000 47.937000 -9.000000 7.000000 6.000000 89.320820 0.547296 964.718807 953.759501 20.870296 0.000000 0.165044
684.000000 49.815000 -8.000000 7.000000 6.000000 87.443822 5.592814 869.604699 989.279209 20.084264 0.000000 0.161341
685.000000 51.293000 -7.000000 7.000000 6.000000 84.846250 11.014090 765.514888 1039.896161 19.506456 0.000000 0.152244
686.000000 52.136000 -6.000000 7.000000 6.000000 81.393986 16.747865 651.115934 1111.105271 19.191800 0.000000 0.137401
687.000000 52.073000 -5.000000 7.000000 6.000000 76.975674 22.699087 524.796503 1210.866169 19.216407 0.000000 0.119725
688.000000 50.827000 -4.000000 7.000000 6.000000 71.530421 28.747289 384.590999 1351.023271 19.688871 0.000000 0.113959
689.000000 48.186000 -3.000000 7.000000 6.000000 65.076012 34.759758 228.076545 1549.784694 20.769668 0.000000 0.152011
690.000000 47.480000 -9.000000 8.000000 6.000000 93.731416 4.722327 886.090253 870.567445 21.069281 0.000000 0.166627
691.000000 50.370000 -7.000000 8.000000 6.000000 89.163953 15.307622 680.405303 957.283878 19.861878 0.000000 0.150381
692.000000 50.880000 -5.000000 8.000000 6.000000 81.339583 26.768369 432.070219 1124.612146 19.665075 0.000000 0.117562
693.000000 47.409000 -3.000000 8.000000 6.000000 69.847439 38.257653 126.284864 1444.018978 21.107862 0.000000 0.160339
694.000000 47.979000 -8.000000 9.000000 6.000000 95.434640 13.991219 706.824894 835.472980 20.849256 0.000000 0.153627
695.000000 48.986000 -7.000000 9.000000 6.000000 92.718041 19.395794 596.065752 886.829249 20.421494 0.000000 0.140372
696.000000 49.209000 -5.000000 9.000000 6.000000 84.894981 30.529426 340.269426 1052.626730 20.331259 0.000000 0.107936
697.000000 48.109000 -4.000000 9.000000 6.000000 79.726882 36.053017 191.503773 1182.287299 20.797320 0.000000 0.116611
698.000000 47.324000 -7.000000 10.000000 6.000000 95.621310 23.254568 512.485830 825.697016 21.137293 0.000000 0.124174
699.000000 47.286000 -5.000000 10.000000 6.000000 87.788913 33.987192 249.380338 991.117594 21.156600 0.000000 0.096303
700.000000 45.517000 -7.000000 11.000000 6.000000 97.979130 26.870755 429.655321 771.875853 21.975221 0.000000 0.103514
701.000000 45.658000 -6.000000 11.000000 6.000000 94.407085 32.052356 301.088387 843.130980 21.908571 0.000000 0.086334
#UB matrix in q= (UB) B0 G* 
#[[ 0.587883879 -0.764031697  0.263344027]
# [ 0.719939875  0.643741039  0.2605008  ]
# [-0.368889036  0.036452771  0.929441226]]
#B0 matrix in q= UB (B0) G*
#[[ 0.19670273 -0.          0.03056101]
# [ 0.          0.19187965 -0.        ]
# [ 0.          0.          0.18806537]]
#UBB0 matrix in q= (UB B0) G* i.e. recip. basis vectors are columns in LT frame: astar = UBB0[:,0], bstar = UBB0[:,1], cstar = UBB0[:,2]. (abcstar as columns on xyzlab1, xlab1 = ui, ui = unit vector along incident beam)
#[[ 0.11563837 -0.14660214  0.06749222]
# [ 0.14161414  0.12352081  0.07099327]
# [-0.07256148  0.00699455  0.16352209]]
#Euler angles phi theta psi (deg)
#[264.307  21.76   45.361]
#deviatoric strain in direct crystal frame (10-3 unit)
#[[-3.54 -0.39  0.61]
# [-0.39 -3.19 -0.48]
# [ 0.61 -0.48  6.73]]
#deviatoric strain in sample2 frame (10-3 unit)
#[[ 3.86  2.32  3.85]
# [ 2.32 -2.99  1.49]
# [ 3.86  1.49 -0.86]]
#new lattice parameters
#[ 5.1505     5.2134507  5.3149452 90.0213657 99.1972218 90.0444409]
#CCDLabel
#sCMOS
#DetectorParameters
#[79.0, 975.0, 941.0, 0.0, 0.0]
#pixelsize
#0.0734
#Frame dimensions
#[2018, 2016]
#
