#Strain and Orientation Refinement from experimental file: /home/micha/LaueProjects/DepthEffects/testZrO2_187.cor
#File created at Wed Jun 28 14:29:28 2023 with indexingSpotsSet.py
#Number of indexed spots: 541
#Element
#ZrO2
#grainIndex
#G_0
#Mean Deviation(pixel): 0.117
##spot_index intensity h k l 2theta Chi Xexp Yexp Energy GrainIndex PixDev
11.000000 46.882000 5.000000 7.000000 -5.000000 64.571395 -42.059788 1946.135289 1630.236147 21.352736 0.000000 0.247894
12.000000 49.409000 6.000000 7.000000 -5.000000 72.683591 -46.007355 2089.821721 1424.131201 20.257787 0.000000 0.258062
13.000000 50.534000 7.000000 7.000000 -5.000000 79.725864 -49.912861 2253.722990 1243.963571 19.803911 0.000000 0.299581
16.000000 46.221000 6.000000 8.000000 -5.000000 72.861582 -41.261922 1919.281004 1382.533003 21.655224 0.000000 0.191086
17.000000 47.514000 7.000000 8.000000 -5.000000 79.755669 -44.944499 2049.211122 1215.820699 21.063412 0.000000 0.205141
18.000000 47.870000 8.000000 8.000000 -5.000000 85.765989 -48.599095 2195.777365 1061.486335 20.904061 0.000000 0.246228
19.000000 47.526000 9.000000 8.000000 -5.000000 90.954579 -52.196863 2362.393382 911.742623 21.053233 0.000000 0.323292
26.000000 61.490000 4.000000 5.000000 -4.000000 63.908354 -45.871093 2084.528881 1697.994781 16.279923 0.000000 0.313331
29.000000 50.018000 3.000000 6.000000 -4.000000 53.537322 -34.995721 1728.509569 1911.869608 20.017816 0.000000 0.245784
30.000000 56.642000 2.000000 3.000000 -2.000000 64.861250 -39.738911 1869.792160 1597.805743 8.836812 0.000000 0.216899
31.000000 60.286000 5.000000 6.000000 -4.000000 74.657185 -44.506748 2032.920653 1355.075632 16.602379 0.000000 0.223435
32.000000 61.560000 3.000000 3.000000 -2.000000 82.921698 -49.233788 2223.386513 1145.672193 8.128086 0.000000 0.270394
35.000000 46.022000 3.000000 7.000000 -4.000000 54.644559 -30.354200 1605.302159 1825.931762 21.756560 0.000000 0.192047
36.000000 51.834000 4.000000 7.000000 -4.000000 65.197448 -34.627695 1718.253780 1545.446535 19.313327 0.000000 0.166375
37.000000 55.381000 5.000000 7.000000 -4.000000 74.539304 -38.979645 1845.932999 1323.942560 18.073184 0.000000 0.161630
38.000000 57.011000 6.000000 7.000000 -4.000000 82.619181 -43.361200 1991.421166 1132.763719 17.553680 0.000000 0.171331
39.000000 57.179000 7.000000 7.000000 -4.000000 89.482584 -47.721492 2158.723663 955.448263 17.499904 0.000000 0.217066
40.000000 56.321000 8.000000 7.000000 -4.000000 95.233954 -52.011105 2353.144338 780.817718 17.764492 0.000000 0.313568
42.000000 47.365000 1.000000 2.000000 -1.000000 65.161061 -30.365732 1605.593106 1518.418129 5.284016 0.000000 0.137688
43.000000 50.744000 5.000000 8.000000 -4.000000 74.038459 -34.315373 1709.621409 1313.712416 19.725546 0.000000 0.134401
44.000000 52.584000 3.000000 4.000000 -2.000000 81.881635 -38.335068 1826.076142 1136.731706 9.516101 0.000000 0.129682
45.000000 53.179000 7.000000 8.000000 -4.000000 88.693097 -42.386456 1957.325286 974.243675 18.816769 0.000000 0.137335
46.000000 52.839000 4.000000 4.000000 -2.000000 94.527789 -46.429325 2106.379287 817.341523 9.467883 0.000000 0.181666
47.000000 51.842000 9.000000 8.000000 -4.000000 99.471734 -50.423965 2277.124801 659.154733 19.297921 0.000000 0.270013
49.000000 46.509000 5.000000 9.000000 -4.000000 73.326292 -30.375654 1605.843494 1314.658035 21.522354 0.000000 0.122401
50.000000 48.445000 6.000000 9.000000 -4.000000 80.896498 -34.047012 1702.255263 1149.141885 20.659086 0.000000 0.117471
51.000000 49.335000 7.000000 9.000000 -4.000000 87.597441 -37.781151 1809.292457 998.136541 20.283780 0.000000 0.107784
52.000000 49.394000 8.000000 9.000000 -4.000000 93.450852 -41.547423 1928.814035 854.279353 20.257065 0.000000 0.113519
53.000000 48.832000 9.000000 9.000000 -4.000000 98.508188 -45.313556 2063.139456 712.040333 20.488035 0.000000 0.157119
54.000000 47.831000 10.000000 9.000000 -4.000000 102.838309 -49.047287 2215.200683 566.768215 20.914862 0.000000 0.238804
56.000000 45.742000 7.000000 10.000000 -4.000000 86.335044 -33.813950 1695.895778 1023.975134 21.877940 0.000000 0.105215
57.000000 46.095000 4.000000 5.000000 -2.000000 92.151150 -37.300109 1794.919751 890.177246 10.853749 0.000000 0.091083
58.000000 45.879000 9.000000 10.000000 -4.000000 97.263968 -40.817899 1904.619200 759.723284 21.807699 0.000000 0.096153
62.000000 79.867000 3.000000 4.000000 -3.000000 64.314079 -43.703254 2003.646117 1657.060013 12.534093 0.000000 0.273668
63.000000 85.507000 4.000000 4.000000 -3.000000 77.370004 -50.392484 2275.668853 1319.294086 11.704427 0.000000 0.322572
65.000000 59.641000 2.000000 5.000000 -3.000000 50.467982 -30.349929 1605.194413 1970.298824 16.789112 0.000000 0.229369
66.000000 71.212000 3.000000 5.000000 -3.000000 65.136741 -36.228666 1763.555559 1559.299673 14.057858 0.000000 0.179966
67.000000 76.947000 4.000000 5.000000 -3.000000 77.496009 -42.221128 1951.647504 1263.307931 13.006995 0.000000 0.180011
68.000000 78.213000 5.000000 5.000000 -3.000000 87.492485 -48.198592 2178.710108 1011.712495 12.793940 0.000000 0.232349
70.000000 53.553000 2.000000 6.000000 -3.000000 51.853444 -25.267241 1483.009299 1875.767922 18.697890 0.000000 0.175377
71.000000 68.687000 4.000000 6.000000 -3.000000 76.768973 -35.649319 1746.953196 1252.417324 14.571937 0.000000 0.132797
72.000000 70.799000 5.000000 6.000000 -3.000000 86.534683 -41.034942 1911.761330 1027.403617 14.134274 0.000000 0.131767
75.000000 48.114000 2.000000 7.000000 -3.000000 52.681215 -21.292703 1394.471693 1821.585272 20.811799 0.000000 0.141431
76.000000 56.138000 3.000000 7.000000 -3.000000 64.794789 -25.734034 1493.773084 1503.360546 17.833797 0.000000 0.114945
77.000000 61.286000 4.000000 7.000000 -3.000000 75.643926 -30.378660 1605.919377 1260.306104 16.332241 0.000000 0.120041
78.000000 63.844000 5.000000 7.000000 -3.000000 85.062894 -35.176287 1733.575193 1054.744855 15.674869 0.000000 0.109088
79.000000 64.366000 6.000000 7.000000 -3.000000 93.036340 -40.064878 1880.196924 866.402403 15.545333 0.000000 0.101739
80.000000 63.449000 7.000000 7.000000 -3.000000 99.652418 -44.974866 2050.350414 682.235275 15.767797 0.000000 0.150630
81.000000 61.610000 8.000000 7.000000 -3.000000 105.056223 -49.834854 2250.194948 492.119970 16.236718 0.000000 0.263674
83.000000 50.182000 3.000000 8.000000 -3.000000 64.255453 -22.027590 1410.454100 1500.886294 19.950959 0.000000 0.100058
84.000000 54.873000 4.000000 8.000000 -3.000000 74.375290 -26.124621 1502.844753 1276.257615 18.241925 0.000000 0.115898
85.000000 57.601000 5.000000 8.000000 -3.000000 83.380216 -30.389433 1606.191315 1085.803059 17.374860 0.000000 0.113016
86.000000 58.678000 6.000000 8.000000 -3.000000 91.214835 -34.782816 1722.565380 913.210671 17.053186 0.000000 0.091980
87.000000 58.492000 7.000000 8.000000 -3.000000 97.905056 -39.257235 1854.595951 747.996624 17.104978 0.000000 0.081236
88.000000 57.415000 8.000000 8.000000 -3.000000 103.530414 -43.759521 2005.670440 582.398324 17.423704 0.000000 0.130641
89.000000 55.759000 9.000000 8.000000 -3.000000 108.199698 -48.234500 2180.229402 409.743353 17.939831 0.000000 0.232677
91.000000 49.388000 4.000000 9.000000 -3.000000 73.095474 -22.654604 1424.222016 1295.443681 20.268388 0.000000 0.112623
92.000000 52.117000 5.000000 9.000000 -3.000000 81.658892 -26.456227 1510.594241 1117.262124 19.203792 0.000000 0.119442
93.000000 53.520000 2.000000 3.000000 -1.000000 89.274820 -30.398548 1606.421449 956.794469 6.232487 0.000000 0.105360
94.000000 53.844000 7.000000 9.000000 -3.000000 95.934007 -34.450419 1713.346059 805.337012 18.582382 0.000000 0.077743
95.000000 53.351000 8.000000 9.000000 -3.000000 101.672783 -38.574625 1833.414278 656.582460 18.752123 0.000000 0.066720
96.000000 52.276000 3.000000 3.000000 -1.000000 106.557066 -42.729673 1969.208314 505.395218 6.378549 0.000000 0.117345
97.000000 50.817000 10.000000 9.000000 -3.000000 110.669018 -46.872176 2124.034177 347.062090 19.683726 0.000000 0.210277
100.000000 47.349000 5.000000 10.000000 -3.000000 79.989687 -23.195752 1436.205873 1147.687135 21.138507 0.000000 0.123184
101.000000 48.921000 6.000000 10.000000 -3.000000 87.340267 -26.741255 1517.290973 996.986579 20.456221 0.000000 0.118231
102.000000 49.585000 7.000000 10.000000 -3.000000 93.892850 -30.406361 1606.618731 856.080517 20.179599 0.000000 0.096596
103.000000 49.521000 8.000000 10.000000 -3.000000 99.656720 -34.165918 1705.513302 719.662771 20.203176 0.000000 0.065410
104.000000 48.906000 9.000000 10.000000 -3.000000 104.667872 -37.990256 1815.598520 583.545320 20.455132 0.000000 0.056452
105.000000 47.896000 10.000000 10.000000 -3.000000 108.979603 -41.846402 1938.887753 444.085721 20.884862 0.000000 0.108298
106.000000 46.619000 11.000000 10.000000 -3.000000 112.654846 -45.699700 2077.908167 297.793959 21.455686 0.000000 0.193486
107.000000 45.734000 7.000000 11.000000 -3.000000 91.874747 -26.988863 1523.135827 901.464955 21.880001 0.000000 0.113619
108.000000 45.978000 8.000000 11.000000 -3.000000 97.597329 -30.413131 1606.789726 774.537070 21.761253 0.000000 0.087413
109.000000 45.716000 9.000000 11.000000 -3.000000 102.662350 -33.919669 1698.776182 649.599337 21.883748 0.000000 0.054620
112.000000 70.862000 1.000000 4.000000 -2.000000 44.682837 -22.808802 1427.627022 2121.594698 14.132122 0.000000 0.241281
113.000000 61.709000 1.000000 5.000000 -2.000000 46.852482 -17.629908 1317.039115 1999.572244 16.228192 0.000000 0.183422
114.000000 79.550000 2.000000 5.000000 -2.000000 64.537995 -23.781102 1449.278353 1501.041833 12.585279 0.000000 0.106884
115.000000 89.327000 3.000000 5.000000 -2.000000 79.788732 -30.384281 1606.061252 1165.742225 11.204546 0.000000 0.116403
116.000000 90.470000 5.000000 5.000000 -2.000000 101.718046 -44.341070 2026.818820 628.855268 11.058080 0.000000 0.139589
118.000000 54.035000 1.000000 6.000000 -2.000000 48.183150 -13.906328 1241.482060 1932.962338 18.533006 0.000000 0.149360
119.000000 67.743000 1.000000 3.000000 -1.000000 63.655274 -19.017768 1345.971218 1504.754676 7.389692 0.000000 0.088725
120.000000 76.398000 3.000000 6.000000 -2.000000 77.492807 -24.536151 1466.315927 1203.449835 13.101602 0.000000 0.118796
121.000000 80.526000 5.000000 6.000000 -2.000000 98.914847 -36.505999 1771.590265 730.960091 12.424482 0.000000 0.066339
123.000000 47.787000 1.000000 7.000000 -2.000000 49.052622 -11.121842 1186.586669 1892.748878 20.955863 0.000000 0.127485
124.000000 58.584000 2.000000 7.000000 -2.000000 62.755894 -15.457223 1272.617635 1515.985280 17.090465 0.000000 0.075062
125.000000 66.075000 3.000000 7.000000 -2.000000 75.320601 -20.138555 1369.689227 1241.306861 15.149408 0.000000 0.117518
126.000000 70.236000 4.000000 7.000000 -2.000000 86.397676 -25.139251 1480.072486 1015.848304 14.248622 0.000000 0.123039
127.000000 71.604000 5.000000 7.000000 -2.000000 95.842030 -30.409863 1606.707175 813.309460 13.973656 0.000000 0.092019
128.000000 70.929000 6.000000 7.000000 -2.000000 103.673267 -35.877650 1753.467465 617.848212 14.104411 0.000000 0.048793
129.000000 68.923000 7.000000 7.000000 -2.000000 110.017084 -41.450408 1925.565248 417.868033 14.513168 0.000000 0.104885
130.000000 66.147000 8.000000 7.000000 -2.000000 115.053135 -47.024693 2130.182055 202.973835 15.120725 0.000000 0.235168
132.000000 51.391000 1.000000 4.000000 -1.000000 61.921804 -12.714504 1217.839701 1529.594366 9.741465 0.000000 0.063772
133.000000 57.831000 3.000000 8.000000 -2.000000 73.372350 -16.748251 1298.891980 1276.661614 17.309690 0.000000 0.112861
134.000000 61.905000 2.000000 4.000000 -1.000000 83.723236 -21.061937 1389.486142 1067.857226 8.083567 0.000000 0.131512
135.000000 63.854000 5.000000 8.000000 -2.000000 92.821770 -25.631975 1491.412552 882.160131 15.670739 0.000000 0.117841
136.000000 64.108000 3.000000 4.000000 -1.000000 100.629042 -30.419055 1606.939361 706.769347 7.803052 0.000000 0.078335
137.000000 63.136000 7.000000 8.000000 -2.000000 107.190766 -35.368181 1738.983287 532.662372 15.844232 0.000000 0.036354
138.000000 61.354000 4.000000 4.000000 -1.000000 112.606032 -40.411145 1891.359278 352.421302 8.151431 0.000000 0.097637
139.000000 59.087000 9.000000 8.000000 -2.000000 117.001622 -45.471482 2069.155124 158.929971 16.927057 0.000000 0.212085
141.000000 45.648000 2.000000 9.000000 -2.000000 61.174481 -10.546059 1175.374427 1543.499552 21.934298 0.000000 0.054126
142.000000 51.190000 3.000000 9.000000 -2.000000 71.659802 -14.072056 1244.788455 1308.826409 19.556119 0.000000 0.106413
143.000000 55.015000 4.000000 9.000000 -2.000000 81.314504 -17.838640 1321.361136 1113.721265 18.193120 0.000000 0.133605
144.000000 57.219000 5.000000 9.000000 -2.000000 89.997565 -21.835470 1406.260086 941.049269 17.489205 0.000000 0.132844
145.000000 58.045000 6.000000 9.000000 -2.000000 97.646149 -26.042028 1500.921441 780.181729 17.237387 0.000000 0.108650
146.000000 57.797000 7.000000 9.000000 -2.000000 104.261637 -30.426672 1607.131767 623.728033 17.309141 0.000000 0.065496
147.000000 56.769000 8.000000 9.000000 -2.000000 109.891498 -34.946831 1727.141880 465.899244 17.620441 0.000000 0.028267
148.000000 55.218000 9.000000 9.000000 -2.000000 114.612268 -39.550664 1863.828126 301.563892 18.114035 0.000000 0.093297
149.000000 53.342000 10.000000 9.000000 -2.000000 118.516001 -44.180170 2020.925909 125.594795 18.749573 0.000000 0.195052
151.000000 45.775000 3.000000 10.000000 -2.000000 70.163606 -11.914582 1202.096887 1337.810943 21.869990 0.000000 0.099223
152.000000 49.292000 2.000000 5.000000 -1.000000 79.173628 -15.241742 1268.264844 1154.331457 10.153069 0.000000 0.131929
153.000000 51.563000 5.000000 10.000000 -2.000000 87.419668 -18.771155 1340.795919 992.228810 19.408512 0.000000 0.140293
154.000000 52.723000 3.000000 5.000000 -1.000000 94.832180 -22.492669 1420.654350 842.520793 9.489256 0.000000 0.128019
155.000000 52.965000 7.000000 10.000000 -2.000000 101.389426 -26.388571 1509.009561 698.968082 18.889340 0.000000 0.098210
156.000000 52.495000 4.000000 5.000000 -1.000000 107.107192 -30.433085 1607.293809 556.807167 9.528120 0.000000 0.053892
157.000000 51.506000 9.000000 10.000000 -2.000000 112.027838 -34.592595 1717.280416 412.022378 19.420408 0.000000 0.024241
158.000000 50.161000 5.000000 5.000000 -1.000000 116.210653 -38.826791 1841.191724 260.870987 9.969882 0.000000 0.090640
159.000000 48.589000 11.000000 10.000000 -2.000000 119.724256 -43.090702 1981.850815 99.518367 20.583402 0.000000 0.182017
161.000000 46.740000 5.000000 11.000000 -2.000000 85.093283 -16.259234 1288.899374 1037.247526 21.412507 0.000000 0.142954
162.000000 48.078000 6.000000 11.000000 -2.000000 92.230343 -19.577365 1357.772120 896.510144 20.813545 0.000000 0.139516
163.000000 48.642000 7.000000 11.000000 -2.000000 98.657633 -23.057801 1433.141793 762.888976 20.569551 0.000000 0.120444
164.000000 48.574000 8.000000 11.000000 -2.000000 104.372191 -26.685280 1515.973203 632.334385 20.595841 0.000000 0.087751
165.000000 48.017000 9.000000 11.000000 -2.000000 109.393873 -30.438560 1607.432150 501.536327 20.832685 0.000000 0.043562
166.000000 47.099000 10.000000 11.000000 -2.000000 113.758665 -34.290642 1708.940624 367.554495 21.236744 0.000000 0.023664
167.000000 45.930000 11.000000 11.000000 -2.000000 117.512988 -38.209572 1822.251285 227.553066 21.775811 0.000000 0.088985
170.000000 56.460000 0.000000 5.000000 -1.000000 40.036454 -3.157426 1034.371985 2223.969054 17.738520 0.000000 0.249329
171.000000 81.972000 1.000000 5.000000 -1.000000 60.513240 -8.793279 1141.489885 1556.848210 12.214835 0.000000 0.045780
172.000000 49.651000 0.000000 6.000000 -1.000000 42.094574 -1.534494 1003.832182 2132.812670 20.171075 0.000000 0.211640
173.000000 67.852000 1.000000 6.000000 -1.000000 59.414838 -6.141361 1090.808570 1580.814421 14.757163 0.000000 0.032189
174.000000 80.940000 2.000000 6.000000 -1.000000 75.602514 -11.340761 1190.861195 1222.797158 12.367252 0.000000 0.123127
175.000000 88.055000 3.000000 6.000000 -1.000000 89.849724 -17.151888 1307.178612 943.954307 11.364748 0.000000 0.145759
176.000000 90.023000 4.000000 6.000000 -1.000000 101.752796 -23.548857 1444.077774 696.733047 11.113538 0.000000 0.111810
177.000000 88.405000 5.000000 6.000000 -1.000000 111.270211 -30.443287 1607.551634 455.012317 11.314828 0.000000 0.034408
178.000000 84.689000 6.000000 6.000000 -1.000000 118.593913 -37.677171 1806.169941 199.760936 11.809719 0.000000 0.087944
180.000000 57.738000 1.000000 7.000000 -1.000000 58.552162 -4.235791 1054.714092 1601.009698 17.342362 0.000000 0.021963
181.000000 68.182000 2.000000 7.000000 -1.000000 72.790853 -8.567708 1137.153787 1278.119108 14.682210 0.000000 0.111752
182.000000 74.790000 3.000000 7.000000 -1.000000 85.712971 -13.369507 1230.804222 1023.929414 13.381573 0.000000 0.148874
183.000000 77.792000 4.000000 7.000000 -1.000000 96.972306 -18.643311 1338.119002 802.086513 12.862302 0.000000 0.139654
184.000000 77.952000 5.000000 7.000000 -1.000000 106.442191 -24.360047 1462.324079 592.326053 12.833369 0.000000 0.094320
185.000000 76.166000 6.000000 7.000000 -1.000000 114.163980 -30.451041 1607.747607 380.840222 13.132311 0.000000 0.019099
186.000000 73.209000 7.000000 7.000000 -1.000000 120.283302 -36.805586 1780.334646 156.016713 13.661298 0.000000 0.086879
189.000000 50.177000 1.000000 8.000000 -1.000000 57.862930 -2.803274 1027.701230 1617.938948 19.956030 0.000000 0.014801
190.000000 58.647000 2.000000 8.000000 -1.000000 70.544233 -6.504067 1097.705633 1323.663842 17.070172 0.000000 0.100197
191.000000 64.545000 3.000000 8.000000 -1.000000 82.294484 -10.572694 1175.892150 1089.141210 15.506714 0.000000 0.145370
192.000000 67.882000 4.000000 8.000000 -1.000000 92.833676 -15.019474 1263.784301 885.841974 14.741296 0.000000 0.151698
193.000000 69.025000 5.000000 8.000000 -1.000000 102.017303 -19.838592 1363.308884 697.431656 14.494419 0.000000 0.127594
194.000000 68.499000 6.000000 8.000000 -1.000000 109.817380 -25.002387 1476.938853 513.037052 14.603461 0.000000 0.078345
195.000000 66.826000 7.000000 8.000000 -1.000000 116.289690 -30.457133 1607.901600 324.188535 14.967362 0.000000 0.006961
196.000000 64.440000 8.000000 8.000000 -1.000000 121.541969 -36.122344 1760.490402 123.134711 15.520017 0.000000 0.086488
199.000000 51.307000 2.000000 9.000000 -1.000000 68.718507 -4.912289 1067.503513 1361.774678 19.512711 0.000000 0.089316
200.000000 56.497000 3.000000 9.000000 -1.000000 79.453029 -8.430048 1134.510103 1143.580921 17.716695 0.000000 0.138880
201.000000 59.832000 4.000000 9.000000 -1.000000 89.282852 -12.253459 1208.754440 954.786315 16.725788 0.000000 0.155336
202.000000 61.483000 5.000000 9.000000 -1.000000 98.070861 -16.385572 1291.476155 781.917946 16.273898 0.000000 0.145588
203.000000 61.752000 6.000000 9.000000 -1.000000 105.760208 -20.817177 1384.215109 616.032450 16.200557 0.000000 0.114290
204.000000 60.981000 7.000000 9.000000 -1.000000 112.357994 -25.523505 1488.908139 450.431053 16.403242 0.000000 0.064422
205.000000 59.487000 8.000000 9.000000 -1.000000 117.916271 -30.462045 1608.025798 279.418894 16.813388 0.000000 0.003061
206.000000 57.532000 9.000000 9.000000 -1.000000 122.515376 -35.572495 1744.769796 97.506042 17.383400 0.000000 0.086392
207.000000 55.314000 10.000000 9.000000 -1.000000 126.251304 -40.779640 1903.365088 -101.235779 18.079210 0.000000 0.189533
209.000000 45.514000 2.000000 10.000000 -1.000000 67.210649 -3.648941 1043.637730 1394.115677 21.997121 0.000000 0.079372
210.000000 50.064000 3.000000 10.000000 -1.000000 77.068849 -6.740454 1102.205985 1189.840204 19.994368 0.000000 0.131151
211.000000 53.243000 4.000000 10.000000 -1.000000 86.235456 -10.082262 1166.373453 1012.929220 18.796938 0.000000 0.154347
212.000000 55.123000 5.000000 10.000000 -1.000000 94.588805 -13.680458 1236.983383 852.092770 18.152861 0.000000 0.154652
213.000000 55.876000 6.000000 10.000000 -1.000000 102.062874 -17.534034 1315.057297 699.784545 17.905355 0.000000 0.136083
214.000000 55.725000 7.000000 10.000000 -1.000000 108.639493 -21.632652 1401.844733 550.453323 17.951756 0.000000 0.101410
215.000000 54.892000 8.000000 10.000000 -1.000000 114.337269 -25.954692 1498.890628 399.584485 18.222020 0.000000 0.052463
216.000000 53.580000 9.000000 10.000000 -1.000000 119.200571 -30.466091 1608.128086 243.106859 18.666725 0.000000 0.011040
217.000000 51.952000 10.000000 10.000000 -1.000000 123.290306 -35.120526 1732.008466 76.964263 19.249997 0.000000 0.086430
218.000000 50.139000 11.000000 10.000000 -1.000000 126.676949 -39.861311 1873.687532 -103.259539 19.945170 0.000000 0.177963
220.000000 47.796000 4.000000 11.000000 -1.000000 83.608690 -8.337288 1132.729782 1062.848188 20.940138 0.000000 0.150781
221.000000 49.746000 5.000000 11.000000 -1.000000 91.525109 -11.512962 1194.228134 911.755848 20.116198 0.000000 0.158297
222.000000 50.782000 6.000000 11.000000 -1.000000 98.730990 -14.905697 1261.494352 769.952351 19.702971 0.000000 0.149055
223.000000 51.046000 7.000000 11.000000 -1.000000 105.196017 -18.512292 1335.379805 632.705112 19.598624 0.000000 0.125543
224.000000 50.694000 8.000000 11.000000 -1.000000 110.919172 -22.322400 1416.912084 496.262411 19.732419 0.000000 0.089519
225.000000 49.877000 9.000000 11.000000 -1.000000 115.921609 -26.317339 1507.343095 357.387785 20.053686 0.000000 0.042248
226.000000 48.727000 10.000000 11.000000 -1.000000 120.240101 -30.469480 1608.213791 213.041374 20.525179 0.000000 0.017759
227.000000 47.355000 11.000000 11.000000 -1.000000 123.921672 -34.742481 1721.442704 60.129023 21.118904 0.000000 0.086525
228.000000 45.845000 12.000000 11.000000 -1.000000 127.019517 -39.092578 1849.449146 -104.730560 21.813417 0.000000 0.168741
229.000000 46.365000 6.000000 12.000000 -1.000000 95.741864 -12.762423 1218.785860 830.035822 21.581143 0.000000 0.156328
230.000000 46.901000 7.000000 12.000000 -1.000000 102.042109 -15.968222 1282.976494 702.184882 21.331884 0.000000 0.141263
231.000000 46.893000 8.000000 12.000000 -1.000000 107.714946 -19.355110 1353.075481 576.606747 21.333115 0.000000 0.115009
232.000000 46.452000 9.000000 12.000000 -1.000000 112.766757 -22.913253 1429.937916 450.607967 21.533404 0.000000 0.078758
233.000000 45.683000 10.000000 12.000000 -1.000000 117.217889 -26.626562 1514.592264 321.762778 21.894497 0.000000 0.033567
234.000000 184.602000 0.000000 2.000000 0.000000 52.095395 7.149753 839.991253 1785.578432 5.424627 0.000000 0.072357
235.000000 182.068000 1.000000 3.000000 0.000000 86.711557 -2.067362 1013.852006 1002.881202 5.496898 0.000000 0.161368
236.000000 193.302000 2.000000 3.000000 0.000000 113.324323 -14.553285 1254.416782 461.549234 5.174718 0.000000 0.114173
237.000000 177.408000 3.000000 3.000000 0.000000 130.076189 -30.507889 1609.185403 -110.070764 5.636694 0.000000 0.089034
238.000000 128.976000 1.000000 4.000000 0.000000 78.607467 0.514080 965.342815 1157.881753 7.760901 0.000000 0.139083
239.000000 144.602000 2.000000 4.000000 0.000000 101.260505 -7.861293 1123.607135 724.673599 6.919101 0.000000 0.160731
240.000000 143.130000 3.000000 4.000000 0.000000 118.403973 -18.240255 1329.705666 328.159627 6.987978 0.000000 0.077705
242.000000 98.590000 1.000000 5.000000 0.000000 73.524332 1.969009 937.997830 1259.503824 10.153806 0.000000 0.116814
243.000000 112.681000 2.000000 5.000000 0.000000 92.814217 -4.280768 1055.563665 887.944714 8.880710 0.000000 0.167608
244.000000 116.461000 3.000000 5.000000 0.000000 108.805370 -11.766503 1199.192970 566.620042 8.589736 0.000000 0.137444
245.000000 113.247000 4.000000 5.000000 0.000000 121.155304 -20.557118 1378.633349 246.068601 8.831497 0.000000 0.052836
247.000000 79.284000 1.000000 6.000000 0.000000 70.057639 2.901621 920.446756 1332.014657 12.627006 0.000000 0.097859
248.000000 93.571000 5.000000 6.000000 0.000000 122.869382 -22.143140 1412.982079 190.150772 10.688271 0.000000 0.036177
250.000000 66.068000 1.000000 7.000000 0.000000 67.548268 3.550062 908.227050 1386.608867 15.153603 0.000000 0.082249
251.000000 75.730000 2.000000 7.000000 0.000000 82.140960 -0.567735 985.665183 1089.571306 13.216714 0.000000 0.150770
252.000000 81.279000 3.000000 7.000000 0.000000 95.316707 -5.271339 1074.301806 840.413250 12.311090 0.000000 0.167506
253.000000 83.170000 4.000000 7.000000 0.000000 106.743437 -10.617096 1176.755405 611.566878 12.028522 0.000000 0.145602
254.000000 82.315000 5.000000 7.000000 0.000000 116.303535 -16.632876 1296.529833 385.746974 12.151133 0.000000 0.094242
255.000000 79.676000 6.000000 7.000000 0.000000 124.036136 -23.295398 1438.423057 149.519301 12.552026 0.000000 0.026042
257.000000 56.509000 1.000000 8.000000 0.000000 65.650156 4.026930 899.229807 1429.298681 17.717509 0.000000 0.069467
258.000000 69.708000 3.000000 8.000000 0.000000 90.568044 -3.434849 1039.600625 930.309806 14.356003 0.000000 0.166372
259.000000 72.728000 5.000000 8.000000 0.000000 110.547849 -12.794375 1219.416950 527.293374 13.754545 0.000000 0.129390
260.000000 69.354000 7.000000 8.000000 0.000000 124.880231 -24.169780 1458.023656 118.626254 14.419908 0.000000 0.021854
262.000000 49.301000 1.000000 9.000000 0.000000 64.165252 4.392318 892.328827 1463.641490 20.308507 0.000000 0.059000
263.000000 55.954000 2.000000 9.000000 0.000000 75.801946 1.330808 949.996445 1213.378893 17.889970 0.000000 0.127598
264.000000 63.510000 4.000000 9.000000 0.000000 96.676550 -5.832770 1084.947957 814.355370 15.755188 0.000000 0.166782
265.000000 64.644000 5.000000 9.000000 0.000000 105.565426 -9.990192 1164.589761 636.577404 15.476056 0.000000 0.149631
266.000000 63.242000 7.000000 9.000000 0.000000 119.959468 -19.517999 1356.516340 282.793172 15.814866 0.000000 0.064068
267.000000 61.390000 8.000000 9.000000 0.000000 125.518636 -24.855694 1473.587929 94.330906 16.290432 0.000000 0.022371
270.000000 53.528000 3.000000 10.000000 0.000000 83.529625 -1.010670 993.987281 1063.083540 18.698191 0.000000 0.154526
271.000000 57.747000 7.000000 10.000000 0.000000 115.431338 -16.001299 1283.648819 408.588258 17.321035 0.000000 0.100489
272.000000 55.061000 9.000000 10.000000 0.000000 126.018069 -25.408000 1486.246278 74.716805 18.162750 0.000000 0.025304
274.000000 47.741000 3.000000 11.000000 0.000000 80.866059 -0.170160 978.196438 1114.049179 20.965545 0.000000 0.146907
275.000000 50.434000 4.000000 11.000000 0.000000 89.530044 -3.056685 1032.473996 949.840852 19.842672 0.000000 0.165381
276.000000 52.100000 5.000000 11.000000 0.000000 97.530418 -6.194216 1091.813033 797.886308 19.205170 0.000000 0.166081
277.000000 52.856000 6.000000 11.000000 0.000000 104.803719 -9.595581 1156.956165 652.519882 18.927772 0.000000 0.152002
278.000000 52.857000 7.000000 11.000000 0.000000 111.320868 -13.268413 1228.798747 509.397357 18.924902 0.000000 0.125457
279.000000 52.268000 8.000000 11.000000 0.000000 117.080515 -17.212705 1308.430280 364.891903 19.136111 0.000000 0.088374
280.000000 51.242000 9.000000 11.000000 0.000000 122.102013 -21.418223 1397.190046 215.699734 19.517481 0.000000 0.043625
281.000000 49.912000 10.000000 11.000000 0.000000 126.419297 -25.862193 1496.743041 58.546337 20.036341 0.000000 0.028982
283.000000 47.231000 5.000000 12.000000 0.000000 94.282491 -4.855491 1066.428779 860.113519 21.186501 0.000000 0.167740
284.000000 48.527000 7.000000 12.000000 0.000000 107.611719 -11.092735 1186.018823 592.832231 20.615060 0.000000 0.142341
285.000000 45.642000 11.000000 12.000000 0.000000 126.748602 -26.242238 1505.588344 44.983841 21.910868 0.000000 0.032675
287.000000 148.854000 0.000000 3.000000 1.000000 68.038251 26.248763 444.259283 1424.915806 6.725310 0.000000 0.114340
288.000000 194.377000 1.000000 3.000000 1.000000 102.401591 20.502549 572.535481 688.324722 5.147091 0.000000 0.127309
289.000000 197.479000 2.000000 3.000000 1.000000 129.631062 11.297537 759.983287 32.015350 5.063907 0.000000 0.045490
292.000000 109.247000 0.000000 4.000000 1.000000 64.757635 21.403853 553.121381 1486.027912 9.164284 0.000000 0.097583
293.000000 140.387000 1.000000 4.000000 1.000000 91.373926 16.527959 655.615729 914.073447 7.128111 0.000000 0.150633
294.000000 151.095000 2.000000 4.000000 1.000000 114.264278 9.829360 788.523671 448.614160 6.620131 0.000000 0.125094
295.000000 146.685000 3.000000 4.000000 1.000000 132.037819 0.386437 967.740716 -29.408950 6.817201 0.000000 0.043259
298.000000 85.618000 0.000000 5.000000 1.000000 62.543851 18.493572 615.011241 1530.688753 11.693981 0.000000 0.084692
299.000000 107.706000 1.000000 5.000000 1.000000 84.151035 14.367042 699.314417 1054.814791 9.292374 0.000000 0.147161
300.000000 118.976000 2.000000 5.000000 1.000000 103.607274 9.128526 802.055932 677.130451 8.409027 0.000000 0.156510
301.000000 120.577000 3.000000 5.000000 1.000000 119.892636 2.392682 930.027622 321.747519 8.294907 0.000000 0.110364
302.000000 115.951000 4.000000 5.000000 1.000000 132.680892 -6.299999 1093.823970 -57.541647 8.624111 0.000000 0.035888
304.000000 49.635000 -1.000000 6.000000 1.000000 42.510401 19.521520 593.409205 2186.751848 20.176489 0.000000 0.235955
305.000000 70.137000 0.000000 6.000000 1.000000 60.970617 16.561234 654.935522 1564.173359 14.275663 0.000000 0.075269
306.000000 86.447000 1.000000 6.000000 1.000000 79.112697 13.012634 726.267895 1153.470408 11.578675 0.000000 0.136462
307.000000 96.522000 2.000000 6.000000 1.000000 95.908872 8.718214 809.953653 828.305258 10.366776 0.000000 0.164866
308.000000 100.394000 3.000000 6.000000 1.000000 110.635363 3.482231 909.506061 534.939546 9.964123 0.000000 0.146037
309.000000 99.505000 4.000000 6.000000 1.000000 122.946555 -2.920570 1029.910118 242.565638 10.050948 0.000000 0.094391
310.000000 95.633000 5.000000 6.000000 1.000000 132.786111 -10.705934 1178.483359 -72.821937 10.456345 0.000000 0.030499
313.000000 59.282000 0.000000 7.000000 1.000000 59.801462 15.187688 682.825659 1590.050999 16.889898 0.000000 0.068559
314.000000 71.755000 1.000000 7.000000 1.000000 75.417262 12.085183 744.553609 1227.353768 13.950334 0.000000 0.124319
315.000000 80.374000 2.000000 7.000000 1.000000 90.136050 8.448815 815.129583 938.416264 12.450944 0.000000 0.163062
316.000000 84.905000 3.000000 7.000000 1.000000 103.440462 4.166060 896.602849 683.105743 11.783497 0.000000 0.162437
317.000000 85.933000 4.000000 7.000000 1.000000 115.025629 -0.889392 991.708458 438.468952 11.639997 0.000000 0.131708
318.000000 84.412000 5.000000 7.000000 1.000000 124.777256 -6.844085 1104.180297 188.225247 11.847780 0.000000 0.079951
319.000000 81.282000 6.000000 7.000000 1.000000 132.711415 -13.794459 1239.252870 -82.081257 12.302539 0.000000 0.028359
320.000000 77.285000 7.000000 7.000000 1.000000 138.918457 -21.754660 1404.499358 -388.252008 12.937546 0.000000 0.085774
322.000000 51.280000 0.000000 8.000000 1.000000 58.900811 14.162250 703.410092 1610.592512 19.525865 0.000000 0.063865
323.000000 61.100000 1.000000 8.000000 1.000000 72.598504 11.410614 757.773500 1285.122780 16.384035 0.000000 0.112618
324.000000 68.399000 2.000000 8.000000 1.000000 85.667864 8.258385 818.783924 1023.388421 14.632216 0.000000 0.156785
325.000000 72.914000 3.000000 8.000000 1.000000 97.731947 4.635096 887.739843 794.388693 13.722781 0.000000 0.168190
326.000000 74.865000 4.000000 8.000000 1.000000 108.538081 0.463049 966.301498 580.069573 13.362377 0.000000 0.152941
327.000000 74.756000 5.000000 8.000000 1.000000 117.957641 -4.337018 1056.626313 368.103944 13.379695 0.000000 0.117335
328.000000 73.169000 6.000000 8.000000 1.000000 125.959655 -9.834204 1161.570061 148.539442 13.667980 0.000000 0.067568
329.000000 70.633000 7.000000 8.000000 1.000000 132.577858 -16.067461 1284.994315 -88.137698 14.157244 0.000000 0.028903
330.000000 67.562000 8.000000 8.000000 1.000000 137.884759 -23.017688 1432.252002 -352.505174 14.799690 0.000000 0.087397
332.000000 53.069000 1.000000 9.000000 1.000000 70.380903 10.898040 767.776577 1331.701654 18.864241 0.000000 0.101951
333.000000 59.261000 2.000000 9.000000 1.000000 82.117053 8.116643 821.501654 1091.529575 16.889691 0.000000 0.148659
334.000000 63.498000 3.000000 9.000000 1.000000 93.114527 4.976761 881.276328 882.214673 15.759342 0.000000 0.168065
335.000000 65.840000 4.000000 9.000000 1.000000 103.168311 1.427270 948.183364 689.107243 15.195679 0.000000 0.164036
336.000000 66.551000 5.000000 9.000000 1.000000 112.154861 -2.584385 1023.580312 502.315090 15.030811 0.000000 0.141314
337.000000 65.986000 6.000000 9.000000 1.000000 120.021481 -7.106974 1109.192585 314.247654 15.157209 0.000000 0.104063
338.000000 64.508000 7.000000 9.000000 1.000000 126.768237 -12.176810 1207.247111 118.248409 15.502812 0.000000 0.057185
339.000000 62.430000 8.000000 9.000000 1.000000 132.430251 -17.805238 1320.668833 -92.329292 16.017520 0.000000 0.031009
340.000000 59.999000 9.000000 9.000000 1.000000 137.064823 -23.963575 1453.377442 -324.923182 16.665420 0.000000 0.088345
342.000000 46.826000 1.000000 10.000000 1.000000 68.592329 10.495421 775.609612 1370.141116 21.380207 0.000000 0.092452
343.000000 52.111000 2.000000 10.000000 1.000000 79.232592 8.007034 823.601951 1147.694731 19.208065 0.000000 0.139947
344.000000 55.983000 3.000000 10.000000 1.000000 89.314560 5.236718 876.354057 953.930497 17.875905 0.000000 0.164689
345.000000 58.437000 4.000000 10.000000 1.000000 98.672597 2.149074 934.610968 776.715050 17.122248 0.000000 0.168820
346.000000 59.605000 5.000000 10.000000 1.000000 107.195497 -1.292404 999.281777 607.839209 16.783940 0.000000 0.156007
347.000000 59.703000 6.000000 10.000000 1.000000 114.822989 -5.122746 1071.487412 441.161569 16.753909 0.000000 0.129474
348.000000 58.974000 7.000000 10.000000 1.000000 121.536220 -9.371334 1152.626161 271.575447 16.958972 0.000000 0.092171
349.000000 57.648000 8.000000 10.000000 1.000000 127.346548 -14.055859 1244.465109 94.351630 17.347410 0.000000 0.048620
350.000000 55.922000 9.000000 10.000000 1.000000 132.285774 -19.174596 1349.270315 -95.359071 17.881641 0.000000 0.033783
351.000000 53.951000 10.000000 10.000000 1.000000 136.399286 -24.698077 1469.996300 -302.989567 18.533694 0.000000 0.088925
354.000000 46.394000 2.000000 11.000000 1.000000 76.845844 7.919745 825.273762 1194.956399 21.575874 0.000000 0.131268
355.000000 49.894000 3.000000 11.000000 1.000000 86.139335 5.441139 872.480483 1013.960827 20.059056 0.000000 0.159544
356.000000 52.313000 4.000000 11.000000 1.000000 94.866353 2.709508 924.064247 849.263134 19.127988 0.000000 0.169650
357.000000 53.717000 5.000000 11.000000 1.000000 102.929727 -0.301485 980.663415 693.904509 18.625048 0.000000 0.164443
358.000000 54.235000 6.000000 11.000000 1.000000 110.268989 -3.617610 1043.046820 542.735183 18.444513 0.000000 0.146532
359.000000 54.029000 7.000000 11.000000 1.000000 116.855593 -7.261890 1112.148905 391.606382 18.512822 0.000000 0.118175
360.000000 53.263000 8.000000 11.000000 1.000000 122.686096 -11.251465 1189.116844 236.866898 18.777213 0.000000 0.081640
361.000000 52.089000 9.000000 11.000000 1.000000 127.775320 -15.593480 1275.374742 75.008468 19.198852 0.000000 0.041699
362.000000 50.635000 10.000000 11.000000 1.000000 132.150751 -20.280293 1372.712552 -97.625885 19.748528 0.000000 0.036724
363.000000 49.006000 11.000000 11.000000 1.000000 135.848654 -25.284754 1483.411637 -285.127396 20.403841 0.000000 0.089290
366.000000 47.200000 4.000000 12.000000 1.000000 91.609933 3.157167 915.632903 910.703650 21.201507 0.000000 0.167995
367.000000 48.707000 5.000000 12.000000 1.000000 99.234517 0.482189 965.941917 766.006694 20.542559 0.000000 0.168655
368.000000 49.483000 6.000000 12.000000 1.000000 106.267098 -2.438245 1020.829798 626.655745 20.217642 0.000000 0.157618
369.000000 49.634000 7.000000 12.000000 1.000000 112.674997 -5.622139 1080.951466 489.154575 20.153395 0.000000 0.136741
370.000000 49.279000 8.000000 12.000000 1.000000 118.445940 -9.084355 1147.092995 350.527769 20.296474 0.000000 0.107689
371.000000 48.532000 9.000000 12.000000 1.000000 123.583470 -12.834322 1220.206168 208.047539 20.607162 0.000000 0.072360
372.000000 47.496000 10.000000 12.000000 1.000000 128.102714 -16.873259 1301.454580 59.025397 21.055276 0.000000 0.036286
373.000000 46.258000 11.000000 12.000000 1.000000 132.027038 -21.191161 1392.276023 -99.370064 21.617471 0.000000 0.039593
374.000000 45.739000 7.000000 13.000000 1.000000 108.937435 -4.312907 1056.170799 570.667586 21.871302 0.000000 0.149722
375.000000 45.682000 8.000000 13.000000 1.000000 114.599721 -7.364018 1114.098962 444.142191 21.896149 0.000000 0.127166
379.000000 144.106000 0.000000 3.000000 2.000000 76.144651 44.391088 -78.657309 1312.498474 6.945342 0.000000 0.201643
380.000000 176.655000 1.000000 3.000000 2.000000 107.061665 43.389516 -42.427924 486.447812 5.662657 0.000000 0.119408
383.000000 112.039000 0.000000 4.000000 2.000000 73.041339 35.677452 202.246184 1345.040303 8.934017 0.000000 0.140471
384.000000 136.587000 1.000000 4.000000 2.000000 98.203937 33.348048 266.714077 755.242555 7.325125 0.000000 0.075839
385.000000 144.543000 2.000000 4.000000 2.000000 120.313598 30.017058 353.173898 214.247061 6.919332 0.000000 0.012155
387.000000 64.119000 -1.000000 5.000000 2.000000 48.799422 32.129593 299.066968 2053.648708 15.616536 0.000000 0.242058
388.000000 89.957000 0.000000 5.000000 2.000000 70.285923 30.080263 351.589279 1386.691388 11.127934 0.000000 0.124499
389.000000 108.524000 1.000000 5.000000 2.000000 91.218468 27.469413 415.446728 915.198893 9.220699 0.000000 0.116594
390.000000 117.502000 2.000000 5.000000 2.000000 110.239228 24.046645 494.752620 506.451216 8.513274 0.000000 0.086185
391.000000 118.200000 3.000000 5.000000 2.000000 126.552970 19.404387 595.884314 94.987360 8.460732 0.000000 0.036061
392.000000 113.561000 4.000000 5.000000 2.000000 139.914739 12.859843 729.289493 -370.709134 8.804749 0.000000 0.041628
394.000000 55.788000 -1.000000 6.000000 2.000000 49.851356 28.352795 394.195332 1972.642463 17.948975 0.000000 0.200944
395.000000 88.726000 1.000000 6.000000 2.000000 85.849458 23.683830 502.902093 1026.287329 11.279499 0.000000 0.130671
396.000000 100.074000 3.000000 6.000000 2.000000 117.090399 16.481327 656.568622 366.870263 9.994797 0.000000 0.093776
397.000000 94.767000 5.000000 6.000000 2.000000 139.965726 4.496561 890.358801 -344.075853 10.550943 0.000000 0.012360
398.000000 49.113000 -1.000000 7.000000 2.000000 50.507827 25.533174 460.868802 1923.983881 20.388486 0.000000 0.174863
399.000000 63.126000 0.000000 7.000000 2.000000 66.227286 23.484009 507.371056 1457.904724 15.859396 0.000000 0.105481
400.000000 74.375000 1.000000 7.000000 2.000000 81.678419 21.063473 560.480729 1109.700480 13.457039 0.000000 0.132423
401.000000 81.890000 2.000000 7.000000 2.000000 96.261987 18.172068 621.713774 816.699111 12.218789 0.000000 0.144784
402.000000 85.597000 3.000000 7.000000 2.000000 109.526926 14.677644 693.088292 546.418376 11.686812 0.000000 0.129180
403.000000 86.104000 4.000000 7.000000 2.000000 121.210514 10.405758 777.351217 277.998871 11.615529 0.000000 0.092844
404.000000 84.307000 5.000000 7.000000 2.000000 131.210355 5.131861 878.339995 -5.361576 11.861392 0.000000 0.046022
405.000000 81.061000 6.000000 7.000000 2.000000 139.523660 -1.414859 1001.583365 -320.617575 12.334878 0.000000 0.005016
407.000000 63.658000 1.000000 8.000000 2.000000 78.376544 19.149458 601.258910 1175.358694 15.723653 0.000000 0.128804
408.000000 74.070000 3.000000 8.000000 2.000000 103.411283 13.455912 717.480360 677.122935 13.507012 0.000000 0.148045
409.000000 75.121000 5.000000 8.000000 2.000000 123.817684 5.521761 870.952064 216.641401 13.313223 0.000000 0.087861
410.000000 70.701000 7.000000 8.000000 2.000000 138.939376 -5.730143 1083.000361 -300.696843 14.142458 0.000000 0.016075
412.000000 48.038000 0.000000 9.000000 2.000000 63.549859 19.785966 587.807989 1510.045985 20.841741 0.000000 0.090663
413.000000 55.430000 1.000000 9.000000 2.000000 75.711752 17.693096 631.653584 1228.718514 18.058797 0.000000 0.122916
414.000000 61.083000 2.000000 9.000000 2.000000 87.413427 15.307765 680.402408 991.409966 16.383858 0.000000 0.150477
415.000000 64.834000 3.000000 9.000000 2.000000 98.397484 12.574346 734.925665 778.210364 15.432668 0.000000 0.157093
416.000000 66.780000 4.000000 9.000000 2.000000 108.477901 9.426252 796.313941 576.415604 14.980236 0.000000 0.144976
417.000000 67.191000 5.000000 9.000000 2.000000 117.542611 5.785410 865.950906 376.825227 14.886074 0.000000 0.118254
418.000000 66.416000 6.000000 9.000000 2.000000 125.541585 1.563696 945.618857 171.821074 15.057928 0.000000 0.081294
419.000000 64.796000 7.000000 9.000000 2.000000 132.468500 -3.331551 1037.653411 -45.821737 15.432712 0.000000 0.039535
420.000000 62.627000 8.000000 9.000000 2.000000 138.343055 -8.984837 1145.176300 -283.864829 15.965829 0.000000 0.024103
423.000000 48.956000 1.000000 10.000000 2.000000 73.522666 16.549137 655.182828 1273.107077 20.447793 0.000000 0.116209
424.000000 57.357000 3.000000 10.000000 2.000000 94.230165 11.908528 748.021914 859.641185 17.446124 0.000000 0.160278
425.000000 60.393000 5.000000 10.000000 2.000000 112.180163 5.975577 862.340750 499.809797 16.563315 0.000000 0.138836
426.000000 59.409000 7.000000 10.000000 2.000000 126.724606 -1.680073 1006.569008 137.690380 16.833450 0.000000 0.074327
427.000000 56.173000 9.000000 10.000000 2.000000 137.781606 -11.512095 1194.211165 -269.575313 17.800270 0.000000 0.030247
429.000000 48.014000 2.000000 11.000000 2.000000 81.423433 13.620014 714.219005 1108.020797 20.845935 0.000000 0.142208
430.000000 51.231000 3.000000 11.000000 2.000000 90.721718 11.388021 758.215166 927.169616 19.533458 0.000000 0.159921
431.000000 53.392000 4.000000 11.000000 2.000000 99.465340 8.899647 806.463607 759.372713 18.739656 0.000000 0.162519
432.000000 54.573000 5.000000 11.000000 2.000000 107.563974 6.119221 859.612116 598.371834 18.331229 0.000000 0.152206
433.000000 54.908000 6.000000 11.000000 2.000000 114.961179 3.007789 918.447094 439.312158 18.216948 0.000000 0.131352
434.000000 54.557000 7.000000 11.000000 2.000000 121.629238 -0.475517 983.932733 278.079159 18.332276 0.000000 0.102270
435.000000 53.679000 8.000000 11.000000 2.000000 127.562256 -4.370783 1057.264265 110.856485 18.630266 0.000000 0.067526
436.000000 52.420000 9.000000 11.000000 2.000000 132.769386 -8.712765 1139.941578 -66.214850 19.075957 0.000000 0.032805
437.000000 50.905000 10.000000 11.000000 2.000000 137.269430 -13.524031 1233.872885 -257.348914 19.642771 0.000000 0.035157
440.000000 46.154000 3.000000 12.000000 2.000000 87.733312 10.970000 766.374359 984.394647 21.683544 0.000000 0.157416
441.000000 49.581000 5.000000 12.000000 2.000000 103.560755 6.231554 857.477262 679.854217 20.178401 0.000000 0.160449
442.000000 50.216000 7.000000 12.000000 2.000000 117.101568 0.441168 966.712557 390.178902 19.918583 0.000000 0.123424
443.000000 48.920000 9.000000 12.000000 2.000000 128.171237 -6.629436 1100.091887 89.219118 20.442413 0.000000 0.061154
444.000000 46.526000 11.000000 12.000000 2.000000 136.808106 -15.159929 1266.614553 -246.797784 21.491321 0.000000 0.039210
445.000000 46.072000 6.000000 13.000000 2.000000 106.821171 3.859260 902.394431 614.874068 21.714285 0.000000 0.155991
446.000000 46.346000 7.000000 13.000000 2.000000 113.066832 1.161821 953.172344 482.563573 21.583241 0.000000 0.139016
447.000000 46.189000 8.000000 13.000000 2.000000 118.784267 -1.791998 1008.673438 349.397697 21.654354 0.000000 0.115516
448.000000 45.685000 9.000000 13.000000 2.000000 123.968617 -5.022468 1069.588857 213.092918 21.891299 0.000000 0.086924
451.000000 105.064000 0.000000 4.000000 3.000000 77.106111 48.387926 -236.745023 1312.012644 9.525921 0.000000 0.261369
452.000000 123.982000 1.000000 4.000000 3.000000 99.797357 48.374417 -236.169742 661.204187 8.069252 0.000000 0.205744
454.000000 66.584000 -1.000000 5.000000 3.000000 54.956249 41.817625 12.085928 1953.859601 15.036413 0.000000 0.296855
455.000000 88.049000 0.000000 5.000000 3.000000 75.108297 41.013322 38.952207 1320.312460 11.367556 0.000000 0.169124
456.000000 103.187000 1.000000 5.000000 3.000000 94.684553 39.989347 72.222841 825.887076 9.696548 0.000000 0.090768
457.000000 110.579000 2.000000 5.000000 3.000000 112.655642 38.642499 114.497703 365.824801 9.045619 0.000000 0.064255
458.000000 111.291000 3.000000 5.000000 3.000000 128.434469 36.794022 170.004130 -125.585446 8.985553 0.000000 0.141265
460.000000 58.503000 -1.000000 6.000000 3.000000 55.613385 36.873771 167.665583 1861.777726 17.113909 0.000000 0.230987
461.000000 86.859000 1.000000 6.000000 3.000000 90.070476 34.211549 243.233979 939.399113 11.520526 0.000000 0.097413
462.000000 93.980000 2.000000 6.000000 3.000000 105.986659 32.376138 292.591496 575.893307 10.644661 0.000000 0.050482
463.000000 95.128000 4.000000 6.000000 3.000000 132.838190 26.885737 429.301604 -177.938732 10.511688 0.000000 0.075872
465.000000 51.749000 -1.000000 7.000000 3.000000 55.877606 33.075723 274.022262 1811.361776 19.347735 0.000000 0.192764
466.000000 64.294000 0.000000 7.000000 3.000000 71.147320 31.701127 310.237849 1372.951983 15.569222 0.000000 0.128591
467.000000 74.173000 1.000000 7.000000 3.000000 86.127587 30.066232 351.941226 1025.180537 13.492150 0.000000 0.113911
468.000000 80.667000 2.000000 7.000000 3.000000 100.310806 28.092973 400.482006 719.044733 12.402865 0.000000 0.096080
469.000000 83.789000 3.000000 7.000000 3.000000 113.322901 25.670717 457.691863 426.147708 11.937870 0.000000 0.063171
470.000000 84.093000 4.000000 7.000000 3.000000 124.951067 22.639057 526.120876 125.937536 11.892533 0.000000 0.029008
471.000000 82.348000 5.000000 7.000000 3.000000 135.118461 18.760468 609.428020 -200.394767 12.142847 0.000000 0.043770
474.000000 46.169000 -1.000000 8.000000 3.000000 55.938820 30.090781 351.325391 1781.980116 21.686475 0.000000 0.168057
475.000000 56.127000 0.000000 8.000000 3.000000 69.482286 28.650564 386.952525 1399.987605 17.835658 0.000000 0.120881
476.000000 64.249000 1.000000 8.000000 3.000000 82.807969 26.976932 427.146390 1093.398051 15.577436 0.000000 0.122319
477.000000 70.029000 2.000000 8.000000 3.000000 95.546101 25.011830 472.845169 825.675471 14.288376 0.000000 0.120860
478.000000 73.380000 3.000000 8.000000 3.000000 107.405247 22.677952 525.262923 575.330393 13.632882 0.000000 0.103747
479.000000 74.562000 4.000000 8.000000 3.000000 118.195122 19.871184 585.999038 327.484862 13.414269 0.000000 0.073868
480.000000 74.024000 5.000000 8.000000 3.000000 127.820016 16.450207 657.204276 69.879920 13.509629 0.000000 0.040789
481.000000 72.258000 6.000000 8.000000 3.000000 136.253326 12.223197 741.840786 -209.524437 13.838206 0.000000 0.027144
484.000000 56.381000 1.000000 9.000000 3.000000 80.013058 24.598462 482.268946 1149.443636 17.752085 0.000000 0.124815
485.000000 61.477000 2.000000 9.000000 3.000000 91.543458 22.701265 524.748440 909.563943 16.277307 0.000000 0.133345
486.000000 66.440000 4.000000 9.000000 3.000000 112.424661 17.932550 626.691069 474.162320 15.055655 0.000000 0.107560
487.000000 66.678000 5.000000 9.000000 3.000000 121.515551 14.902041 688.579190 258.075266 14.999534 0.000000 0.078264
488.000000 64.197000 7.000000 9.000000 3.000000 136.764255 6.977278 843.280927 -212.245510 15.575672 0.000000 0.018741
490.000000 50.051000 1.000000 10.000000 3.000000 77.646158 22.716797 524.405571 1196.554470 19.998264 0.000000 0.123843
491.000000 54.532000 2.000000 10.000000 3.000000 88.159933 20.909705 563.794277 978.014974 18.351397 0.000000 0.138759
492.000000 57.685000 3.000000 10.000000 3.000000 98.150121 18.854264 607.461689 778.120395 17.345091 0.000000 0.140658
493.000000 59.549000 4.000000 10.000000 3.000000 107.479931 16.502060 656.145027 587.499284 16.799518 0.000000 0.129428
494.000000 60.268000 5.000000 10.000000 3.000000 116.058482 13.793753 710.761196 399.066407 16.596402 0.000000 0.107620
495.000000 60.049000 6.000000 10.000000 3.000000 123.835808 10.657179 772.465079 206.846062 16.654759 0.000000 0.078613
496.000000 59.111000 7.000000 10.000000 3.000000 130.793147 7.006061 842.732104 5.204983 16.917275 0.000000 0.046390
497.000000 57.658000 8.000000 10.000000 3.000000 136.931805 2.740659 923.477748 -211.752128 17.342247 0.000000 0.015361
498.000000 55.862000 9.000000 10.000000 3.000000 142.263025 -2.247188 1017.234812 -450.776648 17.898603 0.000000 0.011817
501.000000 48.828000 2.000000 11.000000 3.000000 85.276168 19.482520 594.233701 1035.339811 20.496444 0.000000 0.140002
502.000000 51.766000 3.000000 11.000000 3.000000 94.511871 17.564184 634.319692 851.916296 19.329982 0.000000 0.147666
503.000000 53.697000 4.000000 11.000000 3.000000 103.218562 15.404335 678.451543 678.768996 18.631821 0.000000 0.143188
504.000000 54.702000 5.000000 11.000000 3.000000 111.314426 12.961763 727.274329 510.078286 18.286782 0.000000 0.128284
505.000000 54.912000 6.000000 11.000000 3.000000 118.748387 10.187941 781.577954 341.105549 18.214594 0.000000 0.105249
506.000000 54.478000 7.000000 11.000000 3.000000 125.494871 7.026611 842.340221 167.623635 18.357603 0.000000 0.076648
507.000000 53.552000 8.000000 11.000000 3.000000 131.546965 3.414328 910.786227 -14.494718 18.673329 0.000000 0.045312
508.000000 52.270000 9.000000 11.000000 3.000000 136.909570 -0.717126 988.471827 -209.628417 19.129781 0.000000 0.015096
509.000000 50.748000 10.000000 11.000000 3.000000 141.593663 -5.435010 1077.403329 -422.768075 19.702412 0.000000 0.020802
512.000000 48.710000 4.000000 12.000000 3.000000 99.521773 14.535951 695.930758 754.499813 20.540978 0.000000 0.151448
513.000000 49.872000 5.000000 12.000000 3.000000 107.168274 12.314452 740.045489 600.653480 20.059387 0.000000 0.142370
514.000000 50.294000 7.000000 12.000000 3.000000 120.780997 7.042019 842.046382 295.010543 19.886359 0.000000 0.101457
515.000000 49.768000 8.000000 12.000000 3.000000 126.705839 3.909612 901.444218 136.712638 20.094321 0.000000 0.073425
516.000000 47.768000 10.000000 12.000000 3.000000 136.783347 -3.573335 1042.211821 -206.700965 20.932910 0.000000 0.016450
517.000000 46.466000 11.000000 12.000000 3.000000 140.952911 -8.010728 1126.468812 -398.956817 21.518353 0.000000 0.028351
518.000000 45.674000 5.000000 13.000000 3.000000 103.524117 11.796595 750.217158 676.539884 21.904679 0.000000 0.151664
519.000000 46.349000 6.000000 13.000000 3.000000 110.294199 9.546442 793.993142 537.401294 21.582887 0.000000 0.139451
520.000000 46.534000 7.000000 13.000000 3.000000 116.573487 7.054000 841.817883 398.548876 21.494633 0.000000 0.120711
521.000000 46.309000 8.000000 13.000000 3.000000 122.345917 4.289027 894.280308 257.472908 21.596723 0.000000 0.096898
522.000000 45.756000 9.000000 13.000000 3.000000 127.605981 1.219447 952.089384 111.775033 21.855996 0.000000 0.069573
525.000000 82.436000 0.000000 5.000000 4.000000 77.526999 50.660218 -338.113426 1316.563777 12.140487 0.000000 0.308136
526.000000 94.678000 1.000000 5.000000 4.000000 95.392036 50.937405 -351.147778 779.791145 10.567563 0.000000 0.266886
528.000000 58.390000 -1.000000 6.000000 4.000000 59.799689 44.757228 -92.211839 1823.170261 17.145340 0.000000 0.303345
529.000000 82.259000 1.000000 6.000000 4.000000 92.085663 43.944965 -62.369221 886.561280 12.163899 0.000000 0.136334
530.000000 90.520000 3.000000 6.000000 4.000000 120.700174 42.679100 -17.449123 71.720493 11.048606 0.000000 0.172609
531.000000 52.347000 -1.000000 7.000000 4.000000 60.014777 40.236417 64.287573 1754.519039 19.124885 0.000000 0.238468
532.000000 63.292000 0.000000 7.000000 4.000000 74.583467 39.519893 87.143671 1325.746658 15.814185 0.000000 0.158827
533.000000 71.830000 1.000000 7.000000 4.000000 88.854774 38.668079 113.709742 968.556847 13.931147 0.000000 0.104216
534.000000 77.445000 2.000000 7.000000 4.000000 102.412079 37.639175 144.968870 641.865243 12.917862 0.000000 0.055277
535.000000 80.187000 3.000000 7.000000 4.000000 114.952248 36.372479 182.285125 319.035458 12.473614 0.000000 0.044539
536.000000 80.506000 4.000000 7.000000 4.000000 126.305801 34.776592 227.607927 -21.748439 12.421991 0.000000 0.099415
539.000000 47.116000 -1.000000 8.000000 4.000000 59.963346 36.595864 175.793856 1716.124918 21.248857 0.000000 0.199942
540.000000 63.207000 1.000000 8.000000 4.000000 85.892970 34.608047 232.291177 1034.896902 15.832838 0.000000 0.107325
541.000000 71.238000 3.000000 8.000000 4.000000 109.729903 31.843136 306.546942 486.609250 14.041887 0.000000 0.036308
542.000000 71.778000 5.000000 8.000000 4.000000 129.879446 27.759961 408.495261 -75.226787 13.931944 0.000000 0.060779
544.000000 49.994000 0.000000 9.000000 4.000000 71.599902 32.594742 286.820240 1365.969409 20.022389 0.000000 0.130941
545.000000 56.092000 1.000000 9.000000 4.000000 83.250107 31.417129 317.585422 1090.269419 17.842188 0.000000 0.114678
546.000000 60.650000 2.000000 9.000000 4.000000 94.482397 30.057299 352.165249 843.517553 16.497823 0.000000 0.100621
547.000000 63.596000 3.000000 9.000000 4.000000 105.100203 28.471369 391.316093 610.633371 15.730772 0.000000 0.078664
548.000000 65.038000 4.000000 9.000000 4.000000 114.964689 26.601002 436.008443 380.603028 15.379163 0.000000 0.049118
549.000000 65.210000 5.000000 9.000000 4.000000 123.994722 24.367445 487.508443 144.193680 15.336467 0.000000 0.024451
550.000000 64.391000 6.000000 9.000000 4.000000 132.156863 21.662799 547.499761 -107.501603 15.529709 0.000000 0.040579
551.000000 62.857000 7.000000 9.000000 4.000000 139.450187 18.337351 618.271153 -384.258259 15.907222 0.000000 0.065562
554.000000 50.196000 1.000000 10.000000 4.000000 80.916718 28.857963 381.883511 1137.470216 19.939085 0.000000 0.119454
555.000000 57.098000 3.000000 10.000000 4.000000 101.032510 25.880239 452.838229 707.764141 17.522149 0.000000 0.105843
556.000000 59.356000 5.000000 10.000000 4.000000 118.760081 21.912332 542.063365 304.279038 16.850509 0.000000 0.060490
557.000000 58.180000 7.000000 10.000000 4.000000 133.603512 16.427963 657.658506 -127.695342 17.187270 0.000000 0.030660
559.000000 48.898000 2.000000 11.000000 4.000000 88.359432 25.388810 464.195486 975.121807 20.465830 0.000000 0.125870
560.000000 51.572000 3.000000 11.000000 4.000000 97.464442 23.834511 499.523072 786.834895 19.401357 0.000000 0.122863
561.000000 53.307000 4.000000 11.000000 4.000000 106.075247 22.071698 538.581400 606.320036 18.766831 0.000000 0.110898
562.000000 54.183000 5.000000 11.000000 4.000000 114.119454 20.059513 581.994388 427.990931 18.460865 0.000000 0.091373
563.000000 54.321000 6.000000 11.000000 4.000000 121.552375 17.747209 630.533288 247.068173 18.411627 0.000000 0.067065
564.000000 53.861000 7.000000 11.000000 4.000000 128.352138 15.071742 685.162908 59.064905 18.566802 0.000000 0.042468
565.000000 52.943000 8.000000 11.000000 4.000000 134.513259 11.955181 747.106398 -140.621577 18.887383 0.000000 0.026144
566.000000 51.690000 9.000000 11.000000 4.000000 140.039932 8.302488 817.937913 -357.099294 19.343698 0.000000 0.024760
569.000000 46.854000 3.000000 12.000000 4.000000 94.328547 22.182289 536.160500 853.022249 21.356402 0.000000 0.133265
570.000000 49.629000 5.000000 12.000000 4.000000 110.003535 18.614360 612.486639 527.557919 20.156372 0.000000 0.113586
571.000000 49.916000 7.000000 12.000000 4.000000 123.636617 14.059759 705.457032 202.805727 20.035798 0.000000 0.070108
572.000000 48.496000 9.000000 12.000000 4.000000 135.072588 8.133304 821.182302 -148.988421 20.618854 0.000000 0.024086
574.000000 45.623000 5.000000 13.000000 4.000000 106.344267 17.457025 636.533049 610.127408 21.927527 0.000000 0.129258
575.000000 46.211000 6.000000 13.000000 4.000000 113.101930 15.483685 676.847202 464.588089 21.646229 0.000000 0.114102
576.000000 46.336000 7.000000 13.000000 4.000000 119.396647 13.276163 721.047573 317.971575 21.585545 0.000000 0.094047
577.000000 46.074000 8.000000 13.000000 4.000000 125.213840 10.798014 769.724557 167.675797 21.705951 0.000000 0.070818
578.000000 45.503000 9.000000 13.000000 4.000000 130.548261 8.007422 823.594517 11.122553 21.976829 0.000000 0.046404
582.000000 76.291000 1.000000 6.000000 5.000000 92.463999 52.492601 -427.279036 864.932939 13.114992 0.000000 0.311603
585.000000 51.409000 -1.000000 7.000000 5.000000 63.022762 46.841833 -172.815252 1741.948936 19.472521 0.000000 0.315922
586.000000 60.810000 0.000000 7.000000 5.000000 76.736261 46.706647 -167.401256 1310.977443 16.458510 0.000000 0.233042
587.000000 68.135000 1.000000 7.000000 5.000000 90.151964 46.546967 -161.041110 936.849378 14.685786 0.000000 0.180202
588.000000 73.020000 2.000000 7.000000 5.000000 102.932398 46.355475 -153.463043 582.913495 13.700293 0.000000 0.166376
589.000000 75.513000 3.000000 7.000000 5.000000 114.831504 46.121618 -144.280179 222.467888 13.245362 0.000000 0.203058
592.000000 46.845000 -1.000000 8.000000 5.000000 63.050158 42.728512 -19.167877 1685.936204 21.370101 0.000000 0.250525
593.000000 54.685000 0.000000 8.000000 5.000000 75.526917 42.297975 -4.282901 1316.593053 18.302575 0.000000 0.179846
594.000000 60.987000 1.000000 8.000000 5.000000 87.774540 41.797932 12.751752 997.104665 16.407926 0.000000 0.127085
595.000000 65.466000 2.000000 8.000000 5.000000 99.530355 41.210172 32.438007 700.807758 15.282300 0.000000 0.088058
596.000000 68.101000 3.000000 8.000000 5.000000 110.591362 40.509559 55.447239 409.146089 14.688161 0.000000 0.083474
597.000000 69.085000 4.000000 8.000000 5.000000 120.827078 39.660425 82.698362 106.684699 14.476672 0.000000 0.123805
600.000000 49.381000 0.000000 9.000000 5.000000 74.269746 38.679031 113.372232 1329.320537 20.269543 0.000000 0.153920
601.000000 54.825000 1.000000 9.000000 5.000000 85.486877 37.966293 135.125971 1048.758962 18.253185 0.000000 0.112976
602.000000 58.891000 2.000000 9.000000 5.000000 96.316569 37.143082 159.732123 791.540040 16.989613 0.000000 0.075221
603.000000 61.531000 3.000000 9.000000 5.000000 106.591588 36.181990 187.791075 543.692402 16.257934 0.000000 0.037945
604.000000 62.843000 4.000000 9.000000 5.000000 116.194558 35.045919 220.084423 294.266675 15.915982 0.000000 0.034723
605.000000 63.024000 5.000000 9.000000 5.000000 125.058034 33.683491 257.648918 33.365707 15.868109 0.000000 0.077728
606.000000 62.312000 6.000000 9.000000 5.000000 133.156946 32.021697 301.889843 -249.292920 16.047599 0.000000 0.124022
609.000000 49.544000 1.000000 10.000000 5.000000 83.356655 34.835732 225.960104 1093.726313 20.199945 0.000000 0.113251
610.000000 53.217000 2.000000 10.000000 5.000000 93.361950 33.877997 252.360063 864.844387 18.802489 0.000000 0.089159
611.000000 55.776000 3.000000 10.000000 5.000000 102.919314 32.779152 281.929822 647.354845 17.936538 0.000000 0.061119
612.000000 57.269000 4.000000 10.000000 5.000000 111.925522 31.506551 315.276734 432.866669 17.466218 0.000000 0.027400
613.000000 57.583000 6.000000 10.000000 5.000000 128.049056 28.252701 396.620845 -15.304273 17.366817 0.000000 0.051256
614.000000 56.738000 7.000000 10.000000 5.000000 135.122823 26.134158 446.932982 -263.010494 17.623555 0.000000 0.086959
617.000000 48.329000 2.000000 11.000000 5.000000 90.681622 31.215083 322.785702 926.027625 20.705126 0.000000 0.103872
618.000000 50.763000 3.000000 11.000000 5.000000 99.591774 30.051112 352.320368 730.871752 19.709131 0.000000 0.087547
619.000000 52.338000 4.000000 11.000000 5.000000 108.046612 28.725412 385.125494 541.109164 19.113486 0.000000 0.065578
620.000000 53.125000 5.000000 11.000000 5.000000 115.983035 27.203526 421.776141 351.213295 18.827522 0.000000 0.039755
621.000000 53.236000 6.000000 11.000000 5.000000 123.362843 25.441137 462.990585 156.212605 18.786026 0.000000 0.021404
622.000000 52.796000 7.000000 11.000000 5.000000 130.168551 23.380628 509.677860 -48.800679 18.940896 0.000000 0.037214
623.000000 51.928000 8.000000 11.000000 5.000000 136.397847 20.946333 563.005589 -269.104196 19.255871 0.000000 0.061857
626.000000 46.401000 3.000000 12.000000 5.000000 96.594006 27.824648 406.942552 800.316847 21.563450 0.000000 0.106396
627.000000 47.991000 4.000000 12.000000 5.000000 104.544430 26.492187 438.562714 628.999177 20.846120 0.000000 0.092404
628.000000 48.927000 5.000000 12.000000 5.000000 112.058140 24.986184 473.431672 459.846627 20.444651 0.000000 0.073129
629.000000 49.282000 6.000000 12.000000 5.000000 119.096527 23.272926 512.077235 288.974506 20.294835 0.000000 0.050973
630.000000 49.146000 7.000000 12.000000 5.000000 125.637726 21.310272 555.148089 112.745547 20.348761 0.000000 0.032147
631.000000 48.614000 8.000000 12.000000 5.000000 131.673068 19.045279 603.450505 -72.514872 20.569955 0.000000 0.030922
632.000000 47.774000 9.000000 12.000000 5.000000 137.203008 16.411271 657.999284 -270.784516 20.930159 0.000000 0.044236
635.000000 45.706000 6.000000 13.000000 5.000000 115.224443 21.554469 549.854001 395.850410 21.884242 0.000000 0.079045
636.000000 45.797000 7.000000 13.000000 5.000000 121.507910 19.700775 589.614423 240.222267 21.838615 0.000000 0.058414
637.000000 45.525000 8.000000 13.000000 5.000000 127.348125 17.599534 633.588971 79.321427 21.966834 0.000000 0.039137
646.000000 58.036000 1.000000 8.000000 6.000000 88.674829 48.381693 -236.479557 978.487079 17.241636 0.000000 0.217933
647.000000 64.387000 3.000000 8.000000 6.000000 110.304544 48.365812 -235.803449 341.591521 15.535237 0.000000 0.231640
649.000000 52.870000 1.000000 9.000000 6.000000 86.854762 44.104117 -68.151697 1023.362192 18.927365 0.000000 0.154511
650.000000 56.497000 2.000000 9.000000 6.000000 97.207691 43.773793 -56.184506 752.495968 17.708893 0.000000 0.123165
651.000000 60.116000 4.000000 9.000000 6.000000 116.316772 42.936938 -26.448181 213.876632 16.637544 0.000000 0.149094
654.000000 48.283000 1.000000 10.000000 6.000000 85.041337 40.534025 54.651904 1063.866675 20.726462 0.000000 0.127198
655.000000 53.915000 3.000000 10.000000 6.000000 103.918956 39.365053 92.020764 595.990645 18.555095 0.000000 0.063286
656.000000 55.820000 5.000000 10.000000 6.000000 120.837112 37.796799 140.236896 127.846193 17.916877 0.000000 0.097187
658.000000 47.255000 2.000000 11.000000 6.000000 92.295809 36.847227 168.444518 887.079018 21.174906 0.000000 0.088864
659.000000 49.475000 3.000000 11.000000 6.000000 100.955681 36.073455 190.916260 683.229168 20.221705 0.000000 0.058132
660.000000 50.918000 4.000000 11.000000 6.000000 109.199091 35.191273 216.003381 482.396003 19.645711 0.000000 0.027748
661.000000 51.650000 5.000000 11.000000 6.000000 116.971200 34.176705 244.190682 278.952291 19.364749 0.000000 0.028972
662.000000 51.767000 6.000000 11.000000 6.000000 124.239362 32.998339 276.090671 67.574248 19.318899 0.000000 0.064488
663.000000 51.377000 7.000000 11.000000 6.000000 130.989794 31.614316 312.488588 -157.257654 19.463436 0.000000 0.102517
667.000000 47.852000 5.000000 12.000000 6.000000 113.367762 31.274718 321.253140 396.900502 20.903152 0.000000 0.021335
668.000000 48.057000 7.000000 12.000000 6.000000 126.805775 28.568891 388.943173 24.009576 20.809446 0.000000 0.044777
675.000000 46.203000 0.000000 9.000000 7.000000 77.353256 49.662127 -292.423344 1314.095508 21.661103 0.000000 0.286313
676.000000 50.487000 1.000000 9.000000 7.000000 87.516012 49.742353 -296.026112 1013.251318 19.820070 0.000000 0.249886
677.000000 53.729000 2.000000 9.000000 7.000000 97.349887 49.834139 -300.162681 725.761931 18.620822 0.000000 0.238838
678.000000 55.907000 3.000000 9.000000 7.000000 106.734381 49.940178 -304.961178 438.180938 17.892564 0.000000 0.257559
681.000000 46.596000 1.000000 10.000000 7.000000 86.077981 45.868703 -134.436253 1046.973592 21.475915 0.000000 0.181547
682.000000 49.581000 2.000000 10.000000 7.000000 95.314831 45.696537 -127.786356 797.647460 20.179734 0.000000 0.155447
683.000000 51.698000 3.000000 10.000000 7.000000 104.179009 45.499974 -120.244025 553.040109 19.350558 0.000000 0.151626
684.000000 52.982000 4.000000 10.000000 7.000000 112.593496 45.273440 -111.616689 304.564897 18.878798 0.000000 0.173867
685.000000 53.520000 5.000000 10.000000 7.000000 120.507903 45.009522 -101.652075 43.976817 18.686664 0.000000 0.215986
688.000000 45.808000 2.000000 11.000000 7.000000 93.285825 42.193069 -0.686850 857.597693 21.843063 0.000000 0.112929
689.000000 47.838000 3.000000 11.000000 7.000000 101.652321 41.786104 13.151466 643.327342 20.912870 0.000000 0.091829
690.000000 49.175000 4.000000 11.000000 7.000000 109.638666 41.322988 28.686990 429.588327 20.341545 0.000000 0.092795
691.000000 49.875000 5.000000 11.000000 7.000000 117.196825 40.791315 46.252356 210.490091 20.053774 0.000000 0.118066
692.000000 50.018000 6.000000 11.000000 7.000000 124.298221 40.174761 66.273190 -19.827340 19.993943 0.000000 0.157079
695.000000 45.685000 4.000000 12.000000 7.000000 106.796378 38.038733 132.934414 528.505733 21.896838 0.000000 0.048502
696.000000 46.493000 5.000000 12.000000 7.000000 114.004231 37.336440 154.001189 338.183230 21.513785 0.000000 0.052450
697.000000 46.815000 6.000000 12.000000 7.000000 120.814327 36.534210 177.589205 142.040775 21.363354 0.000000 0.080492
698.000000 46.722000 7.000000 12.000000 7.000000 127.210918 35.609470 204.179875 -64.252851 21.404024 0.000000 0.116398
705.000000 49.278000 3.000000 10.000000 8.000000 103.858631 51.104047 -359.058936 518.117497 20.300315 0.000000 0.280676
707.000000 45.973000 3.000000 11.000000 8.000000 101.794882 47.108973 -183.594418 610.780725 21.760709 0.000000 0.180280
708.000000 47.223000 4.000000 11.000000 8.000000 109.491413 47.018374 -179.926617 382.222508 21.182360 0.000000 0.197251
709.000000 47.904000 5.000000 11.000000 8.000000 116.797946 46.914841 -175.750457 145.158742 20.878480 0.000000 0.232232
#UB matrix in q= (UB) B0 G* 
#[[-0.837794682 -0.43911603  -0.323434285]
# [-0.408583007  0.111885282  0.906475366]
# [-0.362160181  0.892170877 -0.273355199]]
#B0 matrix in q= UB (B0) G*
#[[ 0.19670273 -0.          0.03056101]
# [ 0.          0.19187965 -0.        ]
# [ 0.          0.          0.18806537]]
#UBB0 matrix in q= (UB B0) G* i.e. recip. basis vectors are columns in LT frame: astar = UBB0[:,0], bstar = UBB0[:,1], cstar = UBB0[:,2]. (abcstar as columns on xyzlab1, xlab1 = ui, ui = unit vector along incident beam)
#[[-0.1647965  -0.08425743 -0.08643064]
# [-0.08036939  0.02146851  0.15798992]
# [-0.0712379   0.17118944 -0.06247663]]
#Euler angles phi theta psi (deg)
#[202.114 105.841  19.668]
#deviatoric strain in direct crystal frame (10-3 unit)
#[[-2.68  0.43  0.51]
# [ 0.43 -3.25  0.54]
# [ 0.51  0.54  5.93]]
#deviatoric strain in sample2 frame (10-3 unit)
#[[-1.07 -3.62 -0.74]
# [-3.63  4.07  0.37]
# [-0.74  0.37 -3.  ]]
#new lattice parameters
#[ 5.1505     5.2085889  5.3149683 89.9751918 99.202956  89.9511702]
#CCDLabel
#sCMOS
#DetectorParameters
#[79.0, 975.0, 941.0, 0.0, 0.0]
#pixelsize
#0.0734
#Frame dimensions
#[2018, 2016]
#
