#Strain and Orientation Refinement from experimental file: /home/micha/LaueProjects/DepthEffects/testZrO2_111.cor
#File created at Wed Jun 28 14:25:05 2023 with indexingSpotsSet.py
#Number of indexed spots: 515
#Element
#ZrO2
#grainIndex
#G_0
#Mean Deviation(pixel): 0.116
##spot_index intensity h k l 2theta Chi Xexp Yexp Energy GrainIndex PixDev
1.000000 48.032000 2.000000 -1.000000 -1.000000 47.564334 -14.781617 1258.999820 1958.701575 6.948677 0.000000 0.133526
2.000000 48.786000 7.000000 -3.000000 -3.000000 54.614966 -11.816668 1200.176386 1722.010790 20.522148 0.000000 0.056429
3.000000 47.946000 8.000000 -3.000000 -3.000000 60.179021 -9.299242 1151.235326 1566.138671 20.880260 0.000000 0.045800
4.000000 46.318000 3.000000 -1.000000 -1.000000 64.636931 -7.142966 1109.879252 1455.202941 7.204192 0.000000 0.071154
5.000000 47.502000 5.000000 -2.000000 -3.000000 38.614958 -9.162900 1148.606504 2305.946170 21.080206 0.000000 0.244932
6.000000 50.931000 6.000000 -2.000000 -3.000000 47.855124 -6.285958 1093.557001 1920.930346 19.659667 0.000000 0.104384
7.000000 51.112000 7.000000 -2.000000 -3.000000 54.904784 -3.925116 1048.848397 1699.076217 19.588570 0.000000 0.020283
8.000000 49.738000 8.000000 -2.000000 -3.000000 60.395565 -1.959169 1011.817102 1552.888128 20.128099 0.000000 0.036675
9.000000 47.680000 9.000000 -2.000000 -3.000000 64.759756 -0.300344 980.641969 1448.396301 20.995533 0.000000 0.071681
10.000000 48.536000 5.000000 -1.000000 -3.000000 37.652819 1.066309 954.967198 2336.176186 20.631222 0.000000 0.255334
11.000000 51.950000 6.000000 -1.000000 -3.000000 47.107776 2.976841 919.030036 1942.233259 19.274351 0.000000 0.112139
12.000000 51.904000 7.000000 -1.000000 -3.000000 54.229999 4.514958 890.011067 1718.805267 19.289939 0.000000 0.036959
13.000000 50.301000 8.000000 -1.000000 -3.000000 59.737735 5.778187 866.087983 1572.192093 19.902814 0.000000 0.043870
14.000000 48.061000 9.000000 -1.000000 -3.000000 64.099496 6.833214 846.026832 1467.371092 20.829075 0.000000 0.073160
15.000000 45.624000 10.000000 -1.000000 -3.000000 67.626381 7.727026 828.962303 1388.096529 21.940138 0.000000 0.095102
16.000000 46.682000 6.000000 1.000000 -3.000000 42.088603 22.027080 539.557037 2226.465254 21.449233 0.000000 0.244965
17.000000 47.861000 7.000000 1.000000 -3.000000 49.704762 21.664819 547.455829 1922.977590 20.919288 0.000000 0.156490
18.000000 47.121000 8.000000 1.000000 -3.000000 55.619076 21.367833 553.901788 1731.786082 21.246215 0.000000 0.115085
19.000000 45.504000 9.000000 1.000000 -3.000000 60.321108 21.119950 559.261986 1598.550950 21.999841 0.000000 0.101999
20.000000 46.108000 7.000000 -6.000000 -2.000000 61.476733 -33.165176 1678.373335 1639.779435 21.710168 0.000000 0.158015
21.000000 45.712000 4.000000 -3.000000 -1.000000 66.601305 -29.631044 1587.191830 1476.792051 10.948516 0.000000 0.122064
22.000000 49.709000 5.000000 -5.000000 -2.000000 50.445829 -35.897315 1754.030256 2038.361844 20.139946 0.000000 0.257315
23.000000 51.525000 6.000000 -5.000000 -2.000000 58.138349 -31.433008 1632.824208 1724.984434 19.428841 0.000000 0.160067
24.000000 51.341000 7.000000 -5.000000 -2.000000 64.263931 -27.487289 1534.979899 1525.841005 19.497129 0.000000 0.115720
25.000000 50.028000 8.000000 -5.000000 -2.000000 69.157186 -24.006206 1454.336779 1389.566813 20.007668 0.000000 0.106526
26.000000 48.135000 9.000000 -5.000000 -2.000000 73.094191 -20.933840 1386.725356 1291.240508 20.793262 0.000000 0.113380
27.000000 45.991000 10.000000 -5.000000 -2.000000 76.291073 -18.217072 1329.222950 1217.403571 21.761560 0.000000 0.124091
29.000000 57.560000 5.000000 -4.000000 -2.000000 53.316409 -29.063577 1573.161874 1858.266747 17.393138 0.000000 0.170114
30.000000 58.089000 3.000000 -2.000000 -1.000000 60.932920 -24.626332 1468.364438 1599.106255 8.616616 0.000000 0.106581
31.000000 56.603000 7.000000 -4.000000 -2.000000 66.803678 -20.820225 1384.280645 1434.440040 17.684267 0.000000 0.096824
32.000000 54.176000 4.000000 -2.000000 -1.000000 71.380614 -17.546827 1315.321622 1321.314180 9.237705 0.000000 0.108762
33.000000 51.391000 9.000000 -4.000000 -2.000000 74.998841 -14.719059 1257.743208 1239.201501 19.475300 0.000000 0.123220
34.000000 48.554000 5.000000 -2.000000 -1.000000 77.900860 -12.263038 1208.942870 1177.107931 10.306255 0.000000 0.135389
35.000000 45.813000 11.000000 -4.000000 -2.000000 80.261377 -10.117449 1167.055403 1128.638996 21.844861 0.000000 0.144837
37.000000 62.836000 4.000000 -3.000000 -2.000000 45.832947 -25.641145 1491.624460 2100.646588 15.934125 0.000000 0.211994
38.000000 65.702000 5.000000 -3.000000 -2.000000 55.879980 -20.640999 1380.431620 1720.278418 15.237730 0.000000 0.098348
39.000000 64.415000 6.000000 -3.000000 -2.000000 63.261391 -16.525605 1294.336148 1506.591720 15.540688 0.000000 0.077626
40.000000 61.381000 7.000000 -3.000000 -2.000000 68.785697 -13.112176 1225.702637 1369.960114 16.307580 0.000000 0.097504
41.000000 57.764000 8.000000 -3.000000 -2.000000 73.010248 -10.254229 1169.707749 1275.183414 17.327511 0.000000 0.117972
42.000000 54.098000 9.000000 -3.000000 -2.000000 76.310271 -7.837661 1123.154777 1205.640017 18.500591 0.000000 0.133258
43.000000 50.614000 10.000000 -3.000000 -2.000000 78.939299 -5.774458 1083.841253 1152.467058 19.773391 0.000000 0.144169
44.000000 47.397000 11.000000 -3.000000 -2.000000 81.071171 -3.996741 1050.200301 1110.510306 21.114749 0.000000 0.151929
46.000000 72.756000 5.000000 -2.000000 -2.000000 57.556173 -10.507909 1174.633031 1636.862335 13.760532 0.000000 0.042076
47.000000 64.967000 7.000000 -2.000000 -2.000000 69.828272 -4.442075 1058.611424 1337.587620 15.407517 0.000000 0.103527
48.000000 60.317000 4.000000 -1.000000 -1.000000 73.756262 -2.235446 1017.013901 1254.822377 8.297038 0.000000 0.124656
49.000000 55.937000 9.000000 -2.000000 -2.000000 76.811325 -0.403851 982.586421 1193.224373 17.892399 0.000000 0.138435
50.000000 51.955000 5.000000 -1.000000 -1.000000 79.244190 1.137880 953.622256 1145.494262 9.631361 0.000000 0.147606
51.000000 48.388000 11.000000 -2.000000 -2.000000 81.221005 2.451723 928.916542 1107.367440 20.682141 0.000000 0.153817
53.000000 77.582000 4.000000 -1.000000 -2.000000 47.626147 -1.728269 1007.475166 1923.338260 12.906300 0.000000 0.102751
54.000000 76.623000 5.000000 -1.000000 -2.000000 57.607041 1.097010 954.390287 1623.976778 13.066212 0.000000 0.016492
55.000000 72.006000 6.000000 -1.000000 -2.000000 64.532684 3.242369 914.027396 1454.434496 13.902509 0.000000 0.072205
56.000000 66.600000 7.000000 -1.000000 -2.000000 69.566234 4.922537 882.302552 1343.476923 15.029688 0.000000 0.104665
57.000000 61.374000 8.000000 -1.000000 -2.000000 73.367115 6.271869 856.710853 1264.466061 16.308432 0.000000 0.124148
58.000000 56.622000 9.000000 -1.000000 -2.000000 76.327987 7.378181 835.630543 1205.001252 17.676142 0.000000 0.136407
59.000000 52.397000 10.000000 -1.000000 -2.000000 78.694101 8.301059 817.965327 1158.458348 19.100520 0.000000 0.144391
60.000000 48.668000 11.000000 -1.000000 -2.000000 80.625289 9.082253 802.947503 1120.947373 20.563215 0.000000 0.149718
62.000000 75.785000 4.000000 0.000000 -2.000000 45.159325 12.588344 734.649615 2037.688218 13.212289 0.000000 0.161386
63.000000 75.378000 5.000000 0.000000 -2.000000 55.475188 13.423327 718.127419 1702.197849 13.282152 0.000000 0.072818
64.000000 70.998000 6.000000 0.000000 -2.000000 62.605885 14.048037 705.691031 1515.953106 14.100098 0.000000 0.079896
65.000000 65.743000 7.000000 0.000000 -2.000000 67.790772 14.532914 695.991643 1394.954685 15.225714 0.000000 0.101333
66.000000 60.634000 8.000000 0.000000 -2.000000 71.715138 14.920130 688.215286 1309.043182 16.507581 0.000000 0.117119
67.000000 55.978000 9.000000 0.000000 -2.000000 74.781818 15.236465 681.841641 1244.456128 17.879640 0.000000 0.127811
68.000000 51.833000 10.000000 0.000000 -2.000000 77.240819 15.499734 676.522571 1193.920106 19.308467 0.000000 0.135085
69.000000 48.171000 11.000000 0.000000 -2.000000 79.254638 15.722247 672.016342 1153.189315 20.775341 0.000000 0.140119
71.000000 68.739000 5.000000 1.000000 -2.000000 51.219225 25.395976 464.030538 1898.274167 14.564948 0.000000 0.168476
72.000000 66.335000 6.000000 1.000000 -2.000000 58.919709 24.538219 483.637124 1654.167486 15.091363 0.000000 0.121642
73.000000 62.351000 7.000000 1.000000 -2.000000 64.563272 23.866588 498.802722 1500.774094 16.054250 0.000000 0.111928
74.000000 58.083000 8.000000 1.000000 -2.000000 68.856189 23.326568 510.882694 1394.305047 17.232718 0.000000 0.114406
75.000000 54.004000 9.000000 1.000000 -2.000000 72.221962 22.882999 520.731797 1315.584775 18.533412 0.000000 0.119414
76.000000 50.268000 10.000000 1.000000 -2.000000 74.926897 22.512201 528.915770 1254.774770 19.910082 0.000000 0.124210
77.000000 46.904000 11.000000 1.000000 -2.000000 77.145660 22.197648 535.823970 1206.261304 21.337196 0.000000 0.128210
80.000000 58.948000 3.000000 1.000000 -1.000000 53.951001 34.093767 246.464743 1886.973423 8.491314 0.000000 0.219677
81.000000 56.934000 7.000000 2.000000 -2.000000 60.209908 32.483733 289.754452 1671.433075 17.582230 0.000000 0.167608
82.000000 54.019000 4.000000 1.000000 -1.000000 65.021242 31.167812 323.999149 1526.982051 9.264919 0.000000 0.141761
83.000000 50.882000 9.000000 2.000000 -2.000000 68.817126 30.073238 351.765508 1422.978183 19.671010 0.000000 0.129684
84.000000 47.817000 5.000000 1.000000 -1.000000 71.878926 29.149126 374.733007 1344.301576 10.465457 0.000000 0.124640
87.000000 50.338000 7.000000 3.000000 -2.000000 55.193911 40.129026 67.743794 1919.575150 19.886374 0.000000 0.279187
88.000000 48.947000 8.000000 3.000000 -2.000000 60.542480 38.241670 126.771689 1714.974630 20.450462 0.000000 0.217737
89.000000 46.927000 9.000000 3.000000 -2.000000 64.810734 36.645249 174.353739 1571.923754 21.329402 0.000000 0.179456
91.000000 47.568000 6.000000 -7.000000 -1.000000 63.234185 -44.999758 2051.285176 1708.730278 21.041947 0.000000 0.282631
92.000000 47.789000 7.000000 -7.000000 -1.000000 68.958292 -40.850876 1905.701344 1488.384818 20.943033 0.000000 0.192803
93.000000 47.079000 8.000000 -7.000000 -1.000000 73.670884 -37.030946 1786.957701 1335.989572 21.257772 0.000000 0.141612
94.000000 45.797000 9.000000 -7.000000 -1.000000 77.544294 -33.532363 1688.258227 1226.200741 21.851615 0.000000 0.118521
96.000000 53.835000 5.000000 -6.000000 -1.000000 60.351830 -45.146480 2056.811630 1809.595727 18.593013 0.000000 0.305489
97.000000 54.543000 6.000000 -6.000000 -1.000000 67.247299 -40.346564 1889.268756 1533.261100 18.350435 0.000000 0.195741
98.000000 53.719000 7.000000 -6.000000 -1.000000 72.766140 -35.989264 1756.665490 1353.624751 18.630709 0.000000 0.138431
99.000000 52.017000 8.000000 -6.000000 -1.000000 77.174837 -32.059725 1649.104324 1230.116885 19.239110 0.000000 0.116908
100.000000 49.869000 9.000000 -6.000000 -1.000000 80.705575 -28.529733 1560.103503 1141.487767 20.066930 0.000000 0.115943
101.000000 47.541000 10.000000 -6.000000 -1.000000 83.547968 -25.364301 1485.240539 1075.700357 21.048706 0.000000 0.123033
104.000000 63.356000 5.000000 -5.000000 -1.000000 64.845513 -39.657181 1867.198803 1597.497005 15.798410 0.000000 0.200577
105.000000 62.460000 6.000000 -5.000000 -1.000000 71.505849 -34.590718 1717.228377 1378.303765 16.023653 0.000000 0.134666
106.000000 60.112000 7.000000 -5.000000 -1.000000 76.628477 -30.119553 1599.396804 1236.780453 16.648644 0.000000 0.115948
107.000000 57.114000 8.000000 -5.000000 -1.000000 80.587677 -26.190159 1504.372836 1139.830278 17.521338 0.000000 0.119774
108.000000 53.921000 9.000000 -5.000000 -1.000000 83.674448 -22.740544 1426.118806 1070.366171 18.558121 0.000000 0.129693
109.000000 50.770000 10.000000 -5.000000 -1.000000 86.106553 -19.708784 1360.555316 1018.808850 19.709205 0.000000 0.139530
110.000000 47.778000 11.000000 -5.000000 -1.000000 88.044434 -17.037511 1304.826849 979.436190 20.943095 0.000000 0.147754
113.000000 75.119000 4.000000 -4.000000 -1.000000 61.235191 -38.658332 1835.989931 1697.625248 13.325177 0.000000 0.209675
114.000000 74.407000 5.000000 -4.000000 -1.000000 69.636562 -32.617003 1663.769031 1415.287315 13.451458 0.000000 0.129785
115.000000 71.011000 6.000000 -4.000000 -1.000000 75.766126 -27.454777 1534.204069 1248.673178 14.093721 0.000000 0.115673
116.000000 66.620000 7.000000 -4.000000 -1.000000 80.281829 -23.060142 1433.193729 1141.333495 15.021597 0.000000 0.125265
117.000000 62.062000 8.000000 -4.000000 -1.000000 83.659735 -19.315287 1352.235299 1067.722510 16.124091 0.000000 0.137703
118.000000 57.704000 9.000000 -4.000000 -1.000000 86.230245 -16.111826 1285.897052 1014.816118 17.341124 0.000000 0.148001
119.000000 53.689000 10.000000 -4.000000 -1.000000 88.220290 -13.356526 1230.546611 975.372110 18.637343 0.000000 0.155733
120.000000 50.053000 11.000000 -4.000000 -1.000000 89.786412 -10.971909 1183.662852 945.086955 19.990585 0.000000 0.161357
121.000000 46.786000 12.000000 -4.000000 -1.000000 91.037817 -8.894697 1143.441137 921.265280 21.386255 0.000000 0.165388
123.000000 90.685000 3.000000 -3.000000 -1.000000 55.223445 -37.082675 1788.483497 1877.854630 11.038929 0.000000 0.231526
124.000000 86.267000 5.000000 -3.000000 -1.000000 74.279675 -23.588088 1444.954963 1271.564711 11.601697 0.000000 0.115079
125.000000 79.447000 6.000000 -3.000000 -1.000000 79.568732 -18.690625 1339.109239 1150.175526 12.596645 0.000000 0.131619
126.000000 72.637000 7.000000 -3.000000 -1.000000 83.316896 -14.695624 1257.272669 1071.378830 13.776862 0.000000 0.146099
127.000000 66.406000 8.000000 -3.000000 -1.000000 86.051500 -11.404570 1192.108323 1016.786096 15.068748 0.000000 0.156163
128.000000 60.891000 9.000000 -3.000000 -1.000000 88.101420 -8.663387 1138.992357 977.089426 16.433128 0.000000 0.162832
129.000000 56.065000 10.000000 -3.000000 -1.000000 89.675870 -6.354800 1094.866058 947.126449 17.847232 0.000000 0.167174
130.000000 51.851000 11.000000 -3.000000 -1.000000 90.911356 -4.389890 1057.625286 923.828471 19.296924 0.000000 0.169947
131.000000 48.166000 12.000000 -3.000000 -1.000000 91.899302 -2.700972 1025.775043 905.269068 20.772960 0.000000 0.171659
132.000000 86.473000 6.000000 -2.000000 -1.000000 82.206938 -8.231951 1130.709088 1089.834724 11.572923 0.000000 0.152006
133.000000 77.305000 7.000000 -2.000000 -1.000000 85.199518 -5.084099 1070.755630 1031.745086 12.944605 0.000000 0.161468
134.000000 69.592000 8.000000 -2.000000 -1.000000 87.370357 -2.571915 1023.345597 990.482088 14.378633 0.000000 0.166789
135.000000 63.119000 9.000000 -2.000000 -1.000000 89.001935 -0.527819 984.915295 959.751225 15.852697 0.000000 0.169706
136.000000 57.657000 10.000000 -2.000000 -1.000000 90.264748 1.163850 953.134211 936.025670 17.353998 0.000000 0.171195
137.000000 53.011000 11.000000 -2.000000 -1.000000 91.266377 2.584683 926.414075 917.183160 18.874667 0.000000 0.171816
138.000000 49.023000 12.000000 -2.000000 -1.000000 92.077392 3.793505 903.635152 901.873614 20.409599 0.000000 0.171902
139.000000 45.571000 13.000000 -2.000000 -1.000000 92.745679 4.833603 883.985343 889.199005 21.955339 0.000000 0.171656
140.000000 90.414000 6.000000 -1.000000 -1.000000 82.855213 3.583608 907.594444 1076.178308 11.068269 0.000000 0.158072
141.000000 79.683000 7.000000 -1.000000 -1.000000 85.391852 5.431902 872.655569 1028.141951 12.558250 0.000000 0.163007
142.000000 71.072000 8.000000 -1.000000 -1.000000 87.263189 6.875073 845.229161 992.822422 14.079240 0.000000 0.165255
143.000000 64.060000 9.000000 -1.000000 -1.000000 88.696710 8.031802 823.127455 965.728944 15.619914 0.000000 0.166115
144.000000 58.262000 10.000000 -1.000000 -1.000000 89.827968 8.978952 804.937012 944.271705 17.173866 0.000000 0.166228
145.000000 53.400000 11.000000 -1.000000 -1.000000 90.742349 9.768347 789.703986 926.849129 18.737196 0.000000 0.165934
146.000000 49.270000 12.000000 -1.000000 -1.000000 91.496130 10.436131 776.761369 912.416148 20.307395 0.000000 0.165416
147.000000 45.723000 13.000000 -1.000000 -1.000000 92.127821 11.008252 765.628710 900.261139 21.882778 0.000000 0.164784
148.000000 84.594000 6.000000 1.000000 -1.000000 76.497720 27.675725 410.514425 1232.828668 11.830470 0.000000 0.123136
149.000000 75.379000 7.000000 1.000000 -1.000000 79.804156 26.554327 437.104661 1157.403532 13.276041 0.000000 0.125066
150.000000 67.765000 8.000000 1.000000 -1.000000 82.281477 25.672871 457.642054 1102.852754 14.767044 0.000000 0.127434
151.000000 61.442000 9.000000 1.000000 -1.000000 84.203824 24.962103 473.982159 1061.510667 16.286181 0.000000 0.129556
152.000000 56.139000 10.000000 1.000000 -1.000000 85.737407 24.376988 487.292400 1029.072004 17.823949 0.000000 0.131323
153.000000 51.645000 11.000000 1.000000 -1.000000 86.988526 23.887007 498.343994 1002.926598 19.374689 0.000000 0.132768
154.000000 47.795000 12.000000 1.000000 -1.000000 88.028179 23.470760 507.666890 981.397397 20.934826 0.000000 0.133949
157.000000 82.231000 5.000000 2.000000 -1.000000 64.328329 40.835607 44.799856 1624.766624 12.172005 0.000000 0.224353
158.000000 75.686000 6.000000 2.000000 -1.000000 70.257921 38.051975 132.533332 1431.520301 13.223569 0.000000 0.167275
159.000000 69.173000 7.000000 2.000000 -1.000000 74.554144 35.862741 196.959038 1307.953902 14.467810 0.000000 0.138887
160.000000 63.263000 8.000000 2.000000 -1.000000 77.787561 34.100657 246.275988 1222.319443 15.818608 0.000000 0.125175
161.000000 58.063000 9.000000 2.000000 -1.000000 80.298077 32.654368 285.241217 1159.556385 17.234514 0.000000 0.119035
162.000000 53.531000 10.000000 2.000000 -1.000000 82.297914 31.447399 316.804419 1111.621577 18.693107 0.000000 0.116744
163.000000 49.583000 11.000000 2.000000 -1.000000 83.925238 30.425738 342.891825 1073.836617 20.181202 0.000000 0.116372
164.000000 46.131000 12.000000 2.000000 -1.000000 85.273335 29.550275 364.814662 1043.298454 21.690536 0.000000 0.116932
168.000000 65.031000 6.000000 3.000000 -1.000000 63.174508 46.729200 -168.302567 1735.045704 15.391046 0.000000 0.323224
169.000000 61.469000 7.000000 3.000000 -1.000000 68.457101 43.885455 -60.215019 1530.536240 16.282087 0.000000 0.240121
170.000000 57.548000 8.000000 3.000000 -1.000000 72.500560 41.531066 21.734404 1394.305338 17.390363 0.000000 0.189085
171.000000 53.718000 9.000000 3.000000 -1.000000 75.671016 39.555970 86.004194 1297.579598 18.629489 0.000000 0.157016
172.000000 50.152000 10.000000 3.000000 -1.000000 78.210281 37.879086 137.758556 1225.613828 19.953522 0.000000 0.136880
173.000000 46.901000 11.000000 3.000000 -1.000000 80.281979 36.439936 180.328870 1170.120398 21.335773 0.000000 0.124473
177.000000 51.264000 8.000000 4.000000 -1.000000 66.856212 47.926206 -217.254278 1627.553856 19.523402 0.000000 0.320938
178.000000 48.815000 9.000000 4.000000 -1.000000 70.647259 45.614433 -124.629497 1481.435282 20.501608 0.000000 0.254096
179.000000 46.270000 10.000000 4.000000 -1.000000 73.719902 43.615768 -50.506140 1375.160883 21.628722 0.000000 0.207942
183.000000 47.410000 7.000000 -8.000000 0.000000 74.603451 -48.050463 2172.465159 1384.383424 21.107716 0.000000 0.270044
184.000000 46.717000 2.000000 -2.000000 0.000000 79.076549 -44.098141 2017.933991 1230.241566 5.354985 0.000000 0.184926
185.000000 45.521000 9.000000 -8.000000 0.000000 82.778023 -40.410596 1891.341503 1120.122313 21.981530 0.000000 0.132392
188.000000 54.232000 6.000000 -7.000000 0.000000 73.893702 -48.636141 2197.369688 1411.288146 18.452690 0.000000 0.285510
189.000000 51.797000 8.000000 -7.000000 0.000000 83.251303 -39.905630 1875.101406 1107.031363 19.318210 0.000000 0.127109
190.000000 49.790000 9.000000 -7.000000 0.000000 86.604027 -36.060404 1758.708540 1020.005441 20.095656 0.000000 0.101664
191.000000 47.598000 10.000000 -7.000000 0.000000 89.296403 -32.551501 1662.035932 956.680998 21.020643 0.000000 0.098357
194.000000 63.313000 5.000000 -6.000000 0.000000 72.917971 -49.425006 2231.843785 1449.487231 15.806399 0.000000 0.307644
195.000000 60.064000 7.000000 -6.000000 0.000000 83.862472 -39.240806 1854.081336 1090.433965 16.659024 0.000000 0.120852
196.000000 57.251000 4.000000 -3.000000 0.000000 87.567670 -34.854220 1724.555506 996.712891 8.738431 0.000000 0.098715
197.000000 54.225000 3.000000 -2.000000 0.000000 90.437924 -30.917374 1619.592193 931.410968 6.150462 0.000000 0.101189
198.000000 51.203000 5.000000 -3.000000 0.000000 92.668753 -27.396295 1532.809659 884.494091 9.769947 0.000000 0.111874
199.000000 48.299000 11.000000 -6.000000 0.000000 94.411022 -24.251129 1459.860731 849.939677 20.713908 0.000000 0.123206
200.000000 45.571000 4.000000 -2.000000 0.000000 95.779344 -21.440909 1397.681855 823.966750 7.317902 0.000000 0.133048
203.000000 71.440000 6.000000 -5.000000 0.000000 84.681369 -38.326245 1825.806784 1068.723102 14.006089 0.000000 0.113534
204.000000 67.261000 7.000000 -5.000000 0.000000 88.803926 -33.227212 1680.037543 967.863425 14.875556 0.000000 0.097847
205.000000 62.882000 8.000000 -5.000000 0.000000 91.842592 -28.757319 1565.654142 901.503958 15.910730 0.000000 0.107278
206.000000 58.641000 9.000000 -5.000000 0.000000 94.095699 -24.852067 1473.505171 856.066273 17.061090 0.000000 0.121032
207.000000 51.067000 11.000000 -5.000000 0.000000 97.047954 -18.455738 1334.198716 800.718297 19.590616 0.000000 0.142488
208.000000 47.789000 12.000000 -5.000000 0.000000 98.011602 -15.834956 1280.269921 783.539084 20.934142 0.000000 0.149676
209.000000 88.054000 5.000000 -4.000000 0.000000 85.833599 -36.989579 1785.739024 1039.158467 11.363269 0.000000 0.105482
210.000000 74.597000 7.000000 -4.000000 0.000000 93.593045 -25.779298 1494.821307 865.946869 13.411737 0.000000 0.117663
211.000000 62.770000 9.000000 -4.000000 0.000000 97.313928 -17.768616 1319.910092 795.937631 15.937993 0.000000 0.144478
212.000000 57.840000 5.000000 -2.000000 0.000000 98.404620 -14.644117 1256.238806 776.638705 8.648172 0.000000 0.152578
213.000000 53.508000 11.000000 -4.000000 0.000000 99.188407 -11.968345 1203.151983 763.033251 18.696419 0.000000 0.158249
214.000000 49.701000 3.000000 -1.000000 0.000000 99.756686 -9.660610 1158.212883 753.267283 5.032086 0.000000 0.162200
215.000000 46.346000 13.000000 -4.000000 0.000000 100.171343 -7.656015 1119.679433 746.162962 21.585126 0.000000 0.164931
216.000000 81.408000 7.000000 -3.000000 0.000000 97.718881 -16.671543 1297.321161 788.716921 12.289026 0.000000 0.147500
217.000000 73.186000 8.000000 -3.000000 0.000000 98.954873 -12.815744 1219.839100 767.067676 13.669329 0.000000 0.156581
218.000000 60.423000 10.000000 -3.000000 0.000000 100.283199 -7.045877 1108.027199 744.244339 16.556493 0.000000 0.165634
219.000000 55.449000 11.000000 -3.000000 0.000000 100.630733 -4.852217 1066.366845 738.252789 18.041350 0.000000 0.167673
220.000000 51.183000 4.000000 -1.000000 0.000000 100.859318 -2.990621 1031.229521 734.249253 6.514973 0.000000 0.168809
221.000000 47.494000 13.000000 -3.000000 0.000000 101.007345 -1.394167 1001.194430 731.584408 21.063048 0.000000 0.169352
222.000000 86.757000 7.000000 -2.000000 0.000000 100.474948 -5.902579 1086.273151 740.946727 11.530842 0.000000 0.166792
223.000000 68.749000 9.000000 -2.000000 0.000000 101.059372 -0.678977 987.755097 730.617141 14.551064 0.000000 0.169466
224.000000 62.182000 5.000000 -1.000000 0.000000 101.153959 1.194975 952.549277 728.740476 8.043902 0.000000 0.169386
225.000000 56.723000 11.000000 -2.000000 0.000000 101.186651 2.741711 923.457945 727.904646 17.636032 0.000000 0.168907
226.000000 52.122000 6.000000 -1.000000 0.000000 101.182491 4.038285 899.015446 727.700193 9.596477 0.000000 0.168217
227.000000 48.195000 13.000000 -2.000000 0.000000 101.156339 5.139787 878.189894 727.883270 20.756615 0.000000 0.167422
228.000000 89.616000 7.000000 -1.000000 0.000000 101.117239 6.086503 860.233757 728.304169 11.162802 0.000000 0.166584
229.000000 78.535000 8.000000 -1.000000 0.000000 101.020570 7.628600 830.844842 729.516806 12.737827 0.000000 0.164913
230.000000 69.865000 9.000000 -1.000000 0.000000 100.916840 8.829937 807.804953 730.920511 14.318705 0.000000 0.163344
231.000000 62.902000 10.000000 -1.000000 0.000000 100.815800 9.791442 789.257247 732.338768 15.903709 0.000000 0.161920
232.000000 57.191000 11.000000 -1.000000 0.000000 100.721176 10.578004 774.004634 733.697147 17.491731 0.000000 0.160640
233.000000 52.425000 12.000000 -1.000000 0.000000 100.634103 11.233156 761.240666 734.966808 19.082026 0.000000 0.159495
234.000000 48.388000 13.000000 -1.000000 0.000000 100.554595 11.787156 750.402204 736.139830 20.674077 0.000000 0.158472
235.000000 156.130000 4.000000 0.000000 0.000000 99.188795 18.372086 617.546832 757.543538 6.407418 0.000000 0.142304
236.000000 177.732000 3.000000 1.000000 0.000000 86.256004 42.888873 -24.764929 1037.128259 5.629514 0.000000 0.145496
237.000000 141.180000 4.000000 1.000000 0.000000 90.265659 37.575529 146.873879 934.703344 7.086635 0.000000 0.095628
238.000000 116.284000 5.000000 1.000000 0.000000 92.487639 34.106157 246.125293 884.527331 8.603661 0.000000 0.089620
239.000000 98.569000 6.000000 1.000000 0.000000 93.869390 31.679161 310.807758 855.457651 10.149777 0.000000 0.094114
240.000000 85.418000 7.000000 1.000000 0.000000 94.800336 29.892013 356.302959 836.745300 11.712210 0.000000 0.099871
241.000000 75.307000 8.000000 1.000000 0.000000 95.465201 28.523603 390.045679 823.798509 13.284709 0.000000 0.104985
242.000000 67.306000 9.000000 1.000000 0.000000 95.961408 27.443333 416.068922 814.358483 14.863856 0.000000 0.109229
243.000000 60.825000 10.000000 1.000000 0.000000 96.344659 26.569440 436.749806 807.196170 16.447622 0.000000 0.112714
244.000000 55.472000 11.000000 1.000000 0.000000 96.648885 25.848253 453.580300 801.590132 18.034728 0.000000 0.115591
245.000000 50.978000 12.000000 1.000000 0.000000 96.895834 25.243142 467.544134 797.091083 19.624326 0.000000 0.117989
246.000000 47.154000 13.000000 1.000000 0.000000 97.100037 24.728278 479.316226 793.405620 21.215835 0.000000 0.120013
249.000000 101.120000 5.000000 2.000000 0.000000 82.866793 46.721520 -167.995550 1137.475888 9.894999 0.000000 0.213294
250.000000 78.815000 7.000000 2.000000 0.000000 88.587011 39.924717 74.289104 975.618095 12.694431 0.000000 0.111305
251.000000 63.804000 9.000000 2.000000 0.000000 91.520500 35.673854 202.348599 905.831503 15.680505 0.000000 0.090086
252.000000 53.363000 11.000000 2.000000 0.000000 93.252135 32.793397 281.551209 868.248943 18.748212 0.000000 0.091429
253.000000 45.768000 13.000000 2.000000 0.000000 94.376788 30.722264 335.377432 845.173379 21.858874 0.000000 0.097024
256.000000 70.480000 7.000000 3.000000 0.000000 81.385740 48.254446 -231.074223 1185.881945 14.197093 0.000000 0.248304
257.000000 64.517000 8.000000 3.000000 0.000000 84.150910 45.326874 -113.645451 1097.825210 15.508650 0.000000 0.185481
258.000000 54.628000 10.000000 3.000000 0.000000 87.897712 40.834090 44.849627 993.218659 18.315181 0.000000 0.120098
259.000000 50.594000 11.000000 3.000000 0.000000 89.205190 39.082987 100.849891 960.235650 19.775206 0.000000 0.104521
261.000000 54.053000 9.000000 4.000000 0.000000 80.558547 49.078614 -266.571354 1214.241585 18.511636 0.000000 0.269188
262.000000 47.350000 11.000000 4.000000 0.000000 84.729900 44.676172 -89.196379 1080.613900 21.131000 0.000000 0.173754
270.000000 51.367000 7.000000 -8.000000 1.000000 83.491407 -51.548199 2330.426207 1138.460106 19.478762 0.000000 0.311754
271.000000 50.105000 8.000000 -8.000000 1.000000 87.587386 -47.278567 2140.493830 1007.841322 19.968323 0.000000 0.203706
272.000000 48.437000 9.000000 -8.000000 1.000000 90.915137 -43.278278 1988.478297 917.385411 20.654831 0.000000 0.132727
273.000000 46.553000 10.000000 -8.000000 1.000000 93.605678 -39.557871 1864.055885 853.031921 21.490233 0.000000 0.090367
276.000000 57.730000 7.000000 -7.000000 1.000000 88.767592 -47.760820 2160.357283 975.444036 17.330345 0.000000 0.209785
277.000000 55.456000 8.000000 -7.000000 1.000000 92.460106 -43.158719 1984.249301 877.609133 18.040197 0.000000 0.127112
278.000000 52.902000 9.000000 -7.000000 1.000000 95.343882 -38.924715 1844.226826 811.591437 18.910374 0.000000 0.081401
279.000000 50.267000 10.000000 -7.000000 1.000000 97.586499 -35.057114 1730.229397 765.879415 19.901216 0.000000 0.068546
280.000000 47.670000 11.000000 -7.000000 1.000000 99.325843 -31.541172 1635.618308 733.613137 20.985148 0.000000 0.076618
283.000000 68.040000 6.000000 -6.000000 1.000000 90.325358 -48.415137 2187.904683 931.791614 14.703963 0.000000 0.219555
284.000000 64.785000 7.000000 -6.000000 1.000000 94.465963 -42.998342 1978.602410 826.061600 15.441950 0.000000 0.120347
285.000000 61.172000 8.000000 -6.000000 1.000000 97.547342 -38.087104 1818.531382 759.820491 16.353413 0.000000 0.070724
286.000000 57.521000 9.000000 -6.000000 1.000000 99.825005 -33.676060 1692.149508 717.021099 17.390865 0.000000 0.064811
287.000000 54.005000 10.000000 -6.000000 1.000000 101.500167 -29.737200 1589.833902 688.811380 18.522703 0.000000 0.079871
288.000000 50.707000 11.000000 -6.000000 1.000000 102.726234 -26.230228 1505.307947 670.025168 19.727077 0.000000 0.096758
289.000000 47.660000 12.000000 -6.000000 1.000000 103.618077 -23.110119 1434.303092 657.507914 20.988398 0.000000 0.111000
291.000000 82.712000 5.000000 -5.000000 1.000000 92.474220 -49.353283 2228.663893 869.604043 12.095159 0.000000 0.236665
292.000000 77.743000 6.000000 -5.000000 1.000000 97.172993 -42.771944 1970.680921 756.475930 12.867459 0.000000 0.112323
293.000000 72.338000 7.000000 -5.000000 1.000000 100.426792 -36.927554 1783.914270 693.241334 13.828475 0.000000 0.057977
294.000000 67.042000 8.000000 -5.000000 1.000000 102.651395 -31.804646 1642.451554 656.721397 14.920386 0.000000 0.063657
295.000000 62.103000 9.000000 -5.000000 1.000000 104.154092 -27.345164 1531.591742 635.426948 16.106804 0.000000 0.085832
296.000000 57.607000 10.000000 -5.000000 1.000000 105.153550 -23.472572 1442.373560 623.217889 17.363685 0.000000 0.104814
297.000000 53.563000 11.000000 -5.000000 1.000000 105.802519 -20.107304 1369.023367 616.617335 18.674504 0.000000 0.119202
298.000000 49.944000 12.000000 -5.000000 1.000000 106.206960 -17.174970 1307.653555 613.564643 20.027527 0.000000 0.129935
299.000000 46.710000 13.000000 -5.000000 1.000000 106.440359 -14.609816 1255.550572 612.793131 21.414196 0.000000 0.137965
301.000000 105.136000 4.000000 -4.000000 1.000000 95.622769 -50.810005 2295.137740 773.308225 9.514884 0.000000 0.270444
302.000000 96.840000 5.000000 -4.000000 1.000000 101.020993 -42.428209 1958.763900 657.009908 10.329292 0.000000 0.103682
303.000000 88.126000 6.000000 -4.000000 1.000000 104.337049 -35.218152 1734.752862 604.282750 11.350277 0.000000 0.043072
304.000000 79.980000 7.000000 -4.000000 1.000000 106.309653 -29.132657 1574.861481 580.462883 12.505977 0.000000 0.066655
305.000000 72.720000 8.000000 -4.000000 1.000000 107.433692 -24.035955 1455.006598 570.925499 13.754397 0.000000 0.094449
306.000000 66.375000 9.000000 -4.000000 1.000000 108.026047 -19.768610 1361.823826 568.815513 15.069354 0.000000 0.114055
307.000000 60.864000 10.000000 -4.000000 1.000000 108.286086 -16.180801 1287.301343 570.669795 16.433675 0.000000 0.127593
308.000000 56.080000 11.000000 -4.000000 1.000000 108.338860 -13.144561 1226.344087 574.640858 17.835628 0.000000 0.137054
309.000000 51.914000 12.000000 -4.000000 1.000000 108.263152 -10.555461 1175.557153 579.703585 19.266928 0.000000 0.143761
310.000000 48.270000 13.000000 -4.000000 1.000000 108.108955 -8.330068 1132.591246 585.273650 20.721554 0.000000 0.148573
312.000000 127.400000 4.000000 -3.000000 1.000000 106.904886 -41.844072 1938.808892 501.913199 7.850773 0.000000 0.098923
313.000000 111.823000 5.000000 -3.000000 1.000000 109.913762 -32.453336 1659.443384 478.932893 8.944187 0.000000 0.028114
314.000000 98.305000 6.000000 -3.000000 1.000000 111.167653 -25.031113 1477.595986 481.030699 10.173989 0.000000 0.074349
315.000000 87.032000 7.000000 -3.000000 1.000000 111.508345 -19.199432 1349.793351 491.874816 11.491790 0.000000 0.104526
316.000000 77.715000 8.000000 -3.000000 1.000000 111.385565 -14.585333 1255.059469 505.482530 12.869672 0.000000 0.122898
317.000000 69.989000 9.000000 -3.000000 1.000000 111.035815 -10.888104 1182.029871 519.489168 14.290395 0.000000 0.134498
318.000000 63.533000 10.000000 -3.000000 1.000000 110.583514 -7.882454 1124.012250 532.945485 15.742741 0.000000 0.142052
319.000000 58.087000 11.000000 -3.000000 1.000000 110.094266 -5.403665 1076.809219 545.496721 17.219092 0.000000 0.147082
320.000000 53.447000 12.000000 -3.000000 1.000000 109.602481 -3.331624 1037.654780 557.047404 18.714098 0.000000 0.150482
321.000000 49.457000 13.000000 -3.000000 1.000000 109.125790 -1.578110 1004.652101 567.615427 20.223887 0.000000 0.152796
322.000000 45.997000 14.000000 -3.000000 1.000000 108.672695 -0.077561 976.456976 577.265755 21.745589 0.000000 0.154369
323.000000 182.465000 3.000000 -2.000000 1.000000 116.935607 -40.632192 1898.545249 220.387859 5.480643 0.000000 0.118824
324.000000 150.200000 4.000000 -2.000000 1.000000 118.357582 -27.260031 1529.566414 287.499452 6.657982 0.000000 0.025294
325.000000 125.471000 5.000000 -2.000000 1.000000 117.718919 -18.043583 1325.614558 346.229315 7.970347 0.000000 0.083397
326.000000 106.821000 6.000000 -2.000000 1.000000 116.469401 -11.614229 1196.210057 393.895135 9.362156 0.000000 0.111781
327.000000 92.562000 7.000000 -2.000000 1.000000 115.126809 -6.981323 1106.796195 432.442137 10.804652 0.000000 0.127155
328.000000 81.434000 8.000000 -2.000000 1.000000 113.863831 -3.525840 1041.316215 463.961703 12.281463 0.000000 0.136092
329.000000 72.566000 9.000000 -2.000000 1.000000 112.728473 -0.867370 991.294684 490.096092 13.782583 0.000000 0.141541
330.000000 65.364000 10.000000 -2.000000 1.000000 111.724303 1.232960 951.835422 512.062250 15.301551 0.000000 0.144976
331.000000 59.415000 11.000000 -2.000000 1.000000 110.840077 2.929988 919.912494 530.756163 16.834010 0.000000 0.147184
332.000000 54.427000 12.000000 -2.000000 1.000000 110.060799 4.327418 893.555056 546.843332 18.376914 0.000000 0.148620
333.000000 50.191000 13.000000 -2.000000 1.000000 109.371764 5.496850 871.424364 560.824797 19.928069 0.000000 0.149549
334.000000 46.553000 14.000000 -2.000000 1.000000 108.759874 6.489100 852.579171 573.083352 21.485857 0.000000 0.150142
335.000000 167.130000 4.000000 -1.000000 1.000000 126.096224 -4.233920 1054.678768 154.113902 5.982881 0.000000 0.076506
336.000000 134.378000 5.000000 -1.000000 1.000000 121.820053 1.280352 950.944744 272.980876 7.441620 0.000000 0.101759
337.000000 111.855000 6.000000 -1.000000 1.000000 118.618462 4.674141 887.001532 351.775730 8.940561 0.000000 0.115215
338.000000 95.566000 7.000000 -1.000000 1.000000 116.171714 6.958507 843.638794 408.132370 10.464849 0.000000 0.123152
339.000000 83.301000 8.000000 -1.000000 1.000000 114.254482 8.596245 812.297937 450.553924 12.006148 0.000000 0.128194
340.000000 73.760000 9.000000 -1.000000 1.000000 112.717110 9.826025 788.588192 483.690139 13.559414 0.000000 0.131580
341.000000 66.142000 10.000000 -1.000000 1.000000 111.459391 10.782584 770.024925 510.313223 15.121419 0.000000 0.133953
342.000000 59.927000 11.000000 -1.000000 1.000000 110.412650 11.547477 755.096537 532.184464 16.690000 0.000000 0.135673
343.000000 54.765000 12.000000 -1.000000 1.000000 109.528597 12.172856 742.830611 550.479035 18.263653 0.000000 0.136957
344.000000 50.411000 13.000000 -1.000000 1.000000 108.772436 12.693587 732.573194 566.012228 19.841300 0.000000 0.137936
345.000000 46.691000 14.000000 -1.000000 1.000000 108.118525 13.133840 723.868287 579.367996 21.422150 0.000000 0.138697
346.000000 156.170000 4.000000 1.000000 1.000000 112.801881 46.703665 -167.282118 281.197393 6.403761 0.000000 0.217263
347.000000 127.006000 5.000000 1.000000 1.000000 111.362430 40.831823 44.924021 384.611721 7.874551 0.000000 0.097860
348.000000 106.580000 6.000000 1.000000 1.000000 110.045727 36.903266 166.799447 449.895249 9.383978 0.000000 0.040383
349.000000 91.615000 7.000000 1.000000 1.000000 108.926040 34.114388 245.899762 495.250776 10.917153 0.000000 0.025652
350.000000 80.234000 8.000000 1.000000 1.000000 107.988129 32.041107 301.382499 528.736204 12.465965 0.000000 0.039734
351.000000 71.313000 9.000000 1.000000 1.000000 107.200898 30.443176 342.451191 554.531122 14.025619 0.000000 0.054497
352.000000 64.145000 10.000000 1.000000 1.000000 106.535113 29.175752 374.077097 575.039549 15.593100 0.000000 0.066250
353.000000 58.267000 11.000000 1.000000 1.000000 105.966848 28.146840 399.181140 591.749604 17.166414 0.000000 0.075494
354.000000 53.363000 12.000000 1.000000 1.000000 105.477299 27.295416 419.592149 605.634754 18.744194 0.000000 0.082871
355.000000 49.212000 13.000000 1.000000 1.000000 105.051831 26.579496 436.513628 617.359934 20.325466 0.000000 0.088862
356.000000 45.654000 14.000000 1.000000 1.000000 104.679030 25.969297 450.769976 627.395454 21.909523 0.000000 0.093809
358.000000 96.979000 6.000000 2.000000 1.000000 101.044337 48.836233 -256.010928 621.840819 10.314291 0.000000 0.228719
359.000000 85.063000 7.000000 2.000000 1.000000 101.719100 44.844014 -95.449830 626.113072 11.759165 0.000000 0.144502
360.000000 75.546000 8.000000 2.000000 1.000000 102.052074 41.723855 15.252655 633.111518 13.240477 0.000000 0.094721
361.000000 67.830000 9.000000 2.000000 1.000000 102.197544 39.231852 96.199032 640.642572 14.746860 0.000000 0.066152
362.000000 61.475000 10.000000 2.000000 1.000000 102.237564 37.202799 157.965295 647.915671 16.271228 0.000000 0.053164
363.000000 56.168000 11.000000 2.000000 1.000000 102.217542 35.522587 206.646395 654.660317 17.808937 0.000000 0.051231
364.000000 51.676000 12.000000 2.000000 1.000000 102.163449 34.110650 246.002200 660.810693 19.356815 0.000000 0.055053
365.000000 47.832000 13.000000 2.000000 1.000000 102.090527 32.908855 278.478015 666.382342 20.912621 0.000000 0.060843
368.000000 69.436000 8.000000 3.000000 1.000000 95.128450 49.713639 -294.735278 791.612145 14.406920 0.000000 0.247706
369.000000 63.247000 9.000000 3.000000 1.000000 96.299547 46.714813 -167.727532 767.706323 15.816656 0.000000 0.180062
370.000000 57.947000 10.000000 3.000000 1.000000 97.142499 44.203054 -71.762074 752.863120 17.263167 0.000000 0.134596
371.000000 53.389000 11.000000 3.000000 1.000000 97.761200 42.076283 3.302447 743.370008 18.736816 0.000000 0.103739
372.000000 49.446000 12.000000 3.000000 1.000000 98.223020 40.257006 63.623697 737.190647 20.231063 0.000000 0.083397
373.000000 46.011000 13.000000 3.000000 1.000000 98.572750 38.686019 113.156810 733.141697 21.741312 0.000000 0.071088
377.000000 53.832000 10.000000 4.000000 1.000000 91.587752 50.191820 -316.433581 894.401344 18.584293 0.000000 0.263071
378.000000 50.114000 11.000000 4.000000 1.000000 92.853694 47.795197 -211.787261 861.136875 19.962792 0.000000 0.205839
379.000000 46.797000 12.000000 4.000000 1.000000 93.852827 45.708007 -128.228117 837.201368 21.377667 0.000000 0.164215
385.000000 46.312000 9.000000 -9.000000 2.000000 93.884998 -49.993295 2257.372770 827.306031 21.600898 0.000000 0.250436
387.000000 50.573000 9.000000 -8.000000 2.000000 98.639104 -46.475595 2108.210417 703.546371 19.779881 0.000000 0.171542
388.000000 46.226000 11.000000 -8.000000 2.000000 102.886745 -38.676587 1836.552460 625.582151 21.638799 0.000000 0.060012
390.000000 60.687000 7.000000 -7.000000 2.000000 97.813219 -51.887781 2347.046271 701.715997 16.483288 0.000000 0.300945
391.000000 57.976000 8.000000 -7.000000 2.000000 101.120248 -46.844559 2122.924699 631.699196 17.253184 0.000000 0.179934
392.000000 55.077000 9.000000 -7.000000 2.000000 103.620742 -42.179602 1950.226079 589.070061 18.160827 0.000000 0.100158
393.000000 52.164000 10.000000 -7.000000 2.000000 105.486647 -37.906683 1813.073887 563.043067 19.174622 0.000000 0.049983
394.000000 49.340000 11.000000 -7.000000 2.000000 106.860055 -34.020038 1701.517452 547.458453 20.271951 0.000000 0.035217
395.000000 46.660000 12.000000 -7.000000 2.000000 107.854721 -30.500687 1609.003165 538.626237 21.436196 0.000000 0.050844
396.000000 67.756000 7.000000 -6.000000 2.000000 104.309193 -47.348937 2143.369633 535.811755 14.762023 0.000000 0.195394
397.000000 59.704000 9.000000 -6.000000 2.000000 108.703408 -36.883270 1782.613263 485.449152 16.752276 0.000000 0.039177
398.000000 52.388000 11.000000 -6.000000 2.000000 110.695541 -28.518344 1559.826357 478.249906 19.091432 0.000000 0.052497
399.000000 46.201000 13.000000 -6.000000 2.000000 111.417398 -21.941152 1408.565749 485.861264 21.647927 0.000000 0.091358
401.000000 81.177000 6.000000 -5.000000 2.000000 108.550024 -48.079883 2173.702589 400.404946 12.320640 0.000000 0.224384
402.000000 75.228000 7.000000 -5.000000 2.000000 111.175774 -41.366413 1922.760314 385.444558 13.294575 0.000000 0.103196
403.000000 69.522000 8.000000 -5.000000 2.000000 112.773792 -35.457599 1741.512128 386.269159 14.385401 0.000000 0.029807
404.000000 64.260000 9.000000 -5.000000 2.000000 113.668214 -30.320968 1604.464080 394.496001 15.563256 0.000000 0.023956
405.000000 59.503000 10.000000 -5.000000 2.000000 114.090331 -25.882104 1497.205038 406.116306 16.807655 0.000000 0.055859
406.000000 55.242000 11.000000 -5.000000 2.000000 114.200211 -22.051397 1410.974604 419.111957 18.104070 0.000000 0.079218
407.000000 51.441000 12.000000 -5.000000 2.000000 114.106753 -18.739883 1340.140744 432.437569 19.441918 0.000000 0.096296
408.000000 48.052000 13.000000 -5.000000 2.000000 113.883388 -15.866872 1280.917802 445.548383 20.813305 0.000000 0.109013
410.000000 82.685000 7.000000 -4.000000 2.000000 118.060915 -33.337989 1683.015187 254.245402 12.094294 0.000000 0.029683
411.000000 68.480000 9.000000 -4.000000 2.000000 118.172380 -22.223965 1414.752795 318.305456 14.603321 0.000000 0.059887
412.000000 57.750000 11.000000 -4.000000 2.000000 117.125806 -14.552713 1254.405304 371.344206 17.317031 0.000000 0.099886
413.000000 49.616000 13.000000 -4.000000 2.000000 115.794477 -9.118970 1147.759918 414.168590 20.156577 0.000000 0.120557
415.000000 114.451000 5.000000 -3.000000 2.000000 125.069419 -39.359448 1857.803101 -36.226308 8.736529 0.000000 0.154286
416.000000 100.894000 6.000000 -3.000000 2.000000 125.129109 -29.868676 1593.113926 67.756884 9.910528 0.000000 0.044875
417.000000 89.476000 7.000000 -3.000000 2.000000 124.283177 -22.532522 1421.531593 146.623837 11.175483 0.000000 0.030155
418.000000 79.964000 8.000000 -3.000000 2.000000 123.064455 -16.864619 1301.277355 208.835395 12.505177 0.000000 0.061870
419.000000 72.032000 9.000000 -3.000000 2.000000 121.737400 -12.434395 1212.316065 259.305817 13.882586 0.000000 0.084349
420.000000 65.377000 10.000000 -3.000000 2.000000 120.426621 -8.915385 1143.839297 301.138888 15.296172 0.000000 0.099799
421.000000 59.747000 11.000000 -3.000000 2.000000 119.186845 -6.072609 1089.502284 336.411152 16.737841 0.000000 0.110714
422.000000 54.943000 12.000000 -3.000000 2.000000 118.038542 -3.738935 1045.335305 366.572504 18.201746 0.000000 0.118636
423.000000 50.808000 13.000000 -3.000000 2.000000 116.985715 -1.794871 1008.727471 392.669606 19.683558 0.000000 0.124521
424.000000 47.219000 14.000000 -3.000000 2.000000 116.024749 -0.153908 977.891145 415.478699 21.180001 0.000000 0.128977
426.000000 126.779000 5.000000 -2.000000 2.000000 134.802104 -23.242244 1437.239943 -222.292364 7.886050 0.000000 0.065215
427.000000 108.828000 6.000000 -2.000000 2.000000 131.712451 -14.438751 1252.121452 -49.652884 9.187228 0.000000 0.029298
428.000000 94.744000 7.000000 -2.000000 2.000000 128.740406 -8.466631 1135.212476 67.964260 10.553488 0.000000 0.055220
429.000000 74.558000 9.000000 -2.000000 2.000000 123.801033 -1.108682 995.829062 220.320751 13.411769 0.000000 0.091272
430.000000 61.072000 11.000000 -2.000000 2.000000 120.107063 3.159869 915.581982 315.966464 16.374408 0.000000 0.109438
431.000000 51.549000 13.000000 -2.000000 2.000000 117.316943 5.918586 863.422938 382.100730 19.400320 0.000000 0.119661
433.000000 134.613000 5.000000 -1.000000 2.000000 140.178677 1.421937 948.283600 -350.228980 7.426617 0.000000 0.008370
434.000000 113.461000 6.000000 -1.000000 2.000000 134.500227 5.626100 868.973398 -121.799495 8.811821 0.000000 0.027704
435.000000 97.597000 7.000000 -1.000000 2.000000 130.114942 8.177078 820.343135 24.882259 10.244787 0.000000 0.048228
436.000000 85.380000 8.000000 -1.000000 2.000000 126.658097 9.883503 787.475903 127.911560 11.711288 0.000000 0.064409
437.000000 75.741000 9.000000 -1.000000 2.000000 123.875498 11.103230 763.776444 204.644934 13.202239 0.000000 0.076821
438.000000 67.973000 10.000000 -1.000000 2.000000 121.593081 12.017731 745.878448 264.205325 14.711564 0.000000 0.086408
439.000000 61.596000 11.000000 -1.000000 2.000000 119.689980 12.728500 731.883979 311.881485 16.235045 0.000000 0.093927
440.000000 56.278000 12.000000 -1.000000 2.000000 118.080465 13.296634 720.641572 350.966472 17.769665 0.000000 0.099920
441.000000 51.782000 13.000000 -1.000000 2.000000 116.702384 13.761068 711.412101 383.625469 19.313207 0.000000 0.104773
442.000000 47.934000 14.000000 -1.000000 2.000000 115.509724 14.147771 703.699366 411.344499 20.864005 0.000000 0.108759
444.000000 113.532000 6.000000 0.000000 2.000000 131.804379 26.629554 435.337416 -135.676637 8.806475 0.000000 0.073703
445.000000 97.387000 7.000000 0.000000 2.000000 127.620262 25.030013 472.429177 25.563253 10.267103 0.000000 0.035518
446.000000 85.055000 8.000000 0.000000 2.000000 124.364031 23.947958 496.973822 135.714581 11.756249 0.000000 0.025754
447.000000 75.378000 9.000000 0.000000 2.000000 121.764499 23.167740 514.416835 216.137061 13.266068 0.000000 0.037237
448.000000 67.608000 10.000000 0.000000 2.000000 119.644392 22.578722 527.450813 277.630912 14.791349 0.000000 0.050595
449.000000 61.245000 11.000000 0.000000 2.000000 117.883950 22.118384 537.559881 326.278836 16.328498 0.000000 0.061905
450.000000 55.948000 12.000000 0.000000 2.000000 116.399742 21.748753 545.629268 365.783662 17.874955 0.000000 0.071150
451.000000 51.474000 13.000000 0.000000 2.000000 115.132034 21.445448 552.219714 398.536028 19.428845 0.000000 0.078727
452.000000 47.650000 14.000000 0.000000 2.000000 114.037018 21.192100 557.703676 426.152162 20.988767 0.000000 0.085002
455.000000 93.985000 7.000000 1.000000 2.000000 121.658642 39.556716 85.980620 80.215556 10.639521 0.000000 0.137779
456.000000 82.534000 8.000000 1.000000 2.000000 119.493997 36.451740 179.986182 184.136188 12.116134 0.000000 0.078210
457.000000 73.444000 9.000000 1.000000 2.000000 117.669006 34.120252 245.739044 259.334978 13.616078 0.000000 0.038125
458.000000 66.082000 10.000000 1.000000 2.000000 116.122457 32.310762 294.312003 316.510660 15.133389 0.000000 0.009601
459.000000 60.014000 11.000000 1.000000 2.000000 114.801472 30.868278 331.660221 361.572192 16.663975 0.000000 0.012082
460.000000 54.936000 12.000000 1.000000 2.000000 113.663425 29.692810 361.271584 398.068753 18.204938 0.000000 0.028482
461.000000 50.628000 13.000000 1.000000 2.000000 112.674683 28.717263 385.324542 428.269975 19.754165 0.000000 0.041508
462.000000 46.932000 14.000000 1.000000 2.000000 111.808811 27.895079 405.249876 453.699518 21.310081 0.000000 0.052047
464.000000 70.104000 9.000000 2.000000 2.000000 112.079973 43.450301 -44.592291 339.599234 14.265911 0.000000 0.146181
465.000000 57.975000 11.000000 2.000000 2.000000 110.680345 38.687247 113.118942 420.513590 17.251175 0.000000 0.063865
466.000000 49.278000 13.000000 2.000000 2.000000 109.461433 35.398720 210.153655 474.429456 20.296417 0.000000 0.027150
469.000000 60.069000 10.000000 3.000000 2.000000 105.769716 48.050656 -222.473257 486.312832 16.650580 0.000000 0.219903
470.000000 55.258000 11.000000 3.000000 2.000000 105.814711 45.474360 -119.265066 506.249940 18.100324 0.000000 0.163247
471.000000 51.102000 12.000000 3.000000 2.000000 105.765228 43.282925 -38.642989 523.603354 19.572770 0.000000 0.122144
472.000000 47.486000 13.000000 3.000000 2.000000 105.658225 41.401291 26.075861 538.803436 21.063189 0.000000 0.091805
474.000000 52.037000 11.000000 4.000000 2.000000 100.493405 51.266995 -366.850047 622.390870 19.222207 0.000000 0.292851
479.000000 46.053000 10.000000 -9.000000 3.000000 103.222863 -49.302054 2226.398290 553.165533 21.719374 0.000000 0.238815
481.000000 51.934000 9.000000 -8.000000 3.000000 105.844659 -50.039161 2259.459472 465.390403 19.258922 0.000000 0.264480
482.000000 49.635000 10.000000 -8.000000 3.000000 107.990767 -45.639968 2075.610327 441.092853 20.150188 0.000000 0.169038
483.000000 47.322000 11.000000 -8.000000 3.000000 109.617054 -41.546628 1928.787379 428.434724 21.134955 0.000000 0.100860
486.000000 56.339000 9.000000 -7.000000 3.000000 111.313041 -45.884919 2085.064740 337.766601 17.751507 0.000000 0.186539
487.000000 53.307000 10.000000 -7.000000 3.000000 112.896984 -41.158830 1915.859195 337.221323 18.760894 0.000000 0.106769
488.000000 50.384000 11.000000 -7.000000 3.000000 113.983336 -36.850067 1781.638811 342.627711 19.849110 0.000000 0.050221
489.000000 47.620000 12.000000 -7.000000 3.000000 114.691010 -32.948154 1672.569840 351.322615 21.001404 0.000000 0.010198
491.000000 64.905000 8.000000 -6.000000 3.000000 115.468159 -46.222360 2098.226426 200.053922 15.407721 0.000000 0.214742
492.000000 56.955000 10.000000 -6.000000 3.000000 117.799977 -35.627098 1746.321228 242.861053 17.558028 0.000000 0.054185
493.000000 53.364000 11.000000 -6.000000 3.000000 118.231377 -31.184650 1626.432946 265.534200 18.739487 0.000000 0.009695
494.000000 47.056000 13.000000 -6.000000 3.000000 118.272327 -23.798619 1449.671353 308.351083 21.251979 0.000000 0.049848
497.000000 70.446000 8.000000 -5.000000 3.000000 122.014428 -39.876062 1874.157925 64.154522 14.194569 0.000000 0.139693
498.000000 65.194000 9.000000 -5.000000 3.000000 122.488248 -33.912880 1698.591003 115.146787 15.338038 0.000000 0.064737
499.000000 60.426000 10.000000 -5.000000 3.000000 122.474003 -28.774275 1566.068652 159.515891 16.548446 0.000000 0.019974
500.000000 56.140000 11.000000 -5.000000 3.000000 122.150565 -24.367349 1462.489376 198.362583 17.812127 0.000000 0.028540
501.000000 52.303000 12.000000 -5.000000 3.000000 121.639157 -20.588451 1379.304844 232.599738 19.118899 0.000000 0.051883
502.000000 48.873000 13.000000 -5.000000 3.000000 121.020208 -17.338959 1311.031345 262.969595 20.461019 0.000000 0.070360
503.000000 45.804000 14.000000 -5.000000 3.000000 120.346269 -14.531968 1253.989396 290.073317 21.832494 0.000000 0.084641
505.000000 83.026000 7.000000 -4.000000 3.000000 128.560023 -38.699209 1837.249914 -158.337105 12.042639 0.000000 0.171964
506.000000 75.686000 8.000000 -4.000000 3.000000 128.342558 -31.343203 1630.509262 -55.766043 13.210749 0.000000 0.081444
507.000000 69.205000 9.000000 -4.000000 3.000000 127.598922 -25.297140 1483.696242 24.262510 14.448103 0.000000 0.032126
508.000000 63.529000 10.000000 -4.000000 3.000000 126.586632 -20.343034 1374.052594 88.916841 15.739346 0.000000 0.031250
509.000000 58.566000 11.000000 -4.000000 3.000000 125.458964 -16.266568 1289.048863 142.483728 17.073349 0.000000 0.051784
510.000000 54.222000 12.000000 -4.000000 3.000000 124.303896 -12.885526 1221.218162 187.725286 18.441851 0.000000 0.069418
511.000000 50.405000 13.000000 -4.000000 3.000000 123.170123 -10.054414 1165.833830 226.521384 19.838591 0.000000 0.083132
512.000000 47.039000 14.000000 -4.000000 3.000000 122.083211 -7.660126 1119.758042 260.206014 21.258735 0.000000 0.093800
513.000000 89.205000 7.000000 -3.000000 3.000000 135.753689 -27.090088 1525.532668 -300.154386 11.207509 0.000000 0.099614
514.000000 80.199000 8.000000 -3.000000 3.000000 133.788484 -19.899227 1364.596667 -156.226339 12.466430 0.000000 0.041362
515.000000 66.049000 10.000000 -3.000000 3.000000 129.699045 -10.222004 1169.082666 33.062375 15.138285 0.000000 0.046374
516.000000 60.490000 11.000000 -3.000000 3.000000 127.819523 -6.900822 1105.261581 99.456563 16.529767 0.000000 0.063192
517.000000 51.570000 13.000000 -3.000000 3.000000 124.529000 -2.054086 1013.602298 200.004947 19.389886 0.000000 0.086920
518.000000 47.961000 14.000000 -3.000000 3.000000 123.108046 -0.243944 979.582486 239.150823 20.849634 0.000000 0.095156
520.000000 93.920000 7.000000 -2.000000 3.000000 141.059238 -10.637891 1177.159803 -414.217525 10.644224 0.000000 0.034951
521.000000 83.505000 8.000000 -2.000000 3.000000 137.367722 -5.214359 1073.222416 -232.997041 11.972392 0.000000 0.013170
522.000000 74.917000 9.000000 -2.000000 3.000000 134.132516 -1.428841 1001.846177 -103.511546 13.345457 0.000000 0.030111
523.000000 67.771000 10.000000 -2.000000 3.000000 131.327800 1.341139 949.802258 -5.732650 14.753207 0.000000 0.047193
524.000000 61.765000 11.000000 -2.000000 3.000000 128.897027 3.446846 910.173196 71.058477 16.188310 0.000000 0.060820
525.000000 56.667000 12.000000 -2.000000 3.000000 126.782070 5.097528 878.990104 133.159093 17.645366 0.000000 0.071699
526.000000 52.297000 13.000000 -2.000000 3.000000 124.931636 6.424252 853.812921 184.532770 19.120307 0.000000 0.080487
527.000000 48.518000 14.000000 -2.000000 3.000000 123.302775 7.512779 833.058944 227.809954 20.610013 0.000000 0.087679
530.000000 85.157000 8.000000 -1.000000 3.000000 138.030223 11.677771 752.545618 -280.906408 11.740070 0.000000 0.035461
531.000000 76.021000 9.000000 -1.000000 3.000000 134.235485 12.798078 730.509909 -133.645852 13.151659 0.000000 0.029708
532.000000 68.518000 10.000000 -1.000000 3.000000 131.093795 13.597915 714.658479 -24.777274 14.592465 0.000000 0.034543
533.000000 62.274000 11.000000 -1.000000 3.000000 128.455167 14.197368 702.708283 59.321625 16.056238 0.000000 0.043992
534.000000 57.013000 12.000000 -1.000000 3.000000 126.210684 14.663265 693.376917 126.433191 17.538392 0.000000 0.053751
535.000000 52.530000 13.000000 -1.000000 3.000000 124.279938 15.035720 685.888535 181.346640 19.035486 0.000000 0.062579
536.000000 48.672000 14.000000 -1.000000 3.000000 122.602551 15.340258 679.746214 227.181479 20.544887 0.000000 0.070273
539.000000 73.898000 9.000000 1.000000 3.000000 127.165686 38.689695 113.043466 -104.344696 13.530471 0.000000 0.168247
540.000000 66.751000 10.000000 1.000000 3.000000 124.955666 36.127602 189.358224 9.486587 14.979610 0.000000 0.114205
541.000000 60.783000 11.000000 1.000000 3.000000 123.036072 34.124642 245.618711 95.504397 16.451063 0.000000 0.075137
542.000000 55.739000 12.000000 1.000000 3.000000 121.362254 32.519425 288.811808 163.019915 17.940271 0.000000 0.045749
543.000000 51.430000 13.000000 1.000000 3.000000 119.894876 31.206097 323.016477 217.555607 19.443840 0.000000 0.023248
544.000000 47.712000 14.000000 1.000000 3.000000 118.600912 30.112749 350.774018 262.607036 20.959188 0.000000 0.008208
547.000000 64.321000 10.000000 2.000000 3.000000 119.711117 45.105427 -105.262456 70.809683 15.546504 0.000000 0.225323
548.000000 58.843000 11.000000 2.000000 3.000000 118.522704 42.375901 -6.961878 149.201350 16.994328 0.000000 0.163161
549.000000 54.162000 12.000000 2.000000 3.000000 117.422854 40.127206 67.802254 210.642379 18.463368 0.000000 0.117800
550.000000 50.128000 13.000000 2.000000 3.000000 116.414421 38.247988 126.579278 260.255720 19.949522 0.000000 0.083419
551.000000 46.623000 14.000000 2.000000 3.000000 115.493568 36.657309 174.001772 301.253695 21.449683 0.000000 0.056658
554.000000 48.395000 13.000000 3.000000 3.000000 112.322520 44.454494 -80.992436 321.904393 20.665000 0.000000 0.166734
557.000000 46.309000 13.000000 4.000000 3.000000 107.812466 49.845438 -300.672972 404.723864 21.597233 0.000000 0.273023
562.000000 47.902000 11.000000 -8.000000 4.000000 115.902657 -44.770031 2042.688879 204.764983 20.876650 0.000000 0.186844
564.000000 53.761000 10.000000 -7.000000 4.000000 119.735481 -44.879324 2046.770044 73.379577 18.600390 0.000000 0.213124
565.000000 50.851000 11.000000 -7.000000 4.000000 120.627043 -40.094377 1881.143416 108.036160 19.664735 0.000000 0.133495
566.000000 48.093000 12.000000 -7.000000 4.000000 121.124011 -35.753392 1749.917745 140.203943 20.792378 0.000000 0.076693
567.000000 45.510000 13.000000 -7.000000 4.000000 121.326820 -31.840469 1643.383645 169.873694 21.972758 0.000000 0.035653
569.000000 53.701000 11.000000 -6.000000 4.000000 125.261309 -34.316390 1709.649410 19.660802 18.620005 0.000000 0.089260
570.000000 47.464000 13.000000 -6.000000 4.000000 124.777739 -25.961588 1499.050874 109.686244 21.067101 0.000000 0.021644
573.000000 60.493000 10.000000 -5.000000 4.000000 130.212384 -32.289970 1655.141307 -135.397049 16.528180 0.000000 0.105232
574.000000 56.337000 11.000000 -5.000000 4.000000 129.581164 -27.162868 1527.258664 -59.089715 17.747840 0.000000 0.055726
575.000000 52.588000 12.000000 -5.000000 4.000000 128.746484 -22.800342 1427.440013 4.081057 19.013415 0.000000 0.029028
576.000000 49.214000 13.000000 -5.000000 4.000000 127.804088 -19.083858 1347.360762 57.459107 20.317099 0.000000 0.031431
577.000000 46.179000 14.000000 -5.000000 4.000000 126.815924 -15.905022 1281.692489 103.292683 21.652763 0.000000 0.046161
579.000000 58.626000 11.000000 -4.000000 4.000000 133.270609 -18.393437 1332.898529 -126.755854 17.053855 0.000000 0.033497
580.000000 50.684000 13.000000 -4.000000 4.000000 130.191506 -11.180739 1187.736036 14.142919 19.727238 0.000000 0.041722
583.000000 65.723000 10.000000 -3.000000 4.000000 138.325297 -11.925591 1202.312899 -294.752055 15.211465 0.000000 0.030167
584.000000 60.432000 11.000000 -3.000000 4.000000 135.931208 -7.952359 1125.350798 -181.656801 16.543912 0.000000 0.019487
585.000000 55.826000 12.000000 -3.000000 4.000000 133.724787 -4.848198 1066.290806 -92.116738 17.909390 0.000000 0.030833
586.000000 51.799000 13.000000 -3.000000 4.000000 131.712827 -2.369566 1019.537409 -19.196574 19.302176 0.000000 0.044362
587.000000 48.261000 14.000000 -3.000000 4.000000 129.886069 -0.351714 981.606986 41.505922 20.717796 0.000000 0.056060
589.000000 61.622000 11.000000 -2.000000 4.000000 137.150340 3.815183 903.226142 -221.850270 16.224132 0.000000 0.016581
590.000000 52.493000 13.000000 -2.000000 4.000000 132.171604 7.041566 842.055026 -41.361980 19.046756 0.000000 0.038477
591.000000 45.555000 15.000000 -2.000000 4.000000 128.288609 9.107536 802.460389 80.492953 21.949005 0.000000 0.056849
594.000000 67.987000 10.000000 -1.000000 4.000000 139.881140 15.687362 672.723464 -385.704836 14.704700 0.000000 0.061373
595.000000 62.094000 11.000000 -1.000000 4.000000 136.639706 16.071035 664.932974 -245.083454 16.100910 0.000000 0.046036
596.000000 57.057000 12.000000 -1.000000 4.000000 133.861171 16.358798 659.070212 -136.977175 17.522863 0.000000 0.035370
597.000000 52.717000 13.000000 -1.000000 4.000000 131.455832 16.582608 654.498443 -51.004869 18.966011 0.000000 0.031655
598.000000 48.949000 14.000000 -1.000000 4.000000 129.355080 16.761648 650.833540 19.168046 20.426816 0.000000 0.034337
599.000000 45.652000 15.000000 -1.000000 4.000000 127.505737 16.908128 647.830019 77.638004 21.902487 0.000000 0.040319
601.000000 61.788000 11.000000 0.000000 4.000000 134.369420 27.753958 408.639252 -248.732751 16.180933 0.000000 0.102560
602.000000 52.444000 13.000000 0.000000 4.000000 129.574246 25.744489 455.984863 -46.602932 19.065175 0.000000 0.051544
606.000000 55.858000 12.000000 1.000000 4.000000 128.499016 35.883621 196.361692 -115.631923 17.900047 0.000000 0.140008
607.000000 51.674000 13.000000 1.000000 4.000000 126.651451 34.128052 245.525239 -26.432982 19.349695 0.000000 0.103241
608.000000 48.034000 14.000000 1.000000 4.000000 125.004990 32.685683 284.411073 45.410518 20.816599 0.000000 0.074442
610.000000 50.437000 13.000000 2.000000 4.000000 122.886905 41.522909 22.007795 11.461138 19.825238 0.000000 0.179681
614.000000 45.606000 14.000000 3.000000 4.000000 117.753215 45.591561 -123.751759 131.671100 21.926775 0.000000 0.222145
621.000000 48.133000 12.000000 -7.000000 5.000000 127.106170 -38.984161 1846.073403 -106.415850 20.773165 0.000000 0.164519
622.000000 45.612000 13.000000 -7.000000 5.000000 127.159021 -34.615185 1717.906770 -50.194685 21.921301 0.000000 0.107056
625.000000 50.359000 12.000000 -6.000000 5.000000 131.434005 -32.948978 1672.591815 -191.111048 19.853756 0.000000 0.121825
626.000000 47.473000 13.000000 -6.000000 5.000000 130.894244 -28.504188 1559.481976 -119.702057 21.061170 0.000000 0.075423
628.000000 52.371000 12.000000 -5.000000 5.000000 135.383527 -25.485311 1488.027364 -267.381414 19.090163 0.000000 0.084482
629.000000 49.131000 13.000000 -5.000000 5.000000 134.198669 -21.180798 1392.052114 -181.427444 20.349549 0.000000 0.049674
630.000000 46.194000 14.000000 -5.000000 5.000000 132.958472 -17.537978 1315.138777 -110.059097 21.643882 0.000000 0.030297
634.000000 54.078000 12.000000 -4.000000 5.000000 138.656742 -16.376106 1291.282965 -333.980075 18.486888 0.000000 0.050235
635.000000 50.517000 13.000000 -4.000000 5.000000 136.827059 -12.561799 1214.826933 -234.357974 19.790496 0.000000 0.027610
636.000000 47.328000 14.000000 -4.000000 5.000000 135.071611 -9.440183 1153.954974 -152.800999 21.124800 0.000000 0.022397
640.000000 55.390000 12.000000 -3.000000 5.000000 140.893101 -5.630591 1081.111789 -389.473367 18.048609 0.000000 0.015576
641.000000 51.564000 13.000000 -3.000000 5.000000 138.509386 -2.761834 1026.920933 -277.346194 19.388218 0.000000 0.006608
642.000000 48.170000 14.000000 -3.000000 5.000000 136.333820 -0.483028 984.073838 -186.649492 20.755053 0.000000 0.017621
645.000000 56.226000 12.000000 -2.000000 5.000000 141.742441 6.304480 856.090821 -432.206993 17.780188 0.000000 0.028523
646.000000 52.213000 13.000000 -2.000000 5.000000 139.008073 7.811885 827.338565 -309.088566 19.147079 0.000000 0.025772
647.000000 48.677000 14.000000 -2.000000 5.000000 136.581736 8.987527 804.771898 -210.561240 20.538578 0.000000 0.024887
648.000000 45.547000 15.000000 -2.000000 5.000000 134.418808 9.929340 786.588584 -129.715660 21.951011 0.000000 0.027721
652.000000 52.420000 13.000000 -1.000000 5.000000 138.194666 18.496188 614.956586 -328.099788 19.071606 0.000000 0.066442
653.000000 48.818000 14.000000 -1.000000 5.000000 135.735969 18.482467 615.243157 -223.362815 20.479454 0.000000 0.051841
654.000000 45.639000 15.000000 -1.000000 5.000000 133.560005 18.471478 615.472635 -138.103314 21.906773 0.000000 0.040572
658.000000 47.952000 14.000000 1.000000 5.000000 130.979252 35.693341 201.793757 -210.170050 20.850313 0.000000 0.158788
670.000000 45.897000 14.000000 -5.000000 6.000000 138.751255 -19.508748 1356.320750 -361.084662 21.782106 0.000000 0.067269
675.000000 47.747000 14.000000 -3.000000 6.000000 142.436962 -0.646546 987.145801 -458.552380 20.937512 0.000000 0.009190
#UB matrix in q= (UB) B0 G* 
#[[-0.761217903  0.131021078 -0.634350765]
# [ 0.20437399   0.978379576 -0.043172414]
# [ 0.615449897 -0.16264901  -0.772215708]]
#B0 matrix in q= UB (B0) G*
#[[ 0.19670273 -0.          0.03056101]
# [ 0.          0.19187965 -0.        ]
# [ 0.          0.          0.18806537]]
#UBB0 matrix in q= (UB B0) G* i.e. recip. basis vectors are columns in LT frame: astar = UBB0[:,0], bstar = UBB0[:,1], cstar = UBB0[:,2]. (abcstar as columns on xyzlab1, xlab1 = ui, ui = unit vector along incident beam)
#[[-0.14973364  0.02514028 -0.142563  ]
# [ 0.04020092  0.18773113 -0.00187336]
# [ 0.12106068 -0.03120904 -0.12641827]]
#Euler angles phi theta psi (deg)
#[ 75.196 140.463  93.887]
#deviatoric strain in direct crystal frame (10-3 unit)
#[[-6.72 -0.04  1.17]
# [-0.04 -6.95 -0.25]
# [ 1.17 -0.25 13.67]]
#deviatoric strain in sample2 frame (10-3 unit)
#[[13.38  0.89  2.54]
# [ 0.89 -6.92  0.12]
# [ 2.57  0.12 -6.46]]
#new lattice parameters
#[ 5.1505     5.2104205  5.3168069 90.0141953 99.1601504 90.0043798]
#CCDLabel
#sCMOS
#DetectorParameters
#[79.0, 975.0, 941.0, 0.0, 0.0]
#pixelsize
#0.0734
#Frame dimensions
#[2018, 2016]
#
