#Strain and Orientation Refinement from experimental file: /home/micha/LaueProjects/DepthEffects/testZrO2_19.cor
#File created at Wed Jun 28 14:18:49 2023 with indexingSpotsSet.py
#Number of indexed spots: 543
#Element
#ZrO2
#grainIndex
#G_0
#Mean Deviation(pixel): 0.116
##spot_index intensity h k l 2theta Chi Xexp Yexp Energy GrainIndex PixDev
0.000000 45.479000 -4.000000 -11.000000 -5.000000 89.368132 24.468346 485.222362 954.041278 21.990936 0.000000 0.124729
1.000000 46.270000 -3.000000 -11.000000 -5.000000 88.236423 30.443899 342.432903 979.438760 21.615016 0.000000 0.106161
2.000000 46.508000 -2.000000 -11.000000 -5.000000 86.391974 36.566915 176.637206 1025.498647 21.504676 0.000000 0.104566
3.000000 46.106000 -1.000000 -11.000000 -5.000000 83.808369 42.701043 -18.212047 1099.883590 21.692802 0.000000 0.151990
4.000000 45.543000 -2.000000 -4.000000 -2.000000 86.190530 16.186833 662.575801 1015.624348 8.784916 0.000000 0.145344
5.000000 47.048000 -4.000000 -10.000000 -5.000000 85.805589 22.016425 539.789945 1026.141367 21.259186 0.000000 0.131878
6.000000 48.060000 -3.000000 -10.000000 -5.000000 84.745352 28.181851 398.334952 1053.298209 20.811524 0.000000 0.115939
7.000000 48.429000 -2.000000 -10.000000 -5.000000 82.918604 34.560727 233.602632 1103.356443 20.653114 0.000000 0.111457
8.000000 48.033000 -1.000000 -10.000000 -5.000000 80.281209 41.001803 39.332209 1185.256483 20.824005 0.000000 0.149269
9.000000 46.802000 0.000000 -4.000000 -2.000000 76.851670 47.344875 -193.203448 1312.051867 8.548800 0.000000 0.248661
10.000000 46.559000 -5.000000 -9.000000 -5.000000 81.904409 13.454113 717.516097 1098.414871 21.484559 0.000000 0.142369
11.000000 48.374000 -4.000000 -9.000000 -5.000000 81.607133 19.380266 596.393578 1109.334745 20.678243 0.000000 0.133065
12.000000 49.646000 -3.000000 -9.000000 -5.000000 80.609931 25.722901 456.484603 1138.565755 20.148579 0.000000 0.121084
13.000000 50.173000 -2.000000 -9.000000 -5.000000 78.794592 32.358688 293.050967 1193.413920 19.936846 0.000000 0.117689
14.000000 49.784000 -1.000000 -9.000000 -5.000000 76.094149 39.122581 99.614822 1284.481960 20.092963 0.000000 0.150658
15.000000 48.377000 0.000000 -9.000000 -5.000000 72.516856 45.829551 -132.920405 1427.521966 20.677880 0.000000 0.244476
17.000000 47.117000 -5.000000 -8.000000 -5.000000 76.885233 10.557532 774.402592 1196.071969 21.232404 0.000000 0.130460
18.000000 49.263000 -4.000000 -8.000000 -5.000000 76.642140 16.550773 655.149383 1207.619765 20.307377 0.000000 0.125561
19.000000 50.822000 -3.000000 -8.000000 -5.000000 75.683314 23.050501 517.020189 1239.510886 19.684395 0.000000 0.118773
20.000000 51.527000 -2.000000 -8.000000 -5.000000 73.860143 29.938198 355.148161 1300.428203 19.415103 0.000000 0.120239
21.000000 51.136000 -1.000000 -8.000000 -5.000000 71.077579 37.037944 162.836020 1403.229393 19.563630 0.000000 0.154628
22.000000 49.500000 0.000000 -8.000000 -5.000000 67.329643 44.138192 -69.393777 1567.436054 20.210609 0.000000 0.247331
24.000000 46.968000 -5.000000 -7.000000 -5.000000 71.009650 7.498043 833.340562 1314.589530 21.302171 0.000000 0.105809
25.000000 49.429000 -4.000000 -7.000000 -5.000000 70.759202 13.521245 716.182483 1327.373872 20.241594 0.000000 0.105463
26.000000 51.270000 -3.000000 -7.000000 -5.000000 69.787635 20.148838 580.091631 1363.094707 19.514483 0.000000 0.105656
27.000000 52.144000 -2.000000 -7.000000 -5.000000 67.914692 27.275101 420.075285 1432.345915 19.187600 0.000000 0.116945
28.000000 51.715000 -1.000000 -7.000000 -5.000000 65.013156 34.718795 229.216042 1551.230561 19.346799 0.000000 0.160701
29.000000 49.767000 0.000000 -7.000000 -5.000000 61.059330 42.241763 -2.354540 1744.906063 20.104380 0.000000 0.259360
31.000000 45.787000 -5.000000 -6.000000 -5.000000 64.150309 4.280414 894.443018 1463.911595 21.854178 0.000000 0.062695
32.000000 48.473000 -4.000000 -6.000000 -5.000000 63.791369 10.288471 779.627891 1479.461783 20.643358 0.000000 0.067940
33.000000 50.519000 -3.000000 -6.000000 -5.000000 62.715285 17.003999 645.861680 1521.531649 19.807226 0.000000 0.080689
34.000000 51.483000 -2.000000 -6.000000 -5.000000 60.712983 24.344389 488.030302 1603.581498 19.436252 0.000000 0.111278
35.000000 50.916000 -1.000000 -6.000000 -5.000000 57.624730 32.132238 298.997698 1746.818703 19.652582 0.000000 0.174032
36.000000 48.515000 0.000000 -6.000000 -5.000000 53.408591 40.105579 68.496927 1985.737197 20.625231 0.000000 0.287159
37.000000 45.875000 -4.000000 -5.000000 -5.000000 55.570681 6.853960 845.631508 1684.073645 21.815389 0.000000 0.034733
38.000000 47.907000 -3.000000 -5.000000 -5.000000 54.240388 13.605516 714.507317 1738.473597 20.889745 0.000000 0.074337
39.000000 48.742000 -2.000000 -5.000000 -5.000000 51.970809 21.121428 559.230078 1843.401012 20.531855 0.000000 0.130747
40.000000 47.806000 -1.000000 -5.000000 -5.000000 48.577185 29.241769 372.449337 2029.333475 20.933872 0.000000 0.215578
41.000000 45.502000 -4.000000 -13.000000 -4.000000 102.212021 29.837251 357.670845 672.464015 21.974395 0.000000 0.074495
42.000000 46.067000 -3.000000 -13.000000 -4.000000 100.939967 35.994520 193.183690 683.865868 21.705127 0.000000 0.054223
43.000000 46.171000 -2.000000 -13.000000 -4.000000 98.951788 42.176276 -0.112291 712.226587 21.656474 0.000000 0.103434
44.000000 45.763000 -1.000000 -13.000000 -4.000000 96.248650 48.241174 -230.512009 764.050543 21.850253 0.000000 0.211045
45.000000 46.577000 -5.000000 -12.000000 -4.000000 100.491646 21.356578 554.145547 726.987147 21.468091 0.000000 0.123591
46.000000 47.783000 -1.000000 -3.000000 -1.000000 100.050872 27.536409 413.847089 725.863545 5.231618 0.000000 0.094399
47.000000 48.543000 -3.000000 -12.000000 -4.000000 98.884881 33.947175 250.473220 738.177196 20.598733 0.000000 0.065739
48.000000 48.760000 -1.000000 -6.000000 -2.000000 96.931538 40.436438 57.820874 769.087508 10.253589 0.000000 0.088129
49.000000 48.360000 -1.000000 -12.000000 -4.000000 94.179102 46.840337 -172.755174 826.029872 20.677313 0.000000 0.183869
52.000000 46.750000 -6.000000 -11.000000 -4.000000 97.363738 12.768955 731.085140 798.379267 21.390706 0.000000 0.154838
53.000000 48.632000 -5.000000 -11.000000 -4.000000 97.744903 18.685789 610.992001 786.475259 20.562319 0.000000 0.138129
54.000000 50.151000 -4.000000 -11.000000 -4.000000 97.478785 25.036494 472.280890 785.055821 19.939318 0.000000 0.112948
55.000000 51.164000 -3.000000 -11.000000 -4.000000 96.438796 31.700331 310.258505 798.237180 19.544341 0.000000 0.083053
56.000000 51.536000 -2.000000 -11.000000 -4.000000 94.535387 38.511981 118.509356 831.891386 19.403485 0.000000 0.082665
57.000000 51.159000 -1.000000 -11.000000 -4.000000 91.737930 45.282857 -111.973962 894.586581 19.546985 0.000000 0.160859
58.000000 49.977000 0.000000 -11.000000 -4.000000 88.086844 51.830938 -394.246773 999.175883 20.010068 0.000000 0.310021
60.000000 45.850000 -7.000000 -10.000000 -4.000000 92.825821 4.448606 891.265150 887.713685 21.812317 0.000000 0.166902
61.000000 48.353000 -3.000000 -5.000000 -2.000000 93.896916 9.846701 788.188127 866.587631 10.341422 0.000000 0.161418
62.000000 50.640000 -5.000000 -10.000000 -4.000000 94.476238 15.821710 669.998892 853.425117 19.748188 0.000000 0.149273
63.000000 52.548000 -2.000000 -5.000000 -2.000000 94.398229 22.321342 533.111126 851.511613 9.515566 0.000000 0.128806
64.000000 53.887000 -3.000000 -10.000000 -4.000000 93.502656 29.231354 372.706263 865.507320 18.558154 0.000000 0.101272
65.000000 54.468000 -1.000000 -5.000000 -2.000000 91.664670 36.376987 182.154511 902.149942 9.180104 0.000000 0.087482
66.000000 54.135000 -1.000000 -10.000000 -4.000000 88.826683 43.543645 -47.924432 971.411410 18.473717 0.000000 0.144100
67.000000 52.799000 0.000000 -5.000000 -2.000000 85.020028 50.512994 -331.252816 1088.482272 9.470914 0.000000 0.283399
69.000000 46.793000 -7.000000 -9.000000 -4.000000 88.576081 1.420132 948.317529 967.761869 21.375001 0.000000 0.164339
70.000000 49.728000 -6.000000 -9.000000 -4.000000 89.806034 6.763789 847.349521 944.669174 20.112710 0.000000 0.162942
71.000000 52.487000 -5.000000 -9.000000 -4.000000 90.573137 12.758493 731.291764 929.960763 19.054914 0.000000 0.155575
72.000000 54.867000 -4.000000 -9.000000 -4.000000 90.686490 19.375778 596.488303 927.329491 18.228181 0.000000 0.140360
73.000000 56.619000 -3.000000 -9.000000 -4.000000 89.947928 26.516245 437.998400 942.093164 17.663883 0.000000 0.117201
74.000000 57.480000 -2.000000 -9.000000 -4.000000 88.188440 34.001922 248.977800 982.062121 17.399346 0.000000 0.098663
75.000000 57.218000 -1.000000 -9.000000 -4.000000 85.312961 41.592763 19.664314 1058.989718 17.479322 0.000000 0.135310
76.000000 55.695000 0.000000 -9.000000 -4.000000 81.336717 49.028116 -264.362707 1191.104021 17.957942 0.000000 0.262265
78.000000 47.310000 -7.000000 -8.000000 -4.000000 83.636378 -1.720322 1007.325754 1061.087962 21.143417 0.000000 0.155017
79.000000 50.705000 -3.000000 -4.000000 -2.000000 84.978926 3.525900 908.682666 1035.741797 9.863627 0.000000 0.157504
80.000000 53.992000 -5.000000 -8.000000 -4.000000 85.901414 9.493994 795.006084 1019.194072 18.525611 0.000000 0.154949
81.000000 59.192000 -3.000000 -8.000000 -4.000000 85.608013 23.530443 506.333779 1031.162058 16.897677 0.000000 0.127873
82.000000 60.417000 -1.000000 -4.000000 -2.000000 83.931881 31.353584 319.223371 1074.982032 8.277529 0.000000 0.110586
83.000000 60.261000 -1.000000 -8.000000 -4.000000 81.016699 39.394531 91.093963 1161.170810 16.598356 0.000000 0.134328
85.000000 47.204000 -7.000000 -7.000000 -4.000000 77.914805 -4.959245 1068.392153 1172.312561 21.192919 0.000000 0.136841
86.000000 51.046000 -6.000000 -7.000000 -4.000000 79.293165 0.143233 972.309381 1144.501524 19.597503 0.000000 0.142442
87.000000 54.884000 -5.000000 -7.000000 -4.000000 80.305630 6.030994 861.288236 1125.888823 18.226664 0.000000 0.144303
88.000000 58.438000 -4.000000 -7.000000 -4.000000 80.722998 12.745351 731.551278 1121.247631 17.117888 0.000000 0.140353
89.000000 61.304000 -3.000000 -7.000000 -4.000000 80.268780 20.250180 577.930244 1137.738344 16.317494 0.000000 0.129481
90.000000 62.979000 -2.000000 -7.000000 -4.000000 78.661419 28.395420 393.161036 1186.335777 15.883404 0.000000 0.117694
91.000000 62.957000 -1.000000 -7.000000 -4.000000 75.691032 36.906601 166.701494 1284.319241 15.889011 0.000000 0.138295
92.000000 60.891000 0.000000 -7.000000 -4.000000 71.307953 45.424261 -117.352858 1459.826284 16.428719 0.000000 0.244481
95.000000 46.233000 -7.000000 -6.000000 -4.000000 71.325316 -8.279773 1131.626318 1308.607235 21.640773 0.000000 0.107859
96.000000 50.438000 -3.000000 -3.000000 -2.000000 72.623880 -3.369078 1038.360771 1278.380708 9.918132 0.000000 0.114225
97.000000 54.773000 -5.000000 -6.000000 -4.000000 73.614569 2.378385 930.296648 1257.746132 18.265889 0.000000 0.119002
98.000000 58.937000 -2.000000 -3.000000 -2.000000 74.062488 9.047951 803.608269 1252.225012 8.487610 0.000000 0.120030
99.000000 62.441000 -3.000000 -6.000000 -4.000000 73.660830 16.654535 653.026938 1270.345321 16.022482 0.000000 0.116375
100.000000 64.615000 -1.000000 -3.000000 -2.000000 72.067761 25.088526 471.089734 1325.586826 7.741629 0.000000 0.114240
101.000000 64.723000 -1.000000 -6.000000 -4.000000 68.997199 34.079170 246.864492 1439.888029 15.457496 0.000000 0.143297
102.000000 62.218000 0.000000 -3.000000 -2.000000 64.346763 43.217635 -36.331195 1650.294531 8.040085 0.000000 0.251955
105.000000 48.494000 -6.000000 -5.000000 -4.000000 64.858640 -6.990864 1106.978126 1449.904233 20.634135 0.000000 0.070708
106.000000 53.137000 -5.000000 -5.000000 -4.000000 65.656049 -1.447827 1002.203051 1428.115286 18.830818 0.000000 0.072464
107.000000 57.750000 -4.000000 -5.000000 -4.000000 65.964124 5.099224 878.957992 1422.912117 17.326685 0.000000 0.075615
108.000000 61.776000 -3.000000 -5.000000 -4.000000 65.460382 12.728349 731.886973 1444.774564 16.197467 0.000000 0.080500
109.000000 64.361000 -2.000000 -5.000000 -4.000000 63.752653 21.393692 553.341573 1510.981671 15.546809 0.000000 0.096885
110.000000 64.470000 -1.000000 -5.000000 -4.000000 60.476752 30.854658 332.007456 1651.000217 15.520439 0.000000 0.150937
111.000000 61.275000 0.000000 -5.000000 -4.000000 55.469726 40.664239 50.409006 1917.287354 16.329937 0.000000 0.278025
114.000000 49.350000 -5.000000 -4.000000 -4.000000 56.286590 -5.423961 1077.193913 1662.393081 20.279091 0.000000 0.029586
115.000000 53.976000 -2.000000 -2.000000 -2.000000 56.190696 0.913880 957.831424 1661.861029 9.270553 0.000000 0.008625
116.000000 58.080000 -3.000000 -4.000000 -4.000000 55.313694 8.465954 814.800510 1694.086985 17.231017 0.000000 0.043472
117.000000 60.639000 -1.000000 -2.000000 -2.000000 53.236557 17.275010 640.286559 1783.086651 8.251824 0.000000 0.099862
118.000000 60.292000 -1.000000 -4.000000 -4.000000 49.536956 27.168431 422.609319 1972.892906 16.598758 0.000000 0.190809
121.000000 46.606000 -4.000000 -3.000000 -4.000000 44.577060 -3.481579 1040.481661 2035.322186 21.475939 0.000000 0.154215
122.000000 49.789000 -3.000000 -3.000000 -4.000000 42.910841 3.875481 902.088324 2101.444810 20.102970 0.000000 0.177097
123.000000 51.194000 -2.000000 -3.000000 -4.000000 40.026952 12.705494 732.338162 2254.618870 19.551134 0.000000 0.234225
125.000000 46.152000 -4.000000 -14.000000 -3.000000 111.081510 33.325278 267.326862 444.439730 21.661071 0.000000 0.015964
126.000000 46.624000 -3.000000 -14.000000 -3.000000 109.655104 39.862037 76.289302 440.188455 21.442171 0.000000 0.078037
127.000000 46.664000 -2.000000 -14.000000 -3.000000 107.471679 46.326765 -152.331483 450.416953 21.424333 0.000000 0.185052
129.000000 46.275000 -6.000000 -13.000000 -3.000000 110.034053 17.986189 625.577595 528.371589 21.604434 0.000000 0.112053
130.000000 47.701000 -5.000000 -13.000000 -3.000000 110.233626 24.342979 488.062219 505.571408 20.958446 0.000000 0.079356
131.000000 48.787000 -4.000000 -13.000000 -3.000000 109.726079 31.033187 327.448381 490.613774 20.491918 0.000000 0.035023
132.000000 49.441000 -3.000000 -13.000000 -3.000000 108.419432 37.891548 137.382719 486.802824 20.221006 0.000000 0.050050
133.000000 49.582000 -2.000000 -13.000000 -3.000000 106.268057 44.726115 -91.053358 498.933014 20.163865 0.000000 0.149361
136.000000 46.459000 -7.000000 -12.000000 -3.000000 106.856075 9.133393 801.962159 610.710278 21.520656 0.000000 0.146985
137.000000 48.483000 -2.000000 -4.000000 -1.000000 107.906442 15.088011 684.835102 580.816201 6.873839 0.000000 0.129298
138.000000 50.253000 -5.000000 -12.000000 -3.000000 108.364404 21.585200 549.186513 556.760954 19.894934 0.000000 0.101371
139.000000 51.649000 -4.000000 -12.000000 -3.000000 108.079438 28.515372 390.245942 541.131894 19.357202 0.000000 0.060705
140.000000 52.546000 -1.000000 -4.000000 -1.000000 106.926055 35.705381 201.450828 537.642461 6.342247 0.000000 0.033327
141.000000 52.831000 -2.000000 -12.000000 -3.000000 104.829945 42.937911 -26.482283 551.744345 18.924438 0.000000 0.114942
142.000000 52.418000 -1.000000 -12.000000 -3.000000 101.787293 49.987973 -307.130928 591.671048 19.074094 0.000000 0.257297
144.000000 45.727000 -8.000000 -11.000000 -3.000000 102.277053 0.725816 961.364912 706.762616 21.866917 0.000000 0.163780
145.000000 48.295000 -7.000000 -11.000000 -3.000000 104.015033 6.027922 861.346580 670.856061 20.703449 0.000000 0.157626
146.000000 50.743000 -6.000000 -11.000000 -3.000000 105.343781 11.991817 746.387253 639.086483 19.704222 0.000000 0.144520
147.000000 52.941000 -5.000000 -11.000000 -3.000000 106.088607 18.596086 612.868798 613.475459 18.885551 0.000000 0.121761
148.000000 54.736000 -4.000000 -11.000000 -3.000000 106.064272 25.748056 455.902281 596.906536 18.265983 0.000000 0.086270
149.000000 55.960000 -3.000000 -11.000000 -3.000000 105.103286 33.273607 268.716309 593.569627 17.866699 0.000000 0.043204
150.000000 56.449000 -2.000000 -11.000000 -3.000000 103.091753 40.931316 41.654505 609.696618 17.711992 0.000000 0.084387
151.000000 56.078000 -1.000000 -11.000000 -3.000000 100.000708 48.453555 -239.544125 654.833341 17.829864 0.000000 0.216902
153.000000 47.018000 -8.000000 -10.000000 -3.000000 98.666858 -2.424591 1020.572855 776.793915 21.268235 0.000000 0.167230
154.000000 50.038000 -7.000000 -10.000000 -3.000000 100.639972 2.770813 922.909997 738.563064 19.983947 0.000000 0.165199
155.000000 52.989000 -6.000000 -10.000000 -3.000000 102.251519 8.696560 810.369962 704.565421 18.870147 0.000000 0.156941
156.000000 55.718000 -5.000000 -10.000000 -3.000000 103.305651 15.363679 679.273080 677.029355 17.945338 0.000000 0.139756
157.000000 58.028000 -4.000000 -10.000000 -3.000000 103.579650 22.707212 524.617157 659.177422 17.230801 0.000000 0.110286
158.000000 59.689000 -3.000000 -10.000000 -3.000000 102.854940 30.562782 339.424641 655.758516 16.751136 0.000000 0.067807
159.000000 60.470000 -2.000000 -10.000000 -3.000000 100.964034 38.669669 113.660748 673.940963 16.534938 0.000000 0.064143
160.000000 60.178000 -1.000000 -10.000000 -3.000000 97.839147 46.712797 -167.646949 724.881049 16.615638 0.000000 0.178630
162.000000 48.051000 -8.000000 -9.000000 -3.000000 94.456027 -5.669250 1081.845090 856.712620 20.812537 0.000000 0.166555
163.000000 51.575000 -7.000000 -9.000000 -3.000000 96.634592 -0.626787 986.774580 815.802469 19.389863 0.000000 0.168680
164.000000 55.115000 -2.000000 -3.000000 -1.000000 98.516445 5.206307 876.930096 779.163246 6.047934 0.000000 0.165473
165.000000 58.493000 -5.000000 -9.000000 -3.000000 99.889502 11.880198 748.577692 749.252586 17.095481 0.000000 0.154250
166.000000 61.460000 -4.000000 -9.000000 -3.000000 100.493660 19.370042 596.609385 729.682457 16.269530 0.000000 0.131509
167.000000 64.907000 -2.000000 -9.000000 -3.000000 98.322970 36.109626 189.875696 746.103571 15.405588 0.000000 0.063982
168.000000 64.754000 -1.000000 -9.000000 -3.000000 95.183762 44.725043 -91.013474 803.569997 15.442350 0.000000 0.145353
169.000000 48.687000 -8.000000 -8.000000 -3.000000 89.562221 -8.990819 1145.291489 949.326076 20.542860 0.000000 0.160631
170.000000 52.748000 -7.000000 -8.000000 -3.000000 91.891916 -4.148832 1053.071810 905.354257 18.960486 0.000000 0.166707
171.000000 56.951000 -6.000000 -8.000000 -3.000000 94.005753 1.531367 946.226596 865.602642 17.560373 0.000000 0.168595
172.000000 61.102000 -5.000000 -8.000000 -3.000000 95.684141 8.144020 820.976890 832.781045 16.366798 0.000000 0.163633
173.000000 64.900000 -4.000000 -8.000000 -3.000000 96.634452 15.717175 672.119164 810.950131 15.408552 0.000000 0.148244
174.000000 67.934000 -3.000000 -8.000000 -3.000000 96.513921 24.156138 492.284183 806.312779 14.720040 0.000000 0.118603
175.000000 69.722000 -2.000000 -8.000000 -3.000000 94.994659 33.200496 270.679451 828.587246 14.342714 0.000000 0.081495
176.000000 69.800000 -1.000000 -8.000000 -3.000000 91.865037 42.439688 -9.159747 893.510238 14.326978 0.000000 0.121857
177.000000 67.871000 0.000000 -8.000000 -3.000000 87.123884 51.408492 -373.660474 1027.688121 14.734746 0.000000 0.300658
179.000000 48.743000 -8.000000 -7.000000 -3.000000 83.903884 -12.369083 1211.029862 1058.680479 20.521438 0.000000 0.148257
180.000000 53.336000 -7.000000 -7.000000 -3.000000 86.298388 -7.774363 1121.943378 1011.277188 18.753428 0.000000 0.157535
181.000000 58.245000 -6.000000 -7.000000 -3.000000 88.568781 -2.310805 1018.431747 967.912753 17.172230 0.000000 0.164175
182.000000 63.277000 -5.000000 -7.000000 -3.000000 90.500654 4.161833 896.682678 931.570163 15.805920 0.000000 0.165510
183.000000 68.089000 -4.000000 -7.000000 -3.000000 91.780513 11.735697 751.410751 906.828198 14.688500 0.000000 0.157927
184.000000 72.149000 -3.000000 -7.000000 -3.000000 92.002637 20.384096 575.069778 900.851201 13.861541 0.000000 0.137109
185.000000 74.765000 -2.000000 -7.000000 -3.000000 90.731810 29.884157 356.499304 925.143987 13.376422 0.000000 0.103845
186.000000 75.211000 -1.000000 -7.000000 -3.000000 87.636039 39.793683 78.466443 998.827429 13.297396 0.000000 0.113115
187.000000 72.972000 0.000000 -7.000000 -3.000000 82.643188 49.543425 -287.114401 1155.158468 13.705895 0.000000 0.268574
189.000000 47.999000 -8.000000 -6.000000 -3.000000 77.408148 -15.781570 1279.186691 1190.837048 20.841752 0.000000 0.128950
190.000000 53.050000 -7.000000 -6.000000 -3.000000 79.742248 -11.477897 1193.542194 1139.750799 18.856718 0.000000 0.139274
191.000000 58.632000 -2.000000 -2.000000 -1.000000 82.043879 -6.295194 1093.732606 1092.335369 5.686968 0.000000 0.149321
192.000000 64.589000 -5.000000 -6.000000 -3.000000 84.119108 -0.049342 975.926876 1051.861471 15.486930 0.000000 0.156286
193.000000 70.562000 -4.000000 -6.000000 -3.000000 85.652980 7.422940 834.775554 1023.506731 14.175380 0.000000 0.156486
194.000000 79.645000 -2.000000 -6.000000 -3.000000 85.180202 26.096204 447.817300 1042.055410 12.558235 0.000000 0.121047
195.000000 80.645000 -1.000000 -6.000000 -3.000000 82.130015 36.708791 172.498039 1126.576288 12.402783 0.000000 0.117821
197.000000 46.211000 -8.000000 -5.000000 -3.000000 70.022510 -19.204397 1349.897934 1355.316536 21.650949 0.000000 0.106858
198.000000 51.540000 -7.000000 -5.000000 -3.000000 72.128017 -15.230278 1268.033527 1300.685410 19.411924 0.000000 0.111964
199.000000 57.628000 -6.000000 -5.000000 -3.000000 74.274078 -10.389476 1172.332621 1249.109730 17.360636 0.000000 0.120963
200.000000 64.398000 -5.000000 -5.000000 -3.000000 76.301012 -4.460704 1058.963491 1204.149228 15.535036 0.000000 0.130742
201.000000 71.539000 -4.000000 -5.000000 -3.000000 77.917069 2.790691 922.535710 1171.675714 13.984048 0.000000 0.137234
202.000000 78.327000 -3.000000 -5.000000 -3.000000 78.647177 11.541278 755.217837 1161.556370 12.771836 0.000000 0.135626
203.000000 83.473000 -2.000000 -5.000000 -3.000000 77.834600 21.769416 545.179289 1190.840441 11.984242 0.000000 0.123359
204.000000 85.219000 -1.000000 -5.000000 -3.000000 74.794980 33.089111 273.664033 1290.147869 11.738786 0.000000 0.125710
205.000000 81.995000 0.000000 -5.000000 -3.000000 69.166410 44.723223 -90.945734 1517.438818 12.200761 0.000000 0.245512
207.000000 48.428000 -7.000000 -4.000000 -3.000000 63.398358 -18.999925 1345.596271 1511.064283 20.662160 0.000000 0.091301
208.000000 54.650000 -6.000000 -4.000000 -3.000000 65.135738 -14.555115 1254.453468 1456.321980 18.309216 0.000000 0.083960
209.000000 61.842000 -5.000000 -4.000000 -3.000000 66.821502 -9.031321 1146.071441 1407.606963 16.179889 0.000000 0.084335
210.000000 69.806000 -4.000000 -4.000000 -3.000000 68.207560 -2.130957 1015.048242 1371.620079 14.333659 0.000000 0.089403
211.000000 77.846000 -3.000000 -4.000000 -3.000000 68.838678 6.442713 853.461732 1360.279323 12.853148 0.000000 0.093845
212.000000 84.388000 -2.000000 -4.000000 -3.000000 67.995496 16.841058 649.205852 1395.439475 11.856598 0.000000 0.096632
213.000000 86.858000 -1.000000 -4.000000 -3.000000 64.803150 28.820183 382.808395 1518.984278 11.519378 0.000000 0.126377
214.000000 82.601000 0.000000 -4.000000 -3.000000 58.679264 41.558236 20.823275 1816.246155 12.113228 0.000000 0.266306
216.000000 49.125000 -2.000000 -1.000000 -1.000000 54.582378 -18.749258 1340.337135 1749.272394 6.790549 0.000000 0.106252
217.000000 55.929000 -5.000000 -3.000000 -3.000000 55.531526 -13.709317 1237.557681 1701.511472 17.893160 0.000000 0.073684
218.000000 63.739000 -4.000000 -3.000000 -3.000000 56.203579 -7.291276 1112.709920 1667.291828 15.700816 0.000000 0.038807
219.000000 78.890000 -2.000000 -3.000000 -3.000000 54.777041 11.265680 760.605541 1715.817464 12.685633 0.000000 0.059672
220.000000 81.088000 -1.000000 -3.000000 -3.000000 50.970697 23.772541 500.913682 1894.368183 12.341769 0.000000 0.155100
222.000000 45.867000 -5.000000 -2.000000 -3.000000 42.451929 -18.434760 1333.760817 2181.190557 21.821414 0.000000 0.228428
223.000000 51.713000 -4.000000 -2.000000 -3.000000 41.778633 -12.619400 1215.962943 2175.495393 19.354818 0.000000 0.215454
224.000000 57.602000 -3.000000 -2.000000 -3.000000 40.291199 -4.987043 1068.918294 2215.342080 17.376494 0.000000 0.221768
227.000000 45.956000 -4.000000 -15.000000 -2.000000 118.959940 37.261192 156.234946 192.629009 21.750654 0.000000 0.086142
228.000000 46.313000 -3.000000 -15.000000 -2.000000 117.306102 44.159153 -70.158547 166.458177 21.583275 0.000000 0.188214
230.000000 46.570000 -3.000000 -7.000000 -1.000000 118.891750 20.842219 565.246375 305.469064 10.732186 0.000000 0.061836
231.000000 47.818000 -5.000000 -14.000000 -2.000000 118.994931 27.790301 407.767227 266.757627 20.903724 0.000000 0.017814
232.000000 48.736000 -2.000000 -7.000000 -1.000000 118.313593 35.023056 220.725009 232.929182 10.255115 0.000000 0.053967
233.000000 49.247000 -3.000000 -14.000000 -2.000000 116.771835 42.320811 -5.067279 206.591975 20.297488 0.000000 0.150533
236.000000 47.226000 -7.000000 -13.000000 -2.000000 116.432899 11.221463 761.468968 395.524149 21.167507 0.000000 0.110218
237.000000 49.060000 -6.000000 -13.000000 -2.000000 117.522661 17.809968 629.233143 351.945801 20.375642 0.000000 0.082807
238.000000 50.625000 -5.000000 -13.000000 -2.000000 117.925178 24.970643 473.786959 311.701645 19.745378 0.000000 0.041542
239.000000 51.818000 -4.000000 -13.000000 -2.000000 117.487693 32.533813 288.431611 276.776707 19.290445 0.000000 0.021837
240.000000 52.539000 -3.000000 -13.000000 -2.000000 116.098476 40.257242 63.616089 250.133096 19.026173 0.000000 0.112181
241.000000 52.696000 -2.000000 -13.000000 -2.000000 113.712725 47.866557 -214.761675 236.314134 18.969733 0.000000 0.248068
243.000000 47.066000 -4.000000 -6.000000 -1.000000 112.430699 2.015416 937.125027 496.433702 10.620534 0.000000 0.138916
244.000000 49.469000 -7.000000 -12.000000 -2.000000 114.369961 7.896463 825.719545 448.784276 20.208161 0.000000 0.125639
245.000000 51.715000 -3.000000 -6.000000 -1.000000 115.813523 14.534814 695.953545 403.172588 9.665120 0.000000 0.102977
246.000000 53.683000 -5.000000 -12.000000 -2.000000 116.564824 21.874882 542.880468 361.105608 18.621081 0.000000 0.066900
247.000000 55.240000 -2.000000 -6.000000 -1.000000 116.427439 29.759854 359.601552 324.813574 9.048071 0.000000 0.011510
248.000000 56.245000 -3.000000 -12.000000 -2.000000 115.242020 37.930827 136.197343 297.668301 17.772831 0.000000 0.073354
249.000000 56.571000 -1.000000 -6.000000 -1.000000 112.925385 46.066542 -142.128842 284.914940 8.835409 0.000000 0.202431
251.000000 46.002000 -9.000000 -11.000000 -2.000000 107.036436 -6.376931 1095.286975 609.141957 21.734334 0.000000 0.150983
252.000000 48.887000 -8.000000 -11.000000 -2.000000 109.575053 -1.395902 1001.227039 558.163194 20.450658 0.000000 0.148079
253.000000 51.762000 -7.000000 -11.000000 -2.000000 111.851894 4.380237 892.557109 508.117427 19.314144 0.000000 0.139244
254.000000 54.514000 -6.000000 -11.000000 -2.000000 113.680078 11.010413 765.586583 460.134589 18.338506 0.000000 0.121750
255.000000 56.996000 -5.000000 -11.000000 -2.000000 114.831366 18.481300 615.267536 415.885391 17.539219 0.000000 0.091608
256.000000 59.033000 -4.000000 -11.000000 -2.000000 115.058916 26.664845 434.507543 377.877934 16.933806 0.000000 0.042801
257.000000 60.430000 -3.000000 -11.000000 -2.000000 114.141526 35.297276 213.017990 349.960048 16.542193 0.000000 0.034633
258.000000 61.003000 -2.000000 -11.000000 -2.000000 111.939939 44.009630 -64.714960 338.211654 16.387132 0.000000 0.155786
260.000000 47.249000 -9.000000 -10.000000 -2.000000 103.379139 -9.698494 1158.945233 681.292851 21.161953 0.000000 0.153619
261.000000 50.609000 -4.000000 -5.000000 -1.000000 106.173173 -4.926352 1067.769646 627.696642 9.878075 0.000000 0.154557
262.000000 54.037000 -7.000000 -10.000000 -2.000000 108.784253 0.684501 962.141114 574.903465 18.501838 0.000000 0.150388
263.000000 57.409000 -3.000000 -5.000000 -1.000000 111.017879 7.236947 838.327239 524.143138 8.707176 0.000000 0.138449
264.000000 60.548000 -5.000000 -10.000000 -2.000000 112.617652 14.772199 691.189412 477.265104 16.511177 0.000000 0.114829
265.000000 63.222000 -2.000000 -5.000000 -1.000000 113.281839 23.211152 513.451697 437.091810 7.906161 0.000000 0.073634
266.000000 65.165000 -3.000000 -10.000000 -2.000000 112.711486 32.305110 294.460632 408.025986 15.340806 0.000000 0.011062
267.000000 66.103000 -1.000000 -5.000000 -1.000000 110.687027 41.643229 17.968104 397.147602 7.561620 0.000000 0.108746
269.000000 48.243000 -9.000000 -9.000000 -2.000000 99.126634 -13.071748 1224.902141 763.492758 20.727584 0.000000 0.152886
270.000000 52.125000 -8.000000 -9.000000 -2.000000 102.135688 -8.554234 1136.894937 706.957598 19.182889 0.000000 0.157596
271.000000 56.192000 -7.000000 -9.000000 -2.000000 105.057148 -3.171884 1034.644393 651.012663 17.793605 0.000000 0.158229
272.000000 60.313000 -6.000000 -9.000000 -2.000000 107.698950 3.223218 914.388292 596.988216 16.576958 0.000000 0.152188
273.000000 64.282000 -5.000000 -9.000000 -2.000000 109.785163 10.737033 770.911492 546.925813 15.552813 0.000000 0.135659
274.000000 67.805000 -4.000000 -9.000000 -2.000000 110.959661 19.362451 596.769605 504.001971 14.744208 0.000000 0.102858
275.000000 70.512000 -3.000000 -9.000000 -2.000000 110.830380 28.895850 380.955338 473.268162 14.178007 0.000000 0.045809
276.000000 71.997000 -2.000000 -9.000000 -2.000000 109.065757 38.902022 106.477275 463.012266 13.885733 0.000000 0.063440
277.000000 71.902000 -1.000000 -9.000000 -2.000000 105.514356 48.797813 -254.346352 487.432354 13.904622 0.000000 0.235810
279.000000 48.855000 -9.000000 -8.000000 -2.000000 94.208395 -16.474137 1293.284492 858.412962 20.469766 0.000000 0.148191
280.000000 53.288000 -4.000000 -4.000000 -1.000000 97.366954 -12.253551 1208.756247 798.600824 9.383003 0.000000 0.156296
281.000000 58.066000 -7.000000 -8.000000 -2.000000 100.546023 -7.162637 1110.254592 739.050310 17.220786 0.000000 0.161666
282.000000 63.071000 -3.000000 -4.000000 -1.000000 103.569333 -1.011475 994.002401 681.186239 7.926757 0.000000 0.161757
283.000000 68.077000 -5.000000 -8.000000 -2.000000 106.156584 6.376227 854.726424 627.250991 14.686897 0.000000 0.152854
284.000000 76.508000 -3.000000 -8.000000 -2.000000 108.323533 25.005618 472.987239 547.693130 13.067576 0.000000 0.082657
285.000000 79.073000 -1.000000 -8.000000 -2.000000 103.424176 46.498969 -159.136651 567.813611 12.644105 0.000000 0.178560
286.000000 48.925000 -9.000000 -7.000000 -2.000000 88.558021 -19.881900 1364.228578 969.810348 20.442858 0.000000 0.139297
287.000000 53.898000 -8.000000 -7.000000 -2.000000 91.769940 -15.994927 1283.519295 906.401879 18.555661 0.000000 0.149737
288.000000 59.425000 -7.000000 -7.000000 -2.000000 95.115283 -11.254483 1189.175791 842.764856 16.828708 0.000000 0.159310
289.000000 65.428000 -6.000000 -7.000000 -2.000000 98.449146 -5.436126 1077.424483 780.400933 15.283901 0.000000 0.165473
290.000000 71.694000 -5.000000 -7.000000 -2.000000 101.509046 1.705246 942.957697 721.751390 13.947326 0.000000 0.164592
291.000000 77.810000 -4.000000 -7.000000 -2.000000 103.870469 10.368951 778.065877 670.820466 12.850298 0.000000 0.151140
292.000000 83.108000 -3.000000 -7.000000 -2.000000 104.937749 20.569299 571.105636 634.308565 12.030744 0.000000 0.116588
293.000000 86.678000 -2.000000 -7.000000 -2.000000 104.039514 31.955295 303.623808 623.791835 11.535043 0.000000 0.054803
294.000000 87.549000 -1.000000 -7.000000 -2.000000 100.671115 43.754055 -55.473614 660.227784 11.420520 0.000000 0.125357
296.000000 48.262000 -9.000000 -6.000000 -2.000000 82.120495 -23.271054 1437.881098 1103.147089 20.726089 0.000000 0.127483
297.000000 53.700000 -4.000000 -3.000000 -1.000000 85.254704 -19.746903 1361.363461 1035.926400 9.313018 0.000000 0.137587
298.000000 59.943000 -7.000000 -6.000000 -2.000000 88.626744 -15.408387 1271.630342 967.763365 16.685469 0.000000 0.149667
299.000000 66.991000 -3.000000 -3.000000 -1.000000 92.138060 -10.007988 1164.934438 900.197279 7.464535 0.000000 0.161072
300.000000 74.704000 -5.000000 -6.000000 -2.000000 95.571316 -3.241902 1035.963811 835.844109 13.386883 0.000000 0.168146
301.000000 90.069000 -3.000000 -6.000000 -2.000000 100.305201 15.528776 675.934971 737.888907 11.102009 0.000000 0.144561
302.000000 46.661000 -9.000000 -5.000000 -2.000000 74.862089 -26.618390 1514.400171 1266.690400 21.439615 0.000000 0.119124
303.000000 52.397000 -8.000000 -5.000000 -2.000000 77.751511 -23.477483 1442.483220 1195.745341 19.091662 0.000000 0.122608
304.000000 59.196000 -7.000000 -5.000000 -2.000000 80.955444 -19.581564 1357.860965 1122.843190 16.898291 0.000000 0.132381
305.000000 67.190000 -6.000000 -5.000000 -2.000000 84.430943 -14.674086 1256.840283 1049.483220 14.887064 0.000000 0.145980
306.000000 76.395000 -5.000000 -5.000000 -2.000000 88.031919 -8.410932 1134.143149 978.386828 13.092504 0.000000 0.159529
307.000000 86.528000 -4.000000 -5.000000 -2.000000 91.413028 -0.370200 981.954263 914.450502 11.558450 0.000000 0.167490
308.000000 49.679000 -4.000000 -2.000000 -1.000000 69.228930 -27.155750 1527.089764 1399.797777 10.069594 0.000000 0.119095
309.000000 56.695000 -7.000000 -4.000000 -2.000000 72.015158 -23.730030 1448.133132 1322.663399 17.646329 0.000000 0.114792
310.000000 65.274000 -3.000000 -2.000000 -1.000000 75.150073 -19.374361 1353.481781 1243.503171 7.663159 0.000000 0.120524
311.000000 75.681000 -5.000000 -4.000000 -2.000000 78.570884 -13.728508 1237.939678 1164.987297 13.218244 0.000000 0.133998
312.000000 51.971000 -7.000000 -3.000000 -2.000000 61.793630 -27.811337 1542.737794 1593.646002 19.253147 0.000000 0.132485
313.000000 60.412000 -6.000000 -3.000000 -2.000000 64.199410 -24.046079 1455.234635 1510.759502 16.562635 0.000000 0.110053
314.000000 71.136000 -5.000000 -3.000000 -2.000000 66.933382 -19.107099 1347.849665 1426.060190 14.065532 0.000000 0.098565
315.000000 84.636000 -4.000000 -3.000000 -2.000000 69.881300 -12.465980 1212.938319 1344.785655 11.821616 0.000000 0.102031
316.000000 51.945000 -3.000000 -1.000000 -1.000000 51.637856 -28.628745 1562.515368 1911.561276 9.632736 0.000000 0.194066
317.000000 61.339000 -5.000000 -2.000000 -2.000000 53.058325 -24.452996 1464.429608 1830.078780 16.314803 0.000000 0.151970
318.000000 89.591000 -3.000000 -2.000000 -2.000000 55.921621 -10.697225 1178.313933 1681.990937 11.170267 0.000000 0.056610
324.000000 46.119000 -6.000000 -15.000000 -1.000000 126.838775 24.184130 491.652464 57.117229 21.671176 0.000000 0.031133
325.000000 47.167000 -5.000000 -15.000000 -1.000000 126.743089 31.782521 308.123747 -4.240449 21.189769 0.000000 0.079540
326.000000 47.901000 -4.000000 -15.000000 -1.000000 125.792848 39.570368 85.549121 -65.747024 20.865023 0.000000 0.169564
328.000000 47.123000 -7.000000 -14.000000 -1.000000 125.143333 13.700529 712.617218 161.162215 21.210282 0.000000 0.061293
329.000000 48.715000 -6.000000 -14.000000 -1.000000 126.153363 21.033658 561.123745 98.478798 20.516747 0.000000 0.032333
330.000000 50.035000 -5.000000 -14.000000 -1.000000 126.374820 28.944841 379.754148 35.051698 19.975363 0.000000 0.052344
331.000000 50.999000 -4.000000 -14.000000 -1.000000 125.663522 37.177850 158.703808 -28.368249 19.597876 0.000000 0.133658
334.000000 47.430000 -8.000000 -13.000000 -1.000000 121.784637 3.553124 908.169297 272.784285 21.074494 0.000000 0.098439
335.000000 49.579000 -7.000000 -13.000000 -1.000000 123.801460 10.136362 782.577981 209.019077 20.160259 0.000000 0.077862
336.000000 51.539000 -6.000000 -13.000000 -1.000000 125.218944 17.584260 633.904734 143.983195 19.392848 0.000000 0.047540
337.000000 53.209000 -5.000000 -13.000000 -1.000000 125.823033 25.780863 455.142446 78.216178 18.784071 0.000000 0.031085
338.000000 54.476000 -4.000000 -13.000000 -1.000000 125.417862 34.469437 236.128442 12.613958 18.347038 0.000000 0.097823
341.000000 46.925000 -9.000000 -12.000000 -1.000000 116.869199 -5.701362 1082.454297 392.981121 21.303103 0.000000 0.118995
342.000000 49.584000 -8.000000 -12.000000 -1.000000 119.646848 -0.161844 978.040224 328.412737 20.159570 0.000000 0.110206
343.000000 52.178000 -7.000000 -12.000000 -1.000000 122.084949 6.327171 855.659344 262.100481 19.156615 0.000000 0.093825
344.000000 54.600000 -6.000000 -12.000000 -1.000000 123.963587 13.820033 710.237720 194.412024 18.306040 0.000000 0.066884
345.000000 56.722000 -5.000000 -12.000000 -1.000000 125.024519 22.253833 534.592328 125.977181 17.621002 0.000000 0.030750
346.000000 58.394000 -4.000000 -12.000000 -1.000000 125.008342 31.392982 318.208109 57.858002 17.116223 0.000000 0.062834
347.000000 59.464000 -3.000000 -12.000000 -1.000000 123.714579 40.827908 45.052463 -8.143536 16.808219 0.000000 0.173348
349.000000 45.563000 -10.000000 -11.000000 -1.000000 110.671375 -13.769842 1238.762617 522.900352 21.941993 0.000000 0.125212
350.000000 48.621000 -9.000000 -11.000000 -1.000000 113.891289 -9.330216 1151.832823 457.855947 20.560722 0.000000 0.124939
351.000000 51.761000 -8.000000 -11.000000 -1.000000 117.025354 -4.030681 1050.841013 390.639324 19.312749 0.000000 0.120117
352.000000 54.893000 -7.000000 -11.000000 -1.000000 119.905477 2.283879 932.074863 321.474297 18.209775 0.000000 0.108403
353.000000 57.895000 -6.000000 -11.000000 -1.000000 122.295582 9.732914 790.389237 250.776443 17.264910 0.000000 0.086497
354.000000 60.603000 -5.000000 -11.000000 -1.000000 123.894158 18.329199 618.441110 179.273620 16.492896 0.000000 0.050525
355.000000 62.820000 -4.000000 -11.000000 -1.000000 124.367372 27.889849 405.375635 108.216842 15.910363 0.000000 0.032149
356.000000 64.334000 -3.000000 -11.000000 -1.000000 123.422332 37.988929 134.441618 39.768443 15.536150 0.000000 0.127549
358.000000 46.681000 -10.000000 -10.000000 -1.000000 106.900473 -17.161194 1307.370078 598.749555 21.418059 0.000000 0.125535
359.000000 50.199000 -9.000000 -10.000000 -1.000000 110.358956 -13.023954 1223.956110 531.061889 19.915890 0.000000 0.128394
360.000000 53.892000 -8.000000 -10.000000 -1.000000 113.830349 -8.025922 1126.759897 460.914060 18.550071 0.000000 0.127621
361.000000 57.671000 -7.000000 -10.000000 -1.000000 117.157413 -1.971980 1012.058033 388.543590 17.333539 0.000000 0.120900
362.000000 61.396000 -6.000000 -10.000000 -1.000000 120.099076 5.326496 874.653163 314.411535 16.280920 0.000000 0.104873
363.000000 64.868000 -5.000000 -10.000000 -1.000000 122.317684 13.979208 707.064524 239.349506 15.408819 0.000000 0.074643
364.000000 67.827000 -4.000000 -10.000000 -1.000000 123.398352 23.897010 498.119222 164.821248 14.736158 0.000000 0.027919
365.000000 69.971000 -3.000000 -10.000000 -1.000000 122.927718 34.677854 230.353811 93.413294 14.284604 0.000000 0.081517
367.000000 47.543000 -10.000000 -9.000000 -1.000000 102.550258 -20.553068 1378.546572 685.112729 21.031319 0.000000 0.123318
368.000000 51.557000 -9.000000 -9.000000 -1.000000 106.194803 -16.753052 1298.990330 614.557975 19.392736 0.000000 0.128925
369.000000 55.874000 -8.000000 -9.000000 -1.000000 109.961780 -12.113440 1206.001582 541.171217 17.893040 0.000000 0.132099
370.000000 60.417000 -7.000000 -9.000000 -1.000000 113.716730 -6.407304 1095.864672 465.192928 16.546571 0.000000 0.130548
371.000000 65.039000 -6.000000 -9.000000 -1.000000 117.229698 0.619925 963.354333 387.122053 15.369713 0.000000 0.120957
372.000000 69.506000 -5.000000 -9.000000 -1.000000 120.142753 9.189418 800.882349 307.895179 14.381271 0.000000 0.098266
373.000000 73.480000 -4.000000 -9.000000 -1.000000 121.962849 19.351931 596.991595 229.211317 13.602939 0.000000 0.054917
374.000000 76.534000 -3.000000 -9.000000 -1.000000 122.128530 30.794884 333.530093 154.153941 13.059873 0.000000 0.037043
375.000000 78.203000 -2.000000 -9.000000 -1.000000 120.182783 42.754577 -20.075659 88.470548 12.781411 0.000000 0.180803
377.000000 48.035000 -10.000000 -8.000000 -1.000000 97.564999 -23.921852 1452.439152 784.628401 20.817502 0.000000 0.118829
378.000000 52.560000 -9.000000 -8.000000 -1.000000 101.320002 -20.486239 1377.115342 710.998250 19.024057 0.000000 0.126254
379.000000 57.558000 -8.000000 -8.000000 -1.000000 105.311753 -16.253823 1288.789098 634.053599 17.371169 0.000000 0.132893
380.000000 62.979000 -7.000000 -8.000000 -1.000000 109.441499 -10.977697 1183.775657 554.019289 15.874752 0.000000 0.136444
381.000000 68.693000 -6.000000 -8.000000 -1.000000 113.511021 -4.349001 1056.852714 471.415641 14.553216 0.000000 0.133643
382.000000 74.444000 -5.000000 -8.000000 -1.000000 117.168696 3.966789 900.365055 387.276479 13.427980 0.000000 0.119501
383.000000 79.813000 -4.000000 -8.000000 -1.000000 119.862732 14.201734 702.621027 303.552855 12.524106 0.000000 0.085887
384.000000 84.201000 -3.000000 -8.000000 -1.000000 120.866128 26.224397 444.828185 223.904643 11.871114 0.000000 0.022447
385.000000 86.888000 -2.000000 -8.000000 -1.000000 119.467643 39.278502 94.737528 155.373703 11.504016 0.000000 0.118079
387.000000 48.021000 -10.000000 -7.000000 -1.000000 91.895759 -27.244881 1529.206308 900.929950 20.825921 0.000000 0.113555
388.000000 53.035000 -9.000000 -7.000000 -1.000000 95.659354 -24.192041 1458.526133 824.073840 18.855606 0.000000 0.120738
389.000000 58.730000 -8.000000 -7.000000 -1.000000 99.769527 -20.404472 1375.365888 743.274839 17.026095 0.000000 0.129532
390.000000 65.117000 -7.000000 -7.000000 -1.000000 104.175338 -15.629296 1276.100065 658.710895 15.355034 0.000000 0.137566
391.000000 72.118000 -6.000000 -7.000000 -1.000000 108.733554 -9.522701 1155.548292 570.891784 13.863150 0.000000 0.141570
392.000000 79.500000 -5.000000 -7.000000 -1.000000 113.136327 -1.652025 1006.041697 480.923582 12.574948 0.000000 0.136663
393.000000 86.777000 -4.000000 -7.000000 -1.000000 116.816478 8.417816 815.724704 391.010961 11.519612 0.000000 0.114834
394.000000 47.342000 -10.000000 -6.000000 -1.000000 85.506538 -30.501317 1609.019110 1039.167246 21.126611 0.000000 0.111935
395.000000 52.768000 -9.000000 -6.000000 -1.000000 89.149006 -27.840342 1543.434448 959.079670 18.953181 0.000000 0.114746
396.000000 59.110000 -8.000000 -6.000000 -1.000000 93.230408 -24.522152 1465.998206 874.230214 16.918512 0.000000 0.122522
397.000000 66.479000 -7.000000 -6.000000 -1.000000 97.755995 -20.302129 1373.178806 784.697965 15.042079 0.000000 0.133085
398.000000 74.915000 -6.000000 -6.000000 -1.000000 102.659352 -14.825752 1259.886793 690.923391 13.347180 0.000000 0.143072
399.000000 84.287000 -5.000000 -6.000000 -1.000000 107.721249 -7.594822 1118.509328 594.026982 11.861923 0.000000 0.147609
400.000000 45.838000 -10.000000 -5.000000 -1.000000 78.382056 -33.672851 1692.062473 1206.895558 21.822487 0.000000 0.123382
401.000000 51.519000 -9.000000 -5.000000 -1.000000 81.747272 -31.403792 1632.070621 1123.899337 19.414956 0.000000 0.115844
402.000000 58.352000 -8.000000 -5.000000 -1.000000 85.609950 -28.565648 1560.977845 1035.080792 17.140488 0.000000 0.115990
403.000000 66.584000 -7.000000 -5.000000 -1.000000 90.032133 -24.934575 1475.388829 940.334349 15.020300 0.000000 0.123809
404.000000 76.453000 -6.000000 -5.000000 -1.000000 95.037635 -20.170325 1370.366409 839.925298 13.080372 0.000000 0.136625
405.000000 88.078000 -5.000000 -5.000000 -1.000000 100.538199 -13.753855 1238.444282 734.867726 11.352866 0.000000 0.149453
406.000000 49.052000 -9.000000 -4.000000 -1.000000 73.448255 -34.858885 1724.685668 1330.818684 20.394189 0.000000 0.139244
407.000000 56.076000 -8.000000 -4.000000 -1.000000 76.864258 -32.498114 1660.625282 1238.802567 17.838741 0.000000 0.123873
408.000000 64.838000 -7.000000 -4.000000 -1.000000 80.891678 -29.468133 1583.148014 1139.195407 15.427302 0.000000 0.117896
409.000000 75.840000 -6.000000 -4.000000 -1.000000 85.639577 -25.464416 1487.545758 1031.899143 13.188196 0.000000 0.123822
410.000000 89.634000 -5.000000 -4.000000 -1.000000 91.171488 -19.994204 1366.615788 917.579022 11.157691 0.000000 0.139189
411.000000 51.940000 -8.000000 -3.000000 -1.000000 67.015091 -36.288814 1765.293284 1507.377745 19.262253 0.000000 0.170471
412.000000 60.619000 -7.000000 -3.000000 -1.000000 70.303014 -33.851604 1696.920881 1404.953170 16.503610 0.000000 0.142931
413.000000 71.984000 -6.000000 -3.000000 -1.000000 74.321176 -30.621083 1612.053325 1292.056737 13.897356 0.000000 0.123766
414.000000 87.116000 -5.000000 -3.000000 -1.000000 79.256820 -26.169994 1503.902487 1168.532624 11.482586 0.000000 0.121265
415.000000 45.752000 -8.000000 -2.000000 -1.000000 56.174438 -39.914077 1875.371086 1881.292984 21.870182 0.000000 0.274517
416.000000 53.476000 -7.000000 -2.000000 -1.000000 58.363366 -38.044006 1817.225285 1782.978329 18.711015 0.000000 0.235030
417.000000 63.878000 -6.000000 -2.000000 -1.000000 61.114723 -35.566471 1744.598745 1670.967328 15.663691 0.000000 0.192407
418.000000 78.381000 -5.000000 -2.000000 -1.000000 64.641230 -32.144082 1651.312600 1543.463180 12.764950 0.000000 0.150028
421.000000 78.230000 -4.000000 -1.000000 -1.000000 49.318732 -34.245640 1707.702834 2060.175700 12.792054 0.000000 0.267332
424.000000 46.362000 -7.000000 -15.000000 0.000000 132.968691 16.679253 652.521012 -105.595579 21.556165 0.000000 0.035313
425.000000 47.698000 -2.000000 -5.000000 0.000000 133.785808 24.884625 475.751846 -196.198420 6.984025 0.000000 0.076144
428.000000 47.019000 -4.000000 -7.000000 0.000000 130.301818 5.415143 872.973234 24.085210 10.627849 0.000000 0.050466
429.000000 48.873000 -2.000000 -4.000000 0.000000 132.278381 12.861126 729.264127 -62.793050 5.842456 0.000000 0.033299
430.000000 50.522000 -3.000000 -7.000000 0.000000 133.535604 21.284484 555.706126 -156.497792 9.890496 0.000000 0.053467
431.000000 51.879000 -5.000000 -14.000000 0.000000 133.848812 30.464112 341.921952 -258.483051 19.263126 0.000000 0.122690
433.000000 46.975000 -9.000000 -13.000000 0.000000 125.923627 -4.886823 1067.021631 158.371342 21.276897 0.000000 0.075211
434.000000 49.333000 -8.000000 -13.000000 0.000000 128.825087 1.344323 949.742423 74.622558 20.259230 0.000000 0.061397
435.000000 51.580000 -7.000000 -13.000000 0.000000 131.288814 8.723916 809.844026 -15.238429 19.376009 0.000000 0.041447
436.000000 53.622000 -6.000000 -13.000000 0.000000 133.059485 17.284825 640.084348 -112.320223 18.637499 0.000000 0.036800
437.000000 55.351000 -5.000000 -13.000000 0.000000 133.853113 26.866309 429.760275 -218.162025 18.055041 0.000000 0.091112
440.000000 46.156000 -5.000000 -6.000000 0.000000 120.096643 -13.788883 1239.141805 298.666580 10.828369 0.000000 0.086137
441.000000 48.946000 -3.000000 -4.000000 0.000000 123.583487 -8.884690 1143.248545 217.679831 6.806997 0.000000 0.081541
442.000000 51.749000 -4.000000 -6.000000 0.000000 126.925797 -2.930323 1030.093804 131.078352 9.656921 0.000000 0.071352
443.000000 54.478000 -7.000000 -12.000000 0.000000 129.918393 4.274443 894.555816 37.979319 18.345522 0.000000 0.053618
444.000000 59.232000 -5.000000 -12.000000 0.000000 133.659057 22.770778 523.213336 -172.873217 16.871992 0.000000 0.062084
445.000000 47.654000 -10.000000 -11.000000 0.000000 116.918291 -17.504473 1314.446652 367.998968 20.976948 0.000000 0.087055
446.000000 50.901000 -9.000000 -11.000000 0.000000 120.734383 -12.966028 1222.810022 284.326300 19.637677 0.000000 0.085626
447.000000 54.232000 -8.000000 -11.000000 0.000000 124.516636 -7.373711 1114.284093 194.651034 18.430386 0.000000 0.079406
448.000000 57.551000 -7.000000 -11.000000 0.000000 128.067665 -0.464495 983.725666 98.030196 17.366335 0.000000 0.065845
449.000000 60.724000 -6.000000 -11.000000 0.000000 131.089313 8.003622 823.667317 -6.790027 16.458101 0.000000 0.043343
450.000000 63.574000 -5.000000 -11.000000 0.000000 133.176265 18.118060 622.837261 -121.552639 15.719779 0.000000 0.039343
451.000000 65.889000 -4.000000 -11.000000 0.000000 133.864609 29.607917 363.383033 -248.820203 15.167215 0.000000 0.114645
453.000000 45.490000 -11.000000 -10.000000 0.000000 109.270253 -24.565581 1466.984115 527.265557 21.977518 0.000000 0.082669
454.000000 49.009000 -3.000000 -3.000000 0.000000 113.189553 -21.217808 1392.851934 446.403972 6.119479 0.000000 0.085664
455.000000 52.770000 -9.000000 -10.000000 0.000000 117.297489 -17.091168 1305.929763 359.879571 18.943071 0.000000 0.087067
456.000000 56.719000 -4.000000 -5.000000 0.000000 121.498592 -11.939973 1202.595137 266.898134 8.811508 0.000000 0.084839
457.000000 60.758000 -7.000000 -10.000000 0.000000 125.617656 -5.451452 1077.715003 166.443915 16.450532 0.000000 0.076236
458.000000 64.732000 -3.000000 -5.000000 0.000000 129.360313 2.725313 923.766680 57.170093 7.719814 0.000000 0.057805
460.000000 46.169000 -11.000000 -9.000000 0.000000 104.800389 -27.863831 1543.998873 619.328667 21.655661 0.000000 0.079132
461.000000 50.128000 -10.000000 -9.000000 0.000000 108.848752 -24.897984 1474.553149 535.929591 19.944188 0.000000 0.082310
462.000000 59.112000 -8.000000 -9.000000 0.000000 117.762063 -16.574565 1295.337067 349.883527 16.910559 0.000000 0.087042
463.000000 64.015000 -7.000000 -9.000000 0.000000 122.429233 -10.625838 1176.925406 245.262021 15.614320 0.000000 0.083592
464.000000 73.803000 -5.000000 -9.000000 0.000000 130.791496 6.980715 843.215387 5.310276 13.541643 0.000000 0.046126
465.000000 78.054000 -4.000000 -9.000000 0.000000 133.330224 19.336386 597.319609 -135.018150 12.803646 0.000000 0.044007
467.000000 46.494000 -11.000000 -8.000000 0.000000 99.739698 -31.092406 1624.067672 725.264539 21.506363 0.000000 0.077936
468.000000 50.893000 -5.000000 -4.000000 0.000000 103.836688 -28.515723 1559.762587 639.306260 9.823060 0.000000 0.078568
469.000000 55.814000 -9.000000 -8.000000 0.000000 108.326040 -25.303550 1483.843563 546.673759 17.912426 0.000000 0.081864
470.000000 67.178000 -7.000000 -8.000000 0.000000 118.344235 -15.910530 1281.804347 337.274803 14.879942 0.000000 0.086943
471.000000 79.694000 -5.000000 -8.000000 0.000000 128.481656 0.504741 965.518248 85.406157 12.541099 0.000000 0.063500
472.000000 90.251000 -3.000000 -8.000000 0.000000 133.870096 28.117805 399.882473 -232.109562 11.073118 0.000000 0.101442
473.000000 46.349000 -11.000000 -7.000000 0.000000 94.056129 -34.233744 1707.375848 848.684927 21.575453 0.000000 0.084661
474.000000 51.156000 -10.000000 -7.000000 0.000000 98.101194 -32.044690 1648.711170 760.259079 19.546977 0.000000 0.078803
475.000000 56.667000 -9.000000 -7.000000 0.000000 102.626279 -29.308465 1579.197283 664.509771 17.644589 0.000000 0.078044
476.000000 62.947000 -8.000000 -7.000000 0.000000 107.660867 -25.809360 1495.517926 560.349727 15.882880 0.000000 0.081303
477.000000 77.777000 -6.000000 -7.000000 0.000000 119.094538 -15.025734 1263.910356 320.874243 12.852066 0.000000 0.086697
478.000000 85.972000 -5.000000 -7.000000 0.000000 125.043847 -6.473593 1097.125779 181.298562 11.625938 0.000000 0.077984
479.000000 45.612000 -11.000000 -6.000000 0.000000 87.730684 -37.273296 1794.124048 994.598265 21.926562 0.000000 0.106002
480.000000 50.746000 -5.000000 -3.000000 0.000000 91.603475 -35.462487 1741.650539 904.009078 9.853503 0.000000 0.091128
481.000000 56.781000 -3.000000 -2.000000 0.000000 96.021362 -33.197288 1679.234472 805.328233 5.870367 0.000000 0.081104
482.000000 63.871000 -4.000000 -3.000000 0.000000 101.062195 -30.292804 1603.754270 697.302073 7.827365 0.000000 0.077755
483.000000 72.153000 -7.000000 -6.000000 0.000000 106.786185 -26.457705 1510.628885 578.347837 13.856608 0.000000 0.080585
484.000000 49.480000 -4.000000 -2.000000 0.000000 84.326287 -38.751229 1838.855435 1078.112100 8.085405 0.000000 0.123622
485.000000 55.889000 -9.000000 -5.000000 0.000000 88.465408 -36.940975 1784.308871 977.076110 17.894533 0.000000 0.102747
486.000000 63.652000 -8.000000 -5.000000 0.000000 93.300761 -34.619518 1718.026955 865.571830 15.710811 0.000000 0.086409
487.000000 73.079000 -7.000000 -5.000000 0.000000 98.966504 -31.546883 1635.766004 741.726516 13.682840 0.000000 0.078250
488.000000 84.476000 -6.000000 -5.000000 0.000000 105.585387 -27.318446 1530.955789 603.103339 11.835469 0.000000 0.079668
489.000000 47.188000 -5.000000 -2.000000 0.000000 76.283412 -41.897723 1940.626409 1293.934264 10.598991 0.000000 0.180826
490.000000 53.714000 -9.000000 -4.000000 0.000000 79.950120 -40.517498 1894.810769 1191.913039 18.621396 0.000000 0.152114
491.000000 72.114000 -7.000000 -4.000000 0.000000 89.603878 -36.415961 1768.975474 950.246863 13.868149 0.000000 0.098101
492.000000 50.029000 -3.000000 -1.000000 0.000000 70.520930 -43.911902 2011.171841 1469.442054 6.665295 0.000000 0.234871
493.000000 58.048000 -8.000000 -3.000000 0.000000 74.158393 -42.661010 1966.820528 1356.304481 17.232585 0.000000 0.199469
494.000000 68.509000 -7.000000 -3.000000 0.000000 78.657193 -41.013826 1911.064427 1227.131901 14.600409 0.000000 0.161740
495.000000 51.977000 -4.000000 -1.000000 0.000000 62.914450 -46.332914 2102.573749 1738.178055 9.624218 0.000000 0.324288
496.000000 61.656000 -7.000000 -2.000000 0.000000 66.225466 -45.308603 2062.951307 1615.163395 16.226241 0.000000 0.282657
503.000000 46.037000 -8.000000 -15.000000 1.000000 137.983809 7.710633 829.275900 -264.567160 21.706573 0.000000 0.024303
504.000000 47.594000 -7.000000 -15.000000 1.000000 139.808219 16.229854 661.699374 -385.871180 20.996031 0.000000 0.062878
507.000000 46.349000 -9.000000 -14.000000 1.000000 134.184020 -3.885977 1048.109747 -107.477097 21.561656 0.000000 0.029158
508.000000 48.377000 -8.000000 -14.000000 1.000000 137.104354 3.220770 914.434425 -219.239736 20.656868 0.000000 0.017711
509.000000 50.264000 -7.000000 -14.000000 1.000000 139.467212 11.734512 751.433970 -344.587531 19.880794 0.000000 0.041084
512.000000 45.983000 -10.000000 -13.000000 1.000000 128.771853 -13.811944 1239.601139 50.765848 21.734929 0.000000 0.041596
513.000000 48.445000 -9.000000 -13.000000 1.000000 132.424210 -8.334839 1132.682780 -53.126166 20.629239 0.000000 0.034373
514.000000 50.864000 -8.000000 -13.000000 1.000000 135.856262 -1.547238 1004.071743 -168.358819 19.647509 0.000000 0.021109
515.000000 53.158000 -7.000000 -13.000000 1.000000 138.818395 6.812535 846.420848 -297.985535 18.798748 0.000000 0.022814
518.000000 47.712000 -10.000000 -12.000000 1.000000 126.140709 -17.920185 1323.052367 114.903560 20.948106 0.000000 0.040455
519.000000 50.595000 -9.000000 -12.000000 1.000000 130.197253 -12.894366 1221.392915 8.022510 19.753465 0.000000 0.037174
520.000000 53.481000 -8.000000 -12.000000 1.000000 134.154323 -6.548474 1098.550728 -110.844822 18.686297 0.000000 0.027564
521.000000 56.279000 -7.000000 -12.000000 1.000000 137.766507 1.483040 947.135044 -244.991006 17.756479 0.000000 0.013507
522.000000 58.868000 -6.000000 -12.000000 1.000000 140.666115 11.508234 755.864373 -399.335183 16.974937 0.000000 0.044633
525.000000 46.162000 -11.000000 -11.000000 1.000000 118.721773 -25.595258 1490.564290 287.040189 21.653869 0.000000 0.033209
526.000000 49.385000 -10.000000 -11.000000 1.000000 122.991080 -22.021415 1410.319132 187.297231 20.239227 0.000000 0.035763
527.000000 52.754000 -9.000000 -11.000000 1.000000 127.425527 -17.509541 1314.551330 77.334480 18.945740 0.000000 0.036409
528.000000 56.199000 -8.000000 -11.000000 1.000000 131.901614 -11.719636 1198.274546 -45.319898 17.783188 0.000000 0.032001
529.000000 59.618000 -7.000000 -11.000000 1.000000 136.196080 -4.203841 1054.110660 -184.222918 16.762438 0.000000 0.018762
530.000000 62.866000 -6.000000 -11.000000 1.000000 139.935309 5.537149 870.660292 -344.739849 15.895591 0.000000 0.020505
533.000000 47.260000 -11.000000 -10.000000 1.000000 114.777733 -29.181892 1576.074207 371.965737 21.152093 0.000000 0.025417
534.000000 50.935000 -10.000000 -10.000000 1.000000 119.260221 -26.074155 1501.669237 269.670014 19.624654 0.000000 0.027280
535.000000 54.855000 -9.000000 -10.000000 1.000000 124.026336 -22.121175 1412.501209 156.567908 18.220747 0.000000 0.031050
536.000000 58.960000 -8.000000 -10.000000 1.000000 128.990597 -16.982288 1303.692401 30.002543 16.951084 0.000000 0.032216
537.000000 63.141000 -7.000000 -10.000000 1.000000 133.971269 -10.163613 1167.950342 -113.876033 15.827654 0.000000 0.026003
538.000000 67.230000 -6.000000 -10.000000 1.000000 138.621601 -1.004027 993.862456 -280.932042 14.863917 0.000000 0.007779
541.000000 48.112000 -11.000000 -9.000000 1.000000 110.258833 -32.676089 1665.334515 469.053490 20.779098 0.000000 0.025774
542.000000 52.267000 -10.000000 -9.000000 1.000000 114.885527 -30.039804 1597.396143 364.262641 19.125674 0.000000 0.017877
543.000000 56.801000 -9.000000 -9.000000 1.000000 119.913912 -26.670351 1515.621972 248.025698 17.597728 0.000000 0.020236
544.000000 61.670000 -8.000000 -9.000000 1.000000 125.305154 -22.249211 1415.306303 117.481329 16.207013 0.000000 0.026554
545.000000 66.775000 -7.000000 -9.000000 1.000000 130.937411 -16.280684 1289.336633 -31.545319 14.966795 0.000000 0.028706
546.000000 71.935000 -6.000000 -9.000000 1.000000 136.528181 -8.008666 1126.429311 -205.476901 13.892107 0.000000 0.019175
547.000000 76.867000 -5.000000 -9.000000 1.000000 141.502722 3.586151 907.546485 -414.874282 13.000054 0.000000 0.016312
549.000000 48.616000 -11.000000 -8.000000 1.000000 105.124780 -36.056540 1758.597478 581.162348 20.565348 0.000000 0.044411
550.000000 53.260000 -10.000000 -8.000000 1.000000 109.807501 -33.884682 1697.822128 474.043840 18.770498 0.000000 0.025443
551.000000 58.450000 -9.000000 -8.000000 1.000000 115.002540 -31.102809 1624.334188 354.784318 17.102388 0.000000 0.009255
552.000000 64.181000 -8.000000 -8.000000 1.000000 120.723818 -27.432765 1533.679062 220.296279 15.573919 0.000000 0.013196
553.000000 70.386000 -7.000000 -8.000000 1.000000 126.924447 -22.419527 1419.045674 66.044504 14.199804 0.000000 0.024615
554.000000 76.893000 -6.000000 -8.000000 1.000000 133.421971 -15.301484 1269.470767 -115.018217 12.996901 0.000000 0.027884
555.000000 83.381000 -5.000000 -8.000000 1.000000 139.744160 -4.838425 1066.105894 -334.653169 11.984611 0.000000 0.011283
557.000000 48.653000 -11.000000 -7.000000 1.000000 99.343743 -39.306434 1856.138505 712.128366 20.551740 0.000000 0.077675
558.000000 53.761000 -10.000000 -7.000000 1.000000 103.974171 -37.581407 1803.301901 603.032557 18.597336 0.000000 0.054744
559.000000 59.615000 -9.000000 -7.000000 1.000000 109.211475 -35.372499 1739.105300 481.048558 16.769865 0.000000 0.031652
560.000000 66.274000 -8.000000 -7.000000 1.000000 115.124979 -32.453351 1659.443775 342.838994 15.083479 0.000000 0.010316
561.000000 73.742000 -7.000000 -7.000000 1.000000 121.752559 -28.441738 1557.963813 183.469946 13.554511 0.000000 0.014920
562.000000 81.908000 -6.000000 -7.000000 1.000000 129.039995 -22.657203 1424.279342 -4.801841 12.201920 0.000000 0.030114
563.000000 90.455000 -5.000000 -7.000000 1.000000 136.695370 -13.840448 1240.169030 -235.098107 11.047834 0.000000 0.032167
566.000000 48.090000 -11.000000 -6.000000 1.000000 92.897202 -42.413558 1958.258864 867.221946 20.794484 0.000000 0.124188
567.000000 53.589000 -10.000000 -6.000000 1.000000 97.347326 -41.109535 1914.226797 756.808017 18.659246 0.000000 0.098765
568.000000 60.052000 -9.000000 -6.000000 1.000000 102.472548 -39.443784 1860.456352 632.721282 16.649496 0.000000 0.072549
569.000000 67.638000 -8.000000 -6.000000 1.000000 108.395473 -37.246019 1793.315162 491.350271 14.780694 0.000000 0.046914
570.000000 76.477000 -7.000000 -6.000000 1.000000 115.241379 -34.223993 1707.107892 327.323550 13.070949 0.000000 0.028067
571.000000 86.601000 -6.000000 -6.000000 1.000000 123.100364 -29.838860 1592.369333 132.129400 11.541609 0.000000 0.032215
572.000000 97.806000 -5.000000 -6.000000 1.000000 131.918601 -23.012036 1432.126674 -108.881195 10.218024 0.000000 0.046850
573.000000 109.443000 -4.000000 -6.000000 1.000000 141.182956 -11.430475 1192.614804 -423.896434 9.130524 0.000000 0.039550
575.000000 46.793000 -11.000000 -5.000000 1.000000 85.785771 -45.370083 2065.288791 1053.888337 21.373012 0.000000 0.186169
576.000000 52.545000 -10.000000 -5.000000 1.000000 89.910736 -44.455503 2031.029621 943.349154 19.032130 0.000000 0.159152
577.000000 59.476000 -9.000000 -5.000000 1.000000 94.741246 -43.292146 1988.969896 818.357251 16.812787 0.000000 0.130593
578.000000 67.872000 -8.000000 -5.000000 1.000000 100.444576 -41.764035 1936.103149 675.006991 14.731717 0.000000 0.101227
579.000000 78.052000 -7.000000 -5.000000 1.000000 107.226082 -39.671420 1867.650172 507.457253 12.808873 0.000000 0.073755
580.000000 90.315000 -6.000000 -5.000000 1.000000 115.320036 -36.641145 1775.526511 306.367093 11.068241 0.000000 0.057071
581.000000 104.779000 -5.000000 -5.000000 1.000000 124.936540 -31.898221 1644.887817 55.411396 9.538911 0.000000 0.063643
582.000000 121.035000 -4.000000 -5.000000 1.000000 136.056549 -23.598914 1445.197112 -277.654664 8.256515 0.000000 0.077505
584.000000 50.441000 -10.000000 -4.000000 1.000000 81.679853 -47.612043 2154.190300 1174.481488 19.828507 0.000000 0.240624
585.000000 57.585000 -9.000000 -4.000000 1.000000 86.011401 -46.903633 2125.299341 1050.841341 17.367448 0.000000 0.211190
586.000000 66.499000 -8.000000 -4.000000 1.000000 91.225131 -45.979285 2088.729268 907.877492 15.037935 0.000000 0.179796
587.000000 77.744000 -7.000000 -4.000000 1.000000 97.585383 -44.723316 2040.949213 739.274156 12.861614 0.000000 0.147660
588.000000 92.017000 -6.000000 -4.000000 1.000000 105.447726 -42.920488 1975.871815 534.847003 10.865159 0.000000 0.119090
589.000000 110.068000 -5.000000 -4.000000 1.000000 115.271241 -40.121926 1882.028096 276.533017 9.081819 0.000000 0.105896
590.000000 132.313000 -4.000000 -4.000000 1.000000 127.563708 -35.224551 1734.932987 -72.312331 7.553572 0.000000 0.120370
593.000000 54.116000 -9.000000 -3.000000 1.000000 76.331869 -50.273428 2270.180067 1350.525992 18.483624 0.000000 0.322948
594.000000 63.051000 -8.000000 -3.000000 1.000000 80.761354 -49.880247 2252.246575 1212.679345 15.863027 0.000000 0.292712
595.000000 74.725000 -7.000000 -3.000000 1.000000 86.285403 -49.351578 2228.588409 1048.268183 13.383502 0.000000 0.260283
596.000000 90.300000 -6.000000 -3.000000 1.000000 93.326403 -48.602971 2195.943853 846.400064 11.073900 0.000000 0.227686
597.000000 111.443000 -5.000000 -3.000000 1.000000 102.519617 -47.461662 2147.992376 587.500214 8.971515 0.000000 0.201930
598.000000 140.289000 -4.000000 -3.000000 1.000000 114.816002 -45.511135 2070.670859 230.806725 7.125414 0.000000 0.201635
616.000000 47.345000 -9.000000 -14.000000 2.000000 140.427020 -7.639309 1119.359940 -372.927900 21.106358 0.000000 0.021860
618.000000 47.063000 -10.000000 -13.000000 2.000000 134.552259 -18.433901 1333.742894 -175.912672 21.234577 0.000000 0.040063
619.000000 49.548000 -9.000000 -13.000000 2.000000 138.750507 -12.803427 1219.595765 -317.593883 20.168502 0.000000 0.035986
623.000000 46.048000 -11.000000 -12.000000 2.000000 127.404610 -26.833915 1519.475259 18.654342 21.704663 0.000000 0.040142
624.000000 51.818000 -9.000000 -12.000000 2.000000 136.562921 -18.040524 1325.551013 -254.445710 19.285281 0.000000 0.048560
626.000000 47.420000 -11.000000 -11.000000 2.000000 123.942709 -30.759697 1615.574460 98.002065 21.077306 0.000000 0.045824
627.000000 50.701000 -10.000000 -11.000000 2.000000 128.733690 -27.517491 1535.701016 -32.439217 19.712051 0.000000 0.053871
628.000000 54.115000 -9.000000 -11.000000 2.000000 133.784166 -23.264247 1437.729583 -181.854152 18.467415 0.000000 0.060146
629.000000 57.587000 -8.000000 -11.000000 2.000000 138.983139 -17.517862 1314.723208 -356.576800 17.352886 0.000000 0.058916
632.000000 48.640000 -11.000000 -10.000000 2.000000 119.929344 -34.560399 1716.388287 188.590991 20.550218 0.000000 0.057448
633.000000 56.372000 -9.000000 -10.000000 2.000000 130.332065 -28.389545 1556.696357 -97.721423 17.728630 0.000000 0.072194
635.000000 45.749000 -12.000000 -9.000000 2.000000 110.658403 -39.852382 1873.402895 412.400198 21.851807 0.000000 0.083080
636.000000 49.622000 -11.000000 -9.000000 2.000000 115.321714 -38.210267 1822.272413 292.875736 20.144780 0.000000 0.078005
637.000000 53.875000 -10.000000 -9.000000 2.000000 120.467584 -36.110726 1760.155969 157.262090 18.553049 0.000000 0.079731
638.000000 58.493000 -9.000000 -9.000000 2.000000 126.124259 -33.340647 1683.086718 0.697234 17.086780 0.000000 0.087420
639.000000 63.423000 -8.000000 -9.000000 2.000000 132.288237 -29.539853 1584.926673 -184.211479 15.757372 0.000000 0.096931
643.000000 50.264000 -11.000000 -8.000000 2.000000 110.082069 -41.690383 1933.619211 414.068666 19.888922 0.000000 0.109480
644.000000 60.338000 -9.000000 -8.000000 2.000000 121.080756 -38.056966 1817.617894 117.059524 16.565536 0.000000 0.109917
645.000000 72.402000 -7.000000 -8.000000 2.000000 134.732019 -31.125285 1624.910201 -304.589325 13.802690 0.000000 0.131564
647.000000 45.842000 -12.000000 -7.000000 2.000000 99.671792 -45.838437 2083.264270 677.711282 21.811311 0.000000 0.166532
648.000000 50.444000 -11.000000 -7.000000 2.000000 104.181224 -44.988508 2050.862612 556.454794 19.819830 0.000000 0.153696
649.000000 55.712000 -10.000000 -7.000000 2.000000 109.299872 -43.909599 2011.088468 417.829659 17.944363 0.000000 0.145500
650.000000 61.716000 -9.000000 -7.000000 2.000000 115.127968 -42.495966 1961.102587 256.344060 16.196955 0.000000 0.144643
651.000000 68.500000 -8.000000 -7.000000 2.000000 121.772755 -40.566142 1896.393080 63.467769 14.591375 0.000000 0.152946
652.000000 76.039000 -7.000000 -7.000000 2.000000 129.333316 -37.782432 1809.330977 -174.948838 13.143443 0.000000 0.168801
655.000000 50.025000 -11.000000 -6.000000 2.000000 97.603234 -48.098437 2174.483756 725.877547 19.988127 0.000000 0.213140
656.000000 62.383000 -9.000000 -6.000000 2.000000 108.205376 -46.633055 2114.465395 425.497087 16.025560 0.000000 0.196896
659.000000 48.866000 -11.000000 -5.000000 2.000000 90.351138 -51.019069 2305.017593 930.514279 20.464554 0.000000 0.291429
660.000000 54.859000 -10.000000 -5.000000 2.000000 94.918325 -50.774683 2293.477254 794.539064 18.227204 0.000000 0.279479
661.000000 62.044000 -9.000000 -5.000000 2.000000 100.275837 -50.459331 2278.762761 634.498168 16.115054 0.000000 0.272585
662.000000 70.680000 -8.000000 -5.000000 2.000000 106.616827 -50.036883 2259.355730 440.915463 14.144592 0.000000 0.274976
680.000000 46.855000 -11.000000 -12.000000 3.000000 132.269026 -32.679132 1665.415208 -221.267613 21.329171 0.000000 0.128354
683.000000 48.296000 -11.000000 -11.000000 3.000000 128.700946 -36.834391 1781.179019 -136.378839 20.693798 0.000000 0.150316
687.000000 46.096000 -12.000000 -10.000000 3.000000 119.587775 -42.260241 1952.988055 115.276137 21.683899 0.000000 0.166995
688.000000 49.589000 -11.000000 -10.000000 3.000000 124.565356 -40.785916 1903.570725 -38.356894 20.155154 0.000000 0.177240
692.000000 50.652000 -11.000000 -9.000000 3.000000 119.824526 -44.513669 2033.176308 75.727186 19.733314 0.000000 0.211705
695.000000 47.102000 -12.000000 -8.000000 3.000000 109.491192 -48.575193 2194.751206 365.231352 21.223902 0.000000 0.247194
696.000000 51.383000 -11.000000 -8.000000 3.000000 114.445778 -48.007317 2170.652923 209.699722 19.454327 0.000000 0.256871
#UB matrix in q= (UB) B0 G* 
#[[ 0.327270859  0.859043348 -0.391267145]
# [ 0.754047906 -0.487673928 -0.439979258]
# [-0.569478305 -0.151188062 -0.808416326]]
#B0 matrix in q= UB (B0) G*
#[[ 0.19670273 -0.          0.03056101]
# [ 0.          0.19187965 -0.        ]
# [ 0.          0.          0.18806537]]
#UBB0 matrix in q= (UB B0) G* i.e. recip. basis vectors are columns in LT frame: astar = UBB0[:,0], bstar = UBB0[:,1], cstar = UBB0[:,2]. (abcstar as columns on xyzlab1, xlab1 = ui, ui = unit vector along incident beam)
#[[ 0.06437507  0.16483294 -0.06358207]
# [ 0.14832328 -0.0935747  -0.0597004 ]
# [-0.11201794 -0.02900991 -0.16943895]]
#Euler angles phi theta psi (deg)
#[284.904 143.892 138.304]
#deviatoric strain in direct crystal frame (10-3 unit)
#[[ 2.69  0.3  -0.47]
# [ 0.3   3.29 -0.55]
# [-0.47 -0.55 -5.98]]
#deviatoric strain in sample2 frame (10-3 unit)
#[[-2.56 -2.96 -3.37]
# [-2.96  1.01 -1.53]
# [-3.38 -1.53  1.55]]
#new lattice parameters
#[ 5.1505     5.2147017  5.3162888 90.0386481 99.2603169 89.9659777]
#CCDLabel
#sCMOS
#DetectorParameters
#[79.0, 975.0, 941.0, 0.0, 0.0]
#pixelsize
#0.0734
#Frame dimensions
#[2018, 2016]
#
