#Strain and Orientation Refinement from experimental file: /home/micha/LaueProjects/DepthEffects/testZrO2_159.cor
#File created at Wed Jun 28 14:27:51 2023 with indexingSpotsSet.py
#Number of indexed spots: 503
#Element
#ZrO2
#grainIndex
#G_0
#Mean Deviation(pixel): 0.114
##spot_index intensity h k l 2theta Chi Xexp Yexp Energy GrainIndex PixDev
3.000000 45.594000 10.000000 -4.000000 -15.000000 136.810338 -27.178692 1527.634226 -347.859208 21.915442 0.000000 0.112226
7.000000 45.728000 9.000000 -2.000000 -15.000000 125.386571 -37.786773 1809.461533 -26.362170 21.854367 0.000000 0.137267
9.000000 45.740000 8.000000 -1.000000 -15.000000 119.037730 -45.214513 2059.383798 92.788290 21.850491 0.000000 0.220023
14.000000 45.853000 11.000000 -5.000000 -14.000000 139.094409 -10.346685 1171.501886 -321.797452 21.790935 0.000000 0.030781
17.000000 47.669000 5.000000 -2.000000 -7.000000 136.655897 -21.202845 1392.528531 -282.177756 10.480658 0.000000 0.067969
18.000000 45.648000 11.000000 -4.000000 -14.000000 133.398127 -14.516010 1253.669507 -110.294057 21.890256 0.000000 0.026901
20.000000 49.052000 9.000000 -3.000000 -14.000000 132.563700 -31.521832 1635.118239 -218.547196 20.371441 0.000000 0.119254
21.000000 47.143000 10.000000 -3.000000 -14.000000 130.188941 -24.160956 1457.824527 -55.475118 21.196916 0.000000 0.042478
24.000000 48.115000 9.000000 -2.000000 -14.000000 125.465557 -33.225173 1679.982801 24.424061 20.770126 0.000000 0.081191
25.000000 46.226000 5.000000 -1.000000 -7.000000 123.478166 -26.521067 1512.114738 145.495265 10.809948 0.000000 0.017618
27.000000 48.368000 8.000000 -1.000000 -14.000000 119.273955 -41.362673 1922.635578 137.120634 20.663330 0.000000 0.148832
28.000000 46.743000 9.000000 -1.000000 -14.000000 118.216005 -34.581798 1716.981146 239.579689 21.382228 0.000000 0.046638
30.000000 47.722000 2.000000 0.000000 -4.000000 111.771268 -48.435093 2188.755980 293.099852 5.984366 0.000000 0.252330
31.000000 46.479000 8.000000 0.000000 -14.000000 111.645017 -41.850325 1939.020579 367.608750 21.505464 0.000000 0.116920
38.000000 47.539000 11.000000 -5.000000 -13.000000 137.731701 -3.711370 1044.815315 -245.636106 21.018505 0.000000 0.011030
41.000000 49.774000 10.000000 -4.000000 -13.000000 136.002756 -14.773147 1258.829640 -211.749075 20.075341 0.000000 0.033863
42.000000 47.374000 11.000000 -4.000000 -13.000000 132.127036 -8.598535 1137.746057 -43.494942 21.093274 0.000000 0.035588
45.000000 51.588000 9.000000 -3.000000 -13.000000 132.524382 -25.726943 1493.608939 -154.698190 19.370008 0.000000 0.068566
46.000000 49.258000 10.000000 -3.000000 -13.000000 129.483929 -18.545000 1336.063235 5.712800 20.287243 0.000000 0.028042
47.000000 46.829000 11.000000 -3.000000 -13.000000 126.092013 -12.604002 1215.659212 137.007521 21.340756 0.000000 0.060558
49.000000 52.733000 8.000000 -2.000000 -13.000000 127.198984 -35.837855 1752.329417 -66.702906 18.950751 0.000000 0.125345
50.000000 50.608000 9.000000 -2.000000 -13.000000 125.208010 -28.186709 1551.782522 79.352388 19.747336 0.000000 0.034042
51.000000 48.294000 10.000000 -2.000000 -13.000000 122.643920 -21.563188 1400.335338 199.631787 20.694477 0.000000 0.041075
52.000000 45.885000 11.000000 -2.000000 -13.000000 119.724816 -15.916366 1281.922896 301.976362 21.782140 0.000000 0.082902
54.000000 52.936000 7.000000 -1.000000 -13.000000 120.121679 -44.666843 2038.849854 62.984619 18.879808 0.000000 0.216005
55.000000 51.175000 8.000000 -1.000000 -13.000000 119.269329 -37.042542 1787.299549 185.250111 19.530010 0.000000 0.083780
56.000000 49.119000 9.000000 -1.000000 -13.000000 117.687347 -30.135703 1599.802345 287.971936 20.348266 0.000000 0.003318
57.000000 46.876000 10.000000 -1.000000 -13.000000 115.576052 -24.020394 1454.656191 377.040678 21.322622 0.000000 0.060784
60.000000 47.960000 7.000000 1.000000 -13.000000 103.457405 -44.987787 2050.835521 576.847917 20.844268 0.000000 0.151798
61.000000 46.484000 8.000000 1.000000 -13.000000 103.204838 -38.780318 1839.754264 617.047212 21.506517 0.000000 0.063464
63.000000 45.668000 6.000000 2.000000 -13.000000 94.579914 -51.063822 2307.144095 803.811289 21.893284 0.000000 0.286300
67.000000 45.841000 12.000000 -7.000000 -12.000000 139.097642 19.639671 590.908940 -378.146167 21.796710 0.000000 0.071970
70.000000 48.883000 11.000000 -6.000000 -12.000000 140.513423 9.549031 793.943138 -383.626788 20.439940 0.000000 0.032063
71.000000 46.283000 4.000000 -2.000000 -4.000000 135.317475 12.838482 729.711628 -175.192782 7.196603 0.000000 0.026960
74.000000 51.879000 10.000000 -5.000000 -12.000000 140.681350 -2.274683 1017.752103 -374.137974 19.259385 0.000000 0.010397
75.000000 49.148000 11.000000 -5.000000 -12.000000 135.710201 2.958085 919.383303 -163.784699 20.331097 0.000000 0.020500
76.000000 46.422000 12.000000 -5.000000 -12.000000 130.863162 6.878695 845.160131 3.144478 21.526302 0.000000 0.046940
77.000000 54.633000 9.000000 -4.000000 -12.000000 139.057749 -15.114381 1265.696317 -344.113903 18.288897 0.000000 0.050251
78.000000 51.860000 5.000000 -2.000000 -6.000000 134.732720 -8.013175 1126.515692 -135.813145 9.634015 0.000000 0.023561
79.000000 49.028000 11.000000 -4.000000 -12.000000 130.259464 -2.546655 1022.870127 28.643347 20.382219 0.000000 0.053699
80.000000 46.218000 3.000000 -1.000000 -3.000000 125.827323 1.719418 942.691237 163.621550 5.405727 0.000000 0.081498
82.000000 56.866000 8.000000 -3.000000 -12.000000 135.242595 -27.776533 1541.902352 -285.810333 17.571595 0.000000 0.105290
83.000000 54.191000 3.000000 -1.000000 -4.000000 131.980640 -19.381677 1353.636215 -85.621233 6.146608 0.000000 0.032350
84.000000 51.361000 10.000000 -3.000000 -12.000000 128.235671 -12.593306 1215.448242 72.049379 19.457022 0.000000 0.048597
85.000000 48.483000 11.000000 -3.000000 -12.000000 124.283318 -7.133728 1109.702983 201.536733 20.613149 0.000000 0.083864
86.000000 45.640000 4.000000 -1.000000 -4.000000 120.306007 -2.722253 1026.175702 311.202309 7.299683 0.000000 0.110379
89.000000 55.838000 4.000000 -1.000000 -6.000000 127.207988 -30.294016 1603.784810 -5.424254 8.948462 0.000000 0.065327
90.000000 53.168000 9.000000 -2.000000 -12.000000 124.503892 -22.682700 1424.841854 139.156896 18.796571 0.000000 0.027563
91.000000 50.349000 5.000000 -1.000000 -6.000000 121.321300 -16.289695 1289.520344 258.662748 9.925128 0.000000 0.073264
92.000000 47.489000 11.000000 -2.000000 -12.000000 117.895819 -10.968820 1183.602628 360.629195 21.047154 0.000000 0.108059
94.000000 56.447000 7.000000 -1.000000 -12.000000 120.402342 -40.079026 1880.650783 115.656804 17.705327 0.000000 0.135297
95.000000 54.140000 8.000000 -1.000000 -12.000000 118.927229 -32.221923 1653.353946 237.901319 18.460491 0.000000 0.025243
96.000000 51.552000 9.000000 -1.000000 -12.000000 116.748041 -25.296208 1483.674839 341.017343 19.388399 0.000000 0.046522
97.000000 48.816000 10.000000 -1.000000 -12.000000 114.107388 -19.312168 1352.169521 430.667726 20.476046 0.000000 0.093791
98.000000 46.040000 11.000000 -1.000000 -12.000000 111.203987 -14.195695 1247.258273 510.294681 21.711697 0.000000 0.125472
100.000000 53.949000 7.000000 0.000000 -12.000000 111.558772 -40.790721 1903.728163 379.331845 18.527770 0.000000 0.099474
101.000000 51.795000 4.000000 0.000000 -6.000000 110.508829 -33.742473 1693.952350 456.840810 9.649423 0.000000 0.021787
102.000000 49.364000 3.000000 0.000000 -4.000000 108.825248 -27.408569 1533.102195 527.672819 6.750134 0.000000 0.067627
103.000000 46.784000 5.000000 0.000000 -6.000000 106.703224 -21.816610 1405.848971 593.113986 10.684095 0.000000 0.108370
105.000000 52.325000 6.000000 1.000000 -12.000000 102.628431 -48.211583 2179.259500 579.133702 19.105306 0.000000 0.218125
106.000000 50.805000 7.000000 1.000000 -12.000000 102.708851 -41.357054 1922.448212 617.624049 19.677288 0.000000 0.092941
107.000000 48.872000 8.000000 1.000000 -12.000000 102.060090 -34.970834 1727.813157 660.378651 20.456416 0.000000 0.052555
108.000000 46.664000 9.000000 1.000000 -12.000000 100.841977 -29.146912 1575.212488 704.982538 21.425017 0.000000 0.084318
110.000000 48.406000 3.000000 1.000000 -6.000000 93.600155 -48.030762 2171.637281 839.737199 10.327642 0.000000 0.213727
111.000000 47.137000 7.000000 2.000000 -12.000000 93.959646 -41.818349 1937.938562 841.035068 21.211560 0.000000 0.112280
112.000000 45.475000 4.000000 1.000000 -6.000000 93.684056 -35.982977 1756.485086 855.358882 10.993877 0.000000 0.080768
117.000000 46.791000 12.000000 -7.000000 -11.000000 135.490156 25.498997 461.657088 -272.026115 21.355069 0.000000 0.085715
120.000000 50.265000 11.000000 -6.000000 -11.000000 137.468533 16.444105 657.328883 -282.312746 19.878705 0.000000 0.046251
121.000000 47.311000 12.000000 -6.000000 -11.000000 131.995038 18.655739 611.620937 -81.664110 21.121458 0.000000 0.031518
124.000000 53.799000 10.000000 -5.000000 -11.000000 138.447324 5.418610 872.907514 -278.728595 18.572576 0.000000 0.013511
125.000000 50.617000 11.000000 -5.000000 -11.000000 132.965655 9.484609 795.187307 -75.348716 19.741685 0.000000 0.032036
126.000000 47.505000 12.000000 -5.000000 -11.000000 127.775700 12.496422 736.461811 86.631057 21.036279 0.000000 0.054234
129.000000 57.191000 9.000000 -4.000000 -11.000000 137.808301 -7.232802 1111.593649 -255.856485 17.471201 0.000000 0.017669
130.000000 53.863000 10.000000 -4.000000 -11.000000 132.731278 -1.094645 995.565279 -53.445683 18.552183 0.000000 0.038776
131.000000 50.547000 11.000000 -4.000000 -11.000000 127.719774 3.507607 909.027582 106.989378 19.770750 0.000000 0.069394
132.000000 47.326000 12.000000 -4.000000 -11.000000 122.912306 7.044193 842.004931 239.087926 21.117738 0.000000 0.093104
134.000000 60.126000 8.000000 -3.000000 -11.000000 134.951286 -20.495470 1377.312961 -206.075696 16.619109 0.000000 0.052924
135.000000 56.800000 9.000000 -3.000000 -11.000000 130.784897 -12.579459 1215.175175 -10.375184 17.593302 0.000000 0.035394
136.000000 53.385000 10.000000 -3.000000 -11.000000 126.333488 -6.412496 1095.963439 144.430659 18.719756 0.000000 0.073311
137.000000 50.003000 11.000000 -3.000000 -11.000000 121.854482 -1.576590 1004.623524 271.998302 19.987644 0.000000 0.103189
138.000000 46.734000 12.000000 -3.000000 -11.000000 117.498093 2.266396 932.403810 380.323605 21.387142 0.000000 0.124342
140.000000 62.166000 7.000000 -2.000000 -11.000000 129.530733 -33.036681 1674.933735 -118.496085 16.074750 0.000000 0.110849
141.000000 59.071000 8.000000 -2.000000 -11.000000 126.711574 -24.121095 1456.925330 61.633781 16.917670 0.000000 0.024547
142.000000 55.736000 9.000000 -2.000000 -11.000000 123.224816 -16.760470 1299.142325 204.749903 17.930976 0.000000 0.061303
143.000000 52.324000 10.000000 -2.000000 -11.000000 119.407856 -10.766260 1179.657329 323.474859 19.101679 0.000000 0.101434
144.000000 48.954000 11.000000 -2.000000 -11.000000 115.494267 -5.890066 1086.035587 425.042211 20.418076 0.000000 0.128716
145.000000 45.708000 12.000000 -2.000000 -11.000000 111.632691 -1.899757 1010.699789 513.919696 21.869596 0.000000 0.146682
146.000000 62.790000 6.000000 -1.000000 -11.000000 121.583366 -43.895210 2010.567846 22.735111 15.916397 0.000000 0.210859
147.000000 60.224000 7.000000 -1.000000 -11.000000 120.334466 -34.846552 1724.341629 173.587115 16.595243 0.000000 0.063008
148.000000 57.220000 8.000000 -1.000000 -11.000000 118.124323 -26.889084 1520.777453 295.988850 17.467350 0.000000 0.027979
149.000000 53.980000 9.000000 -1.000000 -11.000000 115.286231 -20.086702 1368.584544 399.624743 18.516836 0.000000 0.084832
150.000000 50.665000 10.000000 -1.000000 -11.000000 112.096923 -14.357554 1250.495665 489.941689 19.729515 0.000000 0.121773
151.000000 47.394000 11.000000 -1.000000 -11.000000 108.761008 -9.556571 1156.202518 570.271798 21.092672 0.000000 0.145478
153.000000 55.890000 6.000000 1.000000 -11.000000 101.957528 -44.440607 2030.480576 621.746326 17.887209 0.000000 0.140569
154.000000 53.797000 7.000000 1.000000 -11.000000 101.590870 -37.313134 1795.306483 663.440375 18.583533 0.000000 0.057229
155.000000 51.285000 8.000000 1.000000 -11.000000 100.484750 -30.808915 1616.827166 709.089828 19.494377 0.000000 0.075876
156.000000 48.535000 9.000000 1.000000 -11.000000 98.841885 -24.993972 1476.746407 756.276105 20.600137 0.000000 0.111818
157.000000 45.691000 10.000000 1.000000 -11.000000 96.844292 -19.865299 1363.875975 803.642142 21.883526 0.000000 0.137063
159.000000 52.475000 5.000000 2.000000 -11.000000 91.458577 -51.447288 2325.535119 897.027608 19.054339 0.000000 0.300148
160.000000 51.312000 6.000000 2.000000 -11.000000 92.285594 -44.630590 2037.504346 880.636987 19.486101 0.000000 0.153660
161.000000 49.570000 7.000000 2.000000 -11.000000 92.317604 -38.189711 1821.647152 885.578312 20.171664 0.000000 0.089904
162.000000 47.423000 8.000000 2.000000 -11.000000 91.701701 -32.241063 1653.856427 903.195278 21.085636 0.000000 0.092798
164.000000 47.105000 5.000000 3.000000 -11.000000 81.818656 -50.967127 2302.554658 1186.708140 21.230042 0.000000 0.314611
165.000000 46.279000 6.000000 3.000000 -11.000000 82.885431 -44.785678 2043.272213 1130.275180 21.609182 0.000000 0.186319
171.000000 47.516000 12.000000 -7.000000 -10.000000 131.250750 30.786587 333.741300 -157.745120 21.030437 0.000000 0.097198
174.000000 51.429000 11.000000 -6.000000 -10.000000 133.647642 22.816862 522.194785 -172.805374 19.429506 0.000000 0.055466
175.000000 48.109000 6.000000 -3.000000 -5.000000 128.018588 24.051651 494.639865 19.541865 10.386036 0.000000 0.030408
177.000000 59.285000 9.000000 -5.000000 -10.000000 141.582034 8.754756 809.251009 -432.068834 16.853516 0.000000 0.033099
178.000000 51.869000 11.000000 -5.000000 -10.000000 129.456418 15.712737 672.209147 20.757588 19.266025 0.000000 0.037253
179.000000 48.355000 12.000000 -5.000000 -10.000000 124.033502 17.835707 628.699674 177.415460 20.667868 0.000000 0.056511
181.000000 63.600000 4.000000 -2.000000 -5.000000 141.485171 -6.140993 1090.801584 -419.173917 7.855064 0.000000 0.024787
182.000000 59.650000 9.000000 -4.000000 -10.000000 135.638534 0.833670 959.338509 -159.671719 16.751426 0.000000 0.020837
183.000000 55.692000 5.000000 -2.000000 -5.000000 129.899457 5.785066 865.957433 36.488966 8.971765 0.000000 0.054064
184.000000 51.848000 11.000000 -4.000000 -10.000000 124.447908 9.431920 796.204542 192.605776 19.275588 0.000000 0.080365
185.000000 48.196000 6.000000 -2.000000 -5.000000 119.357847 12.209047 742.119045 321.572247 10.368884 0.000000 0.100291
187.000000 67.365000 7.000000 -3.000000 -10.000000 138.534661 -22.049903 1410.941941 -373.132610 14.832541 0.000000 0.085955
188.000000 63.424000 8.000000 -3.000000 -10.000000 133.863391 -12.560832 1214.807861 -118.782607 15.755025 0.000000 0.025601
189.000000 59.322000 9.000000 -3.000000 -10.000000 128.782478 -5.477113 1078.201461 72.212456 16.845909 0.000000 0.060003
190.000000 55.240000 10.000000 -3.000000 -10.000000 123.671669 -0.138037 977.593012 223.967513 18.092191 0.000000 0.093871
191.000000 51.303000 11.000000 -3.000000 -10.000000 118.736056 3.964408 900.409997 349.450006 19.482174 0.000000 0.117711
192.000000 47.586000 12.000000 -3.000000 -10.000000 114.076097 7.184716 839.324086 456.283107 21.005306 0.000000 0.133851
193.000000 66.340000 7.000000 -2.000000 -10.000000 129.365753 -26.034330 1500.742313 -41.716245 15.063363 0.000000 0.048145
194.000000 62.352000 4.000000 -1.000000 -5.000000 125.531380 -17.372476 1311.722464 135.660548 8.013950 0.000000 0.046649
195.000000 58.218000 9.000000 -2.000000 -10.000000 121.229552 -10.509596 1174.665819 277.279717 17.167108 0.000000 0.092974
196.000000 54.125000 5.000000 -1.000000 -5.000000 116.800001 -5.082960 1070.734078 395.178141 9.233417 0.000000 0.124305
197.000000 50.195000 11.000000 -2.000000 -10.000000 112.448041 -0.756583 989.213150 496.288614 19.914406 0.000000 0.144387
198.000000 46.500000 6.000000 -1.000000 -5.000000 108.287053 2.736300 923.559823 584.913496 10.749230 0.000000 0.156623
200.000000 67.711000 6.000000 -1.000000 -10.000000 121.918863 -38.232100 1822.936912 87.509097 14.759750 0.000000 0.117934
201.000000 64.217000 7.000000 -1.000000 -10.000000 119.756348 -28.930280 1569.888726 237.955260 15.563567 0.000000 0.008295
202.000000 60.332000 8.000000 -1.000000 -10.000000 116.709183 -21.064860 1389.549184 360.684129 16.566704 0.000000 0.073118
203.000000 56.309000 9.000000 -1.000000 -10.000000 113.175888 -14.558314 1254.517624 464.950884 17.751663 0.000000 0.117058
204.000000 52.330000 10.000000 -1.000000 -10.000000 109.447729 -9.215736 1149.624993 555.999426 19.102938 0.000000 0.144200
205.000000 48.514000 11.000000 -1.000000 -10.000000 105.716310 -4.821931 1065.793853 637.061000 20.606736 0.000000 0.160320
206.000000 64.257000 6.000000 0.000000 -10.000000 111.409378 -39.328119 1856.819096 395.450694 15.555674 0.000000 0.077128
207.000000 61.018000 7.000000 0.000000 -10.000000 109.900017 -31.119887 1624.771831 485.890758 16.382203 0.000000 0.036310
208.000000 57.392000 8.000000 0.000000 -10.000000 107.593230 -23.965541 1453.421670 567.521713 17.418313 0.000000 0.093908
209.000000 53.620000 9.000000 0.000000 -10.000000 104.802767 -17.855373 1321.708035 642.182173 18.644558 0.000000 0.131125
210.000000 49.880000 4.000000 0.000000 -4.000000 101.772308 -12.687348 1217.303674 711.079295 8.017531 0.000000 0.153419
211.000000 46.288000 11.000000 0.000000 -10.000000 98.673307 -8.325990 1132.512997 775.068064 21.601001 0.000000 0.165746
213.000000 61.898000 5.000000 1.000000 -10.000000 100.810019 -48.172427 2177.604393 632.839995 16.151058 0.000000 0.214975
214.000000 59.713000 6.000000 1.000000 -10.000000 100.885292 -40.163514 1883.364968 670.163551 16.742537 0.000000 0.080246
215.000000 56.867000 7.000000 1.000000 -10.000000 99.982543 -32.828876 1669.392293 715.553046 17.580992 0.000000 0.067202
216.000000 53.635000 8.000000 1.000000 -10.000000 98.365163 -26.293426 1506.784118 764.471155 18.641302 0.000000 0.106173
217.000000 50.241000 9.000000 1.000000 -10.000000 96.278484 -20.575500 1379.027251 814.516707 19.901640 0.000000 0.134954
218.000000 46.851000 10.000000 1.000000 -10.000000 93.922798 -15.624445 1276.001812 864.363464 21.342950 0.000000 0.152173
220.000000 56.061000 5.000000 2.000000 -10.000000 90.045310 -47.967748 2168.993616 939.728779 17.836073 0.000000 0.219029
221.000000 54.330000 3.000000 1.000000 -5.000000 90.528331 -40.821109 1904.724500 927.884903 9.202255 0.000000 0.112610
222.000000 51.976000 7.000000 2.000000 -10.000000 90.178176 -34.197585 1706.382525 936.953322 19.238714 0.000000 0.092062
223.000000 49.237000 4.000000 1.000000 -5.000000 89.190990 -28.197085 1552.033423 958.244622 10.154925 0.000000 0.110753
224.000000 46.313000 9.000000 2.000000 -10.000000 87.756440 -22.848357 1428.501735 986.756841 21.593109 0.000000 0.129510
226.000000 49.667000 5.000000 3.000000 -10.000000 79.654164 -47.803768 2162.144097 1233.531851 20.135779 0.000000 0.252152
227.000000 48.427000 6.000000 3.000000 -10.000000 80.501191 -41.352078 1922.282336 1180.903490 20.651797 0.000000 0.153853
228.000000 46.609000 7.000000 3.000000 -10.000000 80.640685 -35.317255 1737.545554 1158.404620 21.457526 0.000000 0.116197
234.000000 47.951000 12.000000 -7.000000 -9.000000 126.407542 35.505143 207.140968 -34.023944 20.840663 0.000000 0.109184
236.000000 56.177000 10.000000 -6.000000 -9.000000 135.287157 28.038848 401.787774 -290.703263 17.787092 0.000000 0.104316
237.000000 52.291000 11.000000 -6.000000 -9.000000 129.061256 28.586390 388.516918 -53.734266 19.110560 0.000000 0.061447
238.000000 48.607000 4.000000 -2.000000 -3.000000 123.400652 28.985643 378.752848 129.670971 6.853519 0.000000 0.025915
240.000000 61.359000 9.000000 -5.000000 -9.000000 137.917856 17.279475 640.194584 -307.241562 16.284560 0.000000 0.052506
241.000000 56.989000 10.000000 -5.000000 -9.000000 131.251888 19.770482 588.136455 -62.073501 17.534592 0.000000 0.031719
242.000000 52.811000 11.000000 -5.000000 -9.000000 125.165433 21.527894 550.430998 125.865355 18.923441 0.000000 0.035246
243.000000 48.894000 12.000000 -5.000000 -9.000000 119.632356 22.831926 521.861675 276.727881 20.441239 0.000000 0.053760
245.000000 66.666000 8.000000 -4.000000 -9.000000 139.087419 3.511033 908.962988 -303.292433 14.988001 0.000000 0.008945
246.000000 61.882000 9.000000 -4.000000 -9.000000 132.417248 8.773119 808.897871 -54.027832 16.147918 0.000000 0.035633
247.000000 57.232000 10.000000 -4.000000 -9.000000 126.164309 12.435020 737.671612 135.402132 17.461630 0.000000 0.063453
248.000000 52.832000 11.000000 -4.000000 -9.000000 120.404639 15.110229 684.387372 286.806754 18.917414 0.000000 0.085955
249.000000 48.747000 12.000000 -4.000000 -9.000000 115.145108 17.142036 643.024072 412.307158 20.504711 0.000000 0.102857
250.000000 71.629000 7.000000 -3.000000 -9.000000 137.648851 -12.534430 1214.287332 -268.541238 13.949782 0.000000 0.032800
251.000000 66.631000 8.000000 -3.000000 -9.000000 131.753275 -4.216392 1054.347707 -22.347232 14.997270 0.000000 0.043079
252.000000 56.803000 10.000000 -3.000000 -9.000000 120.159720 6.081887 860.321445 312.054285 17.595352 0.000000 0.108689
253.000000 52.280000 11.000000 -3.000000 -9.000000 114.874328 9.388025 797.051742 435.212480 19.119131 0.000000 0.126933
254.000000 48.112000 4.000000 -1.000000 -3.000000 110.010411 11.964225 746.928895 540.335884 6.925726 0.000000 0.138574
256.000000 75.463000 6.000000 -2.000000 -9.000000 132.598478 -28.696561 1564.169940 -187.224799 13.241664 0.000000 0.092688
257.000000 70.643000 7.000000 -2.000000 -9.000000 128.380361 -18.200248 1328.872726 43.646196 14.146140 0.000000 0.031218
258.000000 65.549000 8.000000 -2.000000 -9.000000 123.465443 -10.173825 1168.148339 218.184262 15.246778 0.000000 0.081937
259.000000 60.480000 9.000000 -2.000000 -9.000000 118.374246 -4.060003 1051.394575 358.212389 16.526108 0.000000 0.118439
260.000000 55.629000 10.000000 -2.000000 -9.000000 113.401551 0.652700 962.738585 475.181063 17.968672 0.000000 0.141187
261.000000 51.106000 11.000000 -2.000000 -9.000000 108.696181 4.350084 893.126826 575.722155 19.560748 0.000000 0.154558
262.000000 46.958000 12.000000 -2.000000 -9.000000 104.321688 7.305521 837.018102 663.973266 21.290107 0.000000 0.161498
263.000000 77.084000 5.000000 -1.000000 -9.000000 123.659423 -42.727500 1969.132657 -34.645284 12.964698 0.000000 0.204023
264.000000 73.040000 6.000000 -1.000000 -9.000000 121.708123 -31.631801 1637.964406 160.032627 13.683039 0.000000 0.037834
265.000000 68.323000 7.000000 -1.000000 -9.000000 118.458111 -22.338211 1417.259203 310.309046 14.628692 0.000000 0.057352
266.000000 63.345000 8.000000 -1.000000 -9.000000 114.505451 -14.813905 1259.648678 433.512588 15.779547 0.000000 0.110886
267.000000 58.403000 9.000000 -1.000000 -9.000000 110.283424 -8.791751 1141.460492 538.491292 17.116271 0.000000 0.142517
268.000000 53.685000 10.000000 -1.000000 -9.000000 106.065611 -3.962184 1049.548024 630.300703 18.621885 0.000000 0.160399
269.000000 49.296000 11.000000 -1.000000 -9.000000 102.007357 -0.054587 976.025405 712.082039 20.281416 0.000000 0.169364
271.000000 66.888000 5.000000 1.000000 -9.000000 99.801976 -43.687423 2003.077240 683.854780 14.946627 0.000000 0.127928
272.000000 63.714000 6.000000 1.000000 -9.000000 99.255119 -35.329282 1737.884938 726.026586 15.691720 0.000000 0.062323
273.000000 59.892000 7.000000 1.000000 -9.000000 97.731673 -27.892493 1544.687952 775.666066 16.694075 0.000000 0.099188
274.000000 55.781000 8.000000 1.000000 -9.000000 95.568890 -21.440457 1397.672048 828.256305 17.925276 0.000000 0.132288
275.000000 51.648000 9.000000 1.000000 -9.000000 93.045984 -15.922453 1282.046551 881.442598 19.360941 0.000000 0.151413
276.000000 47.665000 10.000000 1.000000 -9.000000 90.367928 -11.231534 1188.727653 933.953464 20.980037 0.000000 0.160388
278.000000 61.358000 4.000000 2.000000 -9.000000 86.976196 -51.961570 2350.690936 1033.267952 16.296859 0.000000 0.323986
279.000000 59.848000 5.000000 2.000000 -9.000000 88.123417 -43.997731 2014.282930 990.020847 16.708220 0.000000 0.156151
280.000000 57.349000 6.000000 2.000000 -9.000000 88.187481 -36.563981 1773.277372 983.404939 17.436810 0.000000 0.098333
281.000000 54.221000 7.000000 2.000000 -9.000000 87.409107 -29.829318 1592.131142 997.140859 18.443495 0.000000 0.107160
282.000000 50.777000 8.000000 2.000000 -9.000000 86.037859 -23.858100 1451.006624 1022.512452 19.695323 0.000000 0.125762
283.000000 47.255000 9.000000 2.000000 -9.000000 84.291560 -18.635706 1337.959888 1054.541620 21.164351 0.000000 0.137663
286.000000 52.177000 5.000000 3.000000 -9.000000 76.920231 -44.242602 2023.208633 1290.056001 19.168317 0.000000 0.204780
287.000000 50.399000 2.000000 1.000000 -3.000000 77.514227 -37.551216 1802.399263 1241.612583 6.615017 0.000000 0.135303
288.000000 48.023000 7.000000 3.000000 -9.000000 77.386119 -31.406123 1632.130708 1223.197353 20.827273 0.000000 0.114977
293.000000 48.032000 12.000000 -7.000000 -8.000000 120.997933 39.687625 81.835904 100.690065 20.807422 0.000000 0.125366
295.000000 57.081000 5.000000 -3.000000 -4.000000 129.917802 34.115807 245.860853 -146.672314 8.753304 0.000000 0.121135
296.000000 52.754000 11.000000 -6.000000 -8.000000 123.739354 33.734219 256.271869 76.584317 18.944264 0.000000 0.068543
297.000000 48.731000 6.000000 -3.000000 -4.000000 118.168240 33.450804 263.944608 250.247319 10.255026 0.000000 0.027096
300.000000 63.034000 9.000000 -5.000000 -8.000000 133.096797 24.987547 473.400497 -170.061294 15.852512 0.000000 0.064961
301.000000 58.018000 10.000000 -5.000000 -8.000000 126.247190 26.081719 448.154634 62.444383 17.224776 0.000000 0.028744
302.000000 53.338000 11.000000 -5.000000 -8.000000 120.099945 26.863128 429.835380 241.624793 18.737900 0.000000 0.025821
303.000000 49.042000 12.000000 -5.000000 -8.000000 114.585779 27.448906 415.935979 386.086150 20.381286 0.000000 0.047001
305.000000 63.717000 9.000000 -4.000000 -8.000000 128.059325 16.301473 660.239490 63.013918 15.683911 0.000000 0.041857
306.000000 58.340000 5.000000 -2.000000 -4.000000 121.485938 18.700325 610.687690 245.070105 8.565555 0.000000 0.065923
307.000000 53.388000 11.000000 -4.000000 -8.000000 115.575146 20.454560 573.562679 391.237396 18.722124 0.000000 0.086055
308.000000 48.892000 3.000000 -1.000000 -2.000000 110.273953 21.790929 544.710655 512.827589 5.111402 0.000000 0.100919
310.000000 75.803000 7.000000 -3.000000 -8.000000 135.420281 -2.427075 1020.619605 -152.181747 13.181920 0.000000 0.021716
311.000000 69.548000 8.000000 -3.000000 -8.000000 128.411948 4.203587 895.894140 85.272156 14.368964 0.000000 0.064676
312.000000 63.528000 9.000000 -3.000000 -8.000000 121.799830 8.787505 808.621173 265.747402 15.732144 0.000000 0.096005
313.000000 57.924000 10.000000 -3.000000 -8.000000 115.732387 12.106565 744.133508 410.465545 17.256005 0.000000 0.117080
314.000000 52.816000 11.000000 -3.000000 -8.000000 110.237222 14.605387 694.538273 530.956378 18.926848 0.000000 0.130482
315.000000 48.220000 12.000000 -3.000000 -8.000000 105.289402 16.547773 655.210712 634.060530 20.732489 0.000000 0.138277
317.000000 74.884000 7.000000 -2.000000 -8.000000 126.272098 -9.715749 1159.278858 139.696932 13.345541 0.000000 0.067235
318.000000 62.335000 9.000000 -2.000000 -8.000000 114.526978 2.430754 929.311170 449.449993 16.035411 0.000000 0.136580
319.000000 56.680000 5.000000 -1.000000 -4.000000 109.133886 6.327187 855.659046 565.298194 8.818388 0.000000 0.151410
320.000000 51.564000 11.000000 -2.000000 -8.000000 104.195689 9.350893 797.768251 665.075291 19.388589 0.000000 0.158675
321.000000 46.990000 6.000000 -1.000000 -4.000000 99.716827 11.753163 751.068487 752.753581 10.638855 0.000000 0.160860
323.000000 84.443000 5.000000 -1.000000 -8.000000 124.050834 -35.355232 1738.617559 49.168798 11.834881 0.000000 0.095174
324.000000 78.650000 6.000000 -1.000000 -8.000000 120.653703 -24.062041 1455.594226 242.415048 12.707372 0.000000 0.035774
325.000000 72.349000 7.000000 -1.000000 -8.000000 116.183742 -15.150328 1266.420961 392.720541 13.815251 0.000000 0.102526
326.000000 66.052000 8.000000 -1.000000 -8.000000 111.322121 -8.250033 1131.055884 516.498574 15.133747 0.000000 0.140227
327.000000 60.074000 9.000000 -1.000000 -8.000000 106.478781 -2.893473 1029.399797 622.214227 16.641447 0.000000 0.160317
328.000000 54.575000 10.000000 -1.000000 -8.000000 101.868280 1.317028 950.255428 714.751701 18.319745 0.000000 0.169538
329.000000 49.616000 11.000000 -1.000000 -8.000000 97.586246 4.680018 886.890396 797.175122 20.152399 0.000000 0.171865
330.000000 79.374000 5.000000 0.000000 -8.000000 111.125888 -37.182303 1791.427986 419.024934 12.593196 0.000000 0.048225
331.000000 68.207000 7.000000 0.000000 -8.000000 105.531107 -19.289668 1351.695033 624.097048 14.656915 0.000000 0.123462
332.000000 56.776000 9.000000 0.000000 -8.000000 97.902024 -7.345596 1113.747129 790.376908 17.610690 0.000000 0.167676
333.000000 51.642000 5.000000 0.000000 -4.000000 94.128213 -3.005267 1031.505403 863.210558 9.681567 0.000000 0.172275
334.000000 47.006000 11.000000 0.000000 -8.000000 90.559657 0.552993 964.611779 930.486094 21.274514 0.000000 0.170838
336.000000 75.640000 4.000000 1.000000 -8.000000 98.093004 -48.116638 2175.250587 711.758647 13.217453 0.000000 0.212464
337.000000 72.252000 5.000000 1.000000 -8.000000 98.162452 -38.490666 1830.836872 743.766621 13.837608 0.000000 0.072907
338.000000 67.724000 6.000000 1.000000 -8.000000 96.859152 -29.904669 1594.013362 791.647156 14.763542 0.000000 0.090787
339.000000 62.664000 7.000000 1.000000 -8.000000 94.654074 -22.516375 1421.176106 846.150636 15.956752 0.000000 0.128846
340.000000 57.520000 8.000000 1.000000 -8.000000 91.949621 -16.287676 1289.479191 902.830549 17.384941 0.000000 0.150295
341.000000 52.576000 9.000000 1.000000 -8.000000 89.037790 -11.081310 1185.795969 959.420134 19.020814 0.000000 0.159293
342.000000 47.987000 10.000000 1.000000 -8.000000 86.107771 -6.732126 1102.047373 1014.736130 20.841146 0.000000 0.160231
344.000000 66.137000 2.000000 1.000000 -4.000000 84.793259 -47.881469 2165.384293 1087.239786 7.560059 0.000000 0.232802
345.000000 63.686000 5.000000 2.000000 -8.000000 85.505902 -39.472813 1861.371129 1050.589011 15.702451 0.000000 0.119539
346.000000 60.168000 3.000000 1.000000 -4.000000 85.083297 -31.831223 1643.142997 1049.976520 8.310495 0.000000 0.105638
347.000000 56.092000 7.000000 2.000000 -8.000000 83.854306 -25.087191 1478.879699 1068.962430 17.829861 0.000000 0.121291
348.000000 51.845000 4.000000 1.000000 -4.000000 82.118249 -19.245632 1350.766728 1098.818608 9.645584 0.000000 0.132730
349.000000 47.690000 9.000000 2.000000 -8.000000 80.108872 -14.235469 1248.053367 1134.617028 20.973339 0.000000 0.136470
351.000000 55.917000 4.000000 3.000000 -8.000000 72.192347 -47.700697 2157.860873 1454.695487 17.887398 0.000000 0.289604
352.000000 54.429000 5.000000 3.000000 -8.000000 73.447407 -40.236811 1885.725142 1360.040752 18.376579 0.000000 0.173129
353.000000 51.977000 6.000000 3.000000 -8.000000 73.770268 -33.360006 1683.607876 1316.103166 19.244030 0.000000 0.125760
354.000000 48.953000 7.000000 3.000000 -8.000000 73.383044 -27.175834 1527.566381 1302.062089 20.433418 0.000000 0.112132
355.000000 45.679000 8.000000 3.000000 -8.000000 72.502073 -21.706788 1403.457231 1306.208884 21.899065 0.000000 0.108149
360.000000 51.645000 11.000000 -7.000000 -7.000000 120.285449 45.022009 -102.121457 51.727585 19.351755 0.000000 0.215208
361.000000 47.692000 12.000000 -7.000000 -7.000000 115.067979 43.382930 -42.193669 248.300392 20.957298 0.000000 0.149648
364.000000 57.444000 10.000000 -6.000000 -7.000000 123.714675 39.369179 91.891093 11.986000 17.397190 0.000000 0.140593
365.000000 52.719000 11.000000 -6.000000 -7.000000 117.728342 38.285482 125.436724 220.242720 18.958461 0.000000 0.083259
366.000000 48.406000 12.000000 -6.000000 -7.000000 112.361929 37.464138 150.200152 383.155757 20.649178 0.000000 0.045322
369.000000 64.121000 9.000000 -5.000000 -7.000000 127.147440 31.755591 308.823637 -17.950842 15.585122 0.000000 0.074309
370.000000 58.477000 10.000000 -5.000000 -7.000000 120.332644 31.720330 309.739417 200.651711 17.091034 0.000000 0.024946
371.000000 53.338000 11.000000 -5.000000 -7.000000 114.290465 31.694680 310.405152 370.107080 18.739487 0.000000 0.012920
372.000000 48.717000 12.000000 -5.000000 -7.000000 108.925016 31.675183 310.910949 507.385153 20.519089 0.000000 0.040760
374.000000 78.721000 7.000000 -4.000000 -7.000000 138.602160 18.616948 612.432503 -347.321709 12.692717 0.000000 0.063251
375.000000 71.614000 8.000000 -4.000000 -7.000000 130.088137 21.409792 552.992678 -32.092928 13.953866 0.000000 0.031605
376.000000 64.942000 9.000000 -4.000000 -7.000000 122.533501 23.216539 513.331882 193.944506 15.389270 0.000000 0.037834
377.000000 58.853000 10.000000 -4.000000 -7.000000 115.860931 24.478772 484.985949 367.760523 16.983417 0.000000 0.061742
378.000000 53.391000 11.000000 -4.000000 -7.000000 109.971210 25.409582 463.717309 507.984927 18.722580 0.000000 0.081353
379.000000 48.542000 12.000000 -4.000000 -7.000000 104.764504 26.124006 447.169584 625.069558 20.594573 0.000000 0.095340
380.000000 87.556000 6.000000 -3.000000 -7.000000 140.032184 0.304198 969.285630 -343.159865 11.411810 0.000000 0.003810
381.000000 79.581000 7.000000 -3.000000 -7.000000 131.537320 7.679510 829.871224 -21.104324 12.556827 0.000000 0.041941
382.000000 71.897000 8.000000 -3.000000 -7.000000 123.680272 12.346752 739.409757 206.754168 13.900460 0.000000 0.077506
383.000000 64.805000 9.000000 -3.000000 -7.000000 116.622909 15.527122 675.968431 381.057868 15.423398 0.000000 0.102518
384.000000 58.428000 10.000000 -3.000000 -7.000000 110.358201 17.820530 629.014248 521.495362 17.108756 0.000000 0.118689
385.000000 52.779000 11.000000 -3.000000 -7.000000 104.819312 19.547522 592.859276 638.826680 18.941705 0.000000 0.128232
386.000000 47.817000 12.000000 -3.000000 -7.000000 99.922494 20.892615 564.162125 739.470665 20.909167 0.000000 0.133025
387.000000 87.118000 6.000000 -2.000000 -7.000000 129.894061 -9.053774 1146.503904 29.916727 11.470735 0.000000 0.047495
388.000000 78.746000 7.000000 -2.000000 -7.000000 122.725567 -0.900427 991.915809 249.267522 12.691785 0.000000 0.098844
389.000000 70.793000 8.000000 -2.000000 -7.000000 115.866087 4.738841 885.777907 417.376669 14.119074 0.000000 0.129675
390.000000 63.545000 9.000000 -2.000000 -7.000000 109.584994 8.799081 808.398519 553.505974 15.731279 0.000000 0.146499
391.000000 57.096000 10.000000 -2.000000 -7.000000 103.946726 11.833995 749.483857 667.908075 17.509919 0.000000 0.154290
392.000000 51.435000 11.000000 -2.000000 -7.000000 98.928272 14.176307 703.129189 766.601660 19.438894 0.000000 0.156228
393.000000 46.499000 12.000000 -2.000000 -7.000000 94.473268 16.033083 665.704921 853.391275 21.504118 0.000000 0.154400
394.000000 84.259000 6.000000 -1.000000 -7.000000 118.367285 -15.613090 1275.771839 337.578235 11.862010 0.000000 0.090730
395.000000 75.974000 7.000000 -1.000000 -7.000000 112.647292 -7.533791 1117.342650 488.029085 13.157011 0.000000 0.136981
396.000000 68.159000 8.000000 -1.000000 -7.000000 106.972678 -1.530184 1003.751154 612.387771 14.667107 0.000000 0.159923
397.000000 61.081000 9.000000 -1.000000 -7.000000 101.650936 3.014407 918.322423 718.763680 16.368552 0.000000 0.169337
398.000000 54.816000 10.000000 -1.000000 -7.000000 96.796395 6.533302 851.738018 811.889895 18.240972 0.000000 0.170641
399.000000 49.341000 11.000000 -1.000000 -7.000000 92.427137 9.319073 798.382145 894.769079 20.266785 0.000000 0.167033
401.000000 83.057000 4.000000 1.000000 -7.000000 96.446348 -42.585419 1964.197923 775.832953 12.037670 0.000000 0.115941
402.000000 77.760000 5.000000 1.000000 -7.000000 95.602173 -32.506193 1660.838635 815.814887 12.858265 0.000000 0.082179
403.000000 71.424000 6.000000 1.000000 -7.000000 93.432752 -23.890020 1451.723711 870.389301 13.999893 0.000000 0.124310
404.000000 64.860000 7.000000 1.000000 -7.000000 90.539962 -16.745700 1298.839729 930.407375 15.417744 0.000000 0.148591
405.000000 58.570000 8.000000 1.000000 -7.000000 87.358415 -10.896529 1182.193980 991.568787 17.074977 0.000000 0.157333
406.000000 52.803000 9.000000 1.000000 -7.000000 84.157851 -6.112875 1090.267291 1051.755740 18.941023 0.000000 0.156473
407.000000 47.651000 10.000000 1.000000 -7.000000 81.086714 -2.179156 1015.954930 1109.921046 20.990305 0.000000 0.149942
409.000000 71.047000 4.000000 2.000000 -7.000000 81.760118 -43.113041 1982.637968 1154.506515 14.076199 0.000000 0.168249
410.000000 67.269000 5.000000 2.000000 -7.000000 81.941791 -34.337360 1710.227019 1125.537777 14.867178 0.000000 0.111084
411.000000 62.455000 6.000000 2.000000 -7.000000 80.995427 -26.614204 1514.301807 1131.769662 16.014054 0.000000 0.116498
412.000000 57.277000 7.000000 2.000000 -7.000000 79.340197 -19.994173 1366.615127 1156.579497 17.462495 0.000000 0.125799
413.000000 52.182000 8.000000 2.000000 -7.000000 77.307910 -14.397961 1251.304577 1191.257341 19.168694 0.000000 0.127596
414.000000 47.415000 9.000000 2.000000 -7.000000 75.127284 -9.689715 1158.775508 1230.967792 21.096938 0.000000 0.123029
417.000000 58.329000 4.000000 3.000000 -7.000000 68.009278 -43.510103 1996.725876 1540.305911 17.149334 0.000000 0.243079
418.000000 56.077000 5.000000 3.000000 -7.000000 69.021610 -35.744739 1749.670980 1449.465895 17.838365 0.000000 0.153813
419.000000 52.833000 6.000000 3.000000 -7.000000 69.089074 -28.767104 1565.893331 1410.130644 18.934395 0.000000 0.116902
420.000000 49.114000 7.000000 3.000000 -7.000000 68.491884 -22.637388 1423.842321 1400.543271 20.368872 0.000000 0.100949
427.000000 46.878000 12.000000 -7.000000 -6.000000 108.672750 46.645646 -164.967128 411.166636 21.323254 0.000000 0.185177
428.000000 57.135000 5.000000 -3.000000 -3.000000 116.751575 43.883882 -60.158124 188.260517 8.746502 0.000000 0.168929
429.000000 52.093000 11.000000 -6.000000 -6.000000 111.090003 42.290053 -4.010944 379.874183 19.188202 0.000000 0.111187
430.000000 47.571000 4.000000 -2.000000 -2.000000 106.035624 41.057164 37.504763 530.755509 7.004589 0.000000 0.078476
432.000000 71.261000 8.000000 -5.000000 -6.000000 127.621594 38.857871 107.845860 -124.236405 14.023388 0.000000 0.164189
433.000000 64.404000 9.000000 -5.000000 -6.000000 120.138330 37.590700 146.420084 152.411856 15.518178 0.000000 0.089349
434.000000 58.212000 10.000000 -5.000000 -6.000000 113.566707 36.696246 172.864651 355.482211 17.170486 0.000000 0.040325
435.000000 52.705000 11.000000 -5.000000 -6.000000 107.790069 36.031448 192.123502 513.947975 18.966499 0.000000 0.028780
436.000000 47.847000 12.000000 -5.000000 -6.000000 102.699026 35.518047 206.775147 643.021801 20.893970 0.000000 0.047151
437.000000 81.318000 7.000000 -4.000000 -6.000000 132.100606 28.335875 394.605651 -163.918120 12.288301 0.000000 0.082253
438.000000 65.314000 9.000000 -4.000000 -6.000000 115.862849 29.415959 368.144298 342.019378 15.303041 0.000000 0.024972
439.000000 58.597000 5.000000 -2.000000 -3.000000 109.323650 29.721907 360.547068 506.415178 8.529678 0.000000 0.053886
440.000000 52.725000 11.000000 -4.000000 -6.000000 103.632547 29.950582 354.838338 639.738124 18.961120 0.000000 0.074720
441.000000 47.621000 6.000000 -2.000000 -3.000000 98.658100 30.127973 350.391794 751.510450 10.497629 0.000000 0.088914
442.000000 82.509000 7.000000 -3.000000 -6.000000 125.792203 17.192936 641.976672 128.675865 12.112184 0.000000 0.049982
443.000000 73.318000 8.000000 -3.000000 -6.000000 117.474732 19.924887 584.858074 345.684330 13.632399 0.000000 0.079938
444.000000 58.127000 10.000000 -3.000000 -6.000000 104.046096 23.143791 514.948991 648.162625 17.199155 0.000000 0.113795
445.000000 52.044000 11.000000 -3.000000 -6.000000 98.645720 24.168528 492.004603 761.624017 19.211209 0.000000 0.120785
446.000000 46.820000 4.000000 -1.000000 -2.000000 93.942430 24.971130 473.775827 859.175965 7.118790 0.000000 0.123767
447.000000 81.749000 7.000000 -2.000000 -6.000000 117.465438 7.843166 826.739850 376.258594 12.226518 0.000000 0.118768
448.000000 63.831000 9.000000 -2.000000 -6.000000 103.492351 14.899024 688.639861 673.772512 15.662658 0.000000 0.147381
449.000000 56.682000 5.000000 -1.000000 -3.000000 97.828400 17.084779 644.201611 786.190940 8.819975 0.000000 0.149320
450.000000 50.590000 11.000000 -2.000000 -6.000000 92.906346 18.771277 609.201528 883.288108 19.765957 0.000000 0.147061
451.000000 89.337000 6.000000 -1.000000 -6.000000 114.394727 -6.542878 1098.444224 449.690734 11.188714 0.000000 0.132122
452.000000 78.706000 7.000000 -1.000000 -6.000000 107.568187 0.266508 969.993647 600.233274 12.701536 0.000000 0.158915
453.000000 69.276000 8.000000 -1.000000 -6.000000 101.302966 5.164852 877.715233 725.000237 14.432232 0.000000 0.168417
454.000000 61.140000 9.000000 -1.000000 -6.000000 95.726697 8.808596 808.215485 831.776779 16.354491 0.000000 0.168272
455.000000 54.212000 10.000000 -1.000000 -6.000000 90.825464 11.604176 753.986752 925.169113 18.446073 0.000000 0.162718
456.000000 48.341000 11.000000 -1.000000 -6.000000 86.533504 13.807164 710.494066 1008.137244 20.688053 0.000000 0.154269
457.000000 73.349000 7.000000 0.000000 -6.000000 96.626374 -5.799359 1084.313822 815.323183 13.632096 0.000000 0.170067
458.000000 64.660000 8.000000 0.000000 -6.000000 91.722504 -0.557773 985.478035 908.631695 15.465548 0.000000 0.171828
459.000000 57.158000 3.000000 0.000000 -2.000000 87.244006 3.501830 909.136510 992.907902 5.832320 0.000000 0.165631
460.000000 50.765000 10.000000 0.000000 -6.000000 83.235151 6.708923 848.394556 1069.550933 19.701590 0.000000 0.155298
461.000000 82.905000 5.000000 1.000000 -6.000000 91.726307 -25.702316 1493.039033 904.999846 12.061499 0.000000 0.118288
462.000000 74.274000 6.000000 1.000000 -6.000000 88.661472 -17.336955 1310.990037 967.345567 13.464200 0.000000 0.145866
463.000000 66.017000 7.000000 1.000000 -6.000000 85.172673 -10.663719 1177.662123 1033.493277 15.149512 0.000000 0.153808
464.000000 58.575000 8.000000 1.000000 -6.000000 81.663320 -5.350677 1075.805041 1099.408369 17.075379 0.000000 0.150210
465.000000 52.076000 9.000000 1.000000 -6.000000 78.336533 -1.088640 995.452425 1163.214342 19.207694 0.000000 0.140396
466.000000 46.486000 10.000000 1.000000 -6.000000 75.276744 2.370535 930.444366 1224.069743 21.518509 0.000000 0.127543
467.000000 79.130000 3.000000 2.000000 -6.000000 76.299048 -47.756122 2160.161996 1331.296011 12.639228 0.000000 0.267628
468.000000 70.042000 5.000000 2.000000 -6.000000 77.108040 -28.559171 1560.820126 1221.472119 14.280318 0.000000 0.113598
469.000000 63.689000 3.000000 1.000000 -3.000000 75.671696 -20.934270 1386.734622 1235.339346 7.852803 0.000000 0.116106
470.000000 57.355000 7.000000 2.000000 -6.000000 73.692124 -14.598550 1255.324583 1266.396318 17.440939 0.000000 0.114076
471.000000 51.472000 4.000000 1.000000 -3.000000 71.499263 -9.370556 1152.611154 1306.009116 9.717771 0.000000 0.105854
472.000000 46.211000 9.000000 2.000000 -6.000000 69.289740 -5.050512 1070.119739 1349.504009 21.649152 0.000000 0.093707
474.000000 59.716000 4.000000 3.000000 -6.000000 62.581366 -38.708698 1837.542608 1656.515490 16.752600 0.000000 0.215477
475.000000 56.569000 5.000000 3.000000 -6.000000 63.385714 -30.738052 1615.023974 1568.452656 17.685357 0.000000 0.140866
476.000000 52.499000 2.000000 1.000000 -2.000000 63.275798 -23.779439 1449.241052 1533.161255 6.352347 0.000000 0.102985
477.000000 48.142000 7.000000 3.000000 -6.000000 62.579227 -17.818730 1320.948439 1527.529276 20.782578 0.000000 0.079080
480.000000 45.551000 12.000000 -7.000000 -5.000000 101.876884 49.529727 -286.503459 592.250120 21.946669 0.000000 0.234022
482.000000 56.037000 10.000000 -6.000000 -5.000000 109.118900 47.759983 -210.322510 385.991123 17.837971 0.000000 0.211956
483.000000 50.801000 11.000000 -6.000000 -5.000000 103.901688 45.808159 -132.093089 558.840072 19.678243 0.000000 0.154743
484.000000 46.180000 12.000000 -6.000000 -5.000000 99.256473 44.268473 -74.156006 696.039631 21.649288 0.000000 0.124036
486.000000 71.159000 8.000000 -5.000000 -5.000000 119.201488 44.659516 -88.577814 95.280395 14.044964 0.000000 0.200155
487.000000 63.671000 9.000000 -5.000000 -5.000000 112.171505 42.575461 -13.852927 345.384760 15.698653 0.000000 0.120628
488.000000 51.352000 11.000000 -5.000000 -5.000000 100.674080 39.903269 74.973941 676.554522 19.468446 0.000000 0.067549
489.000000 46.382000 12.000000 -5.000000 -5.000000 95.974221 38.997323 103.517327 796.073237 21.556416 0.000000 0.074481
490.000000 82.543000 7.000000 -4.000000 -5.000000 123.785053 36.432080 180.556861 45.966183 12.107311 0.000000 0.100424
491.000000 72.943000 8.000000 -4.000000 -5.000000 115.333765 35.512221 206.940333 315.025293 13.702577 0.000000 0.034021
492.000000 64.587000 9.000000 -4.000000 -5.000000 108.123027 34.882809 224.646708 511.576701 15.477270 0.000000 0.026549
493.000000 57.414000 10.000000 -4.000000 -5.000000 101.946747 34.425138 237.352110 664.920987 17.412849 0.000000 0.053972
494.000000 51.291000 11.000000 -4.000000 -5.000000 96.627397 34.077396 246.913068 790.021054 19.493243 0.000000 0.074436
495.000000 46.070000 12.000000 -4.000000 -5.000000 92.017480 33.804243 254.368361 895.372585 21.704450 0.000000 0.088587
496.000000 83.988000 7.000000 -3.000000 -5.000000 118.119049 25.706144 456.872381 302.678036 11.900209 0.000000 0.042716
497.000000 73.391000 8.000000 -3.000000 -5.000000 109.801972 26.762713 432.203507 506.975227 13.620485 0.000000 0.073180
498.000000 64.403000 9.000000 -3.000000 -5.000000 102.792702 27.495422 414.825956 665.497455 15.523256 0.000000 0.093058
499.000000 56.847000 10.000000 -3.000000 -5.000000 96.849968 28.033226 401.923325 794.522108 17.588385 0.000000 0.104695
500.000000 50.506000 11.000000 -3.000000 -5.000000 91.774565 28.444698 391.964270 903.076061 19.798594 0.000000 0.110932
501.000000 83.241000 7.000000 -2.000000 -5.000000 110.315780 16.131211 663.708388 526.198040 12.008781 0.000000 0.125161
502.000000 72.132000 8.000000 -2.000000 -5.000000 102.685205 18.752107 609.603179 685.158104 13.860261 0.000000 0.136243
503.000000 62.897000 9.000000 -2.000000 -5.000000 96.255747 20.620000 570.018754 814.941635 15.897257 0.000000 0.138978
504.000000 55.254000 10.000000 -2.000000 -5.000000 90.814371 22.015915 539.801090 924.497759 18.097813 0.000000 0.136913
505.000000 48.919000 11.000000 -2.000000 -5.000000 86.177473 23.097492 515.977275 1019.179388 20.443306 0.000000 0.132345
506.000000 79.870000 7.000000 -1.000000 -5.000000 100.725391 7.968293 824.344036 735.150559 12.518039 0.000000 0.166086
507.000000 68.940000 8.000000 -1.000000 -5.000000 94.225084 11.658184 752.929244 859.813289 14.504556 0.000000 0.163939
508.000000 59.955000 9.000000 -1.000000 -5.000000 88.690506 14.379436 699.066321 966.398652 16.679763 0.000000 0.155960
509.000000 52.584000 10.000000 -1.000000 -5.000000 83.976935 16.460565 656.992728 1059.414389 19.019580 0.000000 0.145374
510.000000 46.513000 11.000000 -1.000000 -5.000000 79.944056 18.099670 623.219663 1141.799551 21.503858 0.000000 0.134117
511.000000 86.711000 5.000000 1.000000 -5.000000 86.036484 -18.129261 1327.395686 1019.468589 11.533516 0.000000 0.141234
512.000000 75.443000 6.000000 1.000000 -5.000000 82.213703 -10.361370 1171.786957 1090.611466 13.257291 0.000000 0.147260
513.000000 65.527000 7.000000 1.000000 -5.000000 78.364921 -4.389975 1057.626900 1163.270402 15.264706 0.000000 0.139388
514.000000 57.135000 8.000000 1.000000 -5.000000 74.777872 0.250136 970.301190 1233.871884 17.508025 0.000000 0.125015
515.000000 50.145000 9.000000 1.000000 -5.000000 71.549781 3.914954 901.343401 1300.923388 19.949657 0.000000 0.108334
517.000000 84.654000 3.000000 2.000000 -5.000000 70.935147 -41.789714 1936.970504 1439.877734 11.815768 0.000000 0.202864
518.000000 78.782000 4.000000 2.000000 -5.000000 71.558887 -31.113842 1624.616916 1360.198352 12.697132 0.000000 0.121762
519.000000 71.069000 5.000000 2.000000 -5.000000 70.620958 -22.149470 1413.120670 1349.744511 14.075786 0.000000 0.104177
520.000000 63.137000 6.000000 2.000000 -5.000000 68.857339 -14.852406 1260.422638 1371.615520 15.845056 0.000000 0.093377
521.000000 55.808000 7.000000 2.000000 -5.000000 66.765020 -8.975444 1144.995444 1408.806468 17.926740 0.000000 0.078868
522.000000 49.378000 8.000000 2.000000 -5.000000 64.625869 -4.233858 1054.677581 1452.863575 20.262206 0.000000 0.061615
525.000000 59.089000 4.000000 3.000000 -5.000000 55.527505 -33.236087 1680.275822 1824.475691 16.932742 0.000000 0.208998
526.000000 55.099000 5.000000 3.000000 -5.000000 56.259472 -25.212933 1481.762406 1735.600339 18.159526 0.000000 0.138532
527.000000 50.380000 6.000000 3.000000 -5.000000 56.148618 -18.428814 1333.636724 1701.937883 19.861152 0.000000 0.097182
528.000000 45.630000 7.000000 3.000000 -5.000000 55.543990 -12.766927 1218.874809 1698.221238 21.929243 0.000000 0.070880
532.000000 54.069000 5.000000 -3.000000 -2.000000 100.925299 51.095188 -358.636895 610.195672 9.244749 0.000000 0.273876
533.000000 48.802000 11.000000 -6.000000 -4.000000 96.256429 48.901194 -258.831206 761.500638 20.486652 0.000000 0.214822
535.000000 69.605000 8.000000 -5.000000 -4.000000 109.739107 49.425454 -281.863690 347.248037 14.360603 0.000000 0.255653
536.000000 61.749000 9.000000 -5.000000 -4.000000 103.381899 46.822443 -172.037049 566.800701 16.189442 0.000000 0.174431
537.000000 54.999000 10.000000 -5.000000 -4.000000 97.853114 44.868503 -96.365258 731.539362 18.178148 0.000000 0.134637
538.000000 49.229000 11.000000 -5.000000 -4.000000 93.039371 43.351028 -41.059706 862.409738 20.310485 0.000000 0.120467
539.000000 81.822000 7.000000 -4.000000 -4.000000 113.840538 43.032746 -29.811313 290.335430 12.215746 0.000000 0.136702
540.000000 62.552000 9.000000 -4.000000 -4.000000 99.441205 39.656910 82.809773 708.529024 15.982908 0.000000 0.068282
541.000000 55.191000 5.000000 -2.000000 -2.000000 93.840881 38.613752 115.382517 848.523081 9.058338 0.000000 0.080055
542.000000 49.034000 11.000000 -4.000000 -4.000000 89.051860 37.807031 139.929024 963.544966 20.393146 0.000000 0.093860
543.000000 83.334000 7.000000 -3.000000 -4.000000 108.602051 33.057987 274.496654 508.775037 11.995423 0.000000 0.032414
544.000000 71.703000 8.000000 -3.000000 -4.000000 100.765579 32.798658 281.411339 697.543997 13.943168 0.000000 0.066825
545.000000 62.212000 9.000000 -3.000000 -4.000000 94.285645 32.614664 286.292900 845.245035 16.072187 0.000000 0.087367
546.000000 54.464000 10.000000 -3.000000 -4.000000 88.870660 32.477344 289.923105 966.150748 18.360603 0.000000 0.099618
547.000000 48.103000 11.000000 -3.000000 -4.000000 84.297269 32.370937 292.728453 1068.255886 20.789919 0.000000 0.107112
548.000000 82.455000 7.000000 -2.000000 -4.000000 101.251058 23.689283 502.779928 707.189710 12.125142 0.000000 0.117897
549.000000 60.492000 9.000000 -2.000000 -4.000000 87.956253 25.893991 452.519066 983.694163 16.531489 0.000000 0.123714
550.000000 52.684000 5.000000 -1.000000 -2.000000 82.992448 26.589815 436.271264 1088.943777 9.491608 0.000000 0.121014
551.000000 46.363000 11.000000 -2.000000 -4.000000 78.826125 27.133058 423.448559 1179.892181 21.573045 0.000000 0.117700
552.000000 78.668000 7.000000 -1.000000 -4.000000 92.022928 15.309639 680.364587 901.585018 12.711275 0.000000 0.156154
553.000000 66.689000 8.000000 -1.000000 -4.000000 85.751777 17.803138 629.374686 1024.970027 14.996228 0.000000 0.145469
554.000000 57.277000 9.000000 -1.000000 -4.000000 80.601618 19.641864 590.862486 1130.154638 17.462110 0.000000 0.133063
555.000000 49.805000 10.000000 -1.000000 -4.000000 76.326148 21.051120 560.747180 1221.577602 20.083287 0.000000 0.121375
556.000000 71.914000 7.000000 0.000000 -4.000000 81.402288 8.067062 822.451849 1105.356634 13.908155 0.000000 0.149323
557.000000 61.116000 4.000000 0.000000 -2.000000 76.528053 11.407788 757.828762 1204.034553 8.183517 0.000000 0.130392
558.000000 52.633000 9.000000 0.000000 -4.000000 72.462675 13.942541 707.795865 1291.450315 19.006035 0.000000 0.112492
559.000000 45.896000 5.000000 0.000000 -2.000000 69.051016 15.924433 667.913246 1369.495266 10.898606 0.000000 0.097902
560.000000 87.550000 5.000000 1.000000 -4.000000 77.990701 -9.952886 1163.867298 1173.454373 11.424927 0.000000 0.134294
561.000000 73.827000 6.000000 1.000000 -4.000000 73.813761 -3.142441 1034.089635 1253.882569 13.549746 0.000000 0.119557
562.000000 62.728000 7.000000 1.000000 -4.000000 70.013961 1.930717 938.717981 1332.664450 15.948529 0.000000 0.099016
563.000000 53.881000 8.000000 1.000000 -4.000000 66.695372 5.800136 865.671427 1407.014377 18.568223 0.000000 0.078555
564.000000 46.821000 9.000000 1.000000 -4.000000 63.838142 8.823314 807.932365 1476.044445 21.368647 0.000000 0.062455
566.000000 87.461000 3.000000 2.000000 -4.000000 63.120260 -34.601039 1717.514487 1603.786452 11.438514 0.000000 0.171406
567.000000 68.979000 5.000000 2.000000 -4.000000 62.093032 -15.183979 1267.099546 1531.656011 14.504851 0.000000 0.069081
568.000000 59.909000 3.000000 1.000000 -2.000000 60.355579 -8.473659 1135.347420 1560.284750 8.350749 0.000000 0.041447
569.000000 52.113000 7.000000 2.000000 -4.000000 58.489440 -3.223409 1035.615308 1601.872461 19.200620 0.000000 0.015604
570.000000 45.616000 4.000000 1.000000 -2.000000 56.691894 0.931778 957.495117 1648.304713 10.967873 0.000000 0.013316
574.000000 54.962000 4.000000 3.000000 -4.000000 46.433462 -27.063011 1524.891115 2090.618793 18.206782 0.000000 0.251067
575.000000 50.645000 5.000000 3.000000 -4.000000 47.394524 -19.202833 1349.865000 1989.215807 19.759175 0.000000 0.187928
576.000000 45.836000 6.000000 3.000000 -4.000000 47.588903 -12.776622 1219.066289 1949.135852 21.832972 0.000000 0.156510
580.000000 46.100000 11.000000 -6.000000 -3.000000 88.261726 51.626704 -384.246338 993.616315 21.690156 0.000000 0.292668
583.000000 58.549000 9.000000 -5.000000 -3.000000 93.937982 50.446600 -328.172856 824.650205 17.076726 0.000000 0.253349
584.000000 51.924000 10.000000 -5.000000 -3.000000 89.158935 48.200006 -228.769875 964.705430 19.257511 0.000000 0.209455
585.000000 46.339000 11.000000 -5.000000 -3.000000 85.002152 46.419562 -155.993310 1077.534101 21.580125 0.000000 0.188961
586.000000 78.664000 7.000000 -4.000000 -3.000000 102.534905 48.384357 -236.592996 580.684147 12.708440 0.000000 0.207476
587.000000 67.903000 8.000000 -4.000000 -3.000000 95.721557 45.743671 -129.602850 786.476231 14.724210 0.000000 0.151505
588.000000 59.100000 9.000000 -4.000000 -3.000000 89.994254 43.807377 -57.395167 941.149563 16.919251 0.000000 0.134530
589.000000 51.891000 10.000000 -4.000000 -3.000000 85.152226 42.329908 -5.379903 1064.475285 19.271490 0.000000 0.134314
590.000000 45.955000 11.000000 -4.000000 -3.000000 81.027076 41.166881 33.873946 1166.754447 21.762333 0.000000 0.139436
591.000000 79.933000 7.000000 -3.000000 -3.000000 97.473741 39.276840 94.789603 758.600141 12.507970 0.000000 0.071210
592.000000 67.955000 8.000000 -3.000000 -3.000000 90.567882 38.054802 132.447692 927.452061 14.714574 0.000000 0.089471
593.000000 58.488000 3.000000 -1.000000 -1.000000 84.925743 37.164779 159.090498 1060.926109 5.699350 0.000000 0.105221
594.000000 50.936000 10.000000 -3.000000 -3.000000 80.253961 36.487948 178.934436 1170.936238 19.634842 0.000000 0.116662
595.000000 78.688000 7.000000 -2.000000 -3.000000 90.431049 30.385260 343.914042 931.613328 12.707868 0.000000 0.104550
596.000000 66.136000 8.000000 -2.000000 -3.000000 83.954214 30.562868 339.422449 1073.384723 15.121488 0.000000 0.111103
597.000000 56.483000 9.000000 -2.000000 -3.000000 78.753759 30.692846 336.124970 1189.878774 17.707488 0.000000 0.114140
598.000000 48.934000 10.000000 -2.000000 -3.000000 74.502582 30.792087 333.601285 1288.403917 20.440866 0.000000 0.116563
599.000000 90.806000 6.000000 -1.000000 -3.000000 88.615826 20.109896 580.921430 968.695023 11.012824 0.000000 0.142361
600.000000 74.374000 7.000000 -1.000000 -3.000000 81.551995 22.097051 538.026735 1113.527341 13.447724 0.000000 0.130056
601.000000 62.199000 8.000000 -1.000000 -3.000000 76.022610 23.499127 507.033420 1233.126386 16.081556 0.000000 0.118328
602.000000 52.981000 9.000000 -1.000000 -3.000000 71.603543 24.540218 483.591755 1334.507048 18.880872 0.000000 0.110207
603.000000 45.849000 10.000000 -1.000000 -3.000000 68.004284 25.343346 465.241479 1422.054703 21.819321 0.000000 0.106979
604.000000 83.200000 5.000000 1.000000 -3.000000 67.168882 -1.459030 1002.413619 1394.267399 12.024716 0.000000 0.079738
605.000000 68.273000 6.000000 1.000000 -3.000000 63.359239 4.098755 897.873772 1482.310560 14.654819 0.000000 0.052924
606.000000 57.083000 7.000000 1.000000 -3.000000 60.166655 8.147009 820.919589 1564.524435 17.528348 0.000000 0.039820
607.000000 48.597000 8.000000 1.000000 -3.000000 57.520151 11.199132 761.904934 1639.442715 20.589808 0.000000 0.050159
610.000000 83.373000 3.000000 2.000000 -3.000000 51.784979 -26.075516 1501.700943 1884.445187 12.001834 0.000000 0.181423
611.000000 72.672000 4.000000 2.000000 -3.000000 52.050921 -15.635372 1276.223139 1812.606501 13.769705 0.000000 0.114939
612.000000 62.152000 5.000000 2.000000 -3.000000 51.266138 -7.815380 1122.728311 1812.413411 16.100717 0.000000 0.091853
613.000000 53.191000 6.000000 2.000000 -3.000000 50.121360 -1.941824 1011.490892 1840.756833 18.813568 0.000000 0.094990
614.000000 45.911000 7.000000 2.000000 -3.000000 48.925332 2.544417 927.171981 1879.999438 21.797238 0.000000 0.110721
621.000000 47.917000 10.000000 -5.000000 -2.000000 80.114206 51.118191 -359.733019 1239.811040 20.870580 0.000000 0.305935
623.000000 62.537000 4.000000 -2.000000 -1.000000 84.669699 49.706847 -294.430156 1096.279328 7.995202 0.000000 0.254735
624.000000 54.265000 9.000000 -4.000000 -2.000000 80.002213 47.413043 -195.996117 1221.381997 18.429660 0.000000 0.225969
625.000000 47.580000 5.000000 -2.000000 -1.000000 76.055899 45.622857 -124.952985 1323.104027 10.510296 0.000000 0.214332
626.000000 88.428000 6.000000 -3.000000 -2.000000 92.104262 47.138596 -184.796337 882.863430 11.307156 0.000000 0.182292
627.000000 73.487000 7.000000 -3.000000 -2.000000 85.109245 44.490127 -82.306925 1070.099726 13.607800 0.000000 0.159548
628.000000 62.090000 8.000000 -3.000000 -2.000000 79.502878 42.600495 -14.720490 1211.922164 16.107391 0.000000 0.159225
629.000000 53.273000 9.000000 -3.000000 -2.000000 74.944358 41.187261 33.198192 1325.703199 18.774826 0.000000 0.164563
630.000000 46.340000 10.000000 -3.000000 -2.000000 71.182953 40.091663 68.943677 1420.412530 21.585165 0.000000 0.171033
631.000000 71.595000 7.000000 -2.000000 -2.000000 78.211824 36.206944 187.071327 1219.375189 13.969658 0.000000 0.121248
632.000000 59.792000 4.000000 -1.000000 -1.000000 73.010638 35.527073 206.519183 1345.056411 8.364448 0.000000 0.132519
633.000000 50.923000 9.000000 -2.000000 -2.000000 68.880107 35.019631 220.820935 1448.642715 19.643858 0.000000 0.142209
634.000000 82.378000 6.000000 -1.000000 -2.000000 75.289085 27.568876 413.071185 1259.774935 12.142207 0.000000 0.115017
635.000000 66.650000 7.000000 -1.000000 -2.000000 69.626739 28.224534 397.302565 1394.635378 15.008895 0.000000 0.113939
636.000000 55.434000 8.000000 -1.000000 -2.000000 65.310160 28.694201 385.887662 1505.080948 18.046988 0.000000 0.119235
637.000000 47.140000 9.000000 -1.000000 -2.000000 61.920061 29.047144 377.242107 1597.817618 21.223326 0.000000 0.129301
638.000000 72.105000 6.000000 0.000000 -2.000000 63.696547 18.812982 608.327384 1503.045043 13.875245 0.000000 0.084281
639.000000 58.696000 7.000000 0.000000 -2.000000 59.721774 20.809964 565.939968 1613.241438 17.046178 0.000000 0.091600
640.000000 49.131000 8.000000 0.000000 -2.000000 56.672556 22.269715 534.244005 1705.775930 20.365391 0.000000 0.110057
641.000000 71.647000 5.000000 1.000000 -2.000000 53.554273 6.992252 842.995415 1741.795046 13.966532 0.000000 0.059224
642.000000 58.122000 6.000000 1.000000 -2.000000 51.051881 11.137102 763.115586 1827.651041 17.217039 0.000000 0.099597
643.000000 48.478000 7.000000 1.000000 -2.000000 49.069357 14.121897 704.216239 1903.408475 20.642501 0.000000 0.133764
647.000000 49.477000 5.000000 2.000000 -2.000000 38.220226 -0.265060 979.979158 2307.747637 20.228150 0.000000 0.295336
655.000000 64.232000 7.000000 -3.000000 -1.000000 72.000439 48.855564 -256.849400 1472.491841 15.571639 0.000000 0.295297
656.000000 54.375000 8.000000 -3.000000 -1.000000 67.932859 46.523901 -160.125476 1575.136616 18.395958 0.000000 0.275278
657.000000 46.804000 9.000000 -3.000000 -1.000000 64.612684 44.735540 -91.404152 1660.026907 21.372826 0.000000 0.267260
658.000000 75.259000 6.000000 -2.000000 -1.000000 69.804521 43.017146 -29.262983 1482.479851 13.290873 0.000000 0.210422
659.000000 61.462000 7.000000 -2.000000 -1.000000 65.116807 41.216939 32.213381 1604.656078 16.275741 0.000000 0.214969
660.000000 51.511000 8.000000 -2.000000 -1.000000 61.493259 39.901116 75.042677 1702.965784 19.421171 0.000000 0.222175
661.000000 88.181000 5.000000 -1.000000 -1.000000 65.529326 34.626460 231.780486 1536.267797 11.344540 0.000000 0.151654
662.000000 68.775000 6.000000 -1.000000 -1.000000 60.438950 34.056995 247.471557 1677.833918 14.546748 0.000000 0.170988
663.000000 55.859000 7.000000 -1.000000 -1.000000 56.765597 33.664472 258.164789 1788.329438 17.911441 0.000000 0.190384
664.000000 46.758000 8.000000 -1.000000 -1.000000 53.995465 33.377536 265.919974 1877.579824 21.398578 0.000000 0.208869
665.000000 85.395000 3.000000 1.000000 -1.000000 38.362558 4.577155 888.835328 2305.120366 11.719830 0.000000 0.291931
#UB matrix in q= (UB) B0 G* 
#[[-0.296678351  0.559914309  0.772277899]
# [ 0.499334016 -0.598813945  0.625968367]
# [ 0.814031631  0.572153936 -0.102019818]]
#B0 matrix in q= UB (B0) G*
#[[ 0.19670273 -0.          0.03056101]
# [ 0.          0.19187965 -0.        ]
# [ 0.          0.          0.18806537]]
#UBB0 matrix in q= (UB B0) G* i.e. recip. basis vectors are columns in LT frame: astar = UBB0[:,0], bstar = UBB0[:,1], cstar = UBB0[:,2]. (abcstar as columns on xyzlab1, xlab1 = ui, ui = unit vector along incident beam)
#[[-0.05835744  0.10743616  0.13617194]
# [ 0.09822037 -0.11490021  0.13298312]
# [ 0.16012225  0.1097847   0.00569123]]
#Euler angles phi theta psi (deg)
#[125.085  95.852  51.025]
#deviatoric strain in direct crystal frame (10-3 unit)
#[[ 3.1  -0.37 -0.56]
# [-0.37  3.3   0.65]
# [-0.56  0.65 -6.4 ]]
#deviatoric strain in sample2 frame (10-3 unit)
#[[ 0.79 -3.44  2.22]
# [-3.44 -1.17  3.71]
# [ 2.22  3.71  0.38]]
#new lattice parameters
#[ 5.1505     5.2126325  5.3204419 89.9540948 99.2585669 90.0429524]
#CCDLabel
#sCMOS
#DetectorParameters
#[79.0, 975.0, 941.0, 0.0, 0.0]
#pixelsize
#0.0734
#Frame dimensions
#[2018, 2016]
#
