#Strain and Orientation Refinement from experimental file: /home/micha/LaueProjects/DepthEffects/testZrO2_161.cor
#File created at Wed Jun 28 14:27:57 2023 with indexingSpotsSet.py
#Number of indexed spots: 533
#Element
#ZrO2
#grainIndex
#G_0
#Mean Deviation(pixel): 0.114
##spot_index intensity h k l 2theta Chi Xexp Yexp Energy GrainIndex PixDev
0.000000 45.615000 6.000000 2.000000 -5.000000 48.218286 -15.870626 1280.994023 1940.811396 21.951900 0.000000 0.142280
1.000000 47.030000 7.000000 2.000000 -5.000000 55.250025 -19.803011 1362.553686 1734.581261 21.289314 0.000000 0.106697
2.000000 46.805000 8.000000 2.000000 -5.000000 60.888166 -23.246314 1437.330497 1593.305277 21.389592 0.000000 0.107657
3.000000 45.656000 9.000000 2.000000 -5.000000 65.437803 -26.265722 1506.136812 1489.543663 21.925982 0.000000 0.116012
4.000000 45.984000 5.000000 3.000000 -5.000000 46.341903 -4.060311 1051.400394 1970.608476 21.776860 0.000000 0.131671
5.000000 49.055000 6.000000 3.000000 -5.000000 54.547465 -8.876547 1143.091846 1716.658752 20.411449 0.000000 0.053657
6.000000 49.813000 7.000000 3.000000 -5.000000 61.150581 -13.184946 1227.144222 1549.960134 20.098848 0.000000 0.064057
7.000000 49.153000 8.000000 3.000000 -5.000000 66.450921 -17.020338 1304.473994 1431.569220 20.366639 0.000000 0.090583
8.000000 47.693000 9.000000 3.000000 -5.000000 70.718708 -20.427420 1375.856672 1342.784612 20.988272 0.000000 0.107204
9.000000 45.827000 10.000000 3.000000 -5.000000 74.176993 -23.453729 1441.952898 1273.497788 21.841532 0.000000 0.115368
10.000000 47.999000 5.000000 4.000000 -5.000000 51.902589 2.776104 922.810380 1785.835459 20.861545 0.000000 0.060730
11.000000 50.466000 6.000000 4.000000 -5.000000 59.662506 -2.192487 1016.205721 1571.342231 19.839664 0.000000 0.023068
12.000000 50.948000 7.000000 4.000000 -5.000000 65.967087 -6.735853 1102.118365 1424.273931 19.649984 0.000000 0.073958
13.000000 50.167000 8.000000 4.000000 -5.000000 71.055385 -10.856430 1181.412931 1317.167029 19.953629 0.000000 0.103830
14.000000 48.651000 9.000000 4.000000 -5.000000 75.158300 -14.573681 1254.825770 1235.689057 20.573721 0.000000 0.119950
15.000000 46.750000 10.000000 4.000000 -5.000000 78.476008 -17.917079 1322.987900 1171.628794 21.408915 0.000000 0.126996
16.000000 48.121000 2.000000 2.000000 -2.000000 56.214555 9.001079 804.510947 1670.098912 8.322875 0.000000 0.046950
17.000000 50.287000 6.000000 5.000000 -5.000000 63.627119 4.035589 899.066349 1475.968742 19.909082 0.000000 0.056082
18.000000 50.744000 7.000000 5.000000 -5.000000 69.731520 -0.602901 986.325848 1338.482372 19.727586 0.000000 0.095145
19.000000 50.059000 8.000000 5.000000 -5.000000 74.707097 -4.891097 1067.102506 1236.373086 19.995604 0.000000 0.120718
20.000000 48.671000 9.000000 5.000000 -5.000000 78.742792 -8.824627 1142.092900 1157.795320 20.564107 0.000000 0.135043
21.000000 46.891000 4.000000 2.000000 -2.000000 82.012770 -12.413132 1211.897260 1095.633544 8.537355 0.000000 0.141338
22.000000 46.990000 5.000000 6.000000 -5.000000 59.470461 14.566694 695.314344 1596.814217 21.306567 0.000000 0.069158
23.000000 49.014000 6.000000 6.000000 -5.000000 66.595243 9.722417 790.592223 1413.648659 20.424894 0.000000 0.080726
24.000000 49.573000 7.000000 6.000000 -5.000000 72.557617 5.108611 878.780252 1280.513384 20.192394 0.000000 0.110546
25.000000 49.098000 8.000000 6.000000 -5.000000 77.483067 0.764325 960.641402 1179.963693 20.385997 0.000000 0.132624
26.000000 47.946000 9.000000 6.000000 -5.000000 81.518742 -3.288021 1036.832959 1101.757973 20.874332 0.000000 0.145952
27.000000 46.386000 10.000000 6.000000 -5.000000 84.810393 -7.040477 1107.924211 1039.496285 21.574998 0.000000 0.152351
28.000000 47.077000 6.000000 7.000000 -5.000000 68.752669 14.838540 689.856138 1373.927801 21.263950 0.000000 0.096158
29.000000 47.778000 7.000000 7.000000 -5.000000 74.597801 10.339847 778.630836 1242.399874 20.950286 0.000000 0.119068
30.000000 47.549000 8.000000 7.000000 -5.000000 79.501876 6.033113 861.247975 1141.553697 21.049113 0.000000 0.138634
31.000000 46.676000 9.000000 7.000000 -5.000000 83.573507 1.951521 938.326729 1062.300065 21.441582 0.000000 0.151630
32.000000 45.631000 7.000000 8.000000 -5.000000 76.009678 15.072880 685.139982 1218.711651 21.935356 0.000000 0.122287
33.000000 45.639000 8.000000 8.000000 -5.000000 80.896611 10.874197 768.241029 1116.613061 21.929701 0.000000 0.139671
35.000000 47.916000 7.000000 0.000000 -4.000000 51.507572 -36.935904 1784.159772 2011.789523 20.894609 0.000000 0.271477
36.000000 47.271000 4.000000 0.000000 -2.000000 57.241331 -39.284878 1855.462403 1835.727930 10.588914 0.000000 0.253649
37.000000 45.736000 9.000000 0.000000 -4.000000 61.808729 -41.275809 1919.742785 1708.611480 21.886965 0.000000 0.247497
38.000000 52.950000 5.000000 1.000000 -4.000000 44.738703 -22.145170 1413.026520 2113.661388 18.911013 0.000000 0.214214
39.000000 55.153000 6.000000 1.000000 -4.000000 53.309904 -26.376202 1508.720031 1836.143327 18.153892 0.000000 0.160959
40.000000 54.552000 7.000000 1.000000 -4.000000 59.856125 -29.923291 1594.478971 1662.139839 18.351735 0.000000 0.150711
41.000000 52.612000 8.000000 1.000000 -4.000000 64.930145 -32.918312 1671.774059 1540.779597 19.026603 0.000000 0.151798
42.000000 50.113000 9.000000 1.000000 -4.000000 68.929927 -35.467743 1741.799361 1450.135692 19.973888 0.000000 0.154657
43.000000 47.455000 10.000000 1.000000 -4.000000 72.136295 -37.655972 1805.534425 1379.150543 21.091362 0.000000 0.158016
44.000000 55.091000 2.000000 1.000000 -2.000000 43.057201 -7.671904 1119.983299 2103.280403 9.088744 0.000000 0.183603
45.000000 60.072000 5.000000 2.000000 -4.000000 53.377259 -13.428936 1231.983947 1763.477249 16.668217 0.000000 0.083241
46.000000 60.674000 3.000000 1.000000 -2.000000 61.208961 -18.366235 1332.331136 1564.224497 8.250324 0.000000 0.084655
47.000000 59.005000 7.000000 2.000000 -4.000000 67.166972 -22.588004 1422.753706 1431.812610 16.965623 0.000000 0.104300
48.000000 56.300000 4.000000 1.000000 -2.000000 71.747762 -26.202237 1504.654636 1336.607403 8.889444 0.000000 0.115177
49.000000 53.226000 9.000000 2.000000 -4.000000 75.319633 -29.307942 1579.184366 1264.355392 18.804320 0.000000 0.118870
50.000000 50.120000 5.000000 1.000000 -2.000000 78.147198 -31.990499 1647.295170 1207.331073 9.984277 0.000000 0.118893
51.000000 47.142000 11.000000 2.000000 -4.000000 80.419117 -34.321207 1709.782066 1160.971504 21.228555 0.000000 0.117966
52.000000 50.215000 3.000000 3.000000 -4.000000 38.397063 7.909122 825.477160 2312.131198 19.943002 0.000000 0.257435
53.000000 59.623000 4.000000 3.000000 -4.000000 50.635568 1.120846 953.942348 1824.128686 16.794618 0.000000 0.073988
54.000000 63.215000 5.000000 3.000000 -4.000000 60.218334 -4.991945 1069.011088 1559.287468 15.838287 0.000000 0.033339
55.000000 63.174000 6.000000 3.000000 -4.000000 67.568889 -10.407110 1172.675022 1392.731743 15.846540 0.000000 0.086345
56.000000 61.168000 7.000000 3.000000 -4.000000 73.177198 -15.156710 1266.549638 1278.147754 16.364206 0.000000 0.112936
57.000000 58.246000 8.000000 3.000000 -4.000000 77.472600 -19.302190 1351.959071 1194.392358 17.183573 0.000000 0.123413
58.000000 55.000000 9.000000 3.000000 -4.000000 80.791568 -22.916010 1429.998949 1130.435047 18.196342 0.000000 0.124414
59.000000 51.743000 10.000000 3.000000 -4.000000 83.384988 -26.070478 1501.583646 1079.955428 19.340510 0.000000 0.120079
60.000000 48.629000 11.000000 3.000000 -4.000000 85.436149 -28.832060 1567.482278 1039.070255 20.578017 0.000000 0.113171
61.000000 45.725000 12.000000 3.000000 -4.000000 87.078254 -31.259144 1628.346442 1005.261122 21.884208 0.000000 0.105699
62.000000 52.594000 3.000000 4.000000 -4.000000 44.930129 15.595420 674.585974 2061.162338 19.039744 0.000000 0.182092
63.000000 63.172000 5.000000 4.000000 -4.000000 65.269361 2.844034 921.531246 1437.348886 15.847886 0.000000 0.066864
64.000000 63.142000 3.000000 2.000000 -2.000000 72.348454 -2.791447 1027.478525 1283.893562 7.926628 0.000000 0.109563
65.000000 61.332000 7.000000 4.000000 -4.000000 77.812074 -7.874160 1123.853455 1175.678352 16.319530 0.000000 0.132326
66.000000 55.526000 9.000000 4.000000 -4.000000 85.248761 -16.442849 1292.645457 1034.271139 18.022911 0.000000 0.141510
67.000000 52.374000 5.000000 2.000000 -2.000000 87.755053 -20.010797 1366.968778 985.903570 9.553226 0.000000 0.136098
68.000000 49.320000 11.000000 4.000000 -4.000000 89.710330 -23.168709 1435.604694 946.918805 20.288553 0.000000 0.127306
69.000000 46.443000 3.000000 1.000000 -1.000000 91.248191 -25.967229 1499.181970 914.915841 5.386163 0.000000 0.116710
70.000000 51.880000 3.000000 5.000000 -4.000000 49.660913 22.060663 538.822761 1927.232281 19.300355 0.000000 0.163707
71.000000 58.221000 4.000000 5.000000 -4.000000 60.144905 15.855377 669.315559 1583.207908 17.196358 0.000000 0.075059
72.000000 61.052000 5.000000 5.000000 -4.000000 68.788109 9.885595 787.435402 1365.019664 16.396929 0.000000 0.092396
73.000000 61.334000 6.000000 5.000000 -4.000000 75.712674 4.258213 894.862392 1215.849137 16.319735 0.000000 0.125042
74.000000 59.988000 7.000000 5.000000 -4.000000 81.159877 -0.957363 992.985617 1108.414382 16.684142 0.000000 0.145247
75.000000 57.720000 8.000000 5.000000 -4.000000 85.400798 -5.728203 1082.963549 1028.016007 17.338237 0.000000 0.154382
76.000000 55.005000 9.000000 5.000000 -4.000000 88.687045 -10.051119 1165.769990 966.052505 18.192615 0.000000 0.155585
77.000000 52.140000 10.000000 5.000000 -4.000000 91.231126 -13.943811 1242.229464 917.167608 19.191231 0.000000 0.151324
78.000000 49.297000 11.000000 5.000000 -4.000000 93.203433 -17.436570 1313.044763 877.859772 20.297167 0.000000 0.143383
79.000000 46.569000 12.000000 5.000000 -4.000000 94.736661 -20.565764 1378.818613 845.748743 21.485113 0.000000 0.133050
80.000000 49.605000 3.000000 6.000000 -4.000000 53.059424 27.445338 416.021084 1852.934509 20.184229 0.000000 0.173519
81.000000 55.062000 2.000000 3.000000 -2.000000 62.840801 21.712690 546.414332 1535.339608 9.090840 0.000000 0.100474
82.000000 57.818000 5.000000 6.000000 -4.000000 71.119132 16.068688 664.980715 1324.062463 17.313120 0.000000 0.105854
83.000000 58.467000 3.000000 3.000000 -2.000000 77.927216 10.616329 773.259500 1175.211830 8.559485 0.000000 0.131066
84.000000 57.655000 7.000000 6.000000 -4.000000 83.409642 5.438319 872.533944 1065.910199 17.358435 0.000000 0.149950
85.000000 55.927000 4.000000 3.000000 -2.000000 87.760243 0.591817 963.882396 983.097247 8.946581 0.000000 0.160187
86.000000 53.688000 9.000000 6.000000 -4.000000 91.179111 -3.891694 1048.217625 918.796224 18.638001 0.000000 0.163377
87.000000 51.213000 5.000000 3.000000 -2.000000 93.849083 -8.002826 1126.317428 867.874310 9.768835 0.000000 0.161309
88.000000 48.677000 11.000000 6.000000 -4.000000 95.926151 -11.748936 1198.848688 826.888566 20.554714 0.000000 0.155434
89.000000 46.185000 6.000000 3.000000 -2.000000 97.537987 -15.148617 1266.386462 793.449985 10.831432 0.000000 0.146857
90.000000 46.695000 3.000000 7.000000 -4.000000 55.512746 31.925182 304.409324 1812.132107 21.440678 0.000000 0.193209
91.000000 51.454000 4.000000 7.000000 -4.000000 64.660278 26.677781 434.203220 1511.396409 19.455609 0.000000 0.120680
92.000000 54.134000 5.000000 7.000000 -4.000000 72.586604 21.422633 552.714355 1303.619352 18.490480 0.000000 0.112421
93.000000 55.093000 6.000000 7.000000 -4.000000 79.270782 16.246869 661.352636 1153.419349 18.166788 0.000000 0.130285
94.000000 54.768000 7.000000 7.000000 -4.000000 84.786594 11.229992 761.302450 1041.121363 18.272696 0.000000 0.147970
95.000000 53.568000 8.000000 7.000000 -4.000000 89.262279 6.437231 853.566027 954.946690 18.680398 0.000000 0.159558
96.000000 51.823000 9.000000 7.000000 -4.000000 92.847540 1.915872 938.997154 887.435277 19.308210 0.000000 0.165065
97.000000 49.775000 10.000000 7.000000 -4.000000 95.691412 -2.305275 1018.327686 833.647599 20.101487 0.000000 0.165600
98.000000 47.593000 11.000000 7.000000 -4.000000 97.929899 -6.213973 1092.188556 790.193271 21.022289 0.000000 0.162293
99.000000 47.825000 1.000000 2.000000 -1.000000 65.873804 30.880617 331.345594 1502.662425 5.232728 0.000000 0.139339
100.000000 50.399000 5.000000 8.000000 -4.000000 73.451095 26.027543 449.415589 1296.907418 19.860236 0.000000 0.116746
101.000000 51.575000 3.000000 4.000000 -2.000000 79.986564 21.177155 558.026587 1144.803237 9.702600 0.000000 0.125742
102.000000 51.646000 7.000000 8.000000 -4.000000 85.506384 16.397936 658.271500 1029.172001 19.376679 0.000000 0.141342
103.000000 50.909000 4.000000 4.000000 -2.000000 90.087958 11.752518 751.081112 939.312344 9.827908 0.000000 0.153937
104.000000 49.622000 9.000000 8.000000 -4.000000 93.836689 7.293215 837.253073 868.231605 20.164168 0.000000 0.161672
105.000000 47.992000 5.000000 4.000000 -2.000000 96.867842 3.059399 917.474874 811.181940 10.423932 0.000000 0.164858
106.000000 46.172000 11.000000 8.000000 -4.000000 99.294327 -0.923122 992.342236 764.836609 21.668693 0.000000 0.164261
107.000000 46.824000 5.000000 9.000000 -4.000000 73.905192 29.982030 354.051214 1299.528195 21.375815 0.000000 0.122446
108.000000 48.132000 6.000000 9.000000 -4.000000 80.266093 25.469770 462.330854 1145.505381 20.792953 0.000000 0.120387
109.000000 48.500000 7.000000 9.000000 -4.000000 85.751974 20.966720 562.566456 1026.613821 20.633248 0.000000 0.132110
110.000000 48.141000 8.000000 9.000000 -4.000000 90.403548 16.527638 655.622297 933.092568 20.785804 0.000000 0.144819
111.000000 47.252000 9.000000 9.000000 -4.000000 94.290390 12.202737 742.243122 858.388019 21.175359 0.000000 0.154356
112.000000 46.003000 10.000000 9.000000 -4.000000 97.497310 8.034586 823.074115 797.950382 21.749040 0.000000 0.159993
120.000000 75.616000 4.000000 1.000000 -3.000000 50.827804 -20.815045 1384.169281 1879.166730 13.241774 0.000000 0.143247
121.000000 75.771000 5.000000 1.000000 -3.000000 60.499647 -26.312336 1507.226122 1620.331619 13.212723 0.000000 0.125294
122.000000 72.047000 6.000000 1.000000 -3.000000 67.312903 -30.711175 1614.340731 1464.335252 13.893729 0.000000 0.132549
123.000000 67.135000 7.000000 1.000000 -3.000000 72.248710 -34.271817 1708.422657 1357.942754 14.908843 0.000000 0.137552
124.000000 62.134000 8.000000 1.000000 -3.000000 75.929580 -37.191968 1791.714037 1279.627703 16.107703 0.000000 0.141424
125.000000 57.455000 9.000000 1.000000 -3.000000 78.749195 -39.618406 1865.970589 1218.945760 17.418402 0.000000 0.147070
126.000000 53.223000 10.000000 1.000000 -3.000000 80.961087 -41.659719 1932.586730 1170.174627 18.802226 0.000000 0.155824
127.000000 49.449000 11.000000 1.000000 -3.000000 82.732691 -43.396714 1992.683970 1129.893057 20.236478 0.000000 0.167680
128.000000 46.098000 12.000000 1.000000 -3.000000 84.177543 -44.890135 2047.174560 1095.916296 21.706975 0.000000 0.181973
130.000000 78.177000 3.000000 2.000000 -3.000000 48.343104 -1.719588 1007.311958 1898.923131 12.808992 0.000000 0.102960
131.000000 83.898000 4.000000 2.000000 -3.000000 60.868904 -9.593459 1156.915168 1549.330488 11.933469 0.000000 0.050613
132.000000 81.989000 5.000000 2.000000 -3.000000 69.595195 -16.170082 1287.083034 1357.864486 12.209388 0.000000 0.100257
133.000000 77.047000 6.000000 2.000000 -3.000000 75.694176 -21.610899 1401.371893 1236.211986 12.990804 0.000000 0.118197
134.000000 71.289000 7.000000 2.000000 -3.000000 80.033002 -26.110696 1502.520299 1151.637045 14.038814 0.000000 0.119322
135.000000 65.645000 8.000000 2.000000 -3.000000 83.190710 -29.850954 1592.671302 1089.176965 15.244571 0.000000 0.113331
136.000000 60.459000 9.000000 2.000000 -3.000000 85.543276 -32.983982 1673.525974 1041.007149 16.551383 0.000000 0.106134
137.000000 55.818000 10.000000 2.000000 -3.000000 87.335343 -35.631689 1746.451760 1002.629799 17.926818 0.000000 0.101634
138.000000 51.708000 11.000000 2.000000 -3.000000 88.728461 -37.889664 1812.560448 971.270892 19.350982 0.000000 0.102123
139.000000 48.079000 12.000000 2.000000 -3.000000 89.831426 -39.832370 1872.765247 945.123669 20.810992 0.000000 0.108137
140.000000 65.137000 2.000000 3.000000 -3.000000 40.667899 17.867809 628.034086 2257.211440 15.373732 0.000000 0.249697
141.000000 84.574000 4.000000 3.000000 -3.000000 67.831533 0.905057 957.997200 1379.591430 11.836933 0.000000 0.083541
142.000000 82.762000 5.000000 3.000000 -3.000000 76.147713 -6.241445 1092.710769 1207.987468 12.094217 0.000000 0.126568
143.000000 72.630000 7.000000 3.000000 -3.000000 86.155390 -17.680941 1318.094874 1016.915157 13.778395 0.000000 0.140201
144.000000 67.095000 8.000000 3.000000 -3.000000 89.110746 -22.158443 1413.317171 959.038088 14.913955 0.000000 0.130505
145.000000 57.242000 10.000000 3.000000 -3.000000 92.817154 -29.219608 1577.004013 880.315629 17.479404 0.000000 0.101866
146.000000 53.061000 11.000000 3.000000 -3.000000 93.985713 -32.012229 1647.862764 852.559080 18.855921 0.000000 0.088493
147.000000 49.348000 4.000000 1.000000 -1.000000 94.867986 -34.425315 1712.652784 829.872332 6.758058 0.000000 0.079028
148.000000 46.053000 13.000000 3.000000 -3.000000 95.542410 -36.524272 1772.121698 811.036288 21.724556 0.000000 0.075598
149.000000 64.559000 2.000000 4.000000 -3.000000 47.138589 26.002648 449.994638 2052.296732 15.510047 0.000000 0.214971
150.000000 76.343000 3.000000 4.000000 -3.000000 61.161294 17.914391 627.067868 1563.842113 13.114027 0.000000 0.084308
151.000000 80.556000 4.000000 4.000000 -3.000000 72.147762 10.144172 782.426581 1293.147925 12.426181 0.000000 0.108672
152.000000 79.755000 5.000000 4.000000 -3.000000 80.345789 2.934140 919.834300 1124.329546 12.549196 0.000000 0.142373
153.000000 76.273000 6.000000 4.000000 -3.000000 86.293683 -3.574422 1042.232330 1010.855881 13.120592 0.000000 0.157108
154.000000 71.649000 7.000000 4.000000 -3.000000 90.550854 -9.336428 1151.952672 930.513028 13.965924 0.000000 0.158208
155.000000 66.746000 8.000000 4.000000 -3.000000 93.584056 -14.376156 1250.868026 871.406781 14.990849 0.000000 0.150736
156.000000 61.991000 9.000000 4.000000 -3.000000 95.746022 -18.757011 1340.499566 826.623918 16.139886 0.000000 0.138101
157.000000 57.571000 10.000000 4.000000 -3.000000 97.290829 -22.558138 1422.095719 791.890355 17.378273 0.000000 0.122601
158.000000 53.549000 11.000000 4.000000 -3.000000 98.397538 -25.859935 1496.690675 764.433071 18.683121 0.000000 0.105887
159.000000 49.925000 12.000000 4.000000 -3.000000 99.191416 -28.736626 1565.148453 742.381829 20.038745 0.000000 0.089349
160.000000 46.674000 13.000000 4.000000 -3.000000 99.760176 -31.253312 1628.196517 724.434424 21.434033 0.000000 0.074450
162.000000 60.662000 2.000000 5.000000 -3.000000 51.393697 32.311998 294.279504 1957.847185 16.505080 0.000000 0.227595
163.000000 70.233000 3.000000 5.000000 -3.000000 64.132678 25.113986 470.506496 1517.346872 14.253839 0.000000 0.114286
164.000000 74.468000 4.000000 5.000000 -3.000000 74.561537 17.950396 626.320689 1253.447098 13.441165 0.000000 0.116860
165.000000 74.732000 5.000000 5.000000 -3.000000 82.702175 11.036671 765.074613 1081.432267 13.391946 0.000000 0.143940
166.000000 72.533000 6.000000 5.000000 -3.000000 88.845564 4.545975 889.424760 962.757319 13.796362 0.000000 0.160397
167.000000 69.044000 7.000000 5.000000 -3.000000 93.377164 -1.410600 1001.503302 877.467556 14.492258 0.000000 0.165504
168.000000 65.026000 8.000000 5.000000 -3.000000 96.669601 -6.784308 1103.041372 814.255895 15.386534 0.000000 0.162336
169.000000 60.923000 9.000000 5.000000 -3.000000 99.036651 -11.575868 1195.459116 766.271909 16.421925 0.000000 0.153545
170.000000 56.968000 10.000000 5.000000 -3.000000 100.723848 -15.818331 1279.932524 729.145304 17.561271 0.000000 0.141064
171.000000 53.272000 11.000000 5.000000 -3.000000 101.915603 -19.561846 1357.443739 699.971054 18.779407 0.000000 0.126283
172.000000 49.873000 12.000000 5.000000 -3.000000 102.747337 -22.862718 1428.819419 676.752336 20.058683 0.000000 0.110230
173.000000 46.776000 13.000000 5.000000 -3.000000 103.317397 -25.776666 1494.760331 658.077828 21.386354 0.000000 0.093734
174.000000 55.844000 2.000000 6.000000 -3.000000 54.248875 37.237493 156.937541 1914.269573 17.927836 0.000000 0.255811
175.000000 67.910000 4.000000 6.000000 -3.000000 75.745380 24.407005 486.612582 1241.270537 14.738561 0.000000 0.117781
176.000000 68.969000 5.000000 6.000000 -3.000000 83.775298 17.979059 625.725649 1064.419129 14.510377 0.000000 0.136249
177.000000 65.478000 7.000000 6.000000 -3.000000 94.921093 5.855339 864.623651 847.843846 15.281048 0.000000 0.163204
178.000000 62.390000 8.000000 6.000000 -3.000000 98.546053 0.375407 967.947923 779.258736 16.036303 0.000000 0.164831
179.000000 59.026000 3.000000 2.000000 -1.000000 101.219626 -4.641113 1062.373921 726.802499 5.649698 0.000000 0.160657
180.000000 55.639000 10.000000 6.000000 -3.000000 103.161999 -9.183505 1149.003671 686.042469 17.980279 0.000000 0.152299
181.000000 52.368000 11.000000 6.000000 -3.000000 104.551215 -13.266682 1228.764433 653.964449 19.102692 0.000000 0.141011
182.000000 49.286000 4.000000 2.000000 -1.000000 105.526094 -16.921384 1302.442031 628.457735 6.765629 0.000000 0.127733
183.000000 46.422000 13.000000 6.000000 -3.000000 106.192457 -20.186291 1370.706824 608.007398 21.548577 0.000000 0.113182
184.000000 51.092000 2.000000 7.000000 -3.000000 56.220486 41.135971 34.898070 1896.929832 19.594408 0.000000 0.290135
185.000000 57.731000 3.000000 7.000000 -3.000000 66.871157 35.515865 206.837006 1505.796714 17.338872 0.000000 0.165970
186.000000 61.656000 4.000000 7.000000 -3.000000 76.182258 29.709844 360.847486 1245.781241 16.232890 0.000000 0.120021
187.000000 63.211000 5.000000 7.000000 -3.000000 84.023512 23.831319 499.594717 1064.178926 15.831805 0.000000 0.124773
188.000000 62.956000 6.000000 7.000000 -3.000000 90.420395 18.002418 625.240575 932.696263 15.894101 0.000000 0.141256
189.000000 61.469000 7.000000 7.000000 -3.000000 95.502174 12.339268 739.557067 834.871798 16.277283 0.000000 0.153774
190.000000 59.228000 8.000000 7.000000 -3.000000 99.450168 6.939013 844.010426 760.530382 16.891849 0.000000 0.159901
191.000000 56.589000 9.000000 7.000000 -3.000000 102.458693 1.871886 939.824336 703.078286 17.678753 0.000000 0.160365
192.000000 53.791000 10.000000 7.000000 -3.000000 104.710918 -2.820633 1028.028099 658.077504 18.597462 0.000000 0.156375
193.000000 50.988000 11.000000 7.000000 -3.000000 106.366898 -7.122761 1109.493751 622.446574 19.619232 0.000000 0.149023
194.000000 48.270000 12.000000 7.000000 -3.000000 107.559817 -11.038702 1184.964997 593.989579 20.723109 0.000000 0.139192
195.000000 45.689000 13.000000 7.000000 -3.000000 108.396923 -14.586356 1255.079982 571.106778 21.893459 0.000000 0.127574
197.000000 52.369000 3.000000 8.000000 -3.000000 67.421054 39.277072 94.782344 1519.165374 19.113534 0.000000 0.196450
198.000000 56.007000 4.000000 8.000000 -3.000000 76.183609 34.072858 247.037318 1260.547843 17.870005 0.000000 0.129392
199.000000 57.822000 5.000000 8.000000 -3.000000 83.773185 28.735205 384.886269 1074.925463 17.307034 0.000000 0.114994
200.000000 58.148000 6.000000 8.000000 -3.000000 90.162422 23.353551 510.281437 937.676649 17.208282 0.000000 0.125832
201.000000 57.369000 7.000000 8.000000 -3.000000 95.408710 18.021821 624.837562 833.837633 17.440320 0.000000 0.139680
202.000000 55.841000 8.000000 8.000000 -3.000000 99.623189 12.828858 729.901796 753.838358 17.916383 0.000000 0.149452
203.000000 53.850000 9.000000 8.000000 -3.000000 102.943038 7.850110 826.606927 691.304736 18.577610 0.000000 0.154168
204.000000 51.611000 10.000000 8.000000 -3.000000 105.510820 3.142334 915.912388 641.848495 19.382663 0.000000 0.154404
205.000000 49.273000 11.000000 8.000000 -3.000000 107.461246 -1.258054 998.636191 602.364271 20.301655 0.000000 0.151011
206.000000 46.935000 12.000000 8.000000 -3.000000 108.914080 -5.333527 1075.480065 570.602934 21.312445 0.000000 0.144786
207.000000 47.701000 1.000000 3.000000 -1.000000 67.700387 42.365326 -6.597941 1538.420361 6.994562 0.000000 0.230502
208.000000 51.026000 4.000000 9.000000 -3.000000 75.940164 37.686348 143.554810 1281.605247 19.613946 0.000000 0.147617
209.000000 52.944000 5.000000 9.000000 -3.000000 83.239072 32.847359 280.115880 1092.878540 18.901574 0.000000 0.112155
210.000000 53.648000 2.000000 3.000000 -1.000000 89.544828 27.911669 404.850821 950.676148 6.217226 0.000000 0.111363
211.000000 53.392000 7.000000 9.000000 -3.000000 94.870659 22.950730 519.232081 841.399940 18.739483 0.000000 0.123317
212.000000 52.431000 8.000000 9.000000 -3.000000 99.277650 18.038194 624.497409 756.093009 19.081391 0.000000 0.135278
213.000000 50.991000 3.000000 3.000000 -1.000000 102.856527 13.243519 721.694822 688.643648 6.539765 0.000000 0.143525
214.000000 49.250000 10.000000 9.000000 -3.000000 105.712073 8.626446 811.717619 634.758160 20.311548 0.000000 0.147610
215.000000 47.346000 11.000000 9.000000 -3.000000 107.951430 4.233355 895.331913 591.345240 21.127526 0.000000 0.147992
216.000000 46.680000 4.000000 10.000000 -3.000000 75.565935 40.705680 49.055207 1306.438158 21.439891 0.000000 0.173170
217.000000 48.601000 5.000000 10.000000 -3.000000 82.556148 36.311671 184.045661 1115.513057 20.590531 0.000000 0.119488
218.000000 49.536000 6.000000 10.000000 -3.000000 88.724067 31.794542 307.811196 969.204495 20.199830 0.000000 0.102038
219.000000 49.652000 7.000000 10.000000 -3.000000 94.057526 27.206900 421.696010 855.154352 20.151186 0.000000 0.107295
220.000000 49.128000 8.000000 10.000000 -3.000000 98.584062 22.606534 526.837912 765.010080 20.364432 0.000000 0.119117
221.000000 48.136000 9.000000 10.000000 -3.000000 102.359480 18.052195 624.206475 692.948781 20.782641 0.000000 0.129787
222.000000 46.824000 10.000000 10.000000 -3.000000 105.456898 13.599195 714.633013 634.804538 21.364266 0.000000 0.137136
223.000000 45.829000 6.000000 11.000000 -3.000000 87.801856 35.113130 218.199169 991.502725 21.834078 0.000000 0.101724
224.000000 46.200000 7.000000 11.000000 -3.000000 93.087820 30.880895 331.338496 873.348986 21.656990 0.000000 0.094822
225.000000 46.004000 8.000000 11.000000 -3.000000 97.670783 26.597107 436.099938 778.882334 21.747606 0.000000 0.102883
240.000000 87.622000 5.000000 0.000000 -2.000000 65.508690 -42.980887 1977.989612 1611.190070 11.423643 0.000000 0.247194
241.000000 79.441000 6.000000 0.000000 -2.000000 71.092948 -45.740719 2079.488994 1469.216757 12.598906 0.000000 0.256192
242.000000 71.823000 7.000000 0.000000 -2.000000 75.073199 -47.870970 2164.945883 1368.724906 13.934091 0.000000 0.272851
243.000000 65.164000 8.000000 0.000000 -2.000000 78.034681 -49.560693 2237.885115 1292.646225 15.357122 0.000000 0.293705
244.000000 59.446000 9.000000 0.000000 -2.000000 80.315122 -50.931519 2300.869366 1232.443635 16.833577 0.000000 0.316468
245.000000 54.547000 10.000000 0.000000 -2.000000 82.120569 -52.064730 2355.806473 1183.292501 18.344942 0.000000 0.339678
248.000000 88.727000 6.000000 1.000000 -2.000000 82.270452 -36.358641 1767.313985 1122.400670 11.278706 0.000000 0.117942
249.000000 78.927000 7.000000 1.000000 -2.000000 85.075786 -39.735920 1869.697154 1061.584280 12.678254 0.000000 0.124365
250.000000 70.765000 8.000000 1.000000 -2.000000 87.074255 -42.407953 1958.065729 1015.499503 14.139945 0.000000 0.140115
251.000000 63.969000 9.000000 1.000000 -2.000000 88.553125 -44.566045 2035.112936 979.157700 15.641420 0.000000 0.162209
252.000000 58.273000 10.000000 1.000000 -2.000000 89.682467 -46.340773 2102.883459 949.640158 17.169897 0.000000 0.187337
253.000000 53.454000 11.000000 1.000000 -2.000000 90.567783 -47.823297 2162.957568 925.114125 18.717540 0.000000 0.213341
254.000000 49.336000 12.000000 1.000000 -2.000000 91.277253 -49.078717 2216.575891 904.364524 20.279279 0.000000 0.239041
255.000000 45.786000 13.000000 1.000000 -2.000000 91.856530 -50.154533 2264.726007 886.550405 21.851686 0.000000 0.263845
257.000000 82.636000 7.000000 2.000000 -2.000000 93.443339 -30.668002 1613.244052 865.708887 12.107802 0.000000 0.094844
258.000000 66.818000 9.000000 2.000000 -2.000000 95.819466 -37.472911 1800.061469 802.782065 14.973045 0.000000 0.076469
259.000000 60.766000 5.000000 1.000000 -1.000000 96.470511 -39.981287 1877.519287 781.696315 8.232015 0.000000 0.088076
260.000000 55.642000 11.000000 2.000000 -2.000000 96.924877 -42.074419 1946.633979 764.892658 17.979801 0.000000 0.108254
261.000000 51.266000 6.000000 1.000000 -1.000000 97.246943 -43.843107 2008.684638 751.238327 9.757086 0.000000 0.131947
262.000000 47.497000 13.000000 2.000000 -2.000000 97.477876 -45.354651 2064.701605 739.960067 21.062855 0.000000 0.156560
264.000000 83.088000 7.000000 3.000000 -2.000000 99.751555 -21.012096 1388.411379 742.852910 12.040747 0.000000 0.124753
265.000000 74.958000 8.000000 3.000000 -2.000000 101.066963 -25.815832 1495.667932 707.144768 13.346195 0.000000 0.099777
266.000000 67.970000 9.000000 3.000000 -2.000000 101.832765 -29.771316 1590.684201 681.220812 14.718048 0.000000 0.075553
267.000000 61.989000 10.000000 3.000000 -2.000000 102.258621 -33.055708 1675.442401 661.982402 16.137688 0.000000 0.056593
268.000000 56.861000 11.000000 3.000000 -2.000000 102.471843 -35.809480 1751.518661 647.456817 17.592865 0.000000 0.050006
269.000000 52.442000 12.000000 3.000000 -2.000000 102.550906 -38.141495 1820.181950 636.339055 19.075185 0.000000 0.059173
270.000000 48.610000 13.000000 3.000000 -2.000000 102.544989 -40.135536 1882.465428 627.738155 20.578704 0.000000 0.077664
272.000000 80.975000 7.000000 4.000000 -2.000000 103.916222 -11.280841 1189.690582 669.066968 12.354295 0.000000 0.146956
273.000000 67.612000 9.000000 4.000000 -2.000000 106.435668 -21.685428 1402.992459 599.319258 14.795015 0.000000 0.105610
274.000000 62.043000 5.000000 2.000000 -1.000000 106.897828 -25.710165 1493.220650 578.115851 8.061346 0.000000 0.082450
275.000000 57.163000 11.000000 4.000000 -2.000000 107.075458 -29.123599 1574.638481 562.545978 17.498802 0.000000 0.059992
276.000000 52.890000 6.000000 2.000000 -1.000000 107.073081 -32.035707 1648.476320 551.061335 9.456244 0.000000 0.041140
277.000000 49.139000 13.000000 4.000000 -2.000000 106.957936 -34.537190 1715.745626 542.591477 20.355914 0.000000 0.032950
278.000000 45.835000 7.000000 2.000000 -1.000000 106.773502 -36.701387 1777.285568 536.379087 10.911639 0.000000 0.041401
281.000000 82.442000 2.000000 5.000000 -2.000000 67.188860 37.491879 149.372714 1511.526985 12.141510 0.000000 0.180711
282.000000 89.757000 3.000000 5.000000 -2.000000 80.251220 29.201182 373.450320 1152.839891 11.149948 0.000000 0.117003
283.000000 90.784000 4.000000 5.000000 -2.000000 90.348818 20.784328 566.490990 933.991300 11.022149 0.000000 0.133666
284.000000 87.831000 5.000000 5.000000 -2.000000 97.694417 12.594640 734.525446 792.000761 11.391305 0.000000 0.151925
285.000000 82.867000 6.000000 5.000000 -2.000000 102.783313 4.932340 882.117026 695.893909 12.072546 0.000000 0.157911
286.000000 77.172000 7.000000 5.000000 -2.000000 106.163860 -2.010494 1012.782399 628.851506 12.962584 0.000000 0.153770
287.000000 71.454000 8.000000 5.000000 -2.000000 108.316784 -8.157179 1129.275373 581.058211 13.999179 0.000000 0.142677
288.000000 66.057000 9.000000 5.000000 -2.000000 109.616703 -13.519514 1233.783113 546.462768 15.142595 0.000000 0.127069
289.000000 61.117000 10.000000 5.000000 -2.000000 110.336609 -18.161424 1328.064754 521.169613 16.366269 0.000000 0.108673
290.000000 56.665000 11.000000 5.000000 -2.000000 110.667857 -22.169129 1413.551227 502.581660 17.651771 0.000000 0.088714
291.000000 52.683000 12.000000 5.000000 -2.000000 110.741712 -25.632228 1491.418385 488.916795 18.985913 0.000000 0.068138
292.000000 49.129000 13.000000 5.000000 -2.000000 110.647238 -28.633915 1562.641422 478.922168 20.359008 0.000000 0.047902
293.000000 45.958000 14.000000 5.000000 -2.000000 110.444577 -31.247063 1628.035921 471.698706 21.763783 0.000000 0.029891
295.000000 78.227000 3.000000 6.000000 -2.000000 79.712211 35.283150 213.416293 1180.320187 12.793259 0.000000 0.124363
296.000000 79.477000 5.000000 6.000000 -2.000000 97.183833 20.483900 572.934741 796.184326 12.588517 0.000000 0.129655
297.000000 72.468000 7.000000 6.000000 -2.000000 106.902224 6.399578 854.282284 611.900453 13.803772 0.000000 0.148225
298.000000 68.064000 4.000000 3.000000 -1.000000 109.676311 0.095902 973.198494 556.132282 7.348067 0.000000 0.145308
299.000000 63.654000 9.000000 6.000000 -2.000000 111.496554 -5.595924 1080.454272 515.081400 15.713677 0.000000 0.136829
300.000000 59.442000 5.000000 3.000000 -1.000000 112.622200 -10.664870 1177.684521 484.609083 8.413468 0.000000 0.124466
301.000000 55.520000 11.000000 6.000000 -2.000000 113.252836 -15.140963 1266.232156 461.892708 18.015023 0.000000 0.109471
302.000000 51.924000 6.000000 3.000000 -1.000000 113.536475 -19.076714 1347.210496 444.957228 9.631357 0.000000 0.092762
303.000000 48.650000 13.000000 6.000000 -2.000000 113.580294 -22.533373 1421.550324 432.390309 20.558652 0.000000 0.075022
304.000000 45.683000 7.000000 3.000000 -1.000000 113.460770 -25.572371 1490.035824 423.163022 10.947097 0.000000 0.056789
306.000000 62.778000 2.000000 7.000000 -2.000000 67.831606 46.057292 -141.767956 1572.950773 15.943665 0.000000 0.285804
307.000000 68.686000 3.000000 7.000000 -2.000000 78.859873 39.954583 73.334746 1217.488714 14.570192 0.000000 0.152984
308.000000 71.449000 4.000000 7.000000 -2.000000 88.270926 33.517960 262.131072 979.970630 14.004786 0.000000 0.100586
309.000000 71.670000 5.000000 7.000000 -2.000000 95.959513 26.891364 429.168716 815.023414 13.959799 0.000000 0.105114
310.000000 70.107000 6.000000 7.000000 -2.000000 101.998774 20.246712 578.004248 697.185669 14.269627 0.000000 0.122164
311.000000 67.443000 7.000000 7.000000 -2.000000 106.574279 13.758704 711.459168 611.205649 14.832190 0.000000 0.133947
312.000000 64.198000 8.000000 7.000000 -2.000000 109.922333 7.578618 831.800481 547.474845 15.581141 0.000000 0.138463
313.000000 60.725000 9.000000 7.000000 -2.000000 112.284775 1.816250 940.870532 499.691907 16.471485 0.000000 0.136865
314.000000 57.247000 10.000000 7.000000 -2.000000 113.881851 -3.465685 1040.181995 463.586737 17.471634 0.000000 0.130609
315.000000 53.893000 11.000000 7.000000 -2.000000 114.899793 -8.246518 1130.988455 436.185830 18.558754 0.000000 0.120932
316.000000 50.729000 12.000000 7.000000 -2.000000 115.488312 -12.536980 1214.337598 415.370401 19.715934 0.000000 0.108795
317.000000 47.785000 13.000000 7.000000 -2.000000 115.763611 -16.367719 1291.111820 399.600728 20.930379 0.000000 0.094930
320.000000 60.865000 3.000000 8.000000 -2.000000 77.921656 43.610204 -50.306769 1259.089013 16.442313 0.000000 0.195232
321.000000 63.762000 2.000000 4.000000 -1.000000 86.842294 37.964062 135.193390 1016.313916 7.846650 0.000000 0.111724
322.000000 64.691000 5.000000 8.000000 -2.000000 94.411590 32.077441 300.432237 843.003656 15.466077 0.000000 0.087299
323.000000 64.105000 3.000000 4.000000 -1.000000 100.622742 26.064418 448.557442 716.281020 7.802899 0.000000 0.098402
324.000000 62.469000 7.000000 8.000000 -2.000000 105.562156 20.054704 582.096773 621.911691 16.013373 0.000000 0.114142
325.000000 60.176000 4.000000 4.000000 -1.000000 109.373434 14.177591 703.103539 550.648141 8.311221 0.000000 0.124787
326.000000 57.528000 9.000000 8.000000 -2.000000 112.225819 8.546016 813.262922 496.268628 17.386894 0.000000 0.129434
327.000000 54.734000 5.000000 4.000000 -1.000000 114.290713 3.245365 913.970934 454.464236 9.136845 0.000000 0.128984
328.000000 51.934000 11.000000 8.000000 -2.000000 115.726650 -1.670759 1006.393895 422.177259 19.258540 0.000000 0.124528
329.000000 49.212000 6.000000 4.000000 -1.000000 116.671496 -6.178471 1091.513804 397.192380 10.161591 0.000000 0.117021
330.000000 46.619000 13.000000 8.000000 -2.000000 117.239935 -10.277713 1170.163366 377.875609 21.453624 0.000000 0.107228
332.000000 54.435000 3.000000 9.000000 -2.000000 76.998409 46.526836 -160.241951 1302.203885 18.384637 0.000000 0.243513
333.000000 57.270000 4.000000 9.000000 -2.000000 85.414168 41.536354 21.557140 1056.330227 17.472505 0.000000 0.141517
334.000000 58.582000 5.000000 9.000000 -2.000000 92.762760 36.296463 184.485557 876.557526 17.079157 0.000000 0.087048
335.000000 58.641000 6.000000 9.000000 -2.000000 98.999878 30.880974 331.336486 742.376275 17.060365 0.000000 0.078296
336.000000 57.754000 7.000000 9.000000 -2.000000 104.152902 25.380889 464.377780 640.601936 17.320829 0.000000 0.091943
337.000000 56.212000 8.000000 9.000000 -2.000000 108.300872 19.896093 585.469916 562.435527 17.795052 0.000000 0.106571
338.000000 54.253000 9.000000 9.000000 -2.000000 111.554292 14.524838 696.153536 501.821273 18.436535 0.000000 0.116495
339.000000 52.063000 10.000000 9.000000 -2.000000 114.037825 9.353635 797.715341 454.482551 19.211351 0.000000 0.121333
340.000000 49.774000 11.000000 9.000000 -2.000000 115.877105 4.450024 891.238343 417.332317 20.094170 0.000000 0.121815
341.000000 47.477000 12.000000 9.000000 -2.000000 117.189823 -0.140572 977.640638 388.099849 21.065696 0.000000 0.118794
342.000000 49.105000 3.000000 10.000000 -2.000000 76.131643 48.896571 -258.630241 1345.193736 20.380221 0.000000 0.293638
343.000000 51.786000 2.000000 5.000000 -1.000000 84.057344 44.448306 -80.764318 1097.936313 9.661411 0.000000 0.180856
344.000000 53.282000 5.000000 10.000000 -2.000000 91.131774 39.760779 79.512898 913.339791 18.778184 0.000000 0.106767
345.000000 53.752000 3.000000 5.000000 -1.000000 97.295754 34.881349 224.687442 773.026080 9.306111 0.000000 0.071083
346.000000 53.399000 7.000000 10.000000 -2.000000 102.543598 29.872205 356.797919 664.841026 18.733855 0.000000 0.071537
347.000000 52.429000 4.000000 5.000000 -1.000000 106.912303 24.806597 477.531828 580.478739 9.539521 0.000000 0.086052
348.000000 51.029000 9.000000 10.000000 -2.000000 110.469170 19.762865 588.298032 514.106017 19.601441 0.000000 0.099740
349.000000 49.352000 5.000000 5.000000 -1.000000 113.299987 14.817355 690.281985 461.530444 10.133347 0.000000 0.109140
350.000000 47.517000 11.000000 10.000000 -2.000000 115.498939 10.037786 784.488328 419.678573 21.048783 0.000000 0.114144
351.000000 45.611000 6.000000 5.000000 -1.000000 117.160726 5.478403 871.774100 386.258237 10.963824 0.000000 0.115360
352.000000 47.135000 4.000000 11.000000 -2.000000 82.799793 46.855915 -173.380768 1139.836652 21.229931 0.000000 0.223980
353.000000 48.695000 5.000000 11.000000 -2.000000 89.577373 42.636611 -15.973331 951.791785 20.547401 0.000000 0.138515
354.000000 49.418000 6.000000 11.000000 -2.000000 95.605562 38.226228 127.241834 806.528764 20.245002 0.000000 0.082898
355.000000 49.436000 7.000000 11.000000 -2.000000 100.861339 33.666811 258.101350 692.874765 20.236039 0.000000 0.060189
356.000000 48.896000 8.000000 11.000000 -2.000000 105.355556 29.010680 378.138039 603.032136 20.458317 0.000000 0.066187
357.000000 47.937000 9.000000 11.000000 -2.000000 109.125526 24.317387 488.641249 531.424387 20.866059 0.000000 0.080808
358.000000 46.685000 10.000000 11.000000 -2.000000 112.227257 19.649379 590.703343 473.979506 21.424822 0.000000 0.093679
359.000000 45.589000 3.000000 6.000000 -1.000000 93.980664 41.046482 37.857603 841.690662 10.972907 0.000000 0.108393
360.000000 45.861000 7.000000 12.000000 -2.000000 99.184052 36.888560 167.231405 723.429088 21.814205 0.000000 0.065801
361.000000 45.637000 4.000000 6.000000 -1.000000 103.730458 32.613919 286.312635 628.793205 10.959874 0.000000 0.052481
363.000000 88.442000 7.000000 1.000000 -1.000000 97.644723 -46.659617 2115.524134 730.513441 11.311395 0.000000 0.180920
364.000000 77.646000 8.000000 1.000000 -1.000000 97.853300 -48.795141 2204.230696 715.643795 12.883991 0.000000 0.227085
365.000000 69.141000 9.000000 1.000000 -1.000000 97.961066 -50.465733 2279.059541 704.537812 14.468786 0.000000 0.268987
366.000000 62.282000 10.000000 1.000000 -1.000000 98.012541 -51.806208 2343.031060 695.976809 16.062123 0.000000 0.306646
371.000000 80.624000 8.000000 2.000000 -1.000000 106.300014 -40.241472 1885.875406 528.686419 12.406648 0.000000 0.079060
372.000000 71.812000 9.000000 2.000000 -1.000000 105.780295 -42.999987 1978.660183 525.112640 13.929009 0.000000 0.119833
373.000000 64.655000 10.000000 2.000000 -1.000000 105.268497 -45.200577 2058.856419 524.034998 15.471048 0.000000 0.158538
374.000000 58.744000 11.000000 2.000000 -1.000000 104.786521 -46.992050 2128.863278 524.494461 17.027714 0.000000 0.194443
375.000000 53.792000 12.000000 2.000000 -1.000000 104.341804 -48.476085 2190.506690 525.904369 18.595550 0.000000 0.227540
376.000000 49.588000 13.000000 2.000000 -1.000000 103.935281 -49.724001 2245.200899 527.896132 20.172109 0.000000 0.258001
377.000000 45.979000 14.000000 2.000000 -1.000000 103.565067 -50.787049 2294.058304 530.233407 21.755609 0.000000 0.286051
379.000000 81.122000 8.000000 3.000000 -1.000000 112.932027 -30.619300 1612.008103 411.870029 12.329371 0.000000 0.021542
380.000000 72.693000 9.000000 3.000000 -1.000000 112.217247 -34.596316 1717.383558 406.962072 13.758936 0.000000 0.023130
381.000000 65.701000 10.000000 3.000000 -1.000000 111.447092 -37.782530 1809.333906 406.021472 15.223317 0.000000 0.056867
382.000000 59.842000 11.000000 3.000000 -1.000000 110.684270 -40.377544 1890.271095 407.573641 16.714073 0.000000 0.090529
383.000000 54.880000 12.000000 3.000000 -1.000000 109.957516 -42.523718 1962.061943 410.692260 18.225287 0.000000 0.122554
384.000000 50.637000 13.000000 3.000000 -1.000000 109.278507 -44.323504 2026.173914 414.781874 19.752689 0.000000 0.152736
385.000000 46.974000 14.000000 3.000000 -1.000000 108.650388 -45.851669 2083.776483 419.452942 21.293119 0.000000 0.181075
387.000000 88.355000 7.000000 4.000000 -1.000000 117.524337 -13.985115 1243.053329 363.002809 11.319484 0.000000 0.095747
388.000000 79.559000 8.000000 4.000000 -1.000000 117.515163 -20.336475 1373.912469 343.085294 12.570797 0.000000 0.069482
389.000000 72.002000 9.000000 4.000000 -1.000000 117.046397 -25.486473 1488.054152 332.264449 13.890180 0.000000 0.040824
390.000000 65.536000 10.000000 4.000000 -1.000000 116.350057 -29.683213 1588.489557 327.369019 15.260690 0.000000 0.011332
391.000000 59.994000 11.000000 4.000000 -1.000000 115.556502 -33.134365 1677.547652 326.389273 16.670579 0.000000 0.018101
392.000000 55.221000 12.000000 4.000000 -1.000000 114.737577 -36.002943 1757.058039 328.016530 18.111441 0.000000 0.046876
393.000000 51.088000 13.000000 4.000000 -1.000000 113.931907 -38.413653 1828.477984 331.379664 19.577105 0.000000 0.074708
394.000000 47.484000 14.000000 4.000000 -1.000000 113.159337 -40.461206 1892.982548 335.888441 21.062935 0.000000 0.101428
397.000000 83.635000 7.000000 5.000000 -1.000000 119.222852 -2.841740 1028.425562 338.174685 11.958034 0.000000 0.109114
398.000000 76.516000 8.000000 5.000000 -1.000000 120.092429 -10.011868 1165.009592 307.639044 13.070226 0.000000 0.094924
399.000000 70.081000 9.000000 5.000000 -1.000000 120.213193 -16.075118 1285.150104 288.746512 14.270240 0.000000 0.075899
400.000000 64.366000 10.000000 5.000000 -1.000000 119.885253 -21.162090 1391.647981 277.743809 15.537391 0.000000 0.054110
401.000000 59.327000 11.000000 5.000000 -1.000000 119.301963 -25.427798 1486.702168 272.172025 16.857015 0.000000 0.031021
402.000000 54.894000 12.000000 5.000000 -1.000000 118.584241 -29.018870 1572.063134 270.379583 18.218432 0.000000 0.009271
403.000000 50.990000 13.000000 5.000000 -1.000000 117.806211 -32.061152 1649.141656 271.233933 19.613672 0.000000 0.019247
404.000000 47.541000 14.000000 5.000000 -1.000000 117.012509 -34.657732 1719.087408 273.944916 21.036673 0.000000 0.042376
407.000000 86.328000 2.000000 6.000000 -1.000000 81.648399 48.873096 -257.610446 1181.227242 11.591557 0.000000 0.268114
408.000000 88.230000 5.000000 6.000000 -1.000000 110.938496 23.895712 498.148380 490.565017 11.336626 0.000000 0.076187
409.000000 83.492000 6.000000 6.000000 -1.000000 115.917988 15.282870 680.905037 398.787270 11.979000 0.000000 0.096944
410.000000 78.069000 7.000000 6.000000 -1.000000 119.106267 7.139565 840.185645 337.105692 12.810506 0.000000 0.104369
411.000000 72.567000 8.000000 6.000000 -1.000000 120.950618 -0.278980 980.240642 295.551389 13.781449 0.000000 0.101793
412.000000 67.307000 9.000000 6.000000 -1.000000 121.840791 -6.853136 1104.352786 267.798124 14.858144 0.000000 0.092424
413.000000 62.437000 10.000000 6.000000 -1.000000 122.083189 -12.575531 1215.097710 249.697389 16.016947 0.000000 0.078590
414.000000 58.005000 11.000000 6.000000 -1.000000 121.902518 -17.508246 1314.524592 238.453795 17.240772 0.000000 0.061941
415.000000 54.007000 12.000000 6.000000 -1.000000 121.456078 -21.744776 1404.284126 232.140297 18.516968 0.000000 0.043728
416.000000 50.416000 13.000000 6.000000 -1.000000 120.850635 -25.385176 1485.720888 229.402584 19.835966 0.000000 0.025302
417.000000 47.194000 14.000000 6.000000 -1.000000 120.157147 -28.523062 1559.941159 229.273118 21.190392 0.000000 0.012101
420.000000 78.435000 3.000000 7.000000 -1.000000 91.011946 45.504638 -120.422359 913.874044 12.756169 0.000000 0.174623
421.000000 79.879000 4.000000 7.000000 -1.000000 100.508935 38.392996 122.153855 686.265678 12.523794 0.000000 0.069134
422.000000 78.760000 5.000000 7.000000 -1.000000 108.046264 30.881115 331.332886 532.404877 12.700215 0.000000 0.042763
423.000000 75.979000 6.000000 7.000000 -1.000000 113.728497 23.205941 513.567570 426.255568 13.164003 0.000000 0.068564
424.000000 72.276000 7.000000 7.000000 -1.000000 117.786008 15.636750 673.748951 352.074054 13.837487 0.000000 0.087435
425.000000 68.178000 8.000000 7.000000 -1.000000 120.507264 8.421612 815.651825 299.917716 14.668674 0.000000 0.095478
426.000000 64.018000 9.000000 7.000000 -1.000000 122.185719 1.743631 942.235995 263.282106 15.621448 0.000000 0.095297
427.000000 59.991000 10.000000 7.000000 -1.000000 123.085451 -4.296188 1055.854958 237.786018 16.669938 0.000000 0.089273
428.000000 56.197000 11.000000 7.000000 -1.000000 123.424850 -9.670476 1158.403587 220.405179 17.795127 0.000000 0.079195
429.000000 52.681000 12.000000 7.000000 -1.000000 123.373915 -14.403958 1251.424662 209.008063 18.982723 0.000000 0.066389
430.000000 49.453000 13.000000 7.000000 -1.000000 123.059379 -18.550923 1336.187014 202.065304 20.221777 0.000000 0.051888
431.000000 46.505000 14.000000 7.000000 -1.000000 122.572893 -22.177918 1413.743750 198.462557 21.503759 0.000000 0.036662
434.000000 68.413000 3.000000 8.000000 -1.000000 88.444575 48.841333 -256.232075 985.406009 14.625291 0.000000 0.245025
435.000000 70.463000 4.000000 8.000000 -1.000000 97.515378 42.761277 -20.309112 747.601911 14.197848 0.000000 0.120514
436.000000 70.491000 5.000000 8.000000 -1.000000 105.074783 36.273809 185.140460 581.413315 14.190600 0.000000 0.045331
437.000000 69.044000 6.000000 8.000000 -1.000000 111.125742 29.516100 365.662681 463.115834 14.486622 0.000000 0.037351
438.000000 66.638000 7.000000 8.000000 -1.000000 115.772827 22.665631 525.534754 377.835039 15.008689 0.000000 0.062658
439.000000 63.685000 8.000000 8.000000 -1.000000 119.185109 15.914831 668.108275 315.886102 15.703743 0.000000 0.079915
440.000000 60.485000 9.000000 8.000000 -1.000000 121.562102 9.440093 796.046762 270.763709 16.534126 0.000000 0.088206
441.000000 57.235000 10.000000 8.000000 -1.000000 123.106325 3.376803 911.493615 237.982667 17.472371 0.000000 0.089611
442.000000 54.061000 11.000000 8.000000 -1.000000 124.004299 -2.191820 1016.193161 214.381244 18.497975 0.000000 0.085955
443.000000 51.033000 12.000000 8.000000 -1.000000 124.416112 -7.232056 1111.579403 197.687814 19.595319 0.000000 0.078644
444.000000 48.188000 13.000000 8.000000 -1.000000 124.472096 -11.748600 1198.842090 186.243138 20.752300 0.000000 0.068752
445.000000 45.539000 14.000000 8.000000 -1.000000 124.274253 -15.771213 1278.976598 178.817731 21.959392 0.000000 0.057129
448.000000 60.424000 3.000000 9.000000 -1.000000 86.245458 51.416339 -374.039396 1054.251009 16.559527 0.000000 0.313791
449.000000 62.692000 4.000000 9.000000 -1.000000 94.829177 46.142852 -145.110755 809.760526 15.958236 0.000000 0.178385
450.000000 63.381000 5.000000 9.000000 -1.000000 102.236279 40.493489 55.969358 634.066778 15.782998 0.000000 0.086156
451.000000 62.821000 6.000000 9.000000 -1.000000 108.424210 34.546698 233.991130 505.700509 15.922308 0.000000 0.029861
452.000000 61.359000 7.000000 9.000000 -1.000000 113.426707 28.414174 392.705717 410.774311 16.300448 0.000000 0.034230
453.000000 59.304000 8.000000 9.000000 -1.000000 117.333882 22.231023 535.092471 340.002180 16.864198 0.000000 0.058024
454.000000 56.903000 9.000000 9.000000 -1.000000 120.271799 16.139103 663.547730 287.000520 17.575057 0.000000 0.073871
455.000000 54.337000 10.000000 9.000000 -1.000000 122.383888 10.268222 780.020775 247.276736 18.404483 0.000000 0.082184
456.000000 51.732000 11.000000 9.000000 -1.000000 123.815608 4.721101 886.113433 217.604748 19.330870 0.000000 0.084648
457.000000 49.171000 12.000000 9.000000 -1.000000 124.703236 -0.434075 983.154199 195.627179 20.337561 0.000000 0.082698
458.000000 46.704000 13.000000 9.000000 -1.000000 125.167050 -5.163235 1072.254142 179.594994 21.411508 0.000000 0.077460
461.000000 56.247000 4.000000 10.000000 -1.000000 92.452090 48.820838 -255.343627 870.998100 17.787557 0.000000 0.236463
462.000000 57.300000 5.000000 10.000000 -1.000000 99.615711 43.851550 -58.989597 688.142252 17.458693 0.000000 0.134654
463.000000 57.316000 6.000000 10.000000 -1.000000 105.791464 38.593046 116.019407 551.556698 17.452022 0.000000 0.062891
464.000000 56.528000 7.000000 10.000000 -1.000000 110.975163 33.114496 272.984485 448.372215 17.694009 0.000000 0.019454
465.000000 55.160000 8.000000 10.000000 -1.000000 115.207958 27.506586 414.559401 369.779739 18.131913 0.000000 0.032393
466.000000 53.404000 9.000000 10.000000 -1.000000 118.564293 21.873902 542.901846 309.598037 18.726924 0.000000 0.054337
467.000000 51.418000 10.000000 10.000000 -1.000000 121.140024 16.323799 659.784176 263.396790 19.449848 0.000000 0.068937
468.000000 49.316000 11.000000 10.000000 -1.000000 123.041594 10.954536 766.675754 227.941797 20.278303 0.000000 0.077134
469.000000 47.182000 12.000000 10.000000 -1.000000 124.376903 5.845783 864.805048 200.833899 21.194839 0.000000 0.080307
471.000000 50.858000 4.000000 11.000000 -1.000000 90.357354 50.985350 -353.418078 930.336398 19.672789 0.000000 0.292941
472.000000 52.096000 5.000000 11.000000 -1.000000 97.235467 46.570086 -161.959651 742.234730 19.203281 0.000000 0.184233
473.000000 52.481000 6.000000 11.000000 -1.000000 103.307810 41.887648 9.715136 599.031807 19.060774 0.000000 0.104326
474.000000 52.166000 7.000000 11.000000 -1.000000 108.551026 36.980711 164.522039 488.856831 19.174315 0.000000 0.046380
475.000000 51.312000 8.000000 11.000000 -1.000000 112.977043 31.909021 304.830674 403.413539 19.492094 0.000000 0.012607
476.000000 50.068000 9.000000 11.000000 -1.000000 116.625993 26.746449 432.586663 336.772958 19.975394 0.000000 0.031294
477.000000 48.560000 10.000000 11.000000 -1.000000 119.558727 21.575262 549.402403 284.615483 20.594704 0.000000 0.051361
478.000000 46.891000 11.000000 11.000000 -1.000000 121.849551 16.478544 656.625480 243.740736 21.327134 0.000000 0.064854
480.000000 47.628000 5.000000 12.000000 -1.000000 95.089157 48.806519 -254.723313 795.462737 21.005498 0.000000 0.233204
481.000000 48.241000 6.000000 12.000000 -1.000000 101.005086 44.605416 -86.570999 647.009234 20.736598 0.000000 0.147198
482.000000 48.255000 7.000000 12.000000 -1.000000 106.226124 40.189418 65.801511 530.974637 20.729140 0.000000 0.082413
483.000000 47.782000 8.000000 12.000000 -1.000000 110.747322 35.597645 204.515888 439.583778 20.932548 0.000000 0.034248
484.000000 46.937000 9.000000 12.000000 -1.000000 114.586730 30.881238 331.329757 367.187894 21.308499 0.000000 0.008901
485.000000 45.819000 10.000000 12.000000 -1.000000 117.780674 26.100743 447.711571 309.610340 21.827428 0.000000 0.030633
492.000000 166.437000 4.000000 2.000000 0.000000 129.159604 -25.116216 1479.544584 -27.073980 6.007841 0.000000 0.044383
493.000000 135.774000 5.000000 2.000000 0.000000 125.384707 -34.787989 1722.709446 10.183908 7.364968 0.000000 0.100289
494.000000 113.696000 6.000000 2.000000 0.000000 122.011261 -40.811957 1904.424347 52.013050 8.795546 0.000000 0.159966
495.000000 97.345000 7.000000 2.000000 0.000000 119.206872 -44.841869 2045.369669 92.420657 10.273229 0.000000 0.215135
500.000000 197.878000 2.000000 3.000000 0.000000 117.570473 39.142744 98.985328 216.419564 5.054075 0.000000 0.107992
501.000000 176.542000 3.000000 3.000000 0.000000 128.887692 18.231530 620.476023 27.040956 5.664025 0.000000 0.030849
502.000000 151.255000 4.000000 3.000000 0.000000 132.151860 -0.808041 990.179962 -33.374387 6.610657 0.000000 0.040953
503.000000 129.010000 5.000000 3.000000 0.000000 131.385222 -15.126838 1265.947413 -41.428447 7.750598 0.000000 0.030908
504.000000 96.577000 7.000000 3.000000 0.000000 126.623121 -32.088824 1649.865616 -3.259474 10.353939 0.000000 0.080298
505.000000 85.084000 8.000000 3.000000 0.000000 124.197886 -37.095184 1788.852751 24.050370 11.752936 0.000000 0.120453
506.000000 68.193000 10.000000 3.000000 0.000000 120.081194 -43.658480 2002.037997 79.269507 14.664781 0.000000 0.197378
507.000000 61.884000 11.000000 3.000000 0.000000 118.388301 -45.898143 2085.577518 105.195986 16.160173 0.000000 0.232236
510.000000 151.110000 2.000000 4.000000 0.000000 107.778691 48.725792 -251.232874 417.825929 6.619197 0.000000 0.248603
511.000000 145.294000 3.000000 4.000000 0.000000 121.376881 34.021210 248.450491 149.068620 6.882850 0.000000 0.065547
512.000000 118.062000 5.000000 4.000000 0.000000 131.853911 3.550274 908.223049 -24.995888 8.469289 0.000000 0.041511
513.000000 104.708000 6.000000 4.000000 0.000000 132.070005 -8.581375 1137.416353 -41.482478 9.549336 0.000000 0.035996
514.000000 93.084000 7.000000 4.000000 0.000000 130.902224 -17.979238 1324.278081 -39.255922 10.741962 0.000000 0.030679
515.000000 74.904000 9.000000 4.000000 0.000000 127.256084 -30.563934 1610.604556 -9.701948 13.349747 0.000000 0.070566
516.000000 61.934000 11.000000 4.000000 0.000000 123.627085 -38.125428 1819.694123 31.050553 16.146165 0.000000 0.130477
517.000000 52.470000 13.000000 4.000000 0.000000 120.540424 -43.012072 1979.084710 72.564037 19.059246 0.000000 0.188256
519.000000 120.122000 3.000000 5.000000 0.000000 114.007019 43.097929 -32.105390 284.517346 8.326008 0.000000 0.154123
520.000000 114.437000 4.000000 5.000000 0.000000 123.328179 30.881441 331.324582 116.337393 8.738516 0.000000 0.047456
521.000000 96.717000 6.000000 5.000000 0.000000 131.534539 6.308762 856.009407 -18.190731 10.338423 0.000000 0.040902
522.000000 87.888000 7.000000 5.000000 0.000000 132.212793 -4.069459 1051.573100 -37.829929 11.376920 0.000000 0.039401
523.000000 79.873000 8.000000 5.000000 0.000000 131.712425 -12.648931 1216.545548 -42.224736 12.518686 0.000000 0.032491
524.000000 72.780000 9.000000 5.000000 0.000000 130.582028 -19.568474 1357.583971 -37.422136 13.738753 0.000000 0.031741
525.000000 61.164000 11.000000 5.000000 0.000000 127.638284 -29.585220 1586.053062 -13.442411 16.348575 0.000000 0.064883
526.000000 56.443000 12.000000 5.000000 0.000000 126.122535 -33.221011 1679.871081 2.044473 17.716305 0.000000 0.088238
527.000000 52.312000 13.000000 5.000000 0.000000 124.665640 -36.214241 1763.139214 18.473309 19.115704 0.000000 0.112395
528.000000 48.682000 14.000000 5.000000 0.000000 123.292236 -38.708686 1837.542244 35.255835 20.541315 0.000000 0.136453
529.000000 94.284000 5.000000 6.000000 0.000000 124.496547 28.771365 384.002495 97.210931 10.606149 0.000000 0.038538
530.000000 81.871000 7.000000 6.000000 0.000000 131.254641 8.203607 819.834470 -12.798966 12.213281 0.000000 0.040045
531.000000 59.739000 11.000000 6.000000 0.000000 130.358577 -20.580052 1379.124806 -36.008050 16.738078 0.000000 0.032973
532.000000 51.679000 13.000000 6.000000 0.000000 127.893481 -28.904178 1569.248759 -15.874078 19.349001 0.000000 0.061183
535.000000 86.086000 4.000000 7.000000 0.000000 112.335879 44.745838 -91.787598 318.379213 11.618237 0.000000 0.177724
536.000000 83.850000 5.000000 7.000000 0.000000 119.832074 36.236475 186.218989 175.797866 11.926731 0.000000 0.081819
537.000000 80.126000 6.000000 7.000000 0.000000 125.268445 27.259574 420.444456 84.734421 12.480144 0.000000 0.033820
538.000000 70.958000 8.000000 7.000000 0.000000 131.019116 9.582731 793.292113 -8.487874 14.091602 0.000000 0.039200
539.000000 66.322000 9.000000 7.000000 0.000000 132.014926 1.644851 944.093188 -29.007239 15.076359 0.000000 0.041492
540.000000 61.920000 10.000000 7.000000 0.000000 132.198038 -5.404976 1076.834081 -39.215142 16.148149 0.000000 0.038522
541.000000 57.830000 11.000000 7.000000 0.000000 131.832704 -11.530735 1194.575866 -42.268889 17.290415 0.000000 0.033412
542.000000 54.077000 12.000000 7.000000 0.000000 131.117893 -16.788897 1299.724839 -40.332206 18.490552 0.000000 0.030491
543.000000 50.657000 13.000000 7.000000 0.000000 130.194814 -21.280085 1394.198702 -34.912409 19.738790 0.000000 0.034099
545.000000 74.794000 5.000000 8.000000 0.000000 115.398210 41.631924 18.348280 257.294199 13.371567 0.000000 0.135431
546.000000 69.646000 7.000000 8.000000 0.000000 125.814038 26.124660 447.154346 75.978988 14.357924 0.000000 0.031225
547.000000 62.603000 9.000000 8.000000 0.000000 130.821908 10.630344 772.986978 -4.985897 15.972177 0.000000 0.038440
548.000000 55.595000 11.000000 8.000000 0.000000 132.206393 -2.870226 1028.962002 -36.368992 17.985348 0.000000 0.040076
549.000000 49.335000 13.000000 8.000000 0.000000 131.596884 -13.599356 1235.370190 -42.034808 20.267728 0.000000 0.031787
551.000000 67.046000 5.000000 9.000000 0.000000 111.369963 45.647988 -125.918571 338.560275 14.917839 0.000000 0.191939
552.000000 64.033000 7.000000 9.000000 0.000000 122.490878 32.281497 295.081392 130.252029 15.617225 0.000000 0.054818
553.000000 61.582000 8.000000 9.000000 0.000000 126.219066 25.241953 467.571445 69.507087 16.238137 0.000000 0.029764
554.000000 56.004000 10.000000 9.000000 0.000000 130.655847 11.452645 756.951684 -2.094885 17.854302 0.000000 0.037775
555.000000 53.170000 11.000000 9.000000 0.000000 131.690725 5.070003 879.511253 -21.396122 18.805860 0.000000 0.041270
556.000000 47.794000 13.000000 9.000000 0.000000 132.180337 -6.130818 1090.608242 -39.861095 20.920945 0.000000 0.037992
558.000000 58.909000 7.000000 10.000000 0.000000 119.178056 37.114550 160.575308 187.354990 16.976580 0.000000 0.089121
559.000000 55.186000 9.000000 10.000000 0.000000 126.531129 24.536099 483.685245 64.533771 18.120008 0.000000 0.028935
560.000000 50.661000 11.000000 10.000000 0.000000 130.514773 12.115011 743.967549 0.327400 19.737537 0.000000 0.037199
561.000000 46.109000 13.000000 10.000000 0.000000 132.064936 0.898340 958.123404 -30.430116 21.685617 0.000000 0.041388
565.000000 54.892000 6.000000 11.000000 0.000000 110.741341 46.216940 -148.013736 351.943933 18.220941 0.000000 0.201421
566.000000 54.289000 7.000000 11.000000 0.000000 116.008730 40.958532 40.758419 245.610962 18.421878 0.000000 0.127502
567.000000 53.175000 8.000000 11.000000 0.000000 120.408649 35.434065 209.153965 165.730589 18.806920 0.000000 0.075578
568.000000 51.699000 9.000000 11.000000 0.000000 123.978329 29.731696 360.303218 105.655464 19.342588 0.000000 0.042267
569.000000 49.991000 10.000000 11.000000 0.000000 126.778662 23.958952 496.726545 60.595344 20.003059 0.000000 0.028470
570.000000 46.246000 12.000000 11.000000 0.000000 130.393783 12.659831 733.239375 2.383894 21.621596 0.000000 0.036699
572.000000 50.154000 7.000000 12.000000 0.000000 113.042732 44.062894 -66.650960 303.896988 19.941540 0.000000 0.167588
573.000000 45.688000 11.000000 12.000000 0.000000 126.979649 23.478341 507.497630 57.400780 21.886979 0.000000 0.028219
575.000000 46.410000 6.000000 13.000000 0.000000 105.102171 50.780242 -343.738414 481.642338 21.552644 0.000000 0.294932
576.000000 46.464000 7.000000 13.000000 0.000000 110.299791 46.608441 -163.485224 361.465491 21.525979 0.000000 0.208190
577.000000 46.098000 8.000000 13.000000 0.000000 114.870967 42.198337 -0.867126 267.511602 21.695532 0.000000 0.142412
622.000000 72.449000 8.000000 7.000000 1.000000 141.273029 11.282099 760.284845 -427.586396 13.799637 0.000000 0.044497
623.000000 67.581000 9.000000 7.000000 1.000000 141.631960 1.502669 946.766065 -418.970254 14.793662 0.000000 0.007050
624.000000 62.999000 10.000000 7.000000 1.000000 141.098317 -6.958607 1106.363100 -402.683608 15.869733 0.000000 0.023274
625.000000 58.767000 11.000000 7.000000 1.000000 140.010957 -14.057543 1244.498725 -381.790410 17.012881 0.000000 0.049223
626.000000 54.899000 12.000000 7.000000 1.000000 138.614788 -19.928991 1365.229168 -358.256591 18.211569 0.000000 0.072966
627.000000 51.387000 13.000000 7.000000 1.000000 137.072284 -24.770658 1471.649064 -333.358558 19.456763 0.000000 0.095410
628.000000 48.205000 14.000000 7.000000 1.000000 135.485131 -28.778030 1566.160460 -307.930341 20.741288 0.000000 0.116980
632.000000 67.656000 8.000000 8.000000 1.000000 138.299335 21.462328 551.853677 -356.982212 14.777889 0.000000 0.083591
633.000000 63.834000 9.000000 8.000000 1.000000 139.875966 12.291345 740.500202 -366.012574 15.662294 0.000000 0.043574
634.000000 60.087000 10.000000 8.000000 1.000000 140.434311 3.789771 903.705611 -364.458408 16.638873 0.000000 0.013610
635.000000 56.512000 11.000000 8.000000 1.000000 140.248346 -3.789608 1046.291325 -355.862854 17.691478 0.000000 0.010860
636.000000 53.159000 12.000000 8.000000 1.000000 139.555330 -10.368886 1171.932859 -342.607857 18.807526 0.000000 0.032011
637.000000 50.048000 13.000000 8.000000 1.000000 138.540584 -15.993051 1283.481159 -326.318540 19.977065 0.000000 0.051595
638.000000 47.179000 14.000000 8.000000 1.000000 137.338565 -20.769090 1383.181557 -308.116503 21.192121 0.000000 0.070346
642.000000 62.981000 8.000000 9.000000 1.000000 134.781393 29.245328 372.361529 -283.147343 15.875380 0.000000 0.119098
643.000000 60.042000 9.000000 9.000000 1.000000 137.273900 21.042364 560.936020 -307.563597 16.652075 0.000000 0.074446
644.000000 57.034000 10.000000 9.000000 1.000000 138.759688 13.045325 725.620924 -319.221142 17.530024 0.000000 0.042246
645.000000 54.066000 11.000000 9.000000 1.000000 139.429453 5.535820 870.685499 -321.931487 18.492167 0.000000 0.017980
646.000000 51.206000 12.000000 9.000000 1.000000 139.473904 -1.300766 999.438928 -318.341592 19.525073 0.000000 0.005193
647.000000 48.492000 13.000000 9.000000 1.000000 139.064176 -7.384274 1114.485830 -310.317274 20.618025 0.000000 0.020708
648.000000 45.942000 14.000000 9.000000 1.000000 138.341371 -12.717776 1217.904299 -299.190238 21.762365 0.000000 0.036819
652.000000 58.554000 8.000000 10.000000 1.000000 131.112698 35.185253 216.172707 -208.319997 17.076368 0.000000 0.154090
653.000000 56.336000 9.000000 10.000000 1.000000 134.245315 27.980091 403.203808 -246.062935 17.747982 0.000000 0.103584
654.000000 53.961000 10.000000 10.000000 1.000000 136.449424 20.718960 567.895223 -269.458254 18.528920 0.000000 0.067383
655.000000 51.533000 11.000000 10.000000 1.000000 137.847928 13.629825 714.023888 -282.438322 19.401443 0.000000 0.040884
656.000000 49.127000 12.000000 10.000000 1.000000 138.578139 6.910143 844.560748 -287.803602 20.351452 0.000000 0.020957
657.000000 46.791000 13.000000 10.000000 1.000000 138.777926 0.698673 961.874863 -287.577115 21.367601 0.000000 0.007814
661.000000 54.440000 8.000000 11.000000 1.000000 127.509190 39.776103 79.025668 -133.937868 18.367763 0.000000 0.189654
662.000000 52.800000 9.000000 11.000000 1.000000 131.066644 33.465420 263.550146 -183.175690 18.937373 0.000000 0.132985
663.000000 50.952000 10.000000 11.000000 1.000000 133.795619 26.973563 427.226062 -216.936168 19.623435 0.000000 0.091833
664.000000 48.993000 11.000000 11.000000 1.000000 135.772232 20.462262 573.397852 -239.170690 20.407723 0.000000 0.061797
665.000000 46.994000 12.000000 11.000000 1.000000 137.089531 14.096126 704.730930 -252.751927 21.275628 0.000000 0.039621
669.000000 49.478000 9.000000 12.000000 1.000000 127.903245 37.836715 139.035375 -120.041217 20.209542 0.000000 0.163331
670.000000 48.065000 10.000000 12.000000 1.000000 130.999775 32.056172 300.988610 -162.917217 20.803196 0.000000 0.116960
671.000000 46.503000 11.000000 12.000000 1.000000 133.413767 26.154225 446.465208 -193.445887 21.501015 0.000000 0.082659
675.000000 46.391000 9.000000 13.000000 1.000000 124.847026 41.363873 27.324408 -57.437022 21.555354 0.000000 0.194641
#UB matrix in q= (UB) B0 G* 
#[[-0.749200645 -0.523505573 -0.404713451]
# [-0.594230165  0.80253313   0.061938669]
# [ 0.292555814  0.28709164  -0.913075398]]
#B0 matrix in q= UB (B0) G*
#[[ 0.19670273 -0.          0.03056101]
# [ 0.          0.19187965 -0.        ]
# [ 0.          0.          0.18806537]]
#UBB0 matrix in q= (UB B0) G* i.e. recip. basis vectors are columns in LT frame: astar = UBB0[:,0], bstar = UBB0[:,1], cstar = UBB0[:,2]. (abcstar as columns on xyzlab1, xlab1 = ui, ui = unit vector along incident beam)
#[[-0.14736981 -0.10045007 -0.09900891]
# [-0.1168867   0.15398978 -0.00651175]
# [ 0.05754653  0.05508704 -0.16277706]]
#Euler angles phi theta psi (deg)
#[134.472 155.797  81.314]
#deviatoric strain in direct crystal frame (10-3 unit)
#[[-4.72  0.3   0.84]
# [ 0.3  -4.86  0.62]
# [ 0.84  0.62  9.58]]
#deviatoric strain in sample2 frame (10-3 unit)
#[[ 7.65 -0.85  4.88]
# [-0.85 -5.04 -0.32]
# [ 4.9  -0.32 -2.61]]
#new lattice parameters
#[ 5.1505     5.210878   5.3144474 89.9679886 99.1837688 89.9661854]
#CCDLabel
#sCMOS
#DetectorParameters
#[79.0, 975.0, 941.0, 0.0, 0.0]
#pixelsize
#0.0734
#Frame dimensions
#[2018, 2016]
#
