#Strain and Orientation Refinement from experimental file: /home/micha/LaueProjects/DepthEffects/testZrO2_38.cor
#File created at Wed Jun 28 14:20:37 2023 with indexingSpotsSet.py
#Number of indexed spots: 513
#Element
#ZrO2
#grainIndex
#G_0
#Mean Deviation(pixel): 0.116
##spot_index intensity h k l 2theta Chi Xexp Yexp Energy GrainIndex PixDev
2.000000 198.943000 1.000000 -1.000000 2.000000 75.193092 39.648717 83.069412 1310.504883 5.031910 0.000000 0.153513
3.000000 179.676000 0.000000 0.000000 2.000000 50.225358 2.929680 919.918310 1838.100357 5.574373 0.000000 0.097929
4.000000 181.865000 0.000000 1.000000 2.000000 57.496038 -26.849172 1519.835251 1709.640261 5.506341 0.000000 0.135693
6.000000 196.317000 1.000000 2.000000 2.000000 92.985611 -48.989290 2212.667611 855.454194 5.097477 0.000000 0.224840
12.000000 120.336000 2.000000 -2.000000 3.000000 77.288982 48.725155 -251.205399 1309.017688 8.318262 0.000000 0.269485
15.000000 140.861000 1.000000 -1.000000 3.000000 70.627799 28.640995 387.185913 1372.197401 7.107636 0.000000 0.116371
16.000000 154.726000 2.000000 -1.000000 3.000000 94.948898 35.941581 194.701859 825.888215 6.467772 0.000000 0.076135
17.000000 147.534000 3.000000 -1.000000 3.000000 111.816071 43.714907 -54.065023 344.922579 6.780930 0.000000 0.142475
19.000000 126.945000 0.000000 1.000000 3.000000 56.645829 -17.558931 1315.571736 1684.072638 7.888919 0.000000 0.084284
20.000000 172.865000 1.000000 1.000000 3.000000 90.371883 -14.169320 1246.731176 933.794926 5.789922 0.000000 0.157157
21.000000 178.483000 2.000000 1.000000 3.000000 116.455666 -9.720594 1159.372535 397.617474 5.604989 0.000000 0.121039
22.000000 164.641000 3.000000 1.000000 3.000000 135.089327 -3.713878 1044.862619 -140.927619 6.074466 0.000000 0.023308
25.000000 112.161000 0.000000 2.000000 3.000000 57.194853 -34.998171 1728.578176 1787.907103 8.927974 0.000000 0.205907
26.000000 150.852000 1.000000 2.000000 3.000000 87.686876 -34.264174 1708.212448 993.604928 6.634753 0.000000 0.095117
27.000000 160.363000 2.000000 2.000000 3.000000 112.655747 -33.308247 1682.214987 403.448265 6.238516 0.000000 0.012916
28.000000 152.635000 3.000000 2.000000 3.000000 131.751919 -32.012696 1647.874969 -191.986694 6.552499 0.000000 0.110778
31.000000 122.529000 1.000000 3.000000 3.000000 81.113042 -48.533528 2192.964769 1195.148077 8.168875 0.000000 0.249506
32.000000 134.931000 2.000000 3.000000 3.000000 103.782689 -49.499875 2235.173123 534.473594 7.415205 0.000000 0.240756
41.000000 83.166000 1.000000 -2.000000 4.000000 55.466874 34.653684 231.024984 1841.352001 12.040890 0.000000 0.215923
42.000000 104.051000 3.000000 -2.000000 4.000000 90.891472 44.798272 -93.741959 917.398346 9.618087 0.000000 0.149493
43.000000 101.733000 4.000000 -2.000000 4.000000 102.974633 50.023860 -308.762890 555.019634 9.835044 0.000000 0.252965
45.000000 73.127000 0.000000 -1.000000 4.000000 41.739233 17.583597 633.918454 2206.468339 13.697018 0.000000 0.266232
46.000000 106.162000 1.000000 -1.000000 4.000000 67.051035 22.500102 529.182079 1434.277674 9.431593 0.000000 0.101409
47.000000 120.195000 2.000000 -1.000000 4.000000 87.955040 27.884970 405.492941 984.479077 8.327180 0.000000 0.117606
48.000000 120.721000 3.000000 -1.000000 4.000000 104.083986 33.700225 257.194826 616.429978 8.288310 0.000000 0.049811
49.000000 114.504000 4.000000 -1.000000 4.000000 116.102055 39.866965 76.132189 253.970626 8.736461 0.000000 0.099167
51.000000 122.522000 1.000000 0.000000 4.000000 76.711208 7.278833 837.527658 1197.268077 8.171170 0.000000 0.134572
52.000000 133.947000 2.000000 0.000000 4.000000 98.444879 12.319323 739.949641 777.438954 7.471036 0.000000 0.162704
53.000000 131.396000 3.000000 0.000000 4.000000 115.096052 18.131458 622.558617 410.579321 7.613677 0.000000 0.099609
54.000000 122.569000 4.000000 0.000000 4.000000 127.408199 24.758047 478.638233 34.549863 8.160324 0.000000 0.029972
57.000000 95.838000 0.000000 1.000000 4.000000 55.663123 -12.574376 1215.074940 1694.281761 10.449837 0.000000 0.065092
58.000000 126.075000 1.000000 1.000000 4.000000 81.977033 -9.576786 1156.593033 1094.847367 7.940097 0.000000 0.149216
59.000000 136.344000 2.000000 1.000000 4.000000 103.938672 -5.947493 1087.125958 672.427363 7.338968 0.000000 0.165530
60.000000 133.357000 3.000000 1.000000 4.000000 121.149793 -1.503935 1003.257726 290.237221 7.501082 0.000000 0.109264
61.000000 124.319000 4.000000 1.000000 4.000000 134.224100 3.986541 899.992233 -109.072399 8.044762 0.000000 0.029496
64.000000 117.593000 1.000000 2.000000 4.000000 82.295389 -25.438433 1486.947113 1102.241707 8.512384 0.000000 0.119238
65.000000 128.126000 2.000000 2.000000 4.000000 103.600889 -23.713451 1447.761559 656.585725 7.809537 0.000000 0.111315
66.000000 127.035000 3.000000 2.000000 4.000000 120.919526 -21.560564 1400.278347 247.853145 7.874267 0.000000 0.054317
67.000000 119.956000 4.000000 2.000000 4.000000 134.631977 -18.807124 1341.549805 -181.486249 8.337306 0.000000 0.038221
70.000000 80.270000 0.000000 3.000000 4.000000 56.747286 -38.615645 1834.675717 1844.208885 12.474771 0.000000 0.250325
71.000000 102.945000 1.000000 3.000000 4.000000 79.254784 -38.437235 1829.199786 1201.756354 9.723683 0.000000 0.127269
72.000000 113.878000 2.000000 3.000000 4.000000 99.159618 -38.222826 1822.654599 720.097583 8.787021 0.000000 0.062918
73.000000 115.380000 3.000000 3.000000 4.000000 115.921071 -37.960305 1814.693088 277.523284 8.670169 0.000000 0.069377
74.000000 111.214000 4.000000 3.000000 4.000000 129.673389 -37.631451 1804.799758 -186.227008 8.993160 0.000000 0.161400
76.000000 87.414000 1.000000 4.000000 4.000000 74.807929 -48.323534 2184.005683 1380.543336 11.451616 0.000000 0.276120
77.000000 101.712000 3.000000 4.000000 4.000000 108.766168 -49.778885 2247.670648 374.685498 9.836192 0.000000 0.262974
90.000000 68.313000 2.000000 -3.000000 5.000000 62.800584 41.481033 23.410257 1679.313794 14.656785 0.000000 0.238784
91.000000 75.269000 3.000000 -3.000000 5.000000 76.674469 45.325545 -113.594953 1303.593822 13.299095 0.000000 0.211509
92.000000 77.512000 4.000000 -3.000000 5.000000 88.216884 49.207462 -272.227279 992.286242 12.911586 0.000000 0.237976
96.000000 70.054000 1.000000 -2.000000 5.000000 55.601469 29.174644 374.104387 1784.982990 14.295032 0.000000 0.167397
97.000000 83.044000 2.000000 -2.000000 5.000000 72.826576 33.267057 268.892305 1338.814431 12.055493 0.000000 0.126223
98.000000 88.449000 3.000000 -2.000000 5.000000 87.245382 37.536000 148.055399 1006.305157 11.315632 0.000000 0.101191
99.000000 88.629000 4.000000 -2.000000 5.000000 98.953226 41.943103 7.833873 713.027883 11.290175 0.000000 0.094809
100.000000 85.799000 5.000000 -2.000000 5.000000 108.302756 46.441064 -156.843550 424.373156 11.660631 0.000000 0.182942
102.000000 61.642000 0.000000 -1.000000 5.000000 43.592958 14.811165 690.406400 2110.351900 16.249149 0.000000 0.224790
103.000000 84.194000 1.000000 -1.000000 5.000000 64.420876 18.665711 611.412252 1484.794227 11.893166 0.000000 0.087319
104.000000 96.318000 2.000000 -1.000000 5.000000 82.489737 22.855388 521.342735 1094.982426 10.392715 0.000000 0.130766
105.000000 99.844000 3.000000 -1.000000 5.000000 97.376930 27.375197 417.693022 784.081894 10.022773 0.000000 0.107882
106.000000 97.944000 4.000000 -1.000000 5.000000 109.262063 32.203047 297.141372 496.508527 10.214870 0.000000 0.035502
107.000000 93.253000 5.000000 -1.000000 5.000000 118.586266 37.296528 155.186537 203.762382 10.726961 0.000000 0.077314
111.000000 76.495000 0.000000 1.000000 5.000000 54.875013 -9.509328 1155.290032 1708.682682 13.092477 0.000000 0.057827
112.000000 97.641000 1.000000 1.000000 5.000000 76.364106 -6.909539 1105.427741 1204.006960 10.253456 0.000000 0.131117
113.000000 107.822000 2.000000 1.000000 5.000000 95.127028 -3.899782 1048.370266 844.207386 9.281978 0.000000 0.174548
114.000000 109.367000 3.000000 1.000000 5.000000 110.729044 -0.396008 982.439088 533.668951 9.148092 0.000000 0.152744
115.000000 105.720000 4.000000 1.000000 5.000000 123.330856 3.700509 905.389578 231.697912 9.461596 0.000000 0.096259
116.000000 99.594000 5.000000 1.000000 5.000000 133.346339 8.499812 814.150347 -86.175292 10.042084 0.000000 0.031411
120.000000 75.134000 0.000000 2.000000 5.000000 57.151582 -21.397866 1396.748881 1687.359289 13.328658 0.000000 0.103023
121.000000 94.372000 1.000000 2.000000 5.000000 77.850349 -19.808554 1362.671306 1187.285934 10.608009 0.000000 0.122509
122.000000 104.140000 2.000000 2.000000 5.000000 96.217814 -17.946738 1323.603399 817.741071 9.609709 0.000000 0.147372
123.000000 106.168000 3.000000 2.000000 5.000000 111.812493 -15.740926 1278.362379 493.457096 9.423508 0.000000 0.121955
124.000000 103.284000 4.000000 2.000000 5.000000 124.711715 -13.094854 1225.359616 175.507269 9.684500 0.000000 0.070122
125.000000 97.878000 5.000000 2.000000 5.000000 135.243583 -9.877620 1162.410231 -160.817642 10.217922 0.000000 0.020565
129.000000 69.631000 0.000000 3.000000 5.000000 57.425394 -31.884646 1644.534088 1750.841269 14.381198 0.000000 0.175068
130.000000 86.628000 1.000000 3.000000 5.000000 76.788073 -31.211453 1627.121067 1236.440820 11.555984 0.000000 0.110904
131.000000 96.110000 2.000000 3.000000 5.000000 94.281322 -30.426194 1607.119706 847.557118 10.412669 0.000000 0.095185
132.000000 99.078000 3.000000 3.000000 5.000000 109.474554 -29.498732 1583.906559 503.715373 10.097978 0.000000 0.054393
133.000000 97.566000 4.000000 3.000000 5.000000 122.353669 -28.387243 1556.640474 165.991795 10.252334 0.000000 0.015469
134.000000 93.488000 5.000000 3.000000 5.000000 133.141229 -27.032075 1524.158483 -191.337360 10.697917 0.000000 0.076930
136.000000 62.327000 0.000000 4.000000 5.000000 56.411770 -40.642993 1898.897584 1882.994984 16.065987 0.000000 0.280299
137.000000 77.031000 1.000000 4.000000 5.000000 74.187129 -40.648710 1899.084128 1342.759063 12.995797 0.000000 0.165000
138.000000 86.087000 2.000000 4.000000 5.000000 90.515302 -40.655289 1899.298823 928.240171 11.625304 0.000000 0.103586
139.000000 89.933000 3.000000 4.000000 5.000000 104.998078 -40.662939 1899.548564 560.865252 11.125405 0.000000 0.075712
140.000000 89.871000 4.000000 4.000000 5.000000 117.548688 -40.671948 1899.842693 200.748573 11.130824 0.000000 0.118404
143.000000 67.424000 1.000000 5.000000 5.000000 70.920385 -48.202735 2178.885294 1499.549516 14.847799 0.000000 0.296791
144.000000 75.858000 2.000000 5.000000 5.000000 85.985614 -48.709827 2200.543947 1055.466602 13.193584 0.000000 0.234968
145.000000 80.264000 3.000000 5.000000 5.000000 99.596556 -49.288449 2225.797384 662.004725 12.466529 0.000000 0.229518
159.000000 56.518000 3.000000 -4.000000 6.000000 66.672147 45.637393 -125.511401 1604.827233 17.714113 0.000000 0.274376
160.000000 61.509000 5.000000 -4.000000 6.000000 86.409081 51.817063 -393.564494 1050.262761 16.271050 0.000000 0.307691
162.000000 49.654000 1.000000 -3.000000 6.000000 48.039565 33.034682 275.119707 2095.369282 20.169435 0.000000 0.275136
163.000000 60.118000 2.000000 -3.000000 6.000000 62.486495 36.297193 184.464422 1636.577564 16.655346 0.000000 0.183772
164.000000 69.014000 4.000000 -3.000000 6.000000 86.091408 43.069207 -31.093952 1041.661990 14.502317 0.000000 0.142263
165.000000 69.218000 5.000000 -3.000000 6.000000 95.287813 46.535846 -160.599549 796.191442 14.457022 0.000000 0.170295
167.000000 59.976000 1.000000 -2.000000 6.000000 55.430275 25.224534 467.971322 1760.820950 16.697350 0.000000 0.140651
168.000000 75.835000 3.000000 -2.000000 6.000000 83.811252 32.219339 296.713871 1078.951872 13.198896 0.000000 0.109309
169.000000 76.319000 5.000000 -2.000000 6.000000 104.202354 39.783464 78.791536 586.539836 13.110138 0.000000 0.064802
171.000000 53.031000 0.000000 -1.000000 6.000000 44.796568 12.911883 728.260760 2053.083598 18.887341 0.000000 0.199247
172.000000 69.352000 1.000000 -1.000000 6.000000 62.457492 16.065318 665.049269 1525.109975 14.438961 0.000000 0.075375
173.000000 79.436000 2.000000 -1.000000 6.000000 78.261515 19.464988 594.604226 1178.201036 12.602551 0.000000 0.129223
174.000000 83.900000 3.000000 -1.000000 6.000000 91.850999 23.114094 515.608631 903.181207 11.928804 0.000000 0.133824
175.000000 84.274000 4.000000 -1.000000 6.000000 103.222778 27.008264 426.405111 657.149552 11.873286 0.000000 0.095296
176.000000 82.100000 5.000000 -1.000000 6.000000 112.577609 31.133532 324.878370 418.169219 12.185590 0.000000 0.026743
177.000000 78.551000 6.000000 -1.000000 6.000000 120.193996 35.464753 208.285304 172.076350 12.734454 0.000000 0.064627
178.000000 74.396000 7.000000 -1.000000 6.000000 126.354528 39.964946 73.003419 -92.606521 13.444434 0.000000 0.173957
180.000000 76.101000 1.000000 0.000000 6.000000 68.340899 5.756790 866.494015 1370.586370 13.157611 0.000000 0.090325
181.000000 85.624000 2.000000 0.000000 6.000000 84.535092 8.877776 806.884506 1045.218630 11.690601 0.000000 0.158581
182.000000 88.842000 4.000000 0.000000 6.000000 110.074592 16.104566 664.250709 531.607566 11.261589 0.000000 0.127230
183.000000 85.909000 5.000000 0.000000 6.000000 119.634338 20.249448 577.945856 288.391585 11.644123 0.000000 0.067775
184.000000 77.026000 7.000000 0.000000 6.000000 133.679705 29.617296 363.149934 -241.268342 12.984156 0.000000 0.108829
186.000000 63.471000 0.000000 1.000000 6.000000 54.264914 -7.444952 1115.644976 1721.979540 15.779337 0.000000 0.056141
187.000000 78.996000 1.000000 1.000000 6.000000 72.392261 -5.173699 1072.452326 1283.977991 12.674414 0.000000 0.112288
188.000000 87.975000 2.000000 1.000000 6.000000 88.683395 -2.617291 1024.199729 965.762451 11.377408 0.000000 0.169919
189.000000 91.251000 3.000000 1.000000 6.000000 102.775178 0.269219 969.942720 696.959551 10.965956 0.000000 0.170945
190.000000 90.504000 4.000000 1.000000 6.000000 114.656189 3.536320 908.486181 446.014171 11.053930 0.000000 0.137693
191.000000 87.350000 5.000000 1.000000 6.000000 124.515575 7.238620 838.295293 194.906215 11.451201 0.000000 0.085103
192.000000 82.977000 6.000000 1.000000 6.000000 132.616387 11.431478 757.365594 -69.313767 12.053279 0.000000 0.031743
193.000000 78.142000 7.000000 1.000000 6.000000 139.221863 16.164605 663.028479 -358.224992 12.797978 0.000000 0.058073
195.000000 77.903000 1.000000 2.000000 6.000000 74.325970 -15.973198 1283.077614 1255.134932 12.851644 0.000000 0.115361
196.000000 89.732000 3.000000 2.000000 6.000000 104.428991 -12.103394 1205.804191 657.778241 11.151073 0.000000 0.153588
197.000000 86.403000 5.000000 2.000000 6.000000 126.600156 -6.952442 1106.245574 135.747730 11.576318 0.000000 0.073377
198.000000 77.722000 7.000000 2.000000 6.000000 142.158415 0.099173 973.137051 -444.474741 12.866651 0.000000 0.015767
199.000000 73.713000 1.000000 3.000000 6.000000 74.355050 -25.939183 1498.530329 1276.183986 13.581537 0.000000 0.108909
200.000000 81.840000 2.000000 3.000000 6.000000 89.835273 -24.903055 1474.668936 944.411599 12.229486 0.000000 0.124067
201.000000 85.543000 4.000000 3.000000 6.000000 115.576603 -22.334840 1417.185191 384.086140 11.694596 0.000000 0.076022
202.000000 83.405000 5.000000 3.000000 6.000000 125.859817 -20.720343 1382.134488 109.243362 11.992428 0.000000 0.034386
205.000000 67.742000 1.000000 4.000000 6.000000 73.002934 -34.653804 1718.978356 1340.945076 14.778565 0.000000 0.126470
206.000000 79.321000 3.000000 4.000000 6.000000 100.938842 -33.819773 1696.054244 690.614455 12.614893 0.000000 0.059893
207.000000 78.913000 5.000000 4.000000 6.000000 122.883441 -32.713248 1666.320138 113.977721 12.675465 0.000000 0.050561
209.000000 50.886000 0.000000 5.000000 6.000000 56.165785 -41.936722 1941.949491 1910.839321 19.678039 0.000000 0.301710
210.000000 61.141000 1.000000 5.000000 6.000000 70.833396 -42.014630 1944.597460 1444.519739 16.373982 0.000000 0.196774
211.000000 68.309000 2.000000 5.000000 6.000000 84.601495 -42.101892 1947.571082 1078.085961 14.652313 0.000000 0.136798
212.000000 72.419000 3.000000 5.000000 6.000000 97.196499 -42.200301 1950.934368 757.548899 13.817733 0.000000 0.101108
213.000000 73.944000 4.000000 5.000000 6.000000 108.498900 -42.312137 1954.769279 454.041712 13.530255 0.000000 0.105588
214.000000 73.531000 5.000000 5.000000 6.000000 118.511293 -42.440347 1959.182498 148.763685 13.603947 0.000000 0.153893
217.000000 54.671000 1.000000 6.000000 6.000000 68.289269 -48.124257 2175.571748 1582.995325 18.311903 0.000000 0.312736
226.000000 47.803000 4.000000 -5.000000 7.000000 69.012004 48.406737 -237.546571 1562.976748 20.942680 0.000000 0.311092
227.000000 49.992000 5.000000 -5.000000 7.000000 77.585176 50.974176 -352.888579 1317.277056 20.022643 0.000000 0.319847
231.000000 45.521000 2.000000 -4.000000 7.000000 55.145588 38.230492 127.112057 1895.213177 21.997950 0.000000 0.257812
232.000000 51.241000 3.000000 -4.000000 7.000000 66.357669 40.983041 39.950818 1565.144048 19.539019 0.000000 0.209897
233.000000 54.679000 4.000000 -4.000000 7.000000 76.326966 43.775444 -56.243996 1303.624753 18.307300 0.000000 0.191354
234.000000 56.270000 5.000000 -4.000000 7.000000 85.061772 46.595080 -162.953528 1076.333505 17.786927 0.000000 0.196162
235.000000 56.488000 6.000000 -4.000000 7.000000 92.639674 49.428556 -282.001438 864.706330 17.715630 0.000000 0.234365
238.000000 53.225000 2.000000 -3.000000 7.000000 61.946708 32.228808 296.465314 1619.027581 18.812792 0.000000 0.153538
239.000000 58.700000 3.000000 -3.000000 7.000000 73.608209 35.161033 216.853635 1328.264637 17.054791 0.000000 0.131722
240.000000 61.563000 4.000000 -3.000000 7.000000 83.854146 38.171603 128.903344 1088.417155 16.258458 0.000000 0.113853
241.000000 62.420000 5.000000 -3.000000 7.000000 92.720220 41.246488 31.231948 872.987267 16.032532 0.000000 0.102285
242.000000 61.870000 6.000000 -3.000000 7.000000 100.316010 44.369584 -77.866538 666.945090 16.172653 0.000000 0.129007
243.000000 60.410000 7.000000 -3.000000 7.000000 106.784083 47.523145 -200.522087 460.280521 16.561670 0.000000 0.201818
246.000000 52.177000 1.000000 -2.000000 7.000000 55.154913 22.267611 534.290140 1750.683686 19.193598 0.000000 0.123933
247.000000 60.700000 2.000000 -2.000000 7.000000 68.703623 25.175301 469.100940 1404.587096 16.494963 0.000000 0.108819
248.000000 65.752000 3.000000 -2.000000 7.000000 80.762406 28.222263 397.357507 1139.663608 15.224128 0.000000 0.117900
249.000000 67.929000 4.000000 -2.000000 7.000000 91.254797 31.400314 318.019060 913.380020 14.733117 0.000000 0.100121
250.000000 68.003000 5.000000 -2.000000 7.000000 100.242470 34.697351 229.812141 704.455780 14.714525 0.000000 0.060651
251.000000 66.683000 6.000000 -2.000000 7.000000 107.863150 38.097222 131.161739 500.231560 15.003755 0.000000 0.046534
252.000000 64.521000 7.000000 -2.000000 7.000000 114.283912 41.579894 20.096428 291.826772 15.504717 0.000000 0.116709
253.000000 61.909000 8.000000 -2.000000 7.000000 119.672925 45.121925 -105.884743 71.905444 16.157545 0.000000 0.216329
255.000000 46.432000 0.000000 -1.000000 7.000000 45.636880 11.532168 755.396097 2015.316560 21.571643 0.000000 0.182038
256.000000 58.768000 1.000000 -1.000000 7.000000 60.951924 14.192883 702.797926 1557.602076 17.040043 0.000000 0.066020
257.000000 67.114000 2.000000 -1.000000 7.000000 74.945974 17.040327 645.115296 1243.772289 14.917342 0.000000 0.121973
258.000000 71.660000 3.000000 -1.000000 7.000000 87.336424 20.079280 581.573522 994.311382 13.967622 0.000000 0.142864
259.000000 73.168000 4.000000 -1.000000 7.000000 98.056099 23.310881 511.232120 775.121478 13.676961 0.000000 0.126700
260.000000 72.537000 5.000000 -1.000000 7.000000 107.184283 26.731535 432.937945 568.324703 13.793401 0.000000 0.083785
261.000000 70.555000 6.000000 -1.000000 7.000000 114.876579 30.331853 345.261481 362.786730 14.178897 0.000000 0.021261
262.000000 67.809000 7.000000 -1.000000 7.000000 121.314585 34.095810 246.408766 150.308736 14.751482 0.000000 0.056570
263.000000 64.699000 8.000000 -1.000000 7.000000 126.677031 38.000311 134.097345 -76.216390 15.459411 0.000000 0.147039
266.000000 54.158000 0.000000 1.000000 7.000000 53.787628 -5.963504 1087.429991 1733.373401 18.492818 0.000000 0.056964
267.000000 66.004000 1.000000 1.000000 7.000000 69.448420 -3.955969 1049.430717 1345.478411 15.170058 0.000000 0.095040
268.000000 73.673000 2.000000 1.000000 7.000000 83.801949 -1.739422 1007.684877 1057.939817 13.587396 0.000000 0.159999
269.000000 77.465000 3.000000 1.000000 7.000000 96.562815 0.712789 961.609645 817.166743 12.918948 0.000000 0.176001
270.000000 78.229000 4.000000 1.000000 7.000000 107.659779 3.429792 910.494697 597.728153 12.790080 0.000000 0.160254
271.000000 76.916000 5.000000 1.000000 7.000000 117.166545 6.442524 853.465328 385.143805 13.006251 0.000000 0.123991
272.000000 74.333000 6.000000 1.000000 7.000000 125.231372 9.782409 789.431980 169.659783 13.456408 0.000000 0.075960
273.000000 71.071000 7.000000 1.000000 7.000000 132.026618 13.479092 717.019964 -56.481066 14.072538 0.000000 0.031566
274.000000 67.524000 8.000000 1.000000 7.000000 137.719930 17.556928 634.469654 -300.490299 14.810657 0.000000 0.055993
277.000000 54.694000 0.000000 2.000000 7.000000 56.133939 -14.732511 1258.013365 1687.869055 18.310735 0.000000 0.072556
278.000000 65.869000 1.000000 2.000000 7.000000 71.526046 -13.215030 1227.740440 1310.360098 15.200367 0.000000 0.104658
279.000000 73.173000 2.000000 2.000000 7.000000 85.723436 -11.524437 1194.452642 1023.140228 13.679520 0.000000 0.155697
280.000000 76.855000 3.000000 2.000000 7.000000 98.449706 -9.632832 1157.675994 778.825884 13.021020 0.000000 0.166768
281.000000 77.665000 4.000000 2.000000 7.000000 109.622791 -7.507056 1116.831669 553.948871 12.882559 0.000000 0.150101
282.000000 76.469000 5.000000 2.000000 7.000000 119.296897 -5.107848 1071.205305 334.680690 13.081833 0.000000 0.115807
283.000000 74.020000 6.000000 2.000000 7.000000 127.600066 -2.389094 1019.904862 111.418770 13.512830 0.000000 0.072096
284.000000 70.881000 7.000000 2.000000 7.000000 134.687135 0.702566 961.801723 -123.683792 14.109706 0.000000 0.027147
285.000000 67.436000 8.000000 2.000000 7.000000 140.711214 4.227278 895.446697 -378.088443 14.829404 0.000000 0.019239
288.000000 53.246000 0.000000 3.000000 7.000000 57.297885 -22.995213 1431.753705 1691.675299 18.807642 0.000000 0.111773
289.000000 63.580000 1.000000 3.000000 7.000000 72.161008 -21.984303 1409.508164 1314.529064 15.747067 0.000000 0.104879
290.000000 70.520000 2.000000 3.000000 7.000000 85.979374 -20.854819 1385.024632 1021.954904 14.193864 0.000000 0.135704
291.000000 74.223000 3.000000 3.000000 7.000000 98.492321 -19.585653 1357.947495 770.424986 13.482476 0.000000 0.139484
292.000000 75.289000 4.000000 3.000000 7.000000 109.606009 -18.150697 1327.841583 537.545976 13.288899 0.000000 0.120225
293.000000 74.449000 5.000000 3.000000 7.000000 119.349998 -16.517407 1294.168602 309.725696 13.436496 0.000000 0.086468
294.000000 72.370000 6.000000 3.000000 7.000000 127.826294 -14.644908 1256.254672 77.288303 13.820766 0.000000 0.047495
295.000000 69.568000 7.000000 3.000000 7.000000 135.168191 -12.481532 1213.244756 -167.838405 14.375934 0.000000 0.022623
296.000000 66.409000 8.000000 3.000000 7.000000 141.513349 -9.961671 1164.037412 -433.456343 15.058530 0.000000 0.035252
299.000000 50.413000 0.000000 4.000000 7.000000 57.482331 -30.490264 1608.739468 1737.251068 19.863882 0.000000 0.163028
300.000000 59.817000 1.000000 4.000000 7.000000 71.630094 -29.937544 1594.835466 1353.439539 16.737241 0.000000 0.112334
301.000000 66.372000 2.000000 4.000000 7.000000 84.892396 -29.321456 1579.518273 1051.336328 15.080695 0.000000 0.109683
302.000000 70.142000 3.000000 4.000000 7.000000 97.029576 -28.630613 1562.560901 789.795463 14.267007 0.000000 0.099154
303.000000 71.561000 4.000000 4.000000 7.000000 107.938438 -27.850770 1543.684999 546.921750 13.981336 0.000000 0.072497
304.000000 71.208000 5.000000 4.000000 7.000000 117.623078 -26.963902 1522.545453 309.080338 14.048288 0.000000 0.035454
305.000000 69.642000 6.000000 4.000000 7.000000 126.156382 -25.946879 1498.709100 66.366212 14.362404 0.000000 0.024542
306.000000 67.319000 7.000000 4.000000 7.000000 133.646241 -24.769590 1471.624725 -189.615447 14.856469 0.000000 0.064301
309.000000 46.822000 0.000000 5.000000 7.000000 56.958060 -37.102285 1789.062445 1818.770232 21.386353 0.000000 0.230457
310.000000 55.279000 1.000000 5.000000 7.000000 70.287018 -36.924617 1783.827942 1423.401119 18.111084 0.000000 0.149508
311.000000 61.416000 2.000000 5.000000 7.000000 82.880237 -36.727738 1778.055876 1108.734098 16.297793 0.000000 0.108527
312.000000 65.224000 3.000000 5.000000 7.000000 94.522374 -36.508361 1771.658959 835.087724 15.343030 0.000000 0.074685
313.000000 66.992000 4.000000 5.000000 7.000000 105.105482 -36.262403 1764.529920 580.698637 14.935287 0.000000 0.039164
314.000000 67.151000 5.000000 5.000000 7.000000 114.611333 -35.984732 1756.535443 331.707347 14.897498 0.000000 0.037790
315.000000 66.148000 6.000000 5.000000 7.000000 123.084175 -35.668808 1747.507754 77.874741 15.121575 0.000000 0.084867
316.000000 64.369000 7.000000 5.000000 7.000000 130.604494 -35.306165 1737.232715 -189.584503 15.537799 0.000000 0.138584
319.000000 50.515000 1.000000 6.000000 7.000000 68.457707 -42.941138 1976.595405 1521.396559 19.819082 0.000000 0.222451
320.000000 56.205000 2.000000 6.000000 7.000000 80.329946 -43.059857 1980.764890 1192.006279 17.809089 0.000000 0.164225
321.000000 59.987000 3.000000 6.000000 7.000000 91.407702 -43.191035 1985.390742 904.722796 16.682954 0.000000 0.126552
322.000000 62.037000 4.000000 6.000000 7.000000 101.583414 -43.336740 1990.552225 637.690706 16.128907 0.000000 0.112923
323.000000 62.659000 5.000000 6.000000 7.000000 110.822177 -43.499523 1996.348089 376.712937 15.966381 0.000000 0.133532
324.000000 62.194000 6.000000 6.000000 7.000000 119.143532 -43.682571 2002.902944 111.149196 16.083567 0.000000 0.180637
327.000000 45.883000 1.000000 7.000000 7.000000 66.392059 -48.069176 2173.252100 1644.944784 21.819889 0.000000 0.325288
328.000000 51.113000 2.000000 7.000000 7.000000 77.537958 -48.412170 2187.778177 1299.349547 19.583581 0.000000 0.263555
329.000000 54.801000 3.000000 7.000000 7.000000 88.024293 -48.787778 2203.912005 997.352939 18.262561 0.000000 0.230609
330.000000 57.040000 4.000000 7.000000 7.000000 97.748169 -49.200846 2221.936139 716.879896 17.542718 0.000000 0.226656
331.000000 58.037000 5.000000 7.000000 7.000000 106.664157 -49.657222 2242.203467 443.331824 17.238917 0.000000 0.252426
340.000000 46.330000 5.000000 -5.000000 8.000000 76.935185 46.635606 -164.567027 1304.751588 21.605916 0.000000 0.231483
341.000000 47.374000 6.000000 -5.000000 8.000000 84.215899 49.021293 -264.064649 1107.251627 21.127063 0.000000 0.246131
342.000000 47.586000 7.000000 -5.000000 8.000000 90.662494 51.408427 -373.657345 921.047899 21.030520 0.000000 0.287225
345.000000 46.534000 3.000000 -4.000000 8.000000 65.832856 37.127459 160.193897 1546.753589 21.515952 0.000000 0.173595
346.000000 51.459000 5.000000 -4.000000 8.000000 83.532609 42.208826 -1.226225 1105.719311 19.450642 0.000000 0.142697
347.000000 51.742000 7.000000 -4.000000 8.000000 97.342644 47.406842 -195.741794 736.075034 19.339353 0.000000 0.186083
349.000000 47.489000 2.000000 -3.000000 8.000000 61.329565 28.981205 378.861795 1613.778452 21.085501 0.000000 0.134525
350.000000 52.309000 3.000000 -3.000000 8.000000 72.065969 31.565268 313.758386 1349.828065 19.139358 0.000000 0.122271
351.000000 55.156000 4.000000 -3.000000 8.000000 81.680218 34.226691 242.817986 1131.360839 18.147926 0.000000 0.111638
352.000000 56.401000 5.000000 -3.000000 8.000000 90.170820 36.957035 165.218761 936.984367 17.744674 0.000000 0.091178
353.000000 56.441000 6.000000 -3.000000 8.000000 97.595807 39.746176 79.976997 754.329373 17.729410 0.000000 0.076550
354.000000 55.637000 7.000000 -3.000000 8.000000 104.046179 42.582443 -14.094824 575.292745 17.983534 0.000000 0.101873
355.000000 54.277000 8.000000 -3.000000 8.000000 109.626287 45.452851 -118.443685 393.872627 18.432313 0.000000 0.167176
358.000000 46.038000 1.000000 -2.000000 8.000000 54.855610 19.982355 583.636256 1747.214518 21.753130 0.000000 0.112681
359.000000 57.665000 3.000000 -2.000000 8.000000 78.113114 25.135468 470.014217 1191.250746 17.360317 0.000000 0.120848
360.000000 60.840000 5.000000 -2.000000 8.000000 96.587566 30.742723 334.857271 796.382256 16.448366 0.000000 0.091636
361.000000 59.061000 7.000000 -2.000000 8.000000 110.549919 36.746266 171.402196 437.464838 16.939357 0.000000 0.034752
362.000000 55.158000 9.000000 -2.000000 8.000000 120.855313 43.046002 -30.277436 61.136761 18.134787 0.000000 0.183898
364.000000 50.887000 1.000000 -1.000000 8.000000 59.766896 12.783029 730.807179 1584.192592 19.679370 0.000000 0.059111
365.000000 57.837000 2.000000 -1.000000 8.000000 72.297529 15.226191 682.048945 1297.038644 17.310851 0.000000 0.112753
366.000000 62.130000 3.000000 -1.000000 8.000000 83.626829 17.819637 629.032769 1067.273471 16.111314 0.000000 0.143517
367.000000 64.156000 4.000000 -1.000000 8.000000 93.670442 20.566042 571.175431 867.256911 15.599550 0.000000 0.142268
368.000000 64.446000 5.000000 -1.000000 8.000000 102.447118 23.465600 507.782104 682.015063 15.526602 0.000000 0.117073
369.000000 63.520000 6.000000 -1.000000 8.000000 110.039632 26.515396 438.018309 502.269478 15.750729 0.000000 0.074033
370.000000 61.807000 7.000000 -1.000000 8.000000 116.562179 29.708820 360.872982 321.488785 16.185304 0.000000 0.017954
371.000000 59.631000 8.000000 -1.000000 8.000000 122.138199 33.035077 275.109151 134.452657 16.774393 0.000000 0.051122
372.000000 57.219000 9.000000 -1.000000 8.000000 126.887514 36.478908 179.197108 -63.554441 17.480274 0.000000 0.127997
375.000000 54.503000 1.000000 0.000000 8.000000 63.967964 5.023542 880.390825 1468.716017 18.373047 0.000000 0.059328
376.000000 65.272000 3.000000 0.000000 8.000000 88.231598 9.707121 790.887965 974.712441 15.334635 0.000000 0.164434
377.000000 66.935000 5.000000 0.000000 8.000000 107.371502 15.124998 684.089690 592.215339 14.948166 0.000000 0.138887
378.000000 63.706000 7.000000 0.000000 8.000000 121.733788 21.342676 554.446607 226.381737 15.701789 0.000000 0.051238
379.000000 58.661000 9.000000 0.000000 8.000000 132.238236 28.371115 393.750897 -169.633821 17.049335 0.000000 0.086195
381.000000 47.190000 0.000000 1.000000 8.000000 53.407123 -4.849993 1066.324762 1742.990635 21.223565 0.000000 0.058799
382.000000 56.509000 1.000000 1.000000 8.000000 67.185048 -3.055253 1032.447018 1394.407461 17.719655 0.000000 0.079812
383.000000 63.019000 2.000000 1.000000 8.000000 79.991362 -1.101055 995.685733 1130.982105 15.885661 0.000000 0.148263
384.000000 66.811000 3.000000 1.000000 8.000000 91.604323 1.029633 955.656390 910.850239 14.980653 0.000000 0.174182
385.000000 68.326000 4.000000 1.000000 8.000000 101.937383 3.355089 911.902924 713.065026 14.645554 0.000000 0.171218
386.000000 68.129000 5.000000 1.000000 8.000000 111.006340 5.894498 863.880270 525.515885 14.685220 0.000000 0.148387
387.000000 66.759000 6.000000 1.000000 8.000000 118.890143 8.667346 810.931540 340.234423 14.984475 0.000000 0.112191
388.000000 64.653000 7.000000 1.000000 8.000000 125.698186 11.692464 752.257795 151.268441 15.470952 0.000000 0.068507
389.000000 62.133000 8.000000 1.000000 8.000000 131.548098 14.986607 686.877454 -46.422562 16.096897 0.000000 0.031249
390.000000 59.425000 9.000000 1.000000 8.000000 136.552951 18.562503 613.570938 -257.635449 16.829522 0.000000 0.053862
393.000000 56.806000 1.000000 2.000000 8.000000 69.272295 -11.144951 1187.037573 1356.121217 17.626388 0.000000 0.093169
394.000000 66.693000 3.000000 2.000000 8.000000 93.562531 -7.851382 1123.417412 873.357812 15.006457 0.000000 0.170205
395.000000 67.999000 5.000000 2.000000 8.000000 113.111853 -3.840845 1047.258085 480.624377 14.712855 0.000000 0.143163
396.000000 64.628000 7.000000 2.000000 8.000000 128.151146 1.093979 954.447234 95.370805 15.476473 0.000000 0.069179
397.000000 59.494000 9.000000 2.000000 8.000000 139.473459 7.209373 838.853530 -328.029972 16.809297 0.000000 0.024083
399.000000 47.238000 0.000000 3.000000 8.000000 56.989650 -19.975858 1366.225577 1684.991131 21.199995 0.000000 0.095718
400.000000 55.571000 1.000000 3.000000 8.000000 70.244197 -18.934704 1344.226383 1349.665505 18.017233 0.000000 0.098525
401.000000 61.508000 2.000000 3.000000 8.000000 82.687077 -17.788493 1320.321869 1086.058348 16.274524 0.000000 0.137929
402.000000 65.094000 3.000000 3.000000 8.000000 94.115029 -16.521552 1294.253307 860.231804 15.374754 0.000000 0.152522
403.000000 66.659000 4.000000 3.000000 8.000000 104.434522 -15.115204 1265.712900 654.035265 15.010842 0.000000 0.145215
404.000000 66.657000 5.000000 3.000000 8.000000 113.639951 -13.547112 1234.331576 456.401936 15.008717 0.000000 0.122454
405.000000 65.541000 6.000000 3.000000 8.000000 121.784265 -11.790479 1199.662942 259.703999 15.262334 0.000000 0.090080
406.000000 63.693000 7.000000 3.000000 8.000000 128.952255 -9.813109 1161.161909 57.998846 15.703404 0.000000 0.053738
407.000000 61.409000 8.000000 3.000000 8.000000 135.240761 -7.576332 1118.155828 -153.936527 16.285966 0.000000 0.020701
408.000000 58.902000 9.000000 3.000000 8.000000 140.745962 -5.033878 1069.804853 -381.228769 16.977947 0.000000 0.015626
411.000000 53.173000 1.000000 4.000000 8.000000 70.249909 -26.177584 1504.079508 1371.596936 18.829335 0.000000 0.104685
412.000000 62.343000 3.000000 4.000000 8.000000 93.444237 -24.621271 1468.249395 869.743872 16.052979 0.000000 0.123593
413.000000 64.326000 5.000000 4.000000 8.000000 112.747192 -22.699545 1425.213603 451.844985 15.552687 0.000000 0.086262
414.000000 61.978000 7.000000 4.000000 8.000000 128.186594 -20.272935 1372.555461 38.542840 16.138035 0.000000 0.027982
415.000000 57.721000 9.000000 4.000000 8.000000 140.342229 -17.125783 1306.641594 -417.587569 17.325509 0.000000 0.062198
417.000000 50.034000 1.000000 5.000000 8.000000 69.510765 -32.726253 1666.665268 1419.066187 20.010270 0.000000 0.126099
418.000000 55.324000 2.000000 5.000000 8.000000 81.061033 -32.343388 1656.546306 1141.380914 18.093231 0.000000 0.107332
419.000000 58.827000 3.000000 5.000000 8.000000 91.833866 -31.921481 1645.494182 900.399385 17.012570 0.000000 0.093196
420.000000 60.717000 4.000000 5.000000 8.000000 101.733846 -31.454295 1633.373574 678.938909 16.480167 0.000000 0.070269
421.000000 61.278000 5.000000 5.000000 8.000000 110.731556 -30.934198 1620.021663 466.069820 16.326610 0.000000 0.037647
422.000000 60.826000 6.000000 5.000000 8.000000 118.846820 -30.351767 1605.240783 253.995030 16.445767 0.000000 0.006153
423.000000 59.651000 7.000000 5.000000 8.000000 126.131139 -29.695226 1588.788563 36.466514 16.767763 0.000000 0.046512
424.000000 57.996000 8.000000 5.000000 8.000000 132.652979 -28.949679 1570.364538 -192.131928 17.244715 0.000000 0.088917
427.000000 46.532000 1.000000 6.000000 8.000000 68.257408 -38.530349 1832.054335 1489.700610 21.515965 0.000000 0.172408
428.000000 54.904000 3.000000 6.000000 8.000000 89.586466 -38.335179 1826.079513 950.903568 18.228368 0.000000 0.093479
429.000000 57.785000 5.000000 6.000000 8.000000 107.936145 -38.098537 1818.878142 498.299447 17.314061 0.000000 0.046959
430.000000 56.894000 7.000000 6.000000 8.000000 123.149243 -37.805647 1810.029332 51.301135 17.580984 0.000000 0.113021
432.000000 47.534000 2.000000 7.000000 8.000000 77.110817 -43.740642 2004.990809 1281.897336 21.058917 0.000000 0.187147
433.000000 50.861000 3.000000 7.000000 8.000000 86.966526 -43.882295 2010.100722 1020.133576 19.678127 0.000000 0.149059
434.000000 52.995000 4.000000 7.000000 8.000000 96.168465 -44.037142 2015.714510 779.189788 18.882689 0.000000 0.127732
435.000000 54.083000 5.000000 7.000000 8.000000 104.672961 -44.207116 2021.910563 547.852328 18.500140 0.000000 0.129828
436.000000 54.312000 6.000000 7.000000 8.000000 112.473121 -44.394543 2028.784427 317.907257 18.419709 0.000000 0.157092
437.000000 53.875000 7.000000 7.000000 8.000000 119.589151 -44.602252 2036.453761 82.640375 18.566999 0.000000 0.201483
440.000000 46.897000 3.000000 8.000000 8.000000 84.177085 -48.642815 2197.656812 1107.115341 21.342107 0.000000 0.239712
441.000000 50.353000 5.000000 8.000000 8.000000 101.187172 -49.366560 2229.251863 614.132738 19.871304 0.000000 0.233000
446.000000 47.131000 5.000000 -4.000000 9.000000 81.950209 38.513253 118.470323 1135.535701 21.237823 0.000000 0.121570
447.000000 47.931000 6.000000 -4.000000 9.000000 89.064336 40.874312 43.528941 964.246667 20.880483 0.000000 0.111107
448.000000 47.983000 7.000000 -4.000000 9.000000 95.391722 43.265027 -38.008777 801.499730 20.855344 0.000000 0.117648
449.000000 47.485000 8.000000 -4.000000 9.000000 100.993669 45.677507 -127.053840 641.746905 21.071953 0.000000 0.152459
450.000000 46.600000 9.000000 -4.000000 9.000000 105.938461 48.103408 -224.693106 480.716760 21.469963 0.000000 0.212697
452.000000 49.687000 4.000000 -3.000000 9.000000 79.647735 31.009551 328.052948 1170.395015 20.146429 0.000000 0.114755
453.000000 51.139000 5.000000 -3.000000 9.000000 87.745891 33.445168 264.096673 991.772219 19.571572 0.000000 0.100538
454.000000 51.254000 7.000000 -3.000000 9.000000 101.312896 38.491289 119.144002 665.906115 19.522714 0.000000 0.058726
455.000000 50.395000 8.000000 -3.000000 9.000000 106.909548 41.085630 36.563927 506.892437 19.853088 0.000000 0.083095
456.000000 47.736000 10.000000 -3.000000 9.000000 116.108874 46.368578 -153.979890 176.557753 20.955761 0.000000 0.219498
458.000000 47.013000 2.000000 -2.000000 9.000000 65.636167 20.381174 575.132258 1460.961177 21.298636 0.000000 0.094164
459.000000 51.117000 3.000000 -2.000000 9.000000 75.824403 22.692908 524.932882 1235.668087 19.584871 0.000000 0.119769
460.000000 53.591000 4.000000 -2.000000 9.000000 85.045518 25.102578 470.767871 1044.033564 18.677455 0.000000 0.126944
461.000000 54.713000 5.000000 -2.000000 9.000000 93.285256 27.607482 412.147987 871.281173 18.291511 0.000000 0.113628
462.000000 54.793000 6.000000 -2.000000 9.000000 100.578582 30.203249 348.500063 708.419755 18.262218 0.000000 0.083652
463.000000 54.119000 7.000000 -2.000000 9.000000 106.990385 32.883702 279.148202 549.396350 18.487594 0.000000 0.041730
464.000000 52.929000 8.000000 -2.000000 9.000000 112.600250 35.640781 203.289681 389.712722 18.901154 0.000000 0.026976
465.000000 51.411000 9.000000 -2.000000 9.000000 117.491999 38.464546 119.963739 225.677946 19.457704 0.000000 0.086624
466.000000 49.702000 10.000000 -2.000000 9.000000 121.747292 41.343288 28.010669 53.957440 20.125449 0.000000 0.160231
469.000000 50.658000 2.000000 -1.000000 9.000000 70.142854 13.820369 710.231012 1341.291515 19.764918 0.000000 0.103167
470.000000 54.586000 3.000000 -1.000000 9.000000 80.546901 16.076798 664.815725 1127.497997 18.339278 0.000000 0.139909
471.000000 56.801000 4.000000 -1.000000 9.000000 89.941305 18.456574 615.783812 942.162358 17.620717 0.000000 0.148910
472.000000 57.624000 5.000000 -1.000000 9.000000 98.315413 20.961201 562.685345 772.541878 17.366206 0.000000 0.136367
473.000000 57.396000 6.000000 -1.000000 9.000000 105.709260 23.590435 504.992538 610.674145 17.432643 0.000000 0.107436
474.000000 56.426000 7.000000 -1.000000 9.000000 112.192826 26.341917 442.082140 451.054734 17.730282 0.000000 0.065931
475.000000 54.964000 8.000000 -1.000000 9.000000 117.850041 29.210814 373.212829 289.478540 18.199982 0.000000 0.016158
476.000000 53.202000 9.000000 -1.000000 9.000000 122.768081 32.189534 297.495869 122.396919 18.801191 0.000000 0.047260
477.000000 51.279000 10.000000 -1.000000 9.000000 127.031034 35.267530 213.856540 -53.482728 19.505171 0.000000 0.113869
480.000000 49.305000 1.000000 1.000000 9.000000 65.393270 -2.362330 1019.401253 1434.338179 20.309497 0.000000 0.066506
481.000000 54.847000 2.000000 1.000000 9.000000 76.941422 -0.616054 986.572941 1190.655856 18.253390 0.000000 0.136232
482.000000 58.429000 3.000000 1.000000 9.000000 87.569293 1.267256 951.190869 986.699133 17.131120 0.000000 0.168764
483.000000 60.282000 4.000000 1.000000 9.000000 97.192189 3.299802 912.944989 804.955913 16.601123 0.000000 0.175142
484.000000 60.751000 5.000000 1.000000 9.000000 105.797774 5.494288 871.472942 635.079113 16.470308 0.000000 0.162822
485.000000 60.191000 6.000000 1.000000 9.000000 113.423930 7.863608 826.348547 470.285751 16.621293 0.000000 0.137097
486.000000 58.917000 7.000000 1.000000 9.000000 120.137957 10.420389 777.067099 305.662526 16.978609 0.000000 0.102154
487.000000 57.184000 8.000000 1.000000 9.000000 126.020544 13.176335 723.026410 137.277140 17.491526 0.000000 0.062399
488.000000 55.182000 9.000000 1.000000 9.000000 131.155056 16.141345 663.502086 -38.340928 18.124687 0.000000 0.030922
489.000000 53.048000 10.000000 1.000000 9.000000 135.621248 19.322390 597.614857 -224.544292 18.852692 0.000000 0.051904
493.000000 49.790000 1.000000 2.000000 9.000000 67.429869 -9.537895 1155.841761 1394.630801 20.110922 0.000000 0.081996
494.000000 55.124000 2.000000 2.000000 9.000000 78.910922 -8.085944 1127.909978 1154.065743 18.161131 0.000000 0.140561
495.000000 58.577000 3.000000 2.000000 9.000000 89.519069 -6.508401 1097.788097 950.093044 17.086864 0.000000 0.168336
496.000000 60.368000 4.000000 2.000000 9.000000 99.168783 -4.790964 1065.208022 766.671003 16.576873 0.000000 0.172620
497.000000 60.817000 5.000000 2.000000 9.000000 107.843152 -2.917699 1029.856040 594.095640 16.451810 0.000000 0.159940
498.000000 60.262000 6.000000 2.000000 9.000000 115.573781 -0.870989 991.362684 425.872111 16.601052 0.000000 0.135253
499.000000 59.005000 7.000000 2.000000 9.000000 122.421404 1.368406 949.289772 257.203726 16.952658 0.000000 0.102595
500.000000 57.293000 8.000000 2.000000 9.000000 128.460571 3.821145 903.113653 84.180764 17.457821 0.000000 0.065775
501.000000 55.310000 9.000000 2.000000 9.000000 133.769127 6.508852 852.203302 -96.705091 18.082263 0.000000 0.030773
502.000000 53.192000 10.000000 2.000000 9.000000 138.421809 9.453326 795.791311 -288.891477 18.801201 0.000000 0.027562
506.000000 49.160000 1.000000 3.000000 9.000000 68.585915 -16.524114 1294.305671 1381.284034 20.367668 0.000000 0.090980
507.000000 54.263000 2.000000 3.000000 9.000000 79.881254 -15.398114 1271.422714 1140.232147 18.448442 0.000000 0.135201
508.000000 59.420000 4.000000 3.000000 9.000000 99.971994 -12.824284 1220.007819 746.921471 16.840978 0.000000 0.158768
509.000000 59.942000 5.000000 3.000000 9.000000 108.658846 -11.347408 1190.991092 570.309738 16.691584 0.000000 0.145220
510.000000 58.356000 7.000000 3.000000 9.000000 123.414454 -7.922854 1124.785779 224.081748 17.141039 0.000000 0.090163
511.000000 56.758000 8.000000 3.000000 9.000000 129.601904 -5.929920 1086.792278 45.761275 17.621829 0.000000 0.056311
512.000000 52.854000 10.000000 3.000000 9.000000 139.946193 -1.242917 998.351703 -339.535265 18.921052 0.000000 0.004920
515.000000 47.622000 1.000000 4.000000 9.000000 68.942542 -23.134218 1434.838330 1391.625668 21.025022 0.000000 0.098296
516.000000 52.476000 2.000000 4.000000 9.000000 79.947546 -22.333773 1417.161777 1147.268940 19.076314 0.000000 0.122876
517.000000 55.757000 3.000000 4.000000 9.000000 90.227664 -21.459125 1398.076869 936.404801 17.950450 0.000000 0.136637
518.000000 57.608000 4.000000 4.000000 9.000000 99.697786 -20.499924 1377.408309 744.633055 17.370453 0.000000 0.134233
519.000000 58.268000 5.000000 4.000000 9.000000 108.329076 -19.443911 1354.950449 562.878570 17.171118 0.000000 0.118767
520.000000 58.001000 6.000000 4.000000 9.000000 116.135293 -18.276490 1330.460426 384.851185 17.247794 0.000000 0.094187
521.000000 57.058000 7.000000 4.000000 9.000000 123.158288 -16.980191 1303.649337 205.759063 17.530971 0.000000 0.064695
522.000000 55.650000 8.000000 4.000000 9.000000 129.455575 -15.534003 1274.170798 21.587573 17.972673 0.000000 0.036277
523.000000 53.947000 9.000000 4.000000 9.000000 135.091033 -13.912539 1241.605890 -171.351881 18.538715 0.000000 0.024890
524.000000 52.075000 10.000000 4.000000 9.000000 140.128617 -12.085017 1205.443127 -376.744625 19.204084 0.000000 0.037583
527.000000 50.025000 2.000000 5.000000 9.000000 79.272159 -28.737891 1565.179376 1173.553630 20.010904 0.000000 0.110991
528.000000 53.229000 3.000000 5.000000 9.000000 89.263459 -28.190897 1551.883783 956.698821 18.802957 0.000000 0.111373
529.000000 55.151000 4.000000 5.000000 9.000000 98.529966 -27.591744 1537.475584 758.856042 18.144692 0.000000 0.101787
530.000000 55.978000 5.000000 5.000000 9.000000 107.037348 -26.932750 1521.809024 571.051433 17.873630 0.000000 0.081958
531.000000 55.933000 6.000000 5.000000 9.000000 114.789789 -26.204683 1504.711724 386.973384 17.885583 0.000000 0.054812
532.000000 55.232000 7.000000 5.000000 9.000000 121.818302 -25.396360 1485.978315 201.754385 18.110668 0.000000 0.027003
533.000000 54.064000 8.000000 5.000000 9.000000 128.170187 -24.494119 1465.362145 11.274663 18.500257 0.000000 0.028763
534.000000 52.584000 9.000000 5.000000 9.000000 133.900744 -23.481117 1442.564363 -188.282297 19.019472 0.000000 0.057798
538.000000 47.168000 2.000000 6.000000 9.000000 78.042278 -34.529377 1715.529370 1217.685614 21.222708 0.000000 0.114393
539.000000 52.269000 4.000000 6.000000 9.000000 96.690704 -33.974686 1700.277998 788.750111 19.145169 0.000000 0.073178
540.000000 53.267000 5.000000 6.000000 9.000000 105.015188 -33.657435 1691.644401 594.159844 18.783868 0.000000 0.045027
541.000000 53.013000 7.000000 6.000000 9.000000 119.632746 -32.922077 1671.874408 211.637982 18.869244 0.000000 0.030681
542.000000 52.108000 8.000000 6.000000 9.000000 125.982857 -32.492760 1660.483890 14.480333 19.195202 0.000000 0.070877
545.000000 47.136000 3.000000 7.000000 9.000000 85.697177 -39.654864 1867.125395 1046.182551 21.233857 0.000000 0.112732
546.000000 49.163000 4.000000 7.000000 9.000000 94.396824 -39.615742 1865.886260 833.571437 20.355180 0.000000 0.084305
547.000000 50.311000 5.000000 7.000000 9.000000 102.493595 -39.573091 1864.536956 631.608978 19.887939 0.000000 0.064601
548.000000 50.718000 6.000000 7.000000 9.000000 109.975625 -39.526411 1863.062106 433.798212 19.725938 0.000000 0.067702
549.000000 50.531000 7.000000 7.000000 9.000000 116.853643 -39.475103 1861.443333 235.027558 19.796633 0.000000 0.095986
550.000000 49.891000 8.000000 7.000000 9.000000 123.154125 -39.418444 1859.658490 30.902230 20.048780 0.000000 0.136278
554.000000 45.991000 4.000000 8.000000 9.000000 91.833300 -44.546059 2034.373537 892.661687 21.759628 0.000000 0.143932
555.000000 47.259000 5.000000 8.000000 9.000000 99.672199 -44.713123 2040.569987 682.870260 21.173163 0.000000 0.135488
556.000000 47.857000 6.000000 8.000000 9.000000 106.961982 -44.894781 2047.348468 477.598657 20.905949 0.000000 0.147113
557.000000 47.903000 7.000000 8.000000 9.000000 113.705303 -45.093029 2054.795024 271.584624 20.883508 0.000000 0.176717
558.000000 47.513000 8.000000 8.000000 9.000000 119.919540 -45.310241 2063.013542 60.275284 21.052859 0.000000 0.218179
561.000000 46.564000 5.000000 -3.000000 10.000000 85.491430 30.537434 340.066666 1039.535285 21.495783 0.000000 0.110973
562.000000 47.255000 6.000000 -3.000000 10.000000 92.443892 32.782038 281.853116 886.362087 21.178404 0.000000 0.092267
563.000000 47.280000 7.000000 -3.000000 10.000000 98.674294 35.080494 219.114985 740.348783 21.164714 0.000000 0.065153
564.000000 46.806000 8.000000 -3.000000 10.000000 104.230857 37.427117 151.303444 597.275203 21.376812 0.000000 0.045721
565.000000 45.975000 9.000000 -3.000000 10.000000 109.169456 39.815339 77.777157 453.880899 21.761342 0.000000 0.069609
566.000000 45.755000 3.000000 -2.000000 10.000000 73.844951 20.718618 567.902562 1274.333937 21.880942 0.000000 0.116314
567.000000 49.479000 5.000000 -2.000000 10.000000 90.329583 25.074960 471.400388 934.164531 20.227785 0.000000 0.127000
568.000000 49.692000 7.000000 -2.000000 10.000000 103.669982 29.752766 359.778208 639.476699 20.135692 0.000000 0.076376
569.000000 47.911000 9.000000 -2.000000 10.000000 114.213533 34.720075 229.180462 352.138579 20.880392 0.000000 0.021904
570.000000 48.513000 3.000000 -1.000000 10.000000 77.960279 14.694026 692.759419 1178.314969 20.635978 0.000000 0.134154
571.000000 50.746000 4.000000 -1.000000 10.000000 86.752395 16.788931 650.274479 1004.790335 19.724511 0.000000 0.150338
572.000000 51.862000 5.000000 -1.000000 10.000000 94.712678 18.986767 604.680187 847.167664 19.296874 0.000000 0.147076
573.000000 52.089000 6.000000 -1.000000 10.000000 101.856292 21.288362 555.622231 698.499567 19.210330 0.000000 0.128718
574.000000 51.644000 7.000000 -1.000000 10.000000 108.224481 23.693282 502.690341 554.002686 19.373262 0.000000 0.098561
575.000000 50.720000 8.000000 -1.000000 10.000000 113.873367 26.199604 445.406788 410.107269 19.724165 0.000000 0.059212
576.000000 49.472000 9.000000 -1.000000 10.000000 118.865623 28.803691 383.211926 263.925271 20.220219 0.000000 0.015380
577.000000 48.019000 10.000000 -1.000000 10.000000 123.264878 31.500007 315.445844 112.925961 20.830690 0.000000 0.044420
578.000000 46.450000 11.000000 -1.000000 10.000000 127.132340 34.280994 241.324866 -45.282178 21.532951 0.000000 0.103005
579.000000 47.122000 2.000000 0.000000 10.000000 71.751512 6.356596 855.099782 1298.072388 21.247907 0.000000 0.110770
580.000000 50.541000 3.000000 0.000000 10.000000 81.473647 8.228756 819.352194 1104.037935 19.806883 0.000000 0.151097
581.000000 52.624000 4.000000 0.000000 10.000000 90.379413 10.214518 781.062532 933.757896 19.019616 0.000000 0.166253
582.000000 53.644000 6.000000 0.000000 10.000000 105.685672 14.547993 695.689320 628.746105 18.652438 0.000000 0.145073
583.000000 53.045000 7.000000 0.000000 10.000000 112.143479 16.904437 647.905753 483.230792 18.860817 0.000000 0.116812
584.000000 51.977000 8.000000 0.000000 10.000000 117.874657 19.391292 596.160811 337.506606 19.246253 0.000000 0.080866
585.000000 50.598000 9.000000 0.000000 10.000000 122.941811 22.009532 539.940579 188.778601 19.769124 0.000000 0.041686
586.000000 47.355000 11.000000 0.000000 10.000000 131.334398 27.633223 411.532041 -127.581041 21.120118 0.000000 0.073155
587.000000 45.644000 12.000000 0.000000 10.000000 134.776580 30.628566 337.756824 -300.078148 21.911028 0.000000 0.127634
588.000000 48.421000 2.000000 1.000000 10.000000 74.448835 -0.235127 979.416858 1240.520638 20.676760 0.000000 0.124579
589.000000 51.718000 3.000000 1.000000 10.000000 84.229613 1.452062 947.717343 1049.798929 19.354997 0.000000 0.161515
590.000000 53.689000 4.000000 1.000000 10.000000 93.206393 3.257233 913.747274 880.607773 18.641479 0.000000 0.174772
591.000000 54.542000 5.000000 1.000000 10.000000 101.354055 5.189224 877.253638 723.989592 18.346970 0.000000 0.170614
592.000000 54.515000 6.000000 1.000000 10.000000 108.686473 7.257004 837.944382 574.038143 18.353356 0.000000 0.153508
593.000000 53.835000 7.000000 1.000000 10.000000 115.243302 9.469420 795.480578 426.530074 18.583105 0.000000 0.126861
594.000000 52.695000 8.000000 1.000000 10.000000 121.078751 11.834874 749.466626 278.192607 18.983213 0.000000 0.093611
595.000000 51.251000 9.000000 1.000000 10.000000 126.253233 14.360874 699.437893 126.277144 19.516220 0.000000 0.057354
596.000000 49.624000 10.000000 1.000000 10.000000 130.827785 17.053481 644.844968 -31.712275 20.154896 0.000000 0.030627
597.000000 47.900000 11.000000 1.000000 10.000000 134.860717 19.916637 585.033401 -198.211198 20.878976 0.000000 0.050169
598.000000 46.143000 12.000000 1.000000 10.000000 138.405881 22.951395 519.217341 -375.749228 21.673065 0.000000 0.092363
599.000000 52.009000 3.000000 2.000000 10.000000 86.131719 -5.460808 1077.892351 1014.107599 19.246310 0.000000 0.163550
600.000000 54.727000 5.000000 2.000000 10.000000 103.322694 -2.215488 1016.638428 685.933976 18.284258 0.000000 0.169563
601.000000 53.999000 7.000000 2.000000 10.000000 117.381696 1.571466 945.472790 383.328457 18.526086 0.000000 0.127367
602.000000 51.421000 9.000000 2.000000 10.000000 128.633203 6.005214 861.777885 76.037314 19.451361 0.000000 0.062359
603.000000 48.076000 11.000000 2.000000 10.000000 137.525367 11.198078 761.925513 -257.429740 20.801845 0.000000 0.029916
604.000000 48.368000 2.000000 3.000000 10.000000 77.480592 -13.488518 1233.167285 1186.770390 20.698298 0.000000 0.129890
605.000000 51.460000 3.000000 3.000000 10.000000 87.159663 -12.312484 1209.915764 995.656283 19.450782 0.000000 0.156951
606.000000 53.336000 4.000000 3.000000 10.000000 96.113352 -11.039179 1184.974290 823.550403 18.763621 0.000000 0.165276
607.000000 54.173000 5.000000 3.000000 10.000000 104.311545 -9.657443 1158.151672 662.477944 18.470640 0.000000 0.159142
608.000000 54.181000 6.000000 3.000000 10.000000 111.759794 -8.154643 1129.226748 507.000594 18.465460 0.000000 0.142273
609.000000 53.562000 7.000000 3.000000 10.000000 118.488253 -6.516503 1097.942277 353.107319 18.676821 0.000000 0.117791
610.000000 52.493000 8.000000 3.000000 10.000000 124.541812 -4.726954 1063.997261 197.597897 19.055193 0.000000 0.088457
611.000000 51.121000 9.000000 3.000000 10.000000 129.972416 -2.768011 1027.037234 37.710595 19.565085 0.000000 0.056915
612.000000 49.559000 10.000000 3.000000 10.000000 134.833631 -0.619721 986.641837 -129.124526 20.180393 0.000000 0.026035
613.000000 47.892000 11.000000 3.000000 10.000000 139.177143 1.739761 942.308756 -305.468335 20.881495 0.000000 0.007871
615.000000 50.192000 3.000000 4.000000 10.000000 87.368333 -18.915691 1343.827236 993.294419 19.941776 0.000000 0.142583
616.000000 52.973000 5.000000 4.000000 10.000000 104.365823 -16.892168 1301.842498 652.908635 18.889023 0.000000 0.139448
617.000000 52.586000 7.000000 4.000000 10.000000 118.581579 -14.480154 1252.950922 335.396731 19.023361 0.000000 0.097867
618.000000 50.390000 9.000000 4.000000 10.000000 130.249351 -11.567504 1195.295404 10.981061 19.848550 0.000000 0.042156
619.000000 47.371000 11.000000 4.000000 10.000000 139.742647 -8.001264 1126.287513 -342.534573 21.111114 0.000000 0.020917
620.000000 48.364000 3.000000 5.000000 10.000000 86.869848 -25.121583 1479.667557 1006.007186 20.695597 0.000000 0.123038
621.000000 50.258000 4.000000 5.000000 10.000000 95.556503 -24.447409 1464.302960 825.980869 19.912372 0.000000 0.122390
622.000000 51.497000 6.000000 5.000000 10.000000 110.997608 -22.911666 1429.902770 492.518450 19.427838 0.000000 0.092040
623.000000 51.157000 7.000000 5.000000 10.000000 117.763566 -22.032557 1410.562687 329.771241 19.554657 0.000000 0.067436
624.000000 50.378000 8.000000 5.000000 10.000000 123.930485 -21.064853 1389.549037 165.077033 19.855110 0.000000 0.041715
625.000000 49.286000 9.000000 5.000000 10.000000 129.538621 -19.995096 1366.634766 -4.436835 20.293493 0.000000 0.026509
626.000000 46.548000 11.000000 5.000000 10.000000 139.254938 -17.481409 1313.970367 -368.813146 21.484281 0.000000 0.057908
627.000000 46.144000 3.000000 6.000000 10.000000 85.806888 -30.834494 1617.478706 1032.897612 21.691089 0.000000 0.105042
628.000000 49.144000 5.000000 6.000000 10.000000 102.174057 -29.982521 1595.961090 672.933827 20.360893 0.000000 0.078109
629.000000 49.376000 7.000000 6.000000 10.000000 116.192913 -28.969207 1570.843699 335.846147 20.260476 0.000000 0.026541
630.000000 47.874000 9.000000 6.000000 10.000000 127.990362 -27.744785 1541.140740 -8.800242 20.892175 0.000000 0.044993
632.000000 45.608000 4.000000 7.000000 10.000000 92.551960 -35.829890 1752.101787 881.833204 21.942785 0.000000 0.081019
633.000000 46.787000 5.000000 7.000000 10.000000 100.254288 -35.633209 1746.494973 701.435884 21.387193 0.000000 0.056314
634.000000 47.327000 6.000000 7.000000 10.000000 107.419237 -35.419512 1740.434303 526.624686 21.140341 0.000000 0.030684
635.000000 47.342000 7.000000 7.000000 10.000000 114.050622 -35.186499 1733.862346 353.274194 21.131327 0.000000 0.026392
636.000000 46.942000 8.000000 7.000000 10.000000 120.165982 -34.931437 1726.711553 177.967357 21.309417 0.000000 0.056081
637.000000 46.226000 9.000000 7.000000 10.000000 125.792004 -34.651051 1718.901928 -2.339675 21.637346 0.000000 0.092798
638.000000 45.668000 6.000000 -2.000000 11.000000 94.474454 25.051442 471.938800 848.030843 21.914150 0.000000 0.123784
639.000000 45.750000 7.000000 -2.000000 11.000000 100.609049 27.177908 422.384380 714.380590 21.872046 0.000000 0.101572
640.000000 45.711000 4.000000 -1.000000 11.000000 84.005865 15.439582 677.739052 1058.242781 21.898248 0.000000 0.148661
641.000000 46.975000 5.000000 -1.000000 11.000000 91.561822 17.393683 637.840140 910.247899 21.306082 0.000000 0.152337
642.000000 47.490000 6.000000 -1.000000 11.000000 98.432229 19.434902 595.239849 771.807455 21.071860 0.000000 0.142082
643.000000 47.414000 7.000000 -1.000000 11.000000 104.639764 21.563668 549.654221 638.689774 21.103086 0.000000 0.120771
644.000000 46.891000 8.000000 -1.000000 11.000000 110.221161 23.779479 500.758050 507.769999 21.336606 0.000000 0.090636
645.000000 46.042000 9.000000 -1.000000 11.000000 115.220935 26.080753 448.177120 376.582280 21.727828 0.000000 0.053620
646.000000 46.259000 3.000000 1.000000 11.000000 81.424344 1.599897 944.938306 1103.369775 21.640281 0.000000 0.153419
647.000000 48.226000 4.000000 1.000000 11.000000 89.818909 3.223446 914.384000 944.407168 20.754286 0.000000 0.171771
648.000000 49.290000 5.000000 1.000000 11.000000 97.529400 4.948994 881.801848 798.208949 20.303201 0.000000 0.173971
649.000000 49.611000 6.000000 1.000000 11.000000 104.555877 6.783027 846.983043 659.561335 20.169305 0.000000 0.163856
650.000000 49.349000 7.000000 1.000000 11.000000 110.920028 8.731974 809.689093 524.747395 20.273847 0.000000 0.144328
651.000000 48.652000 8.000000 1.000000 11.000000 116.657397 10.802031 769.646345 390.935916 20.562152 0.000000 0.117742
652.000000 47.645000 9.000000 1.000000 11.000000 121.811103 12.998919 726.539268 255.822347 20.995076 0.000000 0.086302
653.000000 46.428000 10.000000 1.000000 11.000000 126.427223 15.327588 680.002112 117.402644 21.543853 0.000000 0.053151
654.000000 46.620000 3.000000 2.000000 11.000000 83.260351 -4.621323 1061.999736 1068.605519 21.472240 0.000000 0.157192
655.000000 48.523000 4.000000 2.000000 11.000000 91.669067 -3.192342 1035.029881 909.589173 20.626686 0.000000 0.173245
656.000000 49.545000 5.000000 2.000000 11.000000 99.414863 -1.663529 1006.257969 762.458531 20.198225 0.000000 0.174354
657.000000 49.839000 6.000000 2.000000 11.000000 106.495776 -0.026465 975.497142 622.273387 20.076321 0.000000 0.164065
658.000000 49.561000 7.000000 2.000000 11.000000 112.930993 1.727792 942.533786 485.462143 20.186325 0.000000 0.145148
659.000000 48.855000 8.000000 2.000000 11.000000 118.753433 3.608629 907.122561 349.267584 20.476005 0.000000 0.119900
660.000000 47.842000 9.000000 2.000000 11.000000 124.003662 5.625737 868.980282 211.416173 20.907719 0.000000 0.090417
661.000000 46.621000 10.000000 2.000000 11.000000 128.725365 7.788906 827.778333 69.906470 21.453654 0.000000 0.059126
662.000000 46.333000 3.000000 3.000000 11.000000 84.386802 -10.812377 1180.555079 1048.693811 21.604517 0.000000 0.153911
663.000000 48.196000 4.000000 3.000000 11.000000 92.761397 -9.611591 1157.265523 888.348184 20.765976 0.000000 0.167331
664.000000 49.213000 5.000000 3.000000 11.000000 100.505041 -8.320581 1132.409219 739.299564 20.333844 0.000000 0.167123
665.000000 49.526000 6.000000 3.000000 11.000000 107.613047 -6.930252 1105.822567 596.794724 20.202622 0.000000 0.156441
666.000000 49.282000 7.000000 3.000000 11.000000 114.101174 -5.430527 1077.318365 457.353069 20.300418 0.000000 0.137889
667.000000 48.615000 8.000000 3.000000 11.000000 119.998775 -3.810283 1046.681399 318.255353 20.576552 0.000000 0.113690
668.000000 47.644000 9.000000 3.000000 11.000000 125.343052 -2.057313 1013.662995 177.234059 20.994271 0.000000 0.085872
669.000000 46.463000 10.000000 3.000000 11.000000 130.174682 -0.158332 977.974261 32.272285 21.526272 0.000000 0.056455
671.000000 47.314000 4.000000 4.000000 11.000000 93.123935 -15.876957 1281.122554 879.929287 21.152797 0.000000 0.154293
672.000000 48.355000 5.000000 4.000000 11.000000 100.823399 -14.845833 1260.290469 728.124238 20.694220 0.000000 0.152346
673.000000 48.724000 6.000000 4.000000 11.000000 107.923879 -13.731432 1237.997885 582.628395 20.534996 0.000000 0.140899
674.000000 48.553000 7.000000 4.000000 11.000000 114.437097 -12.524198 1214.085633 440.009438 20.604929 0.000000 0.122353
675.000000 47.968000 8.000000 4.000000 11.000000 120.388171 -11.213243 1188.370544 297.557376 20.854178 0.000000 0.098893
676.000000 47.078000 9.000000 4.000000 11.000000 125.810337 -9.786169 1160.640746 152.990518 21.246381 0.000000 0.072627
677.000000 45.975000 10.000000 4.000000 11.000000 130.740815 -8.228861 1130.649815 4.261721 21.754382 0.000000 0.045776
678.000000 45.973000 4.000000 5.000000 11.000000 92.831067 -21.852594 1406.633452 883.654871 21.769614 0.000000 0.135115
679.000000 47.057000 5.000000 5.000000 11.000000 100.443654 -21.082861 1389.937552 728.382921 21.264879 0.000000 0.130581
680.000000 47.506000 6.000000 5.000000 11.000000 107.498482 -20.249852 1372.062765 579.322592 21.061276 0.000000 0.117667
681.000000 47.437000 7.000000 5.000000 11.000000 114.002934 -19.345830 1352.879663 433.056485 21.089477 0.000000 0.098509
682.000000 46.964000 8.000000 5.000000 11.000000 119.977449 -18.361824 1332.239150 286.861146 21.299917 0.000000 0.075359
683.000000 46.187000 9.000000 5.000000 11.000000 125.450816 -17.287394 1309.968579 138.424525 21.656222 0.000000 0.050985
684.000000 45.959000 6.000000 6.000000 11.000000 106.445667 -26.347909 1508.058018 586.466509 21.770231 0.000000 0.087741
685.000000 46.009000 7.000000 6.000000 11.000000 112.906162 -25.732857 1493.745844 436.152431 21.744422 0.000000 0.066673
686.000000 45.666000 8.000000 6.000000 11.000000 118.870838 -25.063529 1478.337892 285.881306 21.905397 0.000000 0.042975
687.000000 45.636000 7.000000 2.000000 12.000000 108.983169 1.851851 940.201078 570.562299 21.924384 0.000000 0.157574
#UB matrix in q= (UB) B0 G* 
#[[-0.933199684 -0.226547958 -0.278382841]
# [ 0.233556222 -0.973066668  0.008963424]
# [-0.273111408 -0.056691048  0.961425341]]
#B0 matrix in q= UB (B0) G*
#[[ 0.19670273 -0.          0.03056101]
# [ 0.          0.19187965 -0.        ]
# [ 0.          0.          0.18806537]]
#UBB0 matrix in q= (UB B0) G* i.e. recip. basis vectors are columns in LT frame: astar = UBB0[:,0], bstar = UBB0[:,1], cstar = UBB0[:,2]. (abcstar as columns on xyzlab1, xlab1 = ui, ui = unit vector along incident beam)
#[[-0.18356293 -0.04346994 -0.08087369]
# [ 0.04594115 -0.18671169  0.00882342]
# [-0.05372176 -0.01087786  0.17246425]]
#Euler angles phi theta psi (deg)
#[281.739  16.197  88.159]
#deviatoric strain in direct crystal frame (10-3 unit)
#[[-4.86  0.17  0.91]
# [ 0.17 -5.42  0.2 ]
# [ 0.91  0.2  10.28]]
#deviatoric strain in sample2 frame (10-3 unit)
#[[-3.04  0.08  4.96]
# [ 0.08 -5.47  0.14]
# [ 4.94  0.14  8.5 ]]
#new lattice parameters
#[ 5.1505     5.2086645  5.3129281 89.9908815 99.1825003 89.9806369]
#CCDLabel
#sCMOS
#DetectorParameters
#[79.0, 975.0, 941.0, 0.0, 0.0]
#pixelsize
#0.0734
#Frame dimensions
#[2018, 2016]
#
