#Strain and Orientation Refinement from experimental file: /home/micha/LaueProjects/DepthEffects/testZrO2_70.cor
#File created at Wed Jun 28 14:22:42 2023 with indexingSpotsSet.py
#Number of indexed spots: 537
#Element
#ZrO2
#grainIndex
#G_0
#Mean Deviation(pixel): 0.113
##spot_index intensity h k l 2theta Chi Xexp Yexp Energy GrainIndex PixDev
2.000000 46.711000 5.000000 -10.000000 -3.000000 78.702146 -47.538367 2151.149323 1259.506986 21.411417 0.000000 0.246749
3.000000 45.548000 6.000000 -10.000000 -3.000000 80.016750 -41.719809 1934.610932 1194.822666 21.958329 0.000000 0.159102
6.000000 49.272000 5.000000 -9.000000 -3.000000 76.359121 -44.534165 2033.933720 1307.419917 20.299562 0.000000 0.209296
7.000000 47.705000 2.000000 -3.000000 -1.000000 77.552231 -38.471478 1830.248677 1244.453937 6.988858 0.000000 0.142371
8.000000 45.664000 7.000000 -9.000000 -3.000000 78.086358 -32.892681 1671.090979 1211.431519 21.904296 0.000000 0.118239
10.000000 53.031000 4.000000 -8.000000 -3.000000 71.486399 -47.938000 2167.747790 1478.973801 18.861948 0.000000 0.293155
11.000000 51.766000 5.000000 -8.000000 -3.000000 73.415810 -41.127253 1914.813248 1366.534202 19.322926 0.000000 0.182221
12.000000 49.693000 6.000000 -8.000000 -3.000000 74.479092 -34.848646 1724.400044 1305.224204 20.129240 0.000000 0.132474
13.000000 47.142000 7.000000 -8.000000 -3.000000 74.862886 -29.173875 1575.876666 1274.455202 21.219090 0.000000 0.115873
16.000000 55.757000 4.000000 -7.000000 -3.000000 67.819600 -44.401068 2029.024539 1555.167809 17.941353 0.000000 0.254513
17.000000 53.961000 5.000000 -7.000000 -3.000000 69.687622 -37.260384 1793.741095 1441.567372 18.538665 0.000000 0.164024
18.000000 51.283000 6.000000 -7.000000 -3.000000 70.634169 -30.817000 1617.033051 1381.496323 19.506920 0.000000 0.124417
19.000000 48.162000 7.000000 -7.000000 -3.000000 70.897216 -25.111989 1479.447733 1352.669903 20.771638 0.000000 0.108731
22.000000 57.873000 4.000000 -6.000000 -3.000000 63.091024 -40.295735 1887.626181 1657.186531 17.287012 0.000000 0.229214
23.000000 55.453000 5.000000 -6.000000 -3.000000 64.936282 -32.876835 1670.668899 1540.331523 18.041429 0.000000 0.151096
24.000000 52.117000 2.000000 -2.000000 -1.000000 65.821145 -26.350336 1508.114792 1480.259206 6.398892 0.000000 0.113025
25.000000 48.425000 7.000000 -6.000000 -3.000000 66.036291 -20.703870 1381.780789 1452.407041 20.661083 0.000000 0.092771
28.000000 58.600000 4.000000 -5.000000 -3.000000 56.933778 -35.526853 1743.474584 1802.005594 17.074520 0.000000 0.219048
29.000000 55.587000 5.000000 -5.000000 -3.000000 58.868166 -27.928191 1545.546687 1676.769263 18.000144 0.000000 0.143356
30.000000 51.672000 6.000000 -5.000000 -3.000000 59.819390 -21.437659 1397.611401 1613.453896 19.364331 0.000000 0.099827
31.000000 47.534000 7.000000 -5.000000 -3.000000 60.124184 -15.962088 1282.851836 1584.087252 21.050592 0.000000 0.071332
35.000000 56.609000 4.000000 -4.000000 -3.000000 48.886013 -30.003583 1596.488541 2025.734976 17.677382 0.000000 0.240561
36.000000 53.375000 5.000000 -4.000000 -3.000000 51.154003 -22.386635 1418.322810 1878.436318 18.748646 0.000000 0.162548
37.000000 49.252000 6.000000 -4.000000 -3.000000 52.411349 -16.091726 1285.488023 1803.304397 20.318489 0.000000 0.116026
40.000000 47.541000 5.000000 -3.000000 -3.000000 41.494231 -16.261417 1288.943865 2208.483060 21.051895 0.000000 0.264147
42.000000 45.747000 5.000000 -12.000000 -2.000000 90.703828 -52.418611 2373.536089 919.320616 21.857729 0.000000 0.321162
44.000000 48.786000 5.000000 -11.000000 -2.000000 89.790292 -49.847353 2250.759493 947.109175 20.496747 0.000000 0.255232
45.000000 47.517000 6.000000 -11.000000 -2.000000 90.849319 -43.815681 2007.694705 918.887794 21.044517 0.000000 0.142722
46.000000 45.842000 7.000000 -11.000000 -2.000000 91.255858 -38.147847 1820.374868 910.997021 21.813342 0.000000 0.093854
49.000000 52.110000 5.000000 -10.000000 -2.000000 88.588135 -46.917548 2125.859444 979.836207 19.190112 0.000000 0.197541
50.000000 50.384000 3.000000 -5.000000 -1.000000 89.435441 -40.592953 1897.266161 954.966548 9.923858 0.000000 0.113855
51.000000 48.229000 7.000000 -10.000000 -2.000000 89.592541 -34.742657 1721.447599 950.314850 20.734708 0.000000 0.094501
52.000000 45.829000 4.000000 -5.000000 -1.000000 89.215825 -29.422561 1582.019154 957.912982 10.910595 0.000000 0.106579
54.000000 57.313000 4.000000 -9.000000 -2.000000 85.495547 -50.670940 2288.614776 1074.786581 17.448490 0.000000 0.286741
55.000000 55.699000 5.000000 -9.000000 -2.000000 86.994836 -43.567576 1998.780375 1018.982925 17.954160 0.000000 0.152073
56.000000 53.368000 6.000000 -9.000000 -2.000000 87.581098 -36.970057 1785.164381 997.906932 18.738785 0.000000 0.102444
57.000000 50.609000 7.000000 -9.000000 -2.000000 87.454062 -30.980154 1621.195554 996.819547 19.760928 0.000000 0.104821
58.000000 47.654000 8.000000 -9.000000 -2.000000 86.808449 -25.630040 1491.367819 1007.564551 20.986969 0.000000 0.119366
60.000000 61.838000 2.000000 -4.000000 -1.000000 83.614235 -47.241934 2138.999808 1118.425625 8.086191 0.000000 0.220247
61.000000 59.485000 5.000000 -8.000000 -2.000000 84.867824 -39.728603 1869.464760 1066.690318 16.812509 0.000000 0.123994
62.000000 56.359000 3.000000 -4.000000 -1.000000 85.145669 -32.902441 1671.351047 1049.869927 8.872695 0.000000 0.105878
63.000000 52.853000 7.000000 -8.000000 -2.000000 84.711559 -26.838861 1519.591943 1052.653090 18.923223 0.000000 0.116477
64.000000 49.250000 4.000000 -4.000000 -1.000000 83.799279 -21.530352 1399.622353 1066.708185 10.154036 0.000000 0.127581
65.000000 45.736000 9.000000 -8.000000 -2.000000 82.593059 -16.919369 1302.400674 1087.249165 21.869453 0.000000 0.133803
68.000000 66.678000 4.000000 -7.000000 -2.000000 81.062757 -43.215182 1986.244417 1173.248889 14.999418 0.000000 0.170913
69.000000 63.299000 5.000000 -7.000000 -2.000000 82.009895 -35.328151 1737.853031 1126.172638 15.800614 0.000000 0.114669
70.000000 59.154000 6.000000 -7.000000 -2.000000 81.947210 -28.352052 1555.786658 1114.030294 16.908178 0.000000 0.114129
71.000000 54.757000 7.000000 -7.000000 -2.000000 81.209496 -22.308603 1416.609248 1120.901660 18.266571 0.000000 0.122931
72.000000 50.435000 8.000000 -7.000000 -2.000000 80.063422 -17.131677 1306.762829 1138.305939 19.832912 0.000000 0.127899
73.000000 46.367000 9.000000 -7.000000 -2.000000 78.699693 -12.715493 1217.859228 1161.478026 21.573569 0.000000 0.128240
74.000000 74.704000 3.000000 -6.000000 -2.000000 75.470170 -47.722187 2158.752516 1355.651001 13.388900 0.000000 0.266386
75.000000 66.798000 5.000000 -6.000000 -2.000000 78.153011 -30.297932 1603.883486 1202.486401 14.974253 0.000000 0.115058
76.000000 61.407000 3.000000 -3.000000 -1.000000 77.758331 -23.295731 1438.430491 1195.250051 8.144697 0.000000 0.116735
77.000000 56.015000 7.000000 -6.000000 -2.000000 76.769327 -17.396559 1312.219201 1206.180307 17.858230 0.000000 0.118787
78.000000 50.955000 4.000000 -3.000000 -1.000000 75.469110 -12.457378 1212.768829 1226.693956 9.816181 0.000000 0.116779
79.000000 46.368000 9.000000 -6.000000 -2.000000 74.038908 -8.319263 1132.383934 1252.105293 21.574965 0.000000 0.111547
81.000000 80.718000 3.000000 -5.000000 -2.000000 70.839835 -42.675304 1967.317176 1449.654805 12.392660 0.000000 0.212999
82.000000 75.835000 4.000000 -5.000000 -2.000000 72.664635 -32.885826 1670.908377 1341.066165 13.190836 0.000000 0.128579
83.000000 69.342000 5.000000 -5.000000 -2.000000 72.946801 -24.587949 1467.492193 1304.071208 14.426518 0.000000 0.110011
84.000000 62.567000 6.000000 -5.000000 -2.000000 72.311940 -17.736287 1319.240549 1301.371101 15.989429 0.000000 0.104593
85.000000 56.194000 7.000000 -5.000000 -2.000000 71.202752 -12.133345 1206.392752 1315.713458 17.803479 0.000000 0.098232
86.000000 50.492000 8.000000 -5.000000 -2.000000 69.891945 -7.548272 1117.619437 1338.483742 19.814474 0.000000 0.089766
87.000000 45.513000 9.000000 -5.000000 -2.000000 68.533515 -3.772007 1045.959233 1365.155335 21.982764 0.000000 0.080229
89.000000 85.232000 3.000000 -4.000000 -2.000000 64.153218 -36.477844 1770.771982 1589.419501 11.738026 0.000000 0.183145
90.000000 69.842000 5.000000 -4.000000 -2.000000 65.968342 -18.187765 1328.612885 1446.147649 14.325292 0.000000 0.085612
91.000000 61.833000 3.000000 -2.000000 -1.000000 65.328362 -11.714480 1198.173512 1445.911237 8.090660 0.000000 0.068484
92.000000 54.745000 7.000000 -4.000000 -2.000000 64.340149 -6.577335 1099.100050 1461.482632 18.276905 0.000000 0.053763
93.000000 48.685000 4.000000 -2.000000 -1.000000 63.238069 -2.462869 1021.293216 1484.279917 10.276274 0.000000 0.040791
96.000000 84.940000 3.000000 -3.000000 -2.000000 54.358107 -28.890338 1568.909575 1822.440762 11.780574 0.000000 0.179713
97.000000 76.137000 4.000000 -3.000000 -2.000000 56.303322 -18.816885 1341.754429 1699.233230 13.142959 0.000000 0.100365
98.000000 66.680000 5.000000 -3.000000 -2.000000 56.786194 -11.152088 1187.176858 1659.240053 15.007227 0.000000 0.057900
99.000000 58.211000 6.000000 -3.000000 -2.000000 56.578556 -5.317939 1075.184686 1654.333810 17.190987 0.000000 0.034073
100.000000 51.081000 7.000000 -3.000000 -2.000000 56.077984 -0.814984 990.310409 1664.913435 19.590679 0.000000 0.029397
103.000000 66.116000 2.000000 -1.000000 -1.000000 43.439037 -10.357342 1171.708769 2096.424041 7.568777 0.000000 0.215829
104.000000 57.983000 5.000000 -2.000000 -2.000000 45.121860 -3.621112 1043.112853 2014.869679 17.261009 0.000000 0.178863
105.000000 50.768000 3.000000 -1.000000 -1.000000 45.990524 1.318490 950.227945 1980.984700 9.856968 0.000000 0.164362
109.000000 48.006000 6.000000 -12.000000 -1.000000 100.329260 -46.027151 2090.592813 658.472644 20.826481 0.000000 0.163910
110.000000 46.411000 7.000000 -12.000000 -1.000000 100.573647 -40.125909 1882.156075 678.244607 21.542565 0.000000 0.078263
112.000000 52.851000 5.000000 -11.000000 -1.000000 99.137834 -49.434002 2232.243324 674.788763 18.917458 0.000000 0.236981
113.000000 51.183000 6.000000 -11.000000 -1.000000 99.792519 -42.848573 1973.355594 687.623928 19.534072 0.000000 0.111612
114.000000 49.126000 7.000000 -11.000000 -1.000000 99.728303 -36.718550 1777.787226 710.803237 20.352369 0.000000 0.061368
115.000000 46.833000 8.000000 -11.000000 -1.000000 99.101642 -31.122519 1624.839317 739.582749 21.349475 0.000000 0.078681
117.000000 56.889000 5.000000 -10.000000 -1.000000 98.646916 -46.167566 2096.078267 704.662700 17.575021 0.000000 0.166662
118.000000 54.633000 6.000000 -10.000000 -1.000000 98.963645 -39.245258 1854.220768 721.787174 18.300798 0.000000 0.074628
119.000000 51.983000 7.000000 -10.000000 -1.000000 98.529272 -32.924428 1671.937111 748.698693 19.234582 0.000000 0.072316
120.000000 49.133000 8.000000 -10.000000 -1.000000 97.543579 -27.262695 1529.629752 780.658880 20.351035 0.000000 0.101886
121.000000 46.232000 9.000000 -10.000000 -1.000000 96.182936 -22.255650 1415.447524 815.015924 21.628771 0.000000 0.125716
123.000000 63.734000 4.000000 -9.000000 -1.000000 96.921913 -50.271315 2270.082905 736.567538 15.687685 0.000000 0.257347
124.000000 61.374000 5.000000 -9.000000 -1.000000 97.839563 -42.386440 1957.324713 740.366122 16.290937 0.000000 0.108077
125.000000 58.328000 6.000000 -9.000000 -1.000000 97.730457 -35.160873 1733.141886 762.288713 17.142208 0.000000 0.068651
126.000000 54.918000 7.000000 -9.000000 -1.000000 96.863915 -28.713108 1564.573973 793.277262 18.207370 0.000000 0.096365
127.000000 51.389000 8.000000 -9.000000 -1.000000 95.486935 -23.060850 1433.209438 828.633027 19.458285 0.000000 0.123391
128.000000 47.912000 9.000000 -9.000000 -1.000000 93.799232 -18.156197 1327.956006 865.782048 20.871540 0.000000 0.140867
130.000000 69.708000 4.000000 -8.000000 -1.000000 96.124454 -46.369306 2104.008630 773.628888 14.343595 0.000000 0.172209
131.000000 66.292000 5.000000 -8.000000 -1.000000 96.570321 -38.000492 1815.908143 783.683127 15.082960 0.000000 0.075412
132.000000 62.185000 6.000000 -8.000000 -1.000000 95.940471 -30.542869 1610.070973 810.964909 16.079827 0.000000 0.090028
133.000000 57.816000 7.000000 -8.000000 -1.000000 94.589528 -24.065189 1455.665136 846.376968 17.295532 0.000000 0.120441
134.000000 53.480000 8.000000 -8.000000 -1.000000 92.808787 -18.520684 1335.555134 885.310777 18.698782 0.000000 0.140027
135.000000 49.352000 9.000000 -8.000000 -1.000000 90.810986 -13.804692 1239.456691 925.311548 20.263978 0.000000 0.150358
136.000000 45.522000 10.000000 -8.000000 -1.000000 88.739207 -9.795631 1160.823787 965.038113 21.969978 0.000000 0.154367
137.000000 80.016000 3.000000 -7.000000 -1.000000 93.388863 -51.525154 2329.307347 838.562378 12.496179 0.000000 0.292375
138.000000 76.472000 4.000000 -7.000000 -1.000000 94.800441 -41.703629 1934.065524 819.934139 13.075351 0.000000 0.106975
139.000000 71.542000 5.000000 -7.000000 -1.000000 94.628330 -32.917453 1671.751149 837.203733 13.976857 0.000000 0.084208
140.000000 66.030000 6.000000 -7.000000 -1.000000 93.390829 -25.352039 1484.958459 870.433224 15.144332 0.000000 0.116656
141.000000 60.484000 7.000000 -7.000000 -1.000000 91.531257 -18.979968 1345.176978 910.574515 16.533828 0.000000 0.138768
142.000000 55.221000 8.000000 -7.000000 -1.000000 89.369699 -13.663350 1236.642998 953.185440 18.110575 0.000000 0.149439
143.000000 50.393000 9.000000 -7.000000 -1.000000 87.113039 -9.231662 1149.932066 995.989396 19.846704 0.000000 0.152539
144.000000 46.050000 10.000000 -7.000000 -1.000000 84.884223 -5.522581 1079.063478 1037.804783 21.719612 0.000000 0.150930
145.000000 89.641000 3.000000 -6.000000 -1.000000 91.929401 -46.683756 2116.487200 888.148731 11.154849 0.000000 0.184831
146.000000 83.931000 4.000000 -6.000000 -1.000000 92.652139 -36.109366 1760.116801 879.289253 11.914072 0.000000 0.085182
147.000000 76.856000 5.000000 -6.000000 -1.000000 91.713909 -27.058037 1524.773295 904.836593 13.011511 0.000000 0.111871
148.000000 69.541000 6.000000 -6.000000 -1.000000 89.821606 -19.576467 1357.753120 944.556725 14.380989 0.000000 0.136787
149.000000 62.616000 7.000000 -6.000000 -1.000000 87.485862 -13.483867 1233.074895 989.597673 15.972540 0.000000 0.147546
150.000000 56.356000 8.000000 -6.000000 -1.000000 85.021798 -8.530996 1136.448571 1035.799838 17.747725 0.000000 0.149147
151.000000 50.834000 9.000000 -6.000000 -1.000000 82.603409 -4.481906 1059.364210 1081.149679 19.676495 0.000000 0.145463
152.000000 46.022000 10.000000 -6.000000 -1.000000 80.316829 -1.141081 996.437912 1124.685431 21.735017 0.000000 0.138896
153.000000 81.652000 5.000000 -5.000000 -1.000000 87.418351 -20.382260 1374.890964 992.770143 12.248469 0.000000 0.133482
154.000000 72.166000 6.000000 -5.000000 -1.000000 84.920476 -13.248403 1228.401999 1039.284802 13.859506 0.000000 0.143701
155.000000 63.762000 7.000000 -5.000000 -1.000000 82.236511 -7.637391 1119.323265 1089.048648 15.687226 0.000000 0.142810
156.000000 56.547000 8.000000 -5.000000 -1.000000 79.624674 -3.187930 1034.946753 1138.363318 17.689714 0.000000 0.136154
157.000000 50.433000 9.000000 -5.000000 -1.000000 77.196650 0.386753 967.734779 1185.599802 19.835213 0.000000 0.126858
158.000000 84.830000 5.000000 -4.000000 -1.000000 81.227018 -12.925941 1222.017203 1111.417898 11.791293 0.000000 0.135575
159.000000 73.053000 6.000000 -4.000000 -1.000000 78.352386 -6.459116 1096.850340 1164.281059 13.693095 0.000000 0.130473
160.000000 63.327000 7.000000 -4.000000 -1.000000 75.584702 -1.537326 1003.885409 1217.751349 15.796883 0.000000 0.119621
161.000000 55.399000 8.000000 -4.000000 -1.000000 73.070817 2.281917 932.111788 1268.862081 18.058382 0.000000 0.107079
162.000000 48.933000 9.000000 -4.000000 -1.000000 70.841779 5.306872 875.025000 1316.535249 20.445374 0.000000 0.094998
163.000000 84.576000 5.000000 -3.000000 -1.000000 72.586950 -4.836081 1066.061553 1279.765425 11.828763 0.000000 0.104408
164.000000 71.064000 6.000000 -3.000000 -1.000000 69.831250 0.636576 963.041509 1336.357239 14.078689 0.000000 0.088257
165.000000 60.636000 7.000000 -3.000000 -1.000000 67.403015 4.688840 886.723552 1390.455793 16.500410 0.000000 0.073566
166.000000 52.521000 8.000000 -3.000000 -1.000000 65.319483 7.781647 827.917237 1440.193663 19.050480 0.000000 0.063190
167.000000 46.112000 9.000000 -3.000000 -1.000000 63.542669 10.206623 781.215652 1485.232521 21.698964 0.000000 0.058597
168.000000 78.510000 5.000000 -2.000000 -1.000000 61.094255 3.618846 906.929869 1536.474533 12.745266 0.000000 0.027251
169.000000 65.012000 6.000000 -2.000000 -1.000000 59.241391 7.833916 826.916909 1587.581118 15.391887 0.000000 0.037938
170.000000 55.111000 7.000000 -2.000000 -1.000000 57.703078 10.896900 767.798784 1633.816281 18.157186 0.000000 0.056411
171.000000 47.639000 8.000000 -2.000000 -1.000000 56.432373 13.211176 722.335959 1674.627929 21.005699 0.000000 0.074297
172.000000 79.622000 4.000000 -1.000000 -1.000000 46.668199 7.932899 825.021867 1966.187532 12.569652 0.000000 0.162482
173.000000 64.724000 5.000000 -1.000000 -1.000000 46.809318 12.086683 744.524133 1974.284190 15.462675 0.000000 0.171458
174.000000 54.247000 6.000000 -1.000000 -1.000000 46.779918 14.910158 688.415898 1987.658206 18.449000 0.000000 0.181825
175.000000 46.570000 7.000000 -1.000000 -1.000000 46.695836 16.945108 647.071014 2001.435529 21.489836 0.000000 0.191374
177.000000 47.459000 6.000000 -13.000000 0.000000 108.552373 -48.356906 2185.424482 397.397917 21.063132 0.000000 0.230147
178.000000 46.017000 7.000000 -13.000000 0.000000 108.731317 -42.222172 1951.683256 448.171734 21.723452 0.000000 0.108820
180.000000 50.671000 2.000000 -4.000000 0.000000 108.721071 -45.243794 2060.492767 422.961273 6.576126 0.000000 0.162815
181.000000 48.820000 7.000000 -12.000000 0.000000 108.562613 -38.828463 1841.243491 477.047464 20.476716 0.000000 0.060321
182.000000 46.741000 2.000000 -3.000000 0.000000 107.811847 -32.943514 1672.446057 528.937475 5.347003 0.000000 0.035590
184.000000 56.226000 5.000000 -11.000000 0.000000 108.503583 -48.931634 2210.155280 392.719475 17.779005 0.000000 0.244078
185.000000 54.214000 6.000000 -11.000000 0.000000 108.717293 -41.683603 1933.390824 452.711735 18.439051 0.000000 0.100255
186.000000 51.836000 7.000000 -11.000000 0.000000 108.143745 -35.018113 1729.136555 510.341158 19.285588 0.000000 0.030237
187.000000 49.250000 8.000000 -11.000000 0.000000 106.979447 -29.024330 1572.197271 565.166415 20.298676 0.000000 0.063714
188.000000 46.585000 9.000000 -11.000000 0.000000 105.404823 -23.716904 1447.838929 617.085130 21.461118 0.000000 0.100473
190.000000 58.102000 3.000000 -5.000000 0.000000 108.454938 -37.606797 1804.061608 487.611704 8.602699 0.000000 0.046622
191.000000 55.044000 7.000000 -10.000000 0.000000 107.379515 -30.749867 1615.324412 549.023459 18.162120 0.000000 0.050631
192.000000 51.831000 4.000000 -5.000000 0.000000 105.744889 -24.724662 1470.601446 606.932727 9.644285 0.000000 0.094099
193.000000 48.614000 9.000000 -10.000000 0.000000 103.761358 -19.498499 1356.104064 661.369585 20.566049 0.000000 0.123800
194.000000 45.492000 3.000000 -3.000000 0.000000 101.589755 -14.993365 1263.258596 712.489611 6.593553 0.000000 0.142826
195.000000 68.957000 4.000000 -9.000000 0.000000 108.422896 -49.766077 2247.093800 385.948473 14.496670 0.000000 0.265237
196.000000 65.957000 5.000000 -9.000000 0.000000 108.688826 -40.911849 1907.705023 459.244153 15.156239 0.000000 0.088530
197.000000 58.389000 7.000000 -9.000000 0.000000 106.144933 -25.992433 1499.767858 594.367862 17.122124 0.000000 0.085649
198.000000 54.409000 8.000000 -9.000000 0.000000 103.993555 -20.041927 1367.631247 655.488297 18.375451 0.000000 0.121098
199.000000 46.899000 10.000000 -9.000000 0.000000 99.094605 -10.718679 1178.731351 765.650063 21.320495 0.000000 0.155392
201.000000 71.703000 5.000000 -8.000000 0.000000 108.251709 -35.815588 1751.693125 503.286114 13.942023 0.000000 0.032741
202.000000 66.808000 3.000000 -4.000000 0.000000 106.617826 -27.633852 1538.483002 578.418284 7.482146 0.000000 0.074040
203.000000 61.766000 7.000000 -8.000000 0.000000 104.280313 -20.733940 1382.426477 648.078643 16.186750 0.000000 0.117528
204.000000 52.268000 9.000000 -8.000000 0.000000 98.781990 -10.232293 1169.282236 772.040044 19.130384 0.000000 0.156483
205.000000 48.050000 5.000000 -4.000000 0.000000 96.001997 -6.271017 1093.272952 827.157783 10.405496 0.000000 0.162747
207.000000 84.173000 4.000000 -7.000000 0.000000 108.625094 -39.714227 1869.008268 469.446953 11.876338 0.000000 0.071662
208.000000 77.986000 5.000000 -7.000000 0.000000 107.174812 -29.838243 1592.353930 557.512038 12.819183 0.000000 0.057541
209.000000 71.409000 6.000000 -7.000000 0.000000 104.642717 -21.644811 1402.109073 638.456436 14.000804 0.000000 0.112608
210.000000 59.019000 8.000000 -7.000000 0.000000 98.380674 -9.621378 1157.454645 780.175428 16.942379 0.000000 0.157755
211.000000 53.621000 9.000000 -7.000000 0.000000 95.225460 -5.263548 1074.154194 842.150489 18.649186 0.000000 0.163576
212.000000 48.817000 10.000000 -7.000000 0.000000 92.232288 -1.695972 1006.867929 899.027120 20.485690 0.000000 0.163888
213.000000 84.589000 5.000000 -6.000000 0.000000 105.113515 -22.897079 1429.579847 625.458099 11.819074 0.000000 0.105431
214.000000 67.758000 7.000000 -6.000000 0.000000 97.847142 -8.831298 1142.221236 790.884081 14.757472 0.000000 0.159237
215.000000 60.613000 4.000000 -3.000000 0.000000 94.206452 -3.996182 1050.189749 861.647103 8.249063 0.000000 0.164163
216.000000 54.401000 3.000000 -2.000000 0.000000 90.812838 -0.151886 977.853169 925.729853 6.127815 0.000000 0.162695
217.000000 49.044000 5.000000 -3.000000 0.000000 87.716538 2.951865 919.500464 983.974301 10.196353 0.000000 0.157688
218.000000 79.504000 6.000000 -5.000000 0.000000 97.104299 -7.770188 1121.863495 805.615395 12.577401 0.000000 0.160933
219.000000 69.624000 7.000000 -5.000000 0.000000 92.815062 -2.355358 1019.270056 888.032060 14.363458 0.000000 0.164148
220.000000 61.309000 8.000000 -5.000000 0.000000 88.918503 1.786314 941.433437 961.328091 16.312739 0.000000 0.159990
221.000000 54.363000 9.000000 -5.000000 0.000000 85.456495 5.025311 880.357332 1026.858570 18.398216 0.000000 0.152283
222.000000 48.559000 4.000000 -2.000000 0.000000 82.406896 7.612411 831.154388 1085.752200 8.239406 0.000000 0.143092
223.000000 69.980000 7.000000 -4.000000 0.000000 86.281882 4.284846 894.359302 1011.138653 14.292263 0.000000 0.154409
224.000000 53.242000 9.000000 -4.000000 0.000000 79.106842 10.184519 781.644306 1151.444206 18.787674 0.000000 0.131248
225.000000 47.192000 5.000000 -2.000000 0.000000 76.288344 12.224601 741.813164 1209.696931 10.598815 0.000000 0.120154
226.000000 68.116000 7.000000 -3.000000 0.000000 78.118275 10.915226 767.441753 1171.624623 14.685496 0.000000 0.127424
227.000000 58.368000 8.000000 -3.000000 0.000000 74.634615 13.363228 719.320394 1244.992144 17.139069 0.000000 0.113523
228.000000 50.800000 3.000000 -1.000000 0.000000 71.772172 15.243922 681.691155 1308.372826 6.564487 0.000000 0.102600
229.000000 63.394000 7.000000 -2.000000 0.000000 68.344823 17.363209 638.468654 1388.736884 15.781769 0.000000 0.092619
230.000000 54.007000 4.000000 -1.000000 0.000000 65.671455 18.928764 605.898335 1455.430202 9.262806 0.000000 0.089787
231.000000 46.888000 9.000000 -2.000000 0.000000 63.535230 20.130879 580.474362 1511.656516 21.338905 0.000000 0.092255
232.000000 82.670000 5.000000 -1.000000 0.000000 61.792604 21.082175 560.077255 1559.694850 12.103190 0.000000 0.097905
233.000000 66.569000 6.000000 -1.000000 0.000000 59.126576 22.490899 529.384588 1637.442149 15.031161 0.000000 0.112892
234.000000 55.538000 7.000000 -1.000000 0.000000 57.187011 23.483176 507.389660 1697.636520 18.016940 0.000000 0.128201
235.000000 47.553000 8.000000 -1.000000 0.000000 55.714707 24.219485 490.854144 1745.615130 21.042872 0.000000 0.142015
236.000000 157.201000 2.000000 0.000000 0.000000 45.081921 29.172680 374.152770 2170.130449 6.365998 0.000000 0.287507
240.000000 47.719000 7.000000 -13.000000 1.000000 116.214476 -41.080175 1913.255726 237.966404 20.946348 0.000000 0.120809
241.000000 45.895000 8.000000 -13.000000 1.000000 115.438090 -34.894850 1725.689477 316.838618 21.779146 0.000000 0.032749
243.000000 52.738000 6.000000 -12.000000 1.000000 117.011195 -44.293464 2025.071903 174.465502 18.952412 0.000000 0.182492
244.000000 50.689000 7.000000 -12.000000 1.000000 116.425989 -37.272839 1794.110514 268.830858 19.719034 0.000000 0.066559
245.000000 48.431000 8.000000 -12.000000 1.000000 115.209751 -30.927101 1619.840463 350.330310 20.639136 0.000000 0.010476
246.000000 46.068000 9.000000 -12.000000 1.000000 113.542254 -25.296016 1483.670427 422.336350 21.698545 0.000000 0.061223
248.000000 56.511000 6.000000 -11.000000 1.000000 117.505947 -40.254473 1886.294603 206.672785 17.687037 0.000000 0.115022
249.000000 53.894000 7.000000 -11.000000 1.000000 116.391504 -32.965359 1673.028877 304.434576 18.546680 0.000000 0.016301
250.000000 51.096000 8.000000 -11.000000 1.000000 114.662716 -26.536793 1512.483761 388.612969 19.562965 0.000000 0.047742
251.000000 48.244000 9.000000 -11.000000 1.000000 112.535186 -20.958687 1387.260502 462.769340 20.720567 0.000000 0.090158
253.000000 63.691000 5.000000 -10.000000 1.000000 118.649031 -44.078610 2017.222843 122.484567 15.692740 0.000000 0.188455
254.000000 60.661000 6.000000 -10.000000 1.000000 117.758435 -35.575897 1744.866389 244.533265 16.477255 0.000000 0.052604
255.000000 57.313000 7.000000 -10.000000 1.000000 116.003153 -28.111415 1549.963219 345.764777 17.440486 0.000000 0.029599
256.000000 53.849000 8.000000 -10.000000 1.000000 113.692353 -21.712748 1403.586925 432.643405 18.563176 0.000000 0.081642
257.000000 50.415000 9.000000 -10.000000 1.000000 111.072413 -16.294612 1289.620606 508.932436 19.828739 0.000000 0.115271
258.000000 47.106000 10.000000 -10.000000 1.000000 108.321085 -11.724664 1198.373049 577.015864 21.222812 0.000000 0.137013
260.000000 69.220000 5.000000 -9.000000 1.000000 119.329766 -39.021866 1847.246237 162.625481 14.439335 0.000000 0.107564
261.000000 65.177000 6.000000 -9.000000 1.000000 117.628261 -30.171852 1600.710571 289.369018 15.335727 0.000000 0.005099
262.000000 60.895000 7.000000 -9.000000 1.000000 115.118571 -22.683721 1424.864374 394.097260 16.414917 0.000000 0.070227
263.000000 56.619000 8.000000 -9.000000 1.000000 112.171180 -16.465916 1293.116575 483.647139 17.655828 0.000000 0.110818
264.000000 52.505000 9.000000 -9.000000 1.000000 109.048175 -11.333896 1190.727048 561.998547 19.040503 0.000000 0.135919
265.000000 48.643000 10.000000 -9.000000 1.000000 105.918140 -7.089875 1108.866392 631.675906 20.553547 0.000000 0.151101
266.000000 80.303000 4.000000 -8.000000 1.000000 121.089924 -43.738255 2004.904889 42.731515 12.446134 0.000000 0.198343
267.000000 75.401000 5.000000 -8.000000 1.000000 119.623615 -32.975008 1673.286399 211.471717 13.255770 0.000000 0.034971
268.000000 70.000000 6.000000 -8.000000 1.000000 116.917199 -23.980022 1453.747476 342.938056 14.279276 0.000000 0.054329
269.000000 64.538000 7.000000 -8.000000 1.000000 113.556761 -16.689146 1297.681535 451.109870 15.488989 0.000000 0.104835
270.000000 59.288000 8.000000 -8.000000 1.000000 109.950485 -10.837196 1181.038357 543.219689 16.861821 0.000000 0.134426
271.000000 54.399000 9.000000 -8.000000 1.000000 106.347786 -6.128044 1090.555529 623.480505 18.378349 0.000000 0.151356
272.000000 49.937000 10.000000 -8.000000 1.000000 102.886180 -2.304850 1018.319704 694.569547 20.022115 0.000000 0.160303
273.000000 45.911000 11.000000 -8.000000 1.000000 99.632846 0.834823 959.316846 758.304327 21.779084 0.000000 0.164072
275.000000 89.141000 4.000000 -7.000000 1.000000 122.092319 -36.986000 1785.633652 96.017751 11.212051 0.000000 0.097794
276.000000 82.185000 5.000000 -7.000000 1.000000 119.249391 -25.795714 1495.201655 271.551642 12.161768 0.000000 0.031503
277.000000 74.984000 6.000000 -7.000000 1.000000 115.357591 -16.992118 1303.894292 407.629516 13.330746 0.000000 0.096465
278.000000 68.060000 7.000000 -7.000000 1.000000 111.099521 -10.184854 1168.362191 519.054069 14.688205 0.000000 0.132301
279.000000 61.680000 8.000000 -7.000000 1.000000 106.866914 -4.902428 1067.316911 613.477384 16.208869 0.000000 0.151452
280.000000 55.945000 9.000000 -7.000000 1.000000 102.855025 -0.749556 989.081115 695.363688 17.871788 0.000000 0.160696
281.000000 50.862000 10.000000 -7.000000 1.000000 99.145387 2.568709 926.714751 767.556735 19.659453 0.000000 0.163857
282.000000 46.387000 11.000000 -7.000000 1.000000 95.759028 5.264172 875.833974 831.991790 21.557111 0.000000 0.163223
284.000000 99.235000 4.000000 -6.000000 1.000000 122.376025 -28.513845 1559.716895 164.393492 10.071677 0.000000 0.018230
285.000000 89.363000 5.000000 -6.000000 1.000000 117.791516 -17.426819 1312.843531 346.448278 11.185249 0.000000 0.084131
286.000000 79.832000 6.000000 -6.000000 1.000000 112.611331 -9.290407 1151.064921 486.773987 12.521966 0.000000 0.129114
287.000000 71.169000 7.000000 -6.000000 1.000000 107.503060 -3.289033 1036.852049 601.022519 14.047584 0.000000 0.151187
288.000000 63.544000 8.000000 -6.000000 1.000000 102.755821 1.228681 951.915832 697.288489 15.734522 0.000000 0.160660
289.000000 56.942000 9.000000 -6.000000 1.000000 98.463420 4.712388 886.278220 780.305981 17.560320 0.000000 0.162911
290.000000 51.265000 10.000000 -6.000000 1.000000 94.629599 7.461813 834.032873 853.099412 19.506503 0.000000 0.160958
291.000000 46.390000 11.000000 -6.000000 1.000000 91.220841 9.677506 791.460515 917.732071 21.557734 0.000000 0.156588
292.000000 124.520000 3.000000 -5.000000 1.000000 126.727330 -32.999925 1673.951662 -16.519301 8.025923 0.000000 0.084898
293.000000 110.321000 4.000000 -5.000000 1.000000 121.258783 -18.102918 1326.847857 253.638383 9.059828 0.000000 0.064840
294.000000 96.422000 5.000000 -5.000000 1.000000 114.686817 -7.989196 1126.056340 441.411067 10.367080 0.000000 0.123975
295.000000 84.021000 6.000000 -5.000000 1.000000 108.291859 -1.073600 995.169811 585.156868 11.898645 0.000000 0.150107
296.000000 73.429000 7.000000 -5.000000 1.000000 102.524174 3.822135 903.094962 701.381868 13.616556 0.000000 0.159702
297.000000 64.550000 8.000000 -5.000000 1.000000 97.472323 7.421785 834.797632 798.639381 15.490958 0.000000 0.160635
298.000000 57.151000 9.000000 -5.000000 1.000000 93.091260 10.159955 782.120585 881.948675 17.498048 0.000000 0.156976
299.000000 50.977000 10.000000 -5.000000 1.000000 89.296507 12.303808 740.254965 954.526372 19.618619 0.000000 0.150980
300.000000 45.801000 11.000000 -5.000000 1.000000 86.000116 14.023431 706.182142 1018.571525 21.837000 0.000000 0.143957
302.000000 143.412000 3.000000 -4.000000 1.000000 126.578185 -19.298261 1351.876228 94.759552 6.968775 0.000000 0.035203
303.000000 121.438000 4.000000 -4.000000 1.000000 117.703560 -5.925092 1086.700602 372.812134 8.230999 0.000000 0.114808
304.000000 102.329000 5.000000 -4.000000 1.000000 109.270308 2.145577 934.676742 564.449175 9.769574 0.000000 0.147073
305.000000 86.726000 6.000000 -4.000000 1.000000 102.021271 7.352774 836.115779 709.908666 11.528863 0.000000 0.156729
306.000000 74.252000 7.000000 -4.000000 1.000000 95.962837 10.936212 767.032848 826.503314 13.467225 0.000000 0.155882
307.000000 64.301000 8.000000 -4.000000 1.000000 90.919222 13.534267 715.923697 923.237782 15.552872 0.000000 0.150178
308.000000 56.311000 9.000000 -4.000000 1.000000 86.699111 15.496833 676.581252 1005.417371 17.761121 0.000000 0.142486
309.000000 49.830000 10.000000 -4.000000 1.000000 83.138443 17.028347 645.361471 1076.451449 20.072513 0.000000 0.134344
310.000000 163.060000 3.000000 -3.000000 1.000000 122.447372 -2.164839 1015.685606 256.225234 6.129530 0.000000 0.095753
311.000000 130.243000 4.000000 -3.000000 1.000000 110.427286 7.205445 838.928499 536.955354 7.675565 0.000000 0.138762
312.000000 105.330000 5.000000 -3.000000 1.000000 100.919042 12.391270 738.533261 728.415229 9.492674 0.000000 0.149093
313.000000 86.816000 6.000000 -3.000000 1.000000 93.525630 15.633942 673.805828 872.140156 11.518673 0.000000 0.146428
314.000000 72.953000 7.000000 -3.000000 1.000000 87.717764 17.840244 628.605607 986.060991 13.709047 0.000000 0.138923
315.000000 62.391000 8.000000 -3.000000 1.000000 83.078301 19.434221 595.254250 1079.553753 16.031090 0.000000 0.130281
316.000000 54.185000 9.000000 -3.000000 1.000000 79.307217 20.638007 569.632545 1158.163794 18.460232 0.000000 0.122263
317.000000 47.685000 10.000000 -3.000000 1.000000 76.191970 21.578486 549.332364 1225.459627 20.977661 0.000000 0.115699
318.000000 176.850000 3.000000 -2.000000 1.000000 111.401914 16.095701 664.431094 501.952742 5.652593 0.000000 0.112985
319.000000 132.348000 4.000000 -2.000000 1.000000 98.345068 20.004624 583.162547 772.983662 7.555127 0.000000 0.129974
320.000000 103.022000 5.000000 -2.000000 1.000000 89.294218 22.123597 537.445782 955.312472 9.707405 0.000000 0.128762
321.000000 83.053000 6.000000 -2.000000 1.000000 82.753893 23.449614 508.138949 1090.167283 12.042853 0.000000 0.122722
322.000000 68.906000 7.000000 -2.000000 1.000000 77.843955 24.356729 487.751027 1195.489663 14.516629 0.000000 0.116968
323.000000 58.509000 8.000000 -2.000000 1.000000 74.037970 25.016064 472.748301 1280.720036 17.097423 0.000000 0.113304
324.000000 50.620000 9.000000 -2.000000 1.000000 71.008576 25.516821 461.246042 1351.453782 19.762713 0.000000 0.112086
325.000000 171.052000 3.000000 -1.000000 1.000000 91.631860 32.205500 297.077024 904.761895 5.846145 0.000000 0.094398
326.000000 122.124000 4.000000 -1.000000 1.000000 81.282911 31.361884 319.009545 1134.260634 8.189902 0.000000 0.114209
327.000000 93.202000 5.000000 -1.000000 1.000000 74.610816 30.885346 331.224989 1286.191748 10.732747 0.000000 0.122224
328.000000 74.593000 6.000000 -1.000000 1.000000 69.981482 30.579149 339.009910 1396.477595 13.411350 0.000000 0.128532
329.000000 61.807000 7.000000 -1.000000 1.000000 66.591756 30.365819 344.404700 1481.020486 16.186664 0.000000 0.135164
330.000000 52.565000 8.000000 -1.000000 1.000000 64.006791 30.208675 348.363602 1548.251468 19.033310 0.000000 0.142173
331.000000 45.615000 9.000000 -1.000000 1.000000 61.972361 30.088104 351.392554 1603.165045 21.934071 0.000000 0.149258
336.000000 46.138000 7.000000 -14.000000 2.000000 122.820683 -43.480788 1995.679458 -15.683354 21.661833 0.000000 0.205977
338.000000 48.946000 7.000000 -13.000000 2.000000 123.532659 -39.700091 1868.559623 13.956072 20.418871 0.000000 0.146526
339.000000 47.018000 8.000000 -13.000000 2.000000 122.358752 -32.983935 1673.524703 128.015002 21.256630 0.000000 0.053202
341.000000 51.990000 7.000000 -12.000000 2.000000 124.077754 -35.376623 1739.221794 48.028707 19.223215 0.000000 0.091803
342.000000 47.155000 9.000000 -12.000000 2.000000 120.221164 -22.550834 1421.934840 262.143834 21.196231 0.000000 0.047418
344.000000 58.031000 6.000000 -11.000000 2.000000 126.045402 -38.462419 1829.971095 -59.333424 17.221521 0.000000 0.147144
345.000000 55.268000 7.000000 -11.000000 2.000000 124.362804 -30.445494 1607.607412 87.365480 18.083415 0.000000 0.043725
346.000000 52.345000 8.000000 -11.000000 2.000000 122.048937 -23.553042 1444.171315 205.940361 19.093754 0.000000 0.033459
347.000000 49.387000 9.000000 -11.000000 2.000000 119.359167 -17.723667 1318.979237 305.380339 20.238740 0.000000 0.075623
348.000000 46.478000 10.000000 -11.000000 2.000000 116.485337 -12.824576 1220.013593 391.003239 21.506232 0.000000 0.105898
350.000000 58.755000 7.000000 -10.000000 2.000000 124.261043 -24.858671 1473.655836 133.011492 17.010209 0.000000 0.021790
351.000000 51.616000 9.000000 -10.000000 2.000000 118.003854 -12.551612 1214.626079 354.617147 19.365305 0.000000 0.100106
353.000000 71.085000 5.000000 -9.000000 2.000000 129.558617 -36.518757 1771.961287 -165.285179 14.058407 0.000000 0.148357
354.000000 66.841000 6.000000 -9.000000 2.000000 126.985078 -26.627836 1514.622194 34.216998 14.951851 0.000000 0.035093
355.000000 62.398000 7.000000 -9.000000 2.000000 123.606457 -18.604361 1337.304253 186.299395 16.017279 0.000000 0.051158
356.000000 57.990000 8.000000 -9.000000 2.000000 119.863713 -12.200107 1207.705167 308.730565 17.236013 0.000000 0.092564
357.000000 53.764000 9.000000 -9.000000 2.000000 116.042394 -7.088843 1108.846716 411.018869 18.591987 0.000000 0.120115
358.000000 49.805000 10.000000 -9.000000 2.000000 112.309903 -2.975840 1030.951113 498.765876 20.071303 0.000000 0.137879
359.000000 46.151000 11.000000 -9.000000 2.000000 108.755690 0.373178 967.989802 575.520356 21.661878 0.000000 0.148958
360.000000 77.300000 5.000000 -8.000000 2.000000 130.404164 -29.154482 1575.398903 -108.036156 12.928038 0.000000 0.076523
361.000000 66.093000 7.000000 -8.000000 2.000000 122.192855 -11.730509 1198.487579 248.955170 15.122330 0.000000 0.082478
362.000000 55.724000 9.000000 -8.000000 2.000000 113.356773 -1.416367 1001.611708 476.067582 17.939219 0.000000 0.134976
363.000000 47.051000 11.000000 -8.000000 2.000000 105.489545 5.010064 880.645949 641.584726 21.249007 0.000000 0.153748
365.000000 84.052000 5.000000 -7.000000 2.000000 130.452590 -20.321330 1373.588923 -37.612093 11.889617 0.000000 0.029989
366.000000 76.701000 6.000000 -7.000000 2.000000 125.190885 -11.071401 1185.602681 167.620665 13.030271 0.000000 0.068625
367.000000 69.660000 7.000000 -7.000000 2.000000 119.782163 -4.364119 1057.138354 323.254253 14.348687 0.000000 0.107208
368.000000 63.176000 8.000000 -7.000000 2.000000 114.610683 0.596726 963.790174 447.964496 15.822623 0.000000 0.130539
369.000000 57.344000 9.000000 -7.000000 2.000000 109.833146 4.362576 892.890800 551.678730 17.433402 0.000000 0.143969
370.000000 52.167000 10.000000 -7.000000 2.000000 105.492664 7.295390 837.211535 640.230748 19.165220 0.000000 0.150981
371.000000 47.602000 11.000000 -7.000000 2.000000 101.579473 9.632705 792.326446 717.316536 21.004619 0.000000 0.153772
373.000000 101.056000 4.000000 -6.000000 2.000000 135.693246 -21.979100 1409.394482 -248.081578 9.888311 0.000000 0.063076
374.000000 91.105000 5.000000 -6.000000 2.000000 129.185603 -10.079419 1166.318362 49.892810 10.969399 0.000000 0.049317
375.000000 72.815000 7.000000 -6.000000 2.000000 116.125779 3.286981 913.186636 412.258425 13.727716 0.000000 0.123427
376.000000 58.435000 9.000000 -6.000000 2.000000 105.374200 10.132498 782.652892 640.371792 17.109250 0.000000 0.146371
377.000000 47.695000 11.000000 -6.000000 2.000000 96.992975 14.182029 703.014854 804.831518 20.965353 0.000000 0.148723
379.000000 111.579000 4.000000 -5.000000 2.000000 134.749271 -8.418689 1134.292059 -137.537060 8.955888 0.000000 0.024707
380.000000 97.938000 5.000000 -5.000000 2.000000 125.959281 1.151699 953.362553 160.036742 10.204693 0.000000 0.077317
381.000000 85.692000 6.000000 -5.000000 2.000000 117.959077 7.044246 842.003914 365.364828 11.664518 0.000000 0.111269
382.000000 75.149000 7.000000 -5.000000 2.000000 110.999366 10.960481 766.559881 520.186759 13.302617 0.000000 0.129695
383.000000 66.243000 8.000000 -5.000000 2.000000 105.028005 13.728085 712.068739 643.546516 15.092684 0.000000 0.138597
384.000000 58.770000 9.000000 -5.000000 2.000000 99.913551 15.778972 670.866011 745.528472 17.013348 0.000000 0.141686
385.000000 52.500000 10.000000 -5.000000 2.000000 95.518153 17.355912 638.619131 832.060476 19.047065 0.000000 0.141273
386.000000 47.218000 11.000000 -5.000000 2.000000 91.719552 18.604428 612.694363 906.907163 21.179298 0.000000 0.138817
388.000000 121.780000 4.000000 -4.000000 2.000000 130.702772 6.671605 849.105202 8.837991 8.206170 0.000000 0.045920
389.000000 103.573000 5.000000 -4.000000 2.000000 120.127343 12.596724 734.484330 301.002384 9.650349 0.000000 0.088523
390.000000 76.119000 7.000000 -4.000000 2.000000 104.246575 18.389537 617.182826 653.018397 13.134586 0.000000 0.125180
391.000000 58.106000 9.000000 -4.000000 2.000000 93.430576 21.201651 557.497279 871.795721 17.209697 0.000000 0.130518
392.000000 46.066000 11.000000 -4.000000 2.000000 85.776036 22.855160 521.347780 1027.263267 21.710852 0.000000 0.125913
393.000000 158.512000 3.000000 -3.000000 2.000000 137.055646 17.331017 639.132387 -270.433511 6.303972 0.000000 0.052081
394.000000 129.499000 4.000000 -3.000000 2.000000 122.413728 21.397038 553.269063 207.010635 7.717945 0.000000 0.040717
395.000000 106.454000 5.000000 -3.000000 2.000000 111.234133 23.391602 509.433151 485.346256 9.390453 0.000000 0.079593
396.000000 88.725000 6.000000 -3.000000 2.000000 102.605452 24.573549 482.834899 676.341609 11.268677 0.000000 0.101704
397.000000 75.108000 7.000000 -3.000000 2.000000 95.824028 25.354829 464.977357 819.515790 13.313274 0.000000 0.112225
398.000000 64.542000 8.000000 -3.000000 2.000000 90.392290 25.909458 452.160001 932.807282 15.494328 0.000000 0.116447
399.000000 56.222000 9.000000 -3.000000 2.000000 85.963486 26.323499 442.512880 1025.738072 17.788691 0.000000 0.117502
400.000000 49.568000 10.000000 -3.000000 2.000000 82.294095 26.644362 434.989257 1103.936308 20.178171 0.000000 0.117175
401.000000 168.324000 3.000000 -2.000000 2.000000 123.517580 36.344877 183.084599 55.971804 5.937535 0.000000 0.105569
402.000000 131.140000 4.000000 -2.000000 2.000000 109.381830 34.104314 246.175803 483.716009 7.622905 0.000000 0.026843
403.000000 104.578000 5.000000 -2.000000 2.000000 99.197858 32.928882 277.944141 733.361719 9.560790 0.000000 0.069845
404.000000 71.561000 7.000000 -2.000000 2.000000 85.838620 31.715594 309.862371 1033.055605 13.975503 0.000000 0.107122
405.000000 52.973000 9.000000 -2.000000 2.000000 77.617607 31.094526 325.878027 1216.939982 18.882291 0.000000 0.118740
406.000000 162.358000 3.000000 -1.000000 2.000000 102.727473 49.822321 -299.629194 564.200896 6.157635 0.000000 0.259419
407.000000 122.557000 4.000000 -1.000000 2.000000 92.046472 44.232243 -72.829572 887.325038 8.159008 0.000000 0.152028
408.000000 96.201000 5.000000 -1.000000 2.000000 84.427900 40.989526 39.737049 1080.107534 10.395804 0.000000 0.140790
409.000000 78.116000 6.000000 -1.000000 2.000000 78.823968 38.884754 107.012749 1214.177496 12.804040 0.000000 0.145739
410.000000 65.203000 7.000000 -1.000000 2.000000 74.565324 37.412000 151.753639 1315.123730 15.340991 0.000000 0.151489
411.000000 55.645000 8.000000 -1.000000 2.000000 71.234544 36.325072 183.657916 1394.879248 17.977042 0.000000 0.156437
412.000000 48.349000 9.000000 -1.000000 2.000000 68.565196 35.490466 207.556930 1459.967338 20.691015 0.000000 0.160802
415.000000 81.077000 5.000000 0.000000 2.000000 67.834542 47.643345 -205.484880 1591.797789 12.338086 0.000000 0.319790
416.000000 66.638000 6.000000 0.000000 2.000000 64.792925 44.630727 -87.509436 1652.906721 15.012412 0.000000 0.286393
417.000000 56.248000 7.000000 0.000000 2.000000 62.430413 42.447706 -9.436354 1702.553923 17.786332 0.000000 0.269712
418.000000 48.489000 8.000000 0.000000 2.000000 60.554291 40.797487 46.050077 1743.606845 20.633204 0.000000 0.260574
425.000000 47.717000 8.000000 -13.000000 3.000000 129.033283 -30.673995 1613.396238 -73.554050 20.943513 0.000000 0.079569
426.000000 45.624000 9.000000 -13.000000 3.000000 126.937367 -24.290848 1460.758538 53.199327 21.904956 0.000000 0.026334
427.000000 52.730000 7.000000 -12.000000 3.000000 131.436519 -33.020129 1674.491397 -192.124055 18.951791 0.000000 0.121611
428.000000 50.306000 8.000000 -12.000000 3.000000 129.230269 -25.585533 1490.339714 -33.288602 19.865498 0.000000 0.043116
430.000000 55.971000 7.000000 -11.000000 3.000000 131.952832 -27.292696 1530.343144 -147.694698 17.854095 0.000000 0.073025
431.000000 53.011000 8.000000 -11.000000 3.000000 129.037329 -19.930367 1365.258410 12.672673 18.851955 0.000000 0.028310
432.000000 50.024000 9.000000 -11.000000 3.000000 125.784584 -13.903526 1241.426205 141.776307 19.978809 0.000000 0.057646
433.000000 47.093000 10.000000 -11.000000 3.000000 122.404698 -8.980937 1145.101210 249.359795 21.223564 0.000000 0.087803
435.000000 62.931000 6.000000 -10.000000 3.000000 135.222950 -29.641616 1587.454701 -307.024831 15.878927 0.000000 0.117339
436.000000 59.397000 7.000000 -10.000000 3.000000 132.016950 -20.779311 1383.401189 -96.138280 16.824541 0.000000 0.036677
437.000000 55.787000 8.000000 -10.000000 3.000000 128.319112 -13.736659 1238.101938 65.365460 17.914241 0.000000 0.045226
438.000000 52.233000 9.000000 -10.000000 3.000000 124.446636 -8.162343 1129.374364 195.203349 19.134543 0.000000 0.078765
439.000000 48.819000 10.000000 -10.000000 3.000000 120.594805 -3.718739 1044.954322 303.270277 20.473595 0.000000 0.103929
440.000000 45.599000 11.000000 -10.000000 3.000000 116.874808 -0.133616 977.509959 395.558171 21.920935 0.000000 0.121768
442.000000 62.945000 7.000000 -9.000000 3.000000 131.433103 -13.509469 1233.583520 -36.019615 15.876330 0.000000 0.032194
443.000000 58.559000 8.000000 -9.000000 3.000000 126.919869 -7.087350 1108.818223 126.085008 17.066546 0.000000 0.067097
444.000000 50.407000 10.000000 -9.000000 3.000000 118.168500 1.675922 943.509028 364.411056 19.829801 0.000000 0.115871
445.000000 46.757000 11.000000 -9.000000 3.000000 114.153663 4.730762 885.930712 456.690113 21.379088 0.000000 0.129635
447.000000 72.026000 6.000000 -8.000000 3.000000 135.344026 -13.182040 1227.086629 -177.776746 13.873963 0.000000 0.027184
448.000000 66.507000 7.000000 -8.000000 3.000000 129.969936 -5.614410 1080.804885 34.495150 15.026312 0.000000 0.051794
449.000000 61.215000 8.000000 -8.000000 3.000000 124.673516 -0.125283 977.353434 196.472525 16.326833 0.000000 0.084542
450.000000 56.280000 9.000000 -8.000000 3.000000 119.671353 3.968975 900.323796 326.331415 17.759879 0.000000 0.107549
451.000000 51.761000 10.000000 -8.000000 3.000000 115.046820 7.110513 840.739912 434.146488 19.311931 0.000000 0.123122
452.000000 47.669000 11.000000 -8.000000 3.000000 110.817227 9.583464 793.277956 525.992013 20.971249 0.000000 0.133317
454.000000 83.824000 5.000000 -7.000000 3.000000 140.388194 -12.669304 1216.947557 -391.924388 11.920468 0.000000 0.041362
455.000000 76.729000 6.000000 -7.000000 3.000000 133.809148 -3.476045 1040.377318 -93.362026 13.023814 0.000000 0.031623
456.000000 69.906000 7.000000 -7.000000 3.000000 127.381071 2.661045 924.976627 117.786494 14.296333 0.000000 0.068656
457.000000 63.588000 8.000000 -7.000000 3.000000 121.419805 6.957820 843.651908 278.638507 15.718190 0.000000 0.095337
458.000000 57.871000 9.000000 -7.000000 3.000000 116.015650 10.101602 783.251731 407.420838 17.272533 0.000000 0.113440
459.000000 52.767000 10.000000 -7.000000 3.000000 111.164487 12.488350 736.620892 514.202219 18.944954 0.000000 0.125263
460.000000 48.243000 11.000000 -7.000000 3.000000 106.825055 14.356137 699.532704 605.043132 20.723061 0.000000 0.132557
462.000000 90.229000 5.000000 -6.000000 3.000000 138.747964 -0.102978 976.934436 -286.192403 11.074445 0.000000 0.006975
463.000000 72.872000 7.000000 -6.000000 3.000000 123.438532 10.988872 766.006517 217.000608 13.715240 0.000000 0.076576
464.000000 65.456000 8.000000 -6.000000 3.000000 117.024323 13.949551 707.656071 375.342874 15.270788 0.000000 0.098415
465.000000 53.289000 10.000000 -6.000000 3.000000 106.477492 17.718622 631.125195 606.793068 18.760908 0.000000 0.122138
466.000000 48.378000 11.000000 -6.000000 3.000000 102.154505 18.986989 604.675519 695.853553 20.667157 0.000000 0.127414
468.000000 96.224000 5.000000 -5.000000 3.000000 134.758988 12.856276 729.359983 -153.720657 10.385020 0.000000 0.029147
469.000000 84.931000 6.000000 -5.000000 3.000000 125.696798 16.650919 653.100956 133.850134 11.767485 0.000000 0.046889
470.000000 75.030000 7.000000 -5.000000 3.000000 117.971027 19.028721 603.798565 336.382964 13.321927 0.000000 0.073743
471.000000 66.534000 8.000000 -5.000000 3.000000 111.398721 20.653213 569.306358 490.264921 15.024828 0.000000 0.093549
472.000000 59.309000 9.000000 -5.000000 3.000000 105.788077 21.831686 543.822415 613.169403 16.856775 0.000000 0.106508
473.000000 53.179000 10.000000 -5.000000 3.000000 100.970298 22.724960 524.225333 714.809358 18.801594 0.000000 0.114419
474.000000 47.968000 11.000000 -5.000000 3.000000 96.805305 23.425076 508.686500 801.021697 20.845709 0.000000 0.118838
476.000000 100.924000 5.000000 -4.000000 3.000000 127.971429 24.967397 473.861162 14.375986 9.902240 0.000000 0.036077
477.000000 87.289000 6.000000 -4.000000 3.000000 118.595716 25.908305 452.186767 288.733269 11.450676 0.000000 0.030055
478.000000 75.903000 7.000000 -4.000000 3.000000 110.896990 26.505399 438.252833 481.802806 13.170128 0.000000 0.061628
479.000000 66.496000 8.000000 -4.000000 3.000000 104.518214 26.917932 428.541122 628.420113 15.035091 0.000000 0.083257
480.000000 58.730000 9.000000 -4.000000 3.000000 99.178550 27.219993 421.385028 745.434272 17.024892 0.000000 0.096883
481.000000 52.292000 10.000000 -4.000000 3.000000 94.661990 27.450704 415.893087 842.095422 19.122597 0.000000 0.105220
482.000000 46.918000 11.000000 -4.000000 3.000000 90.803292 27.632671 411.545266 923.966397 21.314202 0.000000 0.110171
483.000000 122.343000 4.000000 -3.000000 3.000000 129.426871 37.621034 145.512188 -176.235447 8.168401 0.000000 0.169266
484.000000 103.042000 5.000000 -3.000000 3.000000 118.258689 35.402340 210.051321 231.245129 9.700022 0.000000 0.058776
485.000000 74.968000 7.000000 -3.000000 3.000000 102.247738 33.253176 269.265228 661.609511 13.336241 0.000000 0.057306
486.000000 65.021000 8.000000 -3.000000 3.000000 96.434849 32.652280 285.296544 796.826172 15.378194 0.000000 0.079918
487.000000 50.510000 10.000000 -3.000000 3.000000 87.610553 31.860323 306.099471 993.878284 19.799478 0.000000 0.103729
489.000000 101.059000 5.000000 -2.000000 3.000000 105.828264 43.948070 -62.481764 517.184434 9.892307 0.000000 0.138486
490.000000 84.502000 6.000000 -2.000000 3.000000 98.234271 41.136770 34.871631 734.194757 11.832130 0.000000 0.098772
491.000000 71.771000 7.000000 -2.000000 3.000000 92.181019 39.214975 96.727281 888.094632 13.932683 0.000000 0.100055
492.000000 61.866000 8.000000 -2.000000 3.000000 87.285025 37.821067 139.506539 1005.611676 16.164687 0.000000 0.109917
493.000000 54.045000 9.000000 -2.000000 3.000000 83.264168 36.764958 170.855205 1099.679734 18.505568 0.000000 0.118928
494.000000 47.770000 10.000000 -2.000000 3.000000 79.914126 35.937643 194.814715 1177.450288 20.937640 0.000000 0.125933
496.000000 93.764000 5.000000 -1.000000 3.000000 91.203182 50.789596 -344.178035 905.242289 10.664396 0.000000 0.284674
497.000000 77.988000 6.000000 -1.000000 3.000000 85.532459 47.067958 -181.932409 1064.460495 12.823116 0.000000 0.218041
498.000000 66.094000 7.000000 -1.000000 3.000000 80.982234 44.413281 -79.474081 1180.126246 15.131959 0.000000 0.193687
499.000000 56.959000 8.000000 -1.000000 3.000000 77.287873 42.432079 -8.897350 1269.952859 17.560175 0.000000 0.185144
500.000000 49.802000 9.000000 -1.000000 3.000000 74.246397 40.900293 42.675029 1342.692658 20.084875 0.000000 0.182521
506.000000 48.011000 8.000000 -13.000000 4.000000 135.399656 -27.835983 1543.329720 -293.230383 20.813314 0.000000 0.102626
507.000000 45.916000 9.000000 -13.000000 4.000000 132.862304 -21.039038 1388.992274 -129.177866 21.763748 0.000000 0.041778
509.000000 48.041000 9.000000 -12.000000 4.000000 132.537515 -15.411329 1271.689802 -83.372704 20.801375 0.000000 0.028408
512.000000 53.137000 8.000000 -11.000000 4.000000 135.527339 -15.479596 1273.070096 -196.555072 18.805768 0.000000 0.033258
513.000000 50.191000 9.000000 -11.000000 4.000000 131.720595 -9.368701 1152.575359 -31.610845 19.910621 0.000000 0.037291
514.000000 47.299000 10.000000 -11.000000 4.000000 127.859791 -4.545467 1060.565633 101.700369 21.129386 0.000000 0.064905
515.000000 59.315000 7.000000 -10.000000 4.000000 139.133675 -15.574517 1274.990805 -350.402325 16.846228 0.000000 0.048937
516.000000 52.314000 9.000000 -10.000000 4.000000 130.295921 -3.010641 1031.606636 27.106430 19.103124 0.000000 0.052040
517.000000 45.804000 11.000000 -10.000000 4.000000 121.833192 4.422339 891.761540 270.810448 21.820894 0.000000 0.096724
519.000000 62.646000 7.000000 -9.000000 4.000000 138.421995 -7.084993 1108.773275 -281.532076 15.950589 0.000000 0.016837
520.000000 58.411000 8.000000 -9.000000 4.000000 133.194335 -0.957784 992.993526 -69.648559 17.108280 0.000000 0.035890
521.000000 54.335000 9.000000 -9.000000 4.000000 128.148406 3.522860 908.739991 94.007646 18.393188 0.000000 0.063687
522.000000 50.494000 10.000000 -9.000000 4.000000 123.404353 6.903935 844.679077 226.013047 19.793692 0.000000 0.085398
523.000000 46.928000 11.000000 -9.000000 4.000000 119.004979 9.529086 794.328390 335.929114 21.299543 0.000000 0.101803
525.000000 65.939000 7.000000 -8.000000 4.000000 136.677578 1.919282 938.933037 -200.881225 15.154352 0.000000 0.017336
526.000000 56.152000 9.000000 -8.000000 4.000000 125.174299 10.066581 783.930408 170.620971 17.798591 0.000000 0.069772
527.000000 47.809000 11.000000 -8.000000 4.000000 115.547915 14.548145 695.686284 409.486723 20.907805 0.000000 0.102664
529.000000 75.383000 6.000000 -7.000000 4.000000 140.888909 6.212595 857.837630 -390.676795 13.255094 0.000000 0.023591
530.000000 69.021000 7.000000 -7.000000 4.000000 133.673495 11.022529 765.350351 -105.889924 14.478274 0.000000 0.028569
531.000000 63.071000 8.000000 -7.000000 4.000000 127.139882 14.205025 702.555229 100.115699 15.845593 0.000000 0.048238
532.000000 57.635000 9.000000 -7.000000 4.000000 121.292129 16.453774 657.131432 258.871170 17.341712 0.000000 0.069273
533.000000 52.739000 10.000000 -7.000000 4.000000 116.079033 18.122421 622.746567 386.721680 18.953397 0.000000 0.086420
534.000000 48.365000 11.000000 -7.000000 4.000000 111.433114 19.407784 595.812583 493.032530 20.669165 0.000000 0.099320
536.000000 71.642000 7.000000 -6.000000 4.000000 129.241340 19.781622 587.900142 6.772584 13.949328 0.000000 0.029208
537.000000 58.622000 9.000000 -6.000000 4.000000 116.451920 22.540392 528.295116 361.216774 17.051118 0.000000 0.062072
538.000000 48.500000 11.000000 -6.000000 4.000000 106.650327 24.049688 494.684075 588.514645 20.613139 0.000000 0.092526
540.000000 82.371000 6.000000 -5.000000 4.000000 131.270536 27.517377 414.301709 -124.056445 12.132099 0.000000 0.075043
541.000000 73.471000 7.000000 -5.000000 4.000000 123.296951 27.845081 406.451697 141.519987 13.603207 0.000000 0.022693
542.000000 65.675000 8.000000 -5.000000 4.000000 116.486767 28.064489 401.169353 333.227033 15.219719 0.000000 0.023713
543.000000 58.929000 9.000000 -5.000000 4.000000 110.641899 28.221666 397.371960 480.848400 16.963864 0.000000 0.050956
544.000000 53.120000 10.000000 -5.000000 4.000000 105.595608 28.339799 394.510518 599.673451 18.820653 0.000000 0.070941
545.000000 48.121000 11.000000 -5.000000 4.000000 101.210840 28.431827 392.276963 698.417041 20.777357 0.000000 0.085054
547.000000 74.106000 7.000000 -4.000000 4.000000 115.848211 35.017938 220.868347 304.325685 13.488172 0.000000 0.041268
548.000000 58.367000 9.000000 -4.000000 4.000000 103.893025 33.437229 264.310847 621.982560 17.128900 0.000000 0.050029
549.000000 47.143000 11.000000 -4.000000 4.000000 95.149559 32.528696 288.566844 825.957191 21.210549 0.000000 0.084168
551.000000 83.971000 6.000000 -3.000000 4.000000 113.921036 43.735200 -54.794977 280.248880 11.903726 0.000000 0.162113
552.000000 73.124000 7.000000 -3.000000 4.000000 106.993949 41.253254 31.007121 503.475582 13.671104 0.000000 0.096739
553.000000 64.169000 8.000000 -3.000000 4.000000 101.185034 39.486255 88.205033 665.246993 15.580755 0.000000 0.076450
554.000000 56.772000 9.000000 -3.000000 4.000000 96.281689 38.166482 129.058977 790.309274 17.612258 0.000000 0.080834
555.000000 50.634000 10.000000 -3.000000 4.000000 92.108478 37.144219 159.698502 891.289174 19.748919 0.000000 0.091373
556.000000 45.504000 11.000000 -3.000000 4.000000 88.525958 36.329537 183.528690 975.378136 21.976964 0.000000 0.101269
558.000000 70.177000 7.000000 -2.000000 4.000000 96.922449 46.603325 -163.281619 750.803224 14.247448 0.000000 0.183579
559.000000 54.040000 9.000000 -2.000000 4.000000 87.929963 42.418761 -8.438202 993.696418 18.505213 0.000000 0.141923
561.000000 65.113000 7.000000 -1.000000 4.000000 85.907629 51.168929 -362.154573 1063.810919 15.358291 0.000000 0.307317
562.000000 56.846000 8.000000 -1.000000 4.000000 82.176180 48.394335 -237.018018 1163.725644 17.592996 0.000000 0.256477
563.000000 50.164000 9.000000 -1.000000 4.000000 79.001721 46.222631 -148.237069 1243.340728 19.937627 0.000000 0.230290
569.000000 45.878000 9.000000 -13.000000 5.000000 138.403355 -17.101133 1306.134645 -327.485703 21.780185 0.000000 0.052610
572.000000 47.906000 9.000000 -12.000000 5.000000 138.021820 -10.732912 1179.008308 -276.561785 20.858460 0.000000 0.026124
573.000000 45.478000 10.000000 -12.000000 5.000000 134.229792 -5.470650 1078.078929 -111.533982 21.973312 0.000000 0.028342
575.000000 52.787000 8.000000 -11.000000 5.000000 141.413997 -9.957092 1163.948757 -428.555169 18.929057 0.000000 0.033580
576.000000 49.940000 9.000000 -11.000000 5.000000 137.076258 -3.973625 1049.763977 -219.057237 20.009248 0.000000 0.015062
577.000000 47.138000 10.000000 -11.000000 5.000000 132.775750 0.562918 964.425306 -54.861686 21.199838 0.000000 0.038335
580.000000 55.255000 8.000000 -10.000000 5.000000 140.422715 -1.927792 1011.227012 -361.804358 18.083703 0.000000 0.003226
581.000000 51.928000 9.000000 -10.000000 5.000000 135.451605 3.013035 918.348279 -153.909725 19.243792 0.000000 0.023382
582.000000 45.657000 11.000000 -10.000000 5.000000 126.241624 9.468724 795.494021 141.173078 21.889625 0.000000 0.065414
585.000000 57.660000 8.000000 -9.000000 5.000000 138.548679 6.337038 855.471727 -285.105792 17.329828 0.000000 0.019561
586.000000 53.797000 9.000000 -9.000000 5.000000 133.044736 10.026548 784.706029 -79.823769 18.575793 0.000000 0.030834
587.000000 50.134000 10.000000 -9.000000 5.000000 127.943308 12.718486 732.081694 80.712018 19.934220 0.000000 0.048515
588.000000 46.713000 11.000000 -9.000000 5.000000 123.253784 14.760956 691.415280 211.162239 21.395591 0.000000 0.065929
591.000000 59.895000 8.000000 -8.000000 5.000000 135.659323 14.502982 696.591611 -196.604567 16.683772 0.000000 0.034913
592.000000 55.452000 9.000000 -8.000000 5.000000 129.775444 16.861815 648.780159 4.796544 18.022105 0.000000 0.031495
593.000000 51.323000 10.000000 -8.000000 5.000000 124.447492 18.574662 613.316759 162.164768 19.473524 0.000000 0.044984
594.000000 47.533000 11.000000 -8.000000 5.000000 119.633562 19.872793 585.964872 289.976902 21.027939 0.000000 0.061756
596.000000 67.271000 7.000000 -7.000000 5.000000 138.489678 20.681205 568.705717 -358.850279 14.853868 0.000000 0.078647
597.000000 61.817000 8.000000 -7.000000 5.000000 131.667585 22.258423 534.491674 -93.972672 16.166013 0.000000 0.044806
598.000000 56.773000 9.000000 -7.000000 5.000000 125.594032 23.343222 510.511631 101.939547 17.603713 0.000000 0.024228
599.000000 52.180000 10.000000 -7.000000 5.000000 120.187154 24.134549 492.771234 254.934248 19.154741 0.000000 0.034796
600.000000 48.037000 11.000000 -7.000000 5.000000 115.366148 24.737093 479.115499 379.161207 20.808405 0.000000 0.053396
602.000000 69.472000 7.000000 -6.000000 5.000000 133.438800 29.422773 367.975598 -229.104037 14.384208 0.000000 0.107793
603.000000 63.243000 8.000000 -6.000000 5.000000 126.538876 29.378431 369.073035 25.751088 15.802565 0.000000 0.054954
604.000000 57.617000 9.000000 -6.000000 5.000000 120.484759 29.347445 369.839356 214.113958 17.347068 0.000000 0.013965
605.000000 52.596000 10.000000 -6.000000 5.000000 115.158185 29.324570 370.404773 361.197116 19.004659 0.000000 0.020269
606.000000 48.144000 11.000000 -6.000000 5.000000 110.454780 29.306991 370.839136 480.635736 20.764019 0.000000 0.044119
608.000000 70.907000 7.000000 -5.000000 5.000000 126.979917 37.060018 162.185060 -74.601321 14.094157 0.000000 0.141488
609.000000 63.959000 8.000000 -5.000000 5.000000 120.289362 35.748116 200.232724 166.390797 15.626985 0.000000 0.075647
610.000000 57.826000 9.000000 -5.000000 5.000000 114.466509 34.809184 226.700102 344.530380 17.286000 0.000000 0.033027
611.000000 47.769000 11.000000 -5.000000 5.000000 104.921984 33.555836 261.107005 596.819449 20.928810 0.000000 0.045365
613.000000 71.251000 7.000000 -4.000000 5.000000 119.195532 43.569793 -48.859701 110.936427 14.027712 0.000000 0.189568
614.000000 63.736000 8.000000 -4.000000 5.000000 112.981792 41.347704 27.863466 332.970868 15.683320 0.000000 0.115874
615.000000 57.241000 9.000000 -4.000000 5.000000 107.592633 39.713072 81.028400 497.364423 17.464479 0.000000 0.076109
616.000000 51.651000 10.000000 -4.000000 5.000000 102.905447 38.462009 120.041474 626.050512 19.356320 0.000000 0.064376
617.000000 46.839000 11.000000 -4.000000 5.000000 98.810331 37.474554 149.889548 730.802282 21.346233 0.000000 0.069615
619.000000 70.176000 7.000000 -3.000000 5.000000 110.222901 49.050988 -265.362512 336.032874 14.244519 0.000000 0.262294
620.000000 62.363000 8.000000 -3.000000 5.000000 104.723183 46.220324 -148.146545 532.225162 16.030554 0.000000 0.179834
621.000000 55.728000 9.000000 -3.000000 5.000000 99.950835 44.079179 -67.243557 678.147729 17.940722 0.000000 0.136923
622.000000 50.096000 10.000000 -3.000000 5.000000 95.802710 42.407276 -8.042387 792.866316 19.959181 0.000000 0.118653
624.000000 59.695000 8.000000 -2.000000 5.000000 95.664066 50.441009 -327.913890 773.389086 16.749527 0.000000 0.270794
625.000000 53.206000 9.000000 -2.000000 5.000000 91.662333 47.948468 -218.186018 894.365850 18.793476 0.000000 0.217851
626.000000 47.750000 10.000000 -2.000000 5.000000 88.172611 45.963652 -138.121331 990.400371 20.942484 0.000000 0.189982
629.000000 49.676000 9.000000 -1.000000 5.000000 82.878512 51.371414 -371.871786 1156.402938 20.131940 0.000000 0.323098
634.000000 49.334000 9.000000 -11.000000 6.000000 141.759081 2.424905 929.421240 -425.941998 20.253903 0.000000 0.012233
635.000000 46.662000 10.000000 -11.000000 6.000000 137.081956 6.408397 854.114534 -223.777379 21.414921 0.000000 0.019865
637.000000 51.153000 9.000000 -10.000000 6.000000 139.820433 9.980344 785.600963 -353.127678 19.534044 0.000000 0.034110
640.000000 49.404000 10.000000 -9.000000 6.000000 131.731034 19.084549 602.624709 -74.821990 20.227761 0.000000 0.033848
641.000000 46.174000 11.000000 -9.000000 6.000000 126.861537 20.389297 574.958601 80.085874 21.644382 0.000000 0.029597
643.000000 54.299000 9.000000 -8.000000 6.000000 133.419919 24.259872 489.941684 -176.165393 18.403603 0.000000 0.067388
644.000000 46.908000 11.000000 -8.000000 6.000000 123.048582 25.497030 461.702447 165.190149 21.306521 0.000000 0.019220
647.000000 55.431000 9.000000 -7.000000 6.000000 128.901362 30.620863 337.952254 -68.233122 18.028930 0.000000 0.083482
648.000000 51.200000 10.000000 -7.000000 6.000000 123.475290 30.420654 343.020260 115.660139 19.520282 0.000000 0.041706
649.000000 47.342000 11.000000 -7.000000 6.000000 118.613115 30.269073 346.843507 261.184977 21.112905 0.000000 0.008282
651.000000 47.400000 11.000000 -6.000000 6.000000 113.571077 34.678081 230.347514 369.992742 21.088514 0.000000 0.028753
653.000000 61.661000 8.000000 -5.000000 6.000000 122.891115 43.437568 -44.138516 -17.581815 16.208355 0.000000 0.213266
654.000000 56.197000 9.000000 -5.000000 6.000000 117.311956 41.425833 25.256180 199.746557 17.785828 0.000000 0.139339
655.000000 51.328000 10.000000 -5.000000 6.000000 112.357753 39.905523 74.902005 363.909094 19.474945 0.000000 0.090908
656.000000 47.012000 11.000000 -5.000000 6.000000 107.954267 38.717714 112.179219 494.008062 21.264451 0.000000 0.064023
658.000000 55.570000 9.000000 -4.000000 6.000000 110.351687 45.899206 -135.618729 367.319211 17.988574 0.000000 0.189445
659.000000 46.115000 11.000000 -4.000000 6.000000 101.810356 42.397269 -7.697648 636.251937 21.679940 0.000000 0.110489
662.000000 49.058000 10.000000 -3.000000 6.000000 98.745453 47.562776 -202.155859 695.631724 20.380181 0.000000 0.202401
670.000000 45.925000 10.000000 -11.000000 7.000000 140.714759 13.013482 726.251115 -409.346782 21.757754 0.000000 0.050213
673.000000 47.234000 10.000000 -10.000000 7.000000 138.077708 19.663756 590.398800 -331.838429 21.155082 0.000000 0.070054
676.000000 48.380000 10.000000 -9.000000 7.000000 134.738468 25.907089 452.215013 -244.668408 20.654721 0.000000 0.088385
679.000000 49.296000 10.000000 -8.000000 7.000000 130.695644 31.647095 311.639216 -146.303174 20.272287 0.000000 0.107491
680.000000 46.007000 11.000000 -8.000000 7.000000 125.791348 31.331065 319.803268 32.522180 21.722811 0.000000 0.066613
683.000000 49.903000 10.000000 -7.000000 7.000000 125.965763 36.841627 168.608758 -34.878193 20.026742 0.000000 0.130563
684.000000 46.358000 11.000000 -7.000000 7.000000 121.188841 35.908287 195.655612 136.586103 21.559903 0.000000 0.083623
687.000000 50.120000 10.000000 -6.000000 7.000000 120.580507 41.491533 23.058780 91.895901 19.941347 0.000000 0.161310
688.000000 46.358000 11.000000 -6.000000 7.000000 116.028366 40.070866 69.611025 254.159931 21.561398 0.000000 0.110282
691.000000 49.866000 10.000000 -5.000000 7.000000 114.585254 45.626109 -125.077885 236.860954 20.044948 0.000000 0.203356
692.000000 45.947000 11.000000 -5.000000 7.000000 110.347826 43.834512 -58.374304 387.650353 21.755965 0.000000 0.148661
694.000000 49.066000 10.000000 -4.000000 7.000000 108.038834 49.290112 -275.870808 403.587878 20.373762 0.000000 0.259879
#UB matrix in q= (UB) B0 G* 
#[[-0.383085347  0.716064385 -0.581833797]
# [ 0.450166631  0.695637554  0.559728386]
# [ 0.806595079 -0.047514613 -0.589662286]]
#B0 matrix in q= UB (B0) G*
#[[ 0.19670273 -0.          0.03056101]
# [ 0.          0.19187965 -0.        ]
# [ 0.          0.          0.18806537]]
#UBB0 matrix in q= (UB B0) G* i.e. recip. basis vectors are columns in LT frame: astar = UBB0[:,0], bstar = UBB0[:,1], cstar = UBB0[:,2]. (abcstar as columns on xyzlab1, xlab1 = ui, ui = unit vector along incident beam)
#[[-0.07535393  0.13739819 -0.12113026]
# [ 0.08854901  0.13347869  0.11902307]
# [ 0.15865946 -0.00911709 -0.0862447 ]]
#Euler angles phi theta psi (deg)
#[ 86.598 126.097  46.16 ]
#deviatoric strain in direct crystal frame (10-3 unit)
#[[-3.92 -0.19  0.61]
# [-0.19 -3.26 -0.78]
# [ 0.61 -0.78  7.18]]
#deviatoric strain in sample2 frame (10-3 unit)
#[[ 4.21 -4.89 -0.27]
# [-4.89 -0.55 -0.24]
# [-0.26 -0.25 -3.66]]
#new lattice parameters
#[ 5.1505     5.2150161  5.3191607 90.0433258 99.1899272 90.0221676]
#CCDLabel
#sCMOS
#DetectorParameters
#[79.0, 975.0, 941.0, 0.0, 0.0]
#pixelsize
#0.0734
#Frame dimensions
#[2018, 2016]
#
