#Strain and Orientation Refinement from experimental file: /home/micha/LaueProjects/DepthEffects/testZrO2_17.cor
#File created at Wed Jun 28 14:18:43 2023 with indexingSpotsSet.py
#Number of indexed spots: 540
#Element
#ZrO2
#grainIndex
#G_0
#Mean Deviation(pixel): 0.116
##spot_index intensity h k l 2theta Chi Xexp Yexp Energy GrainIndex PixDev
1.000000 45.632000 2.000000 -12.000000 -5.000000 89.951639 -51.665397 2336.134044 942.464659 21.909996 0.000000 0.298447
3.000000 47.521000 2.000000 -11.000000 -5.000000 86.366842 -51.095474 2308.650518 1049.817490 21.040301 0.000000 0.292053
4.000000 46.752000 3.000000 -11.000000 -5.000000 85.924601 -44.567690 2035.173832 1048.640215 21.387317 0.000000 0.168133
6.000000 49.315000 2.000000 -10.000000 -5.000000 82.194282 -50.473791 2279.433179 1172.829329 20.276259 0.000000 0.291057
7.000000 48.371000 3.000000 -10.000000 -5.000000 81.683141 -43.670600 2002.473063 1158.521236 20.673110 0.000000 0.173253
8.000000 46.738000 4.000000 -10.000000 -5.000000 80.441314 -37.194285 1791.782622 1168.523971 21.396457 0.000000 0.127086
10.000000 50.858000 2.000000 -9.000000 -5.000000 77.292744 -49.793131 2248.312616 1316.953698 19.663041 0.000000 0.297257
11.000000 49.699000 3.000000 -9.000000 -5.000000 76.714700 -42.693213 1967.939745 1286.762443 20.122228 0.000000 0.183524
12.000000 47.733000 4.000000 -9.000000 -5.000000 75.365932 -35.976611 1756.302474 1288.278058 20.952214 0.000000 0.136947
14.000000 51.884000 2.000000 -8.000000 -5.000000 71.479268 -49.044907 2215.096603 1491.074936 19.275850 0.000000 0.313111
15.000000 50.475000 3.000000 -8.000000 -5.000000 70.845040 -41.624896 1931.415395 1441.136632 19.815124 0.000000 0.199703
16.000000 48.126000 4.000000 -8.000000 -5.000000 69.408601 -34.655800 1719.033773 1432.583286 20.783456 0.000000 0.147906
19.000000 50.277000 3.000000 -7.000000 -5.000000 63.853610 -40.453197 1892.722711 1635.344817 19.895480 0.000000 0.225053
20.000000 47.522000 4.000000 -7.000000 -5.000000 62.372375 -33.219771 1679.837782 1614.381070 21.050250 0.000000 0.164982
23.000000 48.451000 3.000000 -6.000000 -5.000000 55.466811 -39.163488 1851.662695 1896.230078 20.647495 0.000000 0.269889
27.000000 47.435000 2.000000 -13.000000 -4.000000 100.750439 -50.944146 2301.466681 616.675857 21.073255 0.000000 0.275688
28.000000 46.748000 3.000000 -13.000000 -4.000000 100.183989 -44.330028 2026.413388 670.710300 21.383586 0.000000 0.132739
29.000000 45.596000 4.000000 -13.000000 -4.000000 98.921338 -38.008719 1816.157053 726.568971 21.924989 0.000000 0.068498
31.000000 49.997000 1.000000 -6.000000 -2.000000 98.122609 -50.306404 2271.697613 700.484790 9.997343 0.000000 0.256424
32.000000 49.144000 3.000000 -12.000000 -4.000000 97.451469 -43.410090 1993.160011 747.223727 20.342058 0.000000 0.121417
33.000000 47.739000 1.000000 -3.000000 -1.000000 96.027589 -36.856513 1781.827914 798.966016 5.235453 0.000000 0.075981
34.000000 45.886000 5.000000 -12.000000 -4.000000 93.982028 -30.776294 1615.996759 853.796722 21.788743 0.000000 0.096825
36.000000 52.723000 2.000000 -11.000000 -4.000000 95.064461 -49.607283 2239.967262 793.807988 18.961574 0.000000 0.239633
37.000000 51.658000 3.000000 -11.000000 -4.000000 94.274270 -42.406767 1958.024861 832.056910 19.353423 0.000000 0.115571
38.000000 49.932000 4.000000 -11.000000 -4.000000 92.671579 -35.608632 1745.796298 879.227685 20.023292 0.000000 0.087308
39.000000 47.693000 5.000000 -11.000000 -4.000000 90.417421 -29.351871 1580.270069 932.003772 20.964859 0.000000 0.108812
41.000000 55.574000 1.000000 -5.000000 -2.000000 91.468322 -48.837715 2206.075203 899.084865 8.995036 0.000000 0.226870
42.000000 54.231000 3.000000 -10.000000 -4.000000 90.544486 -41.308890 1920.843556 927.383218 18.436313 0.000000 0.116157
43.000000 52.099000 2.000000 -5.000000 -2.000000 88.746842 -34.253988 1707.932339 969.484859 9.596008 0.000000 0.099777
44.000000 49.382000 5.000000 -10.000000 -4.000000 86.273620 -27.819381 1542.930957 1020.258957 20.249327 0.000000 0.117581
45.000000 46.296000 3.000000 -5.000000 -2.000000 83.337213 -22.066443 1411.303653 1076.664466 10.800331 0.000000 0.130443
47.000000 58.454000 2.000000 -9.000000 -4.000000 87.190517 -47.986812 2169.792737 1019.915295 17.105014 0.000000 0.220063
48.000000 56.751000 3.000000 -9.000000 -4.000000 86.120227 -40.103365 1881.431992 1036.429776 17.619279 0.000000 0.122744
49.000000 54.104000 4.000000 -9.000000 -4.000000 84.116470 -32.779996 1668.092619 1072.918839 18.482467 0.000000 0.110928
50.000000 50.804000 5.000000 -9.000000 -4.000000 81.423091 -26.168504 1503.867745 1121.869500 19.684573 0.000000 0.121277
51.000000 47.140000 6.000000 -9.000000 -4.000000 78.289878 -20.319396 1373.547610 1178.891806 21.215966 0.000000 0.124955
53.000000 61.172000 1.000000 -4.000000 -2.000000 82.036924 -47.041403 2130.857729 1161.928458 8.173326 0.000000 0.221306
54.000000 59.003000 3.000000 -8.000000 -4.000000 80.813438 -38.774787 1839.583298 1164.267765 16.948395 0.000000 0.133659
55.000000 55.715000 2.000000 -4.000000 -2.000000 78.604116 -31.172391 1626.118348 1194.547264 8.975035 0.000000 0.118502
56.000000 51.719000 5.000000 -8.000000 -4.000000 75.707369 -24.388055 1462.958199 1242.060238 19.338486 0.000000 0.117631
57.000000 47.403000 3.000000 -4.000000 -2.000000 72.413104 -18.455565 1334.195123 1300.646573 10.550512 0.000000 0.109881
59.000000 63.356000 2.000000 -7.000000 -4.000000 75.742683 -45.985429 2088.968257 1334.601013 15.784822 0.000000 0.232772
60.000000 60.602000 3.000000 -7.000000 -4.000000 74.373984 -37.304974 1795.064200 1319.458297 16.503149 0.000000 0.147351
61.000000 56.541000 4.000000 -7.000000 -4.000000 71.983744 -29.415053 1581.833258 1342.851627 17.689908 0.000000 0.121161
62.000000 51.756000 5.000000 -7.000000 -4.000000 68.932455 -22.466029 1420.068247 1389.657394 19.326918 0.000000 0.105263
63.000000 46.753000 6.000000 -7.000000 -4.000000 65.548861 -16.467198 1293.142751 1451.319726 21.396926 0.000000 0.084291
65.000000 64.312000 1.000000 -3.000000 -2.000000 67.945150 -44.799151 2043.774774 1555.517594 7.776116 0.000000 0.257962
66.000000 60.868000 3.000000 -6.000000 -4.000000 66.470912 -35.672424 1747.610674 1517.879058 16.433436 0.000000 0.165686
67.000000 55.948000 2.000000 -3.000000 -2.000000 63.970552 -27.489854 1535.041119 1533.529724 8.939972 0.000000 0.123486
68.000000 50.361000 5.000000 -6.000000 -4.000000 60.868129 -20.389723 1375.050518 1580.937739 19.865110 0.000000 0.093838
70.000000 62.773000 2.000000 -5.000000 -4.000000 58.152801 -43.458101 1994.870327 1862.035275 15.935784 0.000000 0.307294
71.000000 58.642000 3.000000 -5.000000 -4.000000 56.676288 -33.851671 1696.922702 1793.072185 17.059679 0.000000 0.203571
72.000000 52.946000 4.000000 -5.000000 -4.000000 54.219914 -25.376570 1485.522838 1799.517172 18.896472 0.000000 0.154492
73.000000 46.748000 5.000000 -5.000000 -4.000000 51.257524 -18.145941 1327.742645 1849.782210 21.403382 0.000000 0.136927
77.000000 46.119000 1.000000 -1.000000 -1.000000 42.350120 -23.052899 1433.033025 2224.229288 5.424275 0.000000 0.278754
79.000000 47.299000 3.000000 -14.000000 -3.000000 109.763607 -43.142242 1983.667793 411.001648 21.131273 0.000000 0.126492
80.000000 46.174000 4.000000 -14.000000 -3.000000 108.280742 -36.509944 1771.704994 498.639291 21.647201 0.000000 0.036551
82.000000 50.909000 2.000000 -13.000000 -3.000000 108.713165 -49.415670 2231.429335 380.594343 19.633103 0.000000 0.256236
83.000000 50.035000 3.000000 -13.000000 -3.000000 107.827526 -42.111934 1947.913782 474.413495 19.976550 0.000000 0.103962
84.000000 48.659000 4.000000 -13.000000 -3.000000 106.140722 -35.230773 1735.108152 559.668185 20.542474 0.000000 0.037947
85.000000 46.872000 5.000000 -13.000000 -3.000000 103.800972 -28.914118 1569.492428 638.967701 21.326829 0.000000 0.078631
87.000000 54.133000 2.000000 -12.000000 -3.000000 106.626626 -48.623788 2196.838453 454.764339 18.464460 0.000000 0.229127
88.000000 53.035000 1.000000 -4.000000 -1.000000 105.577081 -40.983259 1910.056367 543.540444 6.282379 0.000000 0.084095
89.000000 51.336000 4.000000 -12.000000 -3.000000 103.655902 -33.841059 1696.633692 626.168129 19.471965 0.000000 0.051460
90.000000 49.163000 5.000000 -12.000000 -3.000000 101.046469 -27.346104 1531.614142 704.448400 20.334145 0.000000 0.096283
91.000000 46.654000 2.000000 -4.000000 -1.000000 97.946814 -21.557344 1400.208428 779.455392 7.143001 0.000000 0.129946
93.000000 57.708000 2.000000 -11.000000 -3.000000 104.177744 -47.746874 2159.777720 536.632647 17.321059 0.000000 0.202444
94.000000 56.314000 3.000000 -11.000000 -3.000000 102.934934 -39.742441 1869.904310 619.519143 17.750670 0.000000 0.070344
95.000000 54.195000 4.000000 -11.000000 -3.000000 100.745087 -32.327692 1656.133312 699.290662 18.445925 0.000000 0.069869
96.000000 51.531000 5.000000 -11.000000 -3.000000 97.836144 -25.656212 1491.972767 776.672959 19.401036 0.000000 0.112365
97.000000 48.511000 6.000000 -11.000000 -3.000000 94.444563 -19.774482 1361.948393 852.099211 20.610384 0.000000 0.139848
99.000000 61.662000 2.000000 -10.000000 -3.000000 101.268494 -46.770943 2119.972812 627.897097 16.211437 0.000000 0.177572
100.000000 59.867000 3.000000 -10.000000 -3.000000 99.798137 -38.373250 1827.242463 703.912996 16.698204 0.000000 0.067310
101.000000 57.196000 4.000000 -10.000000 -3.000000 97.302315 -30.675824 1613.442670 780.639727 17.479152 0.000000 0.088977
102.000000 53.907000 5.000000 -10.000000 -3.000000 94.065389 -23.832967 1450.442271 857.372619 18.547166 0.000000 0.125705
103.000000 50.258000 6.000000 -10.000000 -3.000000 90.368880 -17.872282 1322.058674 933.719191 19.895363 0.000000 0.145716
104.000000 46.475000 7.000000 -10.000000 -3.000000 86.450415 -12.738981 1218.322957 1009.448855 21.517072 0.000000 0.151861
106.000000 65.992000 2.000000 -9.000000 -3.000000 97.764227 -45.678894 2077.107223 730.961546 15.148473 0.000000 0.156867
107.000000 60.253000 4.000000 -9.000000 -3.000000 93.188007 -28.868688 1568.379152 872.544756 16.593828 0.000000 0.106282
108.000000 56.169000 5.000000 -9.000000 -3.000000 89.600786 -21.864098 1406.884318 949.080541 17.801926 0.000000 0.134568
109.000000 51.755000 2.000000 -3.000000 -1.000000 85.598771 -15.842985 1280.432881 1027.110597 6.440673 0.000000 0.145539
110.000000 47.295000 7.000000 -9.000000 -3.000000 81.446228 -10.718864 1178.734957 1105.760880 21.145782 0.000000 0.143164
112.000000 70.642000 2.000000 -8.000000 -3.000000 93.476200 -44.449649 2030.813824 849.413868 14.152546 0.000000 0.143758
113.000000 67.550000 3.000000 -8.000000 -3.000000 91.432581 -35.169535 1733.385359 908.072687 14.801332 0.000000 0.091463
114.000000 63.187000 4.000000 -8.000000 -3.000000 88.216983 -26.887467 1520.739267 978.565540 15.824786 0.000000 0.119215
115.000000 58.103000 5.000000 -8.000000 -3.000000 84.272392 -19.736682 1361.146727 1055.689766 17.211290 0.000000 0.136284
116.000000 52.778000 6.000000 -8.000000 -3.000000 79.987002 -13.679039 1236.955157 1136.578940 18.949704 0.000000 0.136252
117.000000 47.563000 7.000000 -8.000000 -3.000000 75.646642 -8.588931 1137.561528 1219.535376 21.029338 0.000000 0.123751
119.000000 75.416000 2.000000 -7.000000 -3.000000 88.134299 -43.056999 1980.664326 988.982152 13.257924 0.000000 0.141634
120.000000 71.287000 3.000000 -7.000000 -3.000000 85.748295 -33.285432 1681.601518 1036.717417 14.026959 0.000000 0.107501
121.000000 65.663000 4.000000 -7.000000 -3.000000 82.142940 -24.711226 1470.295568 1104.498241 15.230019 0.000000 0.124193
122.000000 59.351000 5.000000 -7.000000 -3.000000 77.865632 -17.437391 1313.061698 1183.559694 16.851438 0.000000 0.126678
123.000000 52.990000 6.000000 -7.000000 -3.000000 73.358086 -11.373403 1191.499102 1269.158888 18.876292 0.000000 0.113124
124.000000 46.985000 7.000000 -7.000000 -3.000000 68.915859 -6.346356 1094.705483 1358.523822 21.290363 0.000000 0.088465
126.000000 79.826000 2.000000 -6.000000 -3.000000 81.344436 -41.468070 1926.155989 1159.652830 12.527031 0.000000 0.151429
127.000000 67.065000 4.000000 -6.000000 -3.000000 74.640431 -22.316976 1416.793026 1260.581407 14.913777 0.000000 0.116076
128.000000 59.335000 5.000000 -6.000000 -3.000000 70.115597 -14.952883 1262.443748 1343.925473 16.858432 0.000000 0.099688
129.000000 51.900000 2.000000 -2.000000 -1.000000 65.510935 -8.919918 1143.926543 1437.249124 6.425169 0.000000 0.069627
131.000000 82.747000 2.000000 -5.000000 -3.000000 72.523950 -39.641272 1866.694709 1381.046758 12.086832 0.000000 0.172023
132.000000 75.389000 3.000000 -5.000000 -3.000000 69.483297 -28.792926 1566.524758 1400.588283 13.267907 0.000000 0.121323
133.000000 66.319000 4.000000 -5.000000 -3.000000 65.289929 -19.679971 1359.944715 1466.993426 15.084163 0.000000 0.092244
134.000000 57.164000 5.000000 -5.000000 -3.000000 60.710585 -12.270381 1209.087331 1558.840966 17.501458 0.000000 0.057820
135.000000 48.835000 6.000000 -5.000000 -3.000000 56.231731 -6.313787 1094.086138 1665.045026 20.488051 0.000000 0.040403
137.000000 81.718000 2.000000 -4.000000 -3.000000 60.814403 -37.523569 1801.573276 1698.991879 12.241330 0.000000 0.211782
138.000000 72.391000 3.000000 -4.000000 -3.000000 57.686497 -26.103232 1502.346401 1699.082372 13.820084 0.000000 0.137391
139.000000 61.666000 4.000000 -4.000000 -3.000000 53.583347 -16.774347 1299.426664 1770.282513 16.225357 0.000000 0.108363
140.000000 51.583000 5.000000 -4.000000 -3.000000 49.319197 -9.378479 1152.764036 1878.665256 19.398336 0.000000 0.125093
143.000000 50.585000 4.000000 -3.000000 -3.000000 38.991675 -13.574283 1234.871683 2308.712756 19.782608 0.000000 0.302884
146.000000 46.948000 3.000000 -15.000000 -2.000000 118.331698 -41.808356 1937.600625 162.478968 21.286544 0.000000 0.145753
147.000000 45.886000 4.000000 -15.000000 -2.000000 116.650839 -34.842666 1724.233266 282.845674 21.779961 0.000000 0.037511
149.000000 49.786000 3.000000 -14.000000 -2.000000 117.058060 -40.647578 1899.047183 216.403147 20.073265 0.000000 0.118782
150.000000 48.492000 2.000000 -7.000000 -1.000000 115.138552 -33.416590 1685.132529 335.916194 10.305009 0.000000 0.014766
151.000000 46.830000 5.000000 -14.000000 -2.000000 112.548442 -26.861139 1520.117671 440.069535 21.342471 0.000000 0.056980
153.000000 52.954000 3.000000 -13.000000 -2.000000 115.575394 -39.369918 1858.132127 274.685449 18.872909 0.000000 0.090935
154.000000 51.360000 4.000000 -13.000000 -2.000000 113.377306 -31.862374 1643.953954 393.210150 19.459887 0.000000 0.014735
155.000000 49.340000 5.000000 -13.000000 -2.000000 110.471539 -25.131050 1479.884522 497.187478 20.257617 0.000000 0.077397
156.000000 47.012000 6.000000 -13.000000 -2.000000 107.070884 -19.217808 1350.180453 590.982203 21.262416 0.000000 0.119740
157.000000 57.849000 1.000000 -6.000000 -1.000000 115.362020 -46.490607 2108.805199 199.957580 8.637875 0.000000 0.218802
158.000000 56.501000 3.000000 -12.000000 -2.000000 113.831979 -37.958271 1814.631609 338.026177 17.688885 0.000000 0.062773
159.000000 54.513000 2.000000 -6.000000 -1.000000 111.307800 -30.164564 1600.527391 455.451388 9.167383 0.000000 0.038353
160.000000 52.036000 5.000000 -12.000000 -2.000000 108.043091 -23.263731 1437.718102 559.367630 19.208949 0.000000 0.097326
161.000000 49.226000 3.000000 -6.000000 -1.000000 104.291923 -17.276392 1309.741900 653.862908 10.153554 0.000000 0.134390
162.000000 46.230000 7.000000 -12.000000 -2.000000 100.273811 -12.138815 1206.500254 741.450620 21.625019 0.000000 0.155729
164.000000 62.214000 2.000000 -11.000000 -2.000000 113.583153 -45.360553 2064.926138 272.318294 16.064361 0.000000 0.184925
165.000000 60.479000 3.000000 -11.000000 -2.000000 111.758751 -36.392412 1768.292567 407.331461 16.525920 0.000000 0.036700
166.000000 57.972000 4.000000 -11.000000 -2.000000 108.852287 -28.305729 1554.663595 523.593892 17.241836 0.000000 0.063142
167.000000 54.904000 5.000000 -11.000000 -2.000000 105.181059 -21.246656 1393.475634 627.661426 18.206794 0.000000 0.116197
168.000000 51.490000 6.000000 -11.000000 -2.000000 101.047916 -15.205321 1267.530025 723.231726 19.415625 0.000000 0.147038
169.000000 47.921000 7.000000 -11.000000 -2.000000 96.701464 -10.084026 1166.407641 812.552342 20.863300 0.000000 0.162395
171.000000 67.211000 1.000000 -5.000000 -1.000000 111.444262 -44.085920 2017.488964 352.449043 7.435287 0.000000 0.149907
172.000000 64.943000 3.000000 -10.000000 -2.000000 109.261893 -34.648380 1718.827799 483.811096 15.390757 0.000000 0.026284
173.000000 61.736000 2.000000 -5.000000 -1.000000 105.907587 -26.266349 1506.151465 598.936128 8.095665 0.000000 0.087516
174.000000 57.900000 5.000000 -10.000000 -2.000000 101.779769 -19.066701 1346.999928 703.518524 17.265817 0.000000 0.133141
175.000000 53.729000 3.000000 -5.000000 -1.000000 97.237723 -12.997142 1223.425566 800.718592 9.303969 0.000000 0.156591
176.000000 49.471000 7.000000 -10.000000 -2.000000 92.558921 -7.918280 1124.698179 892.435970 20.211606 0.000000 0.164950
178.000000 72.953000 2.000000 -9.000000 -2.000000 108.830815 -42.638607 1966.042602 442.052017 13.700753 0.000000 0.115035
179.000000 69.933000 3.000000 -9.000000 -2.000000 106.211605 -32.697789 1665.910004 569.143743 14.293364 0.000000 0.045718
180.000000 65.775000 4.000000 -9.000000 -2.000000 102.335129 -24.024773 1454.754794 683.315187 15.198325 0.000000 0.110354
181.000000 60.933000 5.000000 -9.000000 -2.000000 97.702438 -16.710439 1298.117514 789.014331 16.407574 0.000000 0.146799
182.000000 55.817000 6.000000 -9.000000 -2.000000 92.735640 -10.645014 1177.298324 888.671702 17.913323 0.000000 0.161402
183.000000 50.740000 7.000000 -9.000000 -2.000000 87.737233 -5.639041 1081.272050 983.734726 19.708049 0.000000 0.161537
184.000000 45.908000 8.000000 -9.000000 -2.000000 82.898988 -1.496467 1003.117336 1075.124592 21.784480 0.000000 0.152032
186.000000 75.450000 3.000000 -8.000000 -2.000000 102.424781 -30.507064 1609.164532 665.772638 13.249121 0.000000 0.073847
187.000000 63.828000 5.000000 -8.000000 -2.000000 92.771769 -14.164581 1246.636480 887.258068 15.665095 0.000000 0.155003
188.000000 57.548000 3.000000 -4.000000 -1.000000 87.386675 -8.143121 1129.005873 990.625426 8.688242 0.000000 0.158935
189.000000 51.523000 7.000000 -8.000000 -2.000000 82.108865 -3.244939 1036.021046 1090.418005 19.410638 0.000000 0.149368
190.000000 45.968000 4.000000 -4.000000 -1.000000 77.117093 0.762757 960.670863 1187.188209 10.879192 0.000000 0.131278
192.000000 87.087000 2.000000 -7.000000 -2.000000 101.436061 -39.075015 1848.901592 660.543938 11.478709 0.000000 0.067266
193.000000 81.392000 3.000000 -7.000000 -2.000000 97.638035 -28.036703 1548.160504 777.474104 12.283066 0.000000 0.101207
194.000000 74.108000 4.000000 -7.000000 -2.000000 92.485387 -18.838786 1342.213683 891.638760 13.491942 0.000000 0.143392
195.000000 66.261000 5.000000 -7.000000 -2.000000 86.759099 -11.416622 1192.343951 1003.175148 15.091691 0.000000 0.154192
196.000000 58.591000 6.000000 -7.000000 -2.000000 81.003075 -5.487169 1078.392099 1112.193525 17.069272 0.000000 0.145152
197.000000 51.525000 7.000000 -7.000000 -2.000000 75.529036 -0.736066 988.827670 1218.789706 19.412219 0.000000 0.124170
198.000000 87.409000 3.000000 -6.000000 -2.000000 91.465769 -25.240702 1482.399844 910.552721 11.438897 0.000000 0.122682
199.000000 67.671000 5.000000 -6.000000 -2.000000 79.374458 -8.455729 1135.003148 1145.138687 14.779345 0.000000 0.138265
200.000000 58.444000 3.000000 -3.000000 -1.000000 73.365180 -2.674969 1025.285506 1262.920392 8.557487 0.000000 0.113386
201.000000 50.342000 7.000000 -6.000000 -2.000000 67.842040 1.885724 939.564116 1379.544091 19.871245 0.000000 0.079390
202.000000 79.517000 4.000000 -5.000000 -2.000000 76.811739 -12.544343 1214.482765 1199.377860 12.578148 0.000000 0.126799
203.000000 67.128000 5.000000 -5.000000 -2.000000 70.264345 -5.273880 1074.349936 1328.766478 14.901541 0.000000 0.096254
204.000000 56.380000 6.000000 -5.000000 -2.000000 64.232620 0.292931 969.497283 1460.552024 17.744372 0.000000 0.052215
205.000000 47.457000 7.000000 -5.000000 -2.000000 58.896416 4.616518 888.091113 1592.467594 21.082150 0.000000 0.019791
206.000000 63.206000 5.000000 -4.000000 -2.000000 59.033239 -1.867264 1010.088756 1587.196459 15.829219 0.000000 0.010980
207.000000 51.456000 3.000000 -2.000000 -1.000000 53.375965 3.412587 910.819053 1742.448550 9.722777 0.000000 0.061191
208.000000 89.475000 3.000000 -3.000000 -2.000000 57.521989 -14.346675 1250.277921 1648.147486 11.181968 0.000000 0.071361
209.000000 69.463000 4.000000 -3.000000 -2.000000 50.992051 -4.952484 1068.264204 1816.080169 14.405037 0.000000 0.093392
210.000000 54.022000 5.000000 -3.000000 -2.000000 45.318991 1.762149 941.887809 2005.879664 18.523429 0.000000 0.175091
214.000000 45.965000 3.000000 -16.000000 -1.000000 125.947009 -40.301398 1887.809077 -82.341122 21.739003 0.000000 0.176828
216.000000 48.748000 3.000000 -15.000000 -1.000000 125.206418 -38.985261 1846.107580 -35.990876 20.498545 0.000000 0.150483
217.000000 47.563000 4.000000 -15.000000 -1.000000 123.079178 -31.383536 1631.548412 119.786688 21.010103 0.000000 0.043977
218.000000 46.055000 5.000000 -15.000000 -1.000000 120.275566 -24.592618 1467.598263 249.999090 21.698931 0.000000 0.036318
220.000000 51.868000 3.000000 -14.000000 -1.000000 124.335406 -37.529210 1801.741777 13.971715 19.265732 0.000000 0.122909
221.000000 50.418000 4.000000 -14.000000 -1.000000 121.895194 -29.638035 1587.365653 170.366668 19.820707 0.000000 0.022324
222.000000 48.596000 5.000000 -14.000000 -1.000000 118.743158 -22.679917 1424.780452 301.219858 20.565210 0.000000 0.055379
223.000000 46.494000 6.000000 -14.000000 -1.000000 115.104030 -16.667614 1297.240750 414.618570 21.496271 0.000000 0.101566
225.000000 55.386000 3.000000 -13.000000 -1.000000 123.300618 -35.911902 1754.447910 68.061967 18.042358 0.000000 0.094044
226.000000 53.591000 4.000000 -13.000000 -1.000000 120.491286 -27.725524 1540.678891 225.031848 18.647444 0.000000 0.015950
227.000000 51.367000 5.000000 -13.000000 -1.000000 116.939610 -20.613245 1379.836398 356.615471 19.456137 0.000000 0.075435
228.000000 48.839000 6.000000 -13.000000 -1.000000 112.912373 -14.553932 1254.429752 470.999986 20.465000 0.000000 0.117902
229.000000 46.126000 7.000000 -13.000000 -1.000000 108.632526 -9.437876 1153.910429 573.127088 21.670671 0.000000 0.145017
231.000000 59.374000 3.000000 -12.000000 -1.000000 122.057366 -34.108037 1703.926215 126.920846 16.830824 0.000000 0.063880
232.000000 57.125000 4.000000 -12.000000 -1.000000 118.810900 -25.625766 1491.269051 284.456709 17.494393 0.000000 0.036077
233.000000 54.383000 5.000000 -12.000000 -1.000000 114.801053 -18.379303 1332.603692 416.925142 18.377903 0.000000 0.095666
234.000000 51.318000 6.000000 -12.000000 -1.000000 110.343753 -12.300721 1209.684293 532.555327 19.477333 0.000000 0.133428
235.000000 48.085000 7.000000 -12.000000 -1.000000 105.689691 -7.235961 1111.653947 636.249180 20.788756 0.000000 0.155783
236.000000 65.978000 2.000000 -11.000000 -1.000000 123.110529 -42.201828 1950.986636 -6.523258 15.145731 0.000000 0.186410
237.000000 63.919000 3.000000 -11.000000 -1.000000 120.544777 -32.087638 1649.834566 191.363700 15.634420 0.000000 0.032616
238.000000 61.062000 4.000000 -11.000000 -1.000000 116.778921 -23.316397 1438.890735 349.516998 16.367133 0.000000 0.060877
239.000000 57.645000 5.000000 -11.000000 -1.000000 112.245159 -15.964603 1282.902951 483.123038 17.338966 0.000000 0.115478
240.000000 53.901000 6.000000 -11.000000 -1.000000 107.315662 -9.901385 1162.870227 600.375334 18.545147 0.000000 0.147532
241.000000 50.032000 7.000000 -11.000000 -1.000000 102.268332 -4.919808 1067.645803 706.087486 19.981032 0.000000 0.164310
242.000000 46.197000 8.000000 -11.000000 -1.000000 97.291299 -0.812247 990.258980 803.275805 21.642097 0.000000 0.170414
244.000000 71.841000 2.000000 -10.000000 -1.000000 121.776562 -40.475829 1893.457189 64.519160 13.909931 0.000000 0.147319
245.000000 69.123000 3.000000 -10.000000 -1.000000 118.678400 -29.815277 1591.780717 262.456539 14.457781 0.000000 0.007452
246.000000 65.437000 4.000000 -10.000000 -1.000000 114.294325 -20.773120 1383.268146 421.383698 15.273506 0.000000 0.086377
247.000000 61.131000 5.000000 -10.000000 -1.000000 109.165095 -13.355968 1230.535544 556.531255 16.351184 0.000000 0.134144
248.000000 56.526000 6.000000 -10.000000 -1.000000 103.724935 -7.350496 1113.840709 675.953306 17.685064 0.000000 0.159333
249.000000 51.884000 7.000000 -10.000000 -1.000000 98.275199 -2.488457 1021.774773 784.313648 19.269566 0.000000 0.169563
250.000000 47.389000 8.000000 -10.000000 -1.000000 93.003797 1.475065 947.284957 884.503564 21.099268 0.000000 0.169568
252.000000 78.766000 2.000000 -9.000000 -1.000000 120.103985 -38.480671 1830.530471 143.872313 12.687294 0.000000 0.105448
253.000000 75.100000 3.000000 -9.000000 -1.000000 116.338733 -27.249360 1529.312771 341.641125 13.307650 0.000000 0.036001
254.000000 70.265000 4.000000 -9.000000 -1.000000 111.219559 -17.970190 1324.090227 501.678884 14.224892 0.000000 0.111422
255.000000 64.778000 5.000000 -9.000000 -1.000000 105.421518 -10.541249 1175.280937 639.007650 15.431723 0.000000 0.150601
256.000000 59.083000 6.000000 -9.000000 -1.000000 99.442844 -4.644325 1062.434660 761.403958 16.921082 0.000000 0.167519
257.000000 53.508000 7.000000 -9.000000 -1.000000 93.599011 0.057492 973.920014 873.303920 18.686136 0.000000 0.170046
258.000000 48.261000 8.000000 -9.000000 -1.000000 88.065876 3.846599 902.633347 977.428158 20.720271 0.000000 0.163052
260.000000 87.031000 2.000000 -8.000000 -1.000000 117.959940 -36.154258 1761.409561 233.434279 11.482934 0.000000 0.060744
261.000000 81.962000 3.000000 -8.000000 -1.000000 113.353034 -24.341636 1461.907396 430.951708 12.194229 0.000000 0.070152
262.000000 75.506000 4.000000 -8.000000 -1.000000 107.365153 -14.881360 1261.004847 592.748079 13.238455 0.000000 0.134707
263.000000 68.444000 5.000000 -8.000000 -1.000000 100.832334 -7.510296 1116.893589 733.274331 14.606397 0.000000 0.163177
264.000000 61.381000 6.000000 -8.000000 -1.000000 94.309973 -1.781444 1008.474999 859.845404 16.289178 0.000000 0.170097
265.000000 54.709000 7.000000 -8.000000 -1.000000 88.109217 2.715576 923.950002 976.570972 18.278241 0.000000 0.163571
266.000000 48.630000 8.000000 -8.000000 -1.000000 82.375831 6.298530 856.203963 1085.945361 20.565337 0.000000 0.148651
267.000000 89.776000 3.000000 -7.000000 -1.000000 109.465991 -21.037316 1388.955131 533.416283 11.133729 0.000000 0.103833
268.000000 81.003000 4.000000 -7.000000 -1.000000 102.467766 -11.481455 1193.611784 698.167217 12.341358 0.000000 0.154112
269.000000 71.848000 5.000000 -7.000000 -1.000000 95.160525 -4.256185 1055.099304 843.528364 13.915896 0.000000 0.169160
270.000000 63.106000 6.000000 -7.000000 -1.000000 88.132203 1.236622 951.766601 976.106949 15.845847 0.000000 0.163962
271.000000 55.193000 7.000000 -7.000000 -1.000000 81.657191 5.481187 871.721319 1099.560717 18.120187 0.000000 0.146923
272.000000 48.253000 8.000000 -7.000000 -1.000000 75.825584 8.825596 807.888476 1216.090096 20.728348 0.000000 0.123532
273.000000 86.345000 4.000000 -6.000000 -1.000000 96.160186 -7.748798 1121.454227 823.763181 11.579284 0.000000 0.165876
274.000000 74.468000 5.000000 -6.000000 -1.000000 88.102168 -0.776690 989.590924 976.666858 13.428309 0.000000 0.163975
275.000000 63.762000 6.000000 -6.000000 -1.000000 80.680892 4.404748 892.093943 1118.141750 15.685161 0.000000 0.144218
276.000000 54.553000 7.000000 -6.000000 -1.000000 74.082432 8.347343 817.077285 1251.233883 18.335114 0.000000 0.115738
277.000000 46.823000 8.000000 -6.000000 -1.000000 68.308720 11.421045 757.569576 1377.768436 21.364143 0.000000 0.086149
278.000000 90.615000 4.000000 -5.000000 -1.000000 87.935115 -3.668593 1044.008406 979.885098 11.035457 0.000000 0.162944
279.000000 75.387000 5.000000 -5.000000 -1.000000 79.281350 2.924109 920.023227 1144.996386 13.266855 0.000000 0.139678
280.000000 62.611000 6.000000 -5.000000 -1.000000 71.703437 7.713641 829.218367 1300.128327 15.976249 0.000000 0.103679
281.000000 52.259000 7.000000 -5.000000 -1.000000 65.227747 11.304545 759.846386 1447.512194 19.142987 0.000000 0.069312
282.000000 73.126000 5.000000 -4.000000 -1.000000 68.268597 6.834264 846.006837 1373.062996 13.679838 0.000000 0.083337
283.000000 58.655000 6.000000 -4.000000 -1.000000 60.954873 11.149437 762.874886 1550.206369 17.056794 0.000000 0.050811
284.000000 47.692000 7.000000 -4.000000 -1.000000 54.968334 14.340759 699.840473 1719.783273 20.979068 0.000000 0.085041
285.000000 86.874000 4.000000 -3.000000 -1.000000 62.893377 5.532804 870.742688 1494.503280 11.516017 0.000000 0.045009
286.000000 65.596000 5.000000 -3.000000 -1.000000 54.655904 10.932718 767.100932 1718.412711 15.253350 0.000000 0.071546
287.000000 50.760000 6.000000 -3.000000 -1.000000 48.264183 14.693576 692.768456 1933.613027 19.712690 0.000000 0.159011
288.000000 70.370000 4.000000 -2.000000 -1.000000 44.530515 10.608595 773.409880 2054.104290 14.220261 0.000000 0.201736
292.000000 46.141000 1.000000 -4.000000 0.000000 130.049095 -29.095636 1573.950333 -94.341340 5.413855 0.000000 0.076656
295.000000 48.861000 4.000000 -15.000000 0.000000 129.309393 -27.127391 1526.417039 -49.153247 20.450114 0.000000 0.056234
296.000000 47.247000 2.000000 -6.000000 0.000000 125.950448 -19.963398 1365.960612 110.546521 8.459996 0.000000 0.037135
298.000000 53.471000 3.000000 -14.000000 0.000000 131.468366 -33.547527 1688.668267 -200.269827 18.686165 0.000000 0.131663
299.000000 51.889000 2.000000 -7.000000 0.000000 128.410580 -24.964954 1476.083010 -0.336735 9.628554 0.000000 0.038055
300.000000 49.935000 5.000000 -14.000000 0.000000 124.626299 -17.674006 1317.951364 160.966856 20.011796 0.000000 0.052111
301.000000 47.708000 3.000000 -7.000000 0.000000 120.391120 -11.589520 1195.726332 296.628670 10.473717 0.000000 0.094629
303.000000 57.232000 3.000000 -13.000000 0.000000 130.843021 -31.453805 1633.360942 -149.711364 17.458502 0.000000 0.104381
304.000000 55.270000 4.000000 -13.000000 0.000000 127.309864 -22.585258 1422.693196 52.663222 18.079174 0.000000 0.028725
305.000000 52.883000 5.000000 -13.000000 0.000000 123.037351 -15.199401 1267.410603 215.675980 18.896794 0.000000 0.069743
306.000000 50.200000 6.000000 -13.000000 0.000000 118.347752 -9.142290 1148.209309 352.846211 19.908143 0.000000 0.110195
307.000000 47.346000 7.000000 -13.000000 0.000000 113.486257 -4.188587 1053.822561 472.068371 21.110069 0.000000 0.137390
309.000000 56.110000 5.000000 -12.000000 0.000000 121.118173 -12.526584 1214.132680 275.428487 17.810611 0.000000 0.088360
310.000000 52.853000 2.000000 -4.000000 0.000000 115.926175 -6.541867 1098.424992 414.342680 6.303224 0.000000 0.125263
311.000000 49.449000 7.000000 -12.000000 0.000000 110.642061 -1.719917 1007.318149 535.362855 20.213513 0.000000 0.148328
312.000000 46.027000 2.000000 -3.000000 0.000000 105.442381 2.196415 933.720397 643.463872 5.429640 0.000000 0.161125
314.000000 66.445000 3.000000 -11.000000 0.000000 129.029340 -26.429253 1509.962210 -33.309146 15.038218 0.000000 0.049752
315.000000 63.308000 4.000000 -11.000000 0.000000 124.256165 -17.073240 1305.561173 174.215799 15.784543 0.000000 0.056361
316.000000 59.626000 5.000000 -11.000000 0.000000 118.784305 -9.643856 1157.889049 341.209910 16.760852 0.000000 0.107107
317.000000 55.643000 6.000000 -11.000000 0.000000 113.042235 -3.785146 1046.207136 482.202744 17.962727 0.000000 0.139309
318.000000 51.563000 7.000000 -11.000000 0.000000 107.315340 0.862999 958.787448 605.417457 19.385862 0.000000 0.157475
319.000000 47.546000 8.000000 -11.000000 0.000000 101.777896 4.594976 888.498398 715.860098 21.026059 0.000000 0.165527
320.000000 72.134000 3.000000 -10.000000 0.000000 127.702371 -23.404135 1440.846338 34.492050 13.852454 0.000000 0.030101
321.000000 68.075000 2.000000 -5.000000 0.000000 122.123810 -13.888542 1241.127498 244.866631 7.339872 0.000000 0.078989
322.000000 58.515000 3.000000 -5.000000 0.000000 109.591059 -0.871529 991.372839 557.893770 8.541058 0.000000 0.151612
323.000000 53.611000 7.000000 -10.000000 0.000000 103.412274 3.557060 908.095072 683.851466 18.646776 0.000000 0.163990
324.000000 48.896000 4.000000 -5.000000 0.000000 97.551536 7.072584 841.463418 797.224179 10.223522 0.000000 0.166583
325.000000 82.937000 2.000000 -9.000000 0.000000 131.173895 -32.531244 1661.500480 -175.546608 12.047427 0.000000 0.118107
326.000000 73.400000 4.000000 -9.000000 0.000000 119.412145 -10.384780 1172.241440 324.134093 13.615490 0.000000 0.102446
327.000000 67.455000 5.000000 -9.000000 0.000000 112.401151 -3.214942 1035.455761 496.658905 14.817276 0.000000 0.141936
328.000000 55.468000 7.000000 -9.000000 0.000000 98.821500 6.356937 855.093303 772.933900 18.024187 0.000000 0.166688
329.000000 49.951000 8.000000 -9.000000 0.000000 92.672514 9.623507 792.504202 890.043634 20.017032 0.000000 0.163047
330.000000 86.450000 3.000000 -8.000000 0.000000 123.600120 -16.045669 1284.551054 196.920472 11.559343 0.000000 0.063702
331.000000 71.600000 5.000000 -8.000000 0.000000 108.023548 0.337394 968.662021 590.795617 13.960738 0.000000 0.155825
332.000000 64.027000 3.000000 -4.000000 0.000000 100.435807 5.412315 873.026827 741.879942 7.807106 0.000000 0.166305
333.000000 56.943000 7.000000 -8.000000 0.000000 93.413188 9.254859 799.620648 875.961088 17.559149 0.000000 0.163891
334.000000 50.535000 3.000000 -3.000000 0.000000 87.040634 12.240514 741.500200 997.935178 7.420532 0.000000 0.153295
335.000000 85.610000 4.000000 -7.000000 0.000000 111.395041 -2.347871 1019.129181 518.958050 11.675329 0.000000 0.145734
336.000000 75.604000 5.000000 -7.000000 0.000000 102.553025 4.108783 897.684429 700.728523 13.222753 0.000000 0.164881
337.000000 66.190000 6.000000 -7.000000 0.000000 94.377393 8.765469 809.044984 857.637195 15.105774 0.000000 0.164829
338.000000 50.409000 8.000000 -7.000000 0.000000 80.550249 14.914896 688.320579 1126.385468 19.839718 0.000000 0.135532
339.000000 78.980000 5.000000 -6.000000 0.000000 95.683674 8.084527 822.117172 832.806007 12.659188 0.000000 0.165802
340.000000 57.505000 7.000000 -6.000000 0.000000 79.546837 15.301063 680.537747 1146.866900 17.392018 0.000000 0.132272
341.000000 49.273000 4.000000 -3.000000 0.000000 73.098376 17.636570 632.823102 1284.166209 10.149867 0.000000 0.109691
342.000000 66.879000 6.000000 -5.000000 0.000000 78.177899 15.817401 670.086336 1175.148900 14.954504 0.000000 0.127657
343.000000 55.674000 7.000000 -5.000000 0.000000 70.779869 18.421323 616.519612 1336.495164 17.966716 0.000000 0.101902
344.000000 46.774000 8.000000 -5.000000 0.000000 64.598803 20.394242 574.852856 1486.268717 21.387459 0.000000 0.090250
345.000000 79.793000 5.000000 -4.000000 0.000000 76.200611 16.542924 655.309850 1216.765927 12.534686 0.000000 0.120733
346.000000 63.708000 3.000000 -2.000000 0.000000 67.552440 19.471758 594.461150 1412.636863 7.850813 0.000000 0.093346
347.000000 51.650000 7.000000 -4.000000 0.000000 60.621501 21.584112 549.210144 1592.621276 19.369231 0.000000 0.097789
348.000000 73.724000 5.000000 -3.000000 0.000000 62.767968 20.949032 562.947465 1534.105989 13.569435 0.000000 0.091815
349.000000 56.733000 2.000000 -1.000000 0.000000 55.003493 23.175660 514.240807 1760.677423 5.878377 0.000000 0.134913
350.000000 60.379000 5.000000 -2.000000 0.000000 46.547355 25.409228 463.725463 2069.876318 16.571771 0.000000 0.238651
354.000000 46.953000 4.000000 -16.000000 1.000000 135.733866 -24.283126 1460.583953 -270.404394 21.279386 0.000000 0.083366
355.000000 45.539000 5.000000 -16.000000 1.000000 132.197559 -16.950323 1303.036049 -79.158339 21.941342 0.000000 0.033171
357.000000 49.750000 4.000000 -15.000000 1.000000 135.201894 -21.830492 1406.151551 -226.639959 20.082932 0.000000 0.064384
358.000000 48.056000 5.000000 -15.000000 1.000000 131.226092 -14.414352 1251.632792 -32.743137 20.792366 0.000000 0.034798
359.000000 46.119000 6.000000 -15.000000 1.000000 126.836864 -8.367518 1133.309889 126.073546 21.666905 0.000000 0.068232
362.000000 52.866000 4.000000 -14.000000 1.000000 134.513356 -19.127254 1348.273755 -178.996189 18.899624 0.000000 0.047078
363.000000 50.817000 5.000000 -14.000000 1.000000 130.035736 -11.675980 1197.419314 17.630710 19.662890 0.000000 0.044320
364.000000 48.505000 6.000000 -14.000000 1.000000 125.186044 -5.717078 1082.752460 178.357008 20.601837 0.000000 0.081688
365.000000 46.024000 7.000000 -14.000000 1.000000 120.197145 -0.939314 992.646482 314.569399 21.713881 0.000000 0.111344
368.000000 56.347000 4.000000 -13.000000 1.000000 133.621661 -16.146985 1286.612750 -126.842235 17.732334 0.000000 0.034606
369.000000 53.846000 5.000000 -13.000000 1.000000 128.572152 -8.724057 1140.158684 72.614767 18.557154 0.000000 0.057898
370.000000 51.065000 6.000000 -13.000000 1.000000 123.215003 -2.909552 1029.702609 235.380579 19.569675 0.000000 0.095202
371.000000 48.125000 7.000000 -13.000000 1.000000 117.798365 1.680400 943.424841 373.329520 20.766936 0.000000 0.122248
373.000000 62.861000 3.000000 -12.000000 1.000000 137.543561 -22.426213 1419.192669 -331.608793 15.893940 0.000000 0.083803
374.000000 60.246000 4.000000 -12.000000 1.000000 132.464700 -12.863615 1220.785065 -69.380554 16.584842 0.000000 0.033314
375.000000 57.164000 5.000000 -12.000000 1.000000 126.765955 -5.550168 1079.586570 133.038212 17.480725 0.000000 0.073081
376.000000 53.792000 6.000000 -12.000000 1.000000 120.854127 0.054758 973.971368 298.020684 18.578090 0.000000 0.108329
377.000000 50.291000 7.000000 -12.000000 1.000000 114.986711 4.410053 891.993712 437.930173 19.873513 0.000000 0.132138
378.000000 46.788000 8.000000 -12.000000 1.000000 109.316917 7.854818 826.516822 560.157063 21.363649 0.000000 0.146736
380.000000 67.944000 3.000000 -11.000000 1.000000 136.868515 -18.842505 1342.291678 -272.942294 14.704909 0.000000 0.059036
381.000000 64.622000 4.000000 -11.000000 1.000000 130.959195 -9.253523 1150.353594 -5.581796 15.462214 0.000000 0.044159
382.000000 60.781000 5.000000 -11.000000 1.000000 124.528295 -2.150037 1015.407154 199.978930 16.441060 0.000000 0.088638
383.000000 56.664000 6.000000 -11.000000 1.000000 118.017505 3.172172 915.350172 367.423469 17.637342 0.000000 0.120593
384.000000 52.476000 7.000000 -11.000000 1.000000 111.683937 7.243565 838.200907 509.596995 19.047059 0.000000 0.140516
385.000000 48.370000 8.000000 -11.000000 1.000000 105.666665 10.428970 776.900447 634.072455 20.666304 0.000000 0.151191
387.000000 73.816000 3.000000 -10.000000 1.000000 135.880623 -14.761154 1258.588701 -206.779110 13.535446 0.000000 0.037946
388.000000 69.529000 4.000000 -10.000000 1.000000 128.992910 -5.298579 1074.817875 65.915317 14.371412 0.000000 0.060626
389.000000 64.689000 5.000000 -10.000000 1.000000 121.745185 1.474887 947.288303 274.873287 15.448377 0.000000 0.103752
390.000000 59.629000 6.000000 -10.000000 1.000000 114.599323 6.435011 853.608246 445.125191 16.761469 0.000000 0.131392
391.000000 54.604000 7.000000 -10.000000 1.000000 107.797248 10.172367 781.879934 589.978998 18.305941 0.000000 0.146717
392.000000 49.793000 8.000000 -10.000000 1.000000 101.452084 13.066753 725.196748 717.167006 20.077177 0.000000 0.152903
394.000000 80.631000 3.000000 -9.000000 1.000000 134.444890 -10.121788 1167.139512 -131.327659 12.391637 0.000000 0.029773
395.000000 75.007000 4.000000 -9.000000 1.000000 126.413962 -0.990176 993.602179 146.963938 13.322257 0.000000 0.078591
396.000000 68.843000 5.000000 -9.000000 1.000000 118.270407 5.315801 874.855819 359.692012 14.517072 0.000000 0.117610
397.000000 62.588000 6.000000 -9.000000 1.000000 110.469970 9.831122 788.489578 533.245136 15.970196 0.000000 0.139905
398.000000 56.555000 7.000000 -9.000000 1.000000 103.217878 13.185325 722.848276 681.358283 17.675918 0.000000 0.149842
399.000000 50.935000 8.000000 -9.000000 1.000000 96.585569 15.758996 671.271175 811.890308 19.628693 0.000000 0.150975
400.000000 45.818000 9.000000 -9.000000 1.000000 90.574462 17.788616 629.675590 929.666597 21.823138 0.000000 0.146068
402.000000 88.561000 3.000000 -8.000000 1.000000 132.363042 -4.875990 1066.816643 -44.084385 11.282384 0.000000 0.041742
403.000000 81.054000 4.000000 -8.000000 1.000000 123.016322 3.665984 906.040812 240.176284 12.329080 0.000000 0.096083
404.000000 73.125000 5.000000 -8.000000 1.000000 113.917052 9.355127 797.686563 457.234563 13.668085 0.000000 0.129175
405.000000 65.368000 6.000000 -8.000000 1.000000 105.472454 13.343626 719.709360 634.808231 15.292153 0.000000 0.144990
406.000000 58.145000 7.000000 -8.000000 1.000000 97.820877 16.268811 660.905412 786.999996 17.194276 0.000000 0.148718
407.000000 51.627000 8.000000 -8.000000 1.000000 90.971742 18.495194 614.977364 921.749924 19.367672 0.000000 0.144397
408.000000 45.860000 9.000000 -8.000000 1.000000 84.875418 20.241592 578.113505 1043.875548 21.805779 0.000000 0.135237
409.000000 106.677000 2.000000 -7.000000 1.000000 139.993877 -11.805684 1199.961031 -369.111889 9.365433 0.000000 0.043996
410.000000 97.759000 3.000000 -7.000000 1.000000 129.342420 0.997368 956.262662 58.598143 10.221247 0.000000 0.061545
411.000000 87.561000 4.000000 -7.000000 1.000000 118.520714 8.645063 811.359823 349.394417 11.413637 0.000000 0.111525
412.000000 77.288000 5.000000 -7.000000 1.000000 108.448508 13.565638 715.300182 571.647968 12.933110 0.000000 0.136969
413.000000 67.684000 6.000000 -7.000000 1.000000 99.420588 16.951011 646.949833 754.312526 14.770527 0.000000 0.145086
414.000000 59.105000 7.000000 -7.000000 1.000000 91.467504 19.406934 595.830544 911.766078 16.917085 0.000000 0.141999
415.000000 51.642000 8.000000 -7.000000 1.000000 84.511707 21.263697 556.155801 1051.967970 19.364306 0.000000 0.132534
416.000000 121.356000 2.000000 -6.000000 1.000000 138.044258 -4.018489 1050.610849 -259.154938 8.232842 0.000000 0.017639
417.000000 108.266000 3.000000 -6.000000 1.000000 124.950206 7.472515 833.828394 182.320588 9.229945 0.000000 0.081081
418.000000 94.197000 4.000000 -6.000000 1.000000 112.551194 13.899500 708.654067 480.575333 10.610636 0.000000 0.122925
419.000000 80.865000 5.000000 -6.000000 1.000000 101.571590 17.910475 627.149101 709.400916 12.362504 0.000000 0.138889
420.000000 69.082000 6.000000 -6.000000 1.000000 92.101971 20.627618 569.855372 898.790981 14.473666 0.000000 0.138367
421.000000 59.058000 7.000000 -6.000000 1.000000 84.012516 22.581938 527.379967 1063.258803 16.932743 0.000000 0.129031
422.000000 50.694000 8.000000 -6.000000 1.000000 77.111210 24.051985 494.632324 1210.699015 19.728830 0.000000 0.117407
424.000000 139.587000 2.000000 -5.000000 1.000000 134.462544 5.170825 877.602115 -119.605469 7.157891 0.000000 0.028469
425.000000 119.750000 3.000000 -5.000000 1.000000 118.548614 14.458142 697.490095 336.285796 8.345587 0.000000 0.096368
426.000000 100.173000 4.000000 -5.000000 1.000000 104.611819 19.358254 596.858177 643.595296 9.979061 0.000000 0.127411
427.000000 83.034000 5.000000 -5.000000 1.000000 92.938738 22.344334 532.606336 881.262348 12.041398 0.000000 0.132461
428.000000 68.888000 6.000000 -5.000000 1.000000 83.291288 24.344550 488.026675 1079.957086 14.516531 0.000000 0.124463
429.000000 57.516000 7.000000 -5.000000 1.000000 75.319630 25.774752 455.284017 1254.118436 17.389182 0.000000 0.114521
430.000000 48.452000 8.000000 -5.000000 1.000000 68.694237 26.846984 430.216391 1411.462774 20.644820 0.000000 0.112466
432.000000 161.730000 2.000000 -4.000000 1.000000 128.068982 15.583385 674.829643 65.847852 6.178398 0.000000 0.043346
433.000000 130.877000 3.000000 -4.000000 1.000000 109.213807 21.789733 544.736701 537.041984 7.637232 0.000000 0.103331
434.000000 103.846000 4.000000 -4.000000 1.000000 94.080287 24.930272 474.709472 856.333353 9.627891 0.000000 0.121890
435.000000 82.470000 5.000000 -4.000000 1.000000 82.174297 26.815863 430.950562 1106.750541 12.125984 0.000000 0.118834
436.000000 66.201000 6.000000 -4.000000 1.000000 72.782540 28.070934 401.013848 1318.993140 15.108591 0.000000 0.115046
437.000000 53.913000 7.000000 -4.000000 1.000000 65.288754 28.965652 379.243525 1507.110700 18.554152 0.000000 0.125522
438.000000 185.951000 2.000000 -3.000000 1.000000 116.883200 26.691096 433.889925 330.284381 5.374525 0.000000 0.041211
439.000000 137.905000 3.000000 -3.000000 1.000000 95.679732 29.243211 372.413754 818.321123 7.249712 0.000000 0.100557
440.000000 102.220000 4.000000 -3.000000 1.000000 80.265626 30.512415 340.700054 1155.317913 9.783322 0.000000 0.114724
441.000000 77.316000 5.000000 -3.000000 1.000000 68.950991 31.271042 321.347671 1425.610957 12.937199 0.000000 0.128806
442.000000 59.989000 6.000000 -3.000000 1.000000 60.449675 31.775428 308.308125 1658.766420 16.676076 0.000000 0.162656
443.000000 47.716000 7.000000 -3.000000 1.000000 53.896456 32.134987 298.925662 1867.962454 20.967312 0.000000 0.212065
444.000000 132.518000 3.000000 -2.000000 1.000000 76.487255 36.571515 176.503234 1263.057257 7.546819 0.000000 0.134158
445.000000 90.903000 4.000000 -2.000000 1.000000 62.626520 36.000425 193.014248 1629.822473 11.004314 0.000000 0.186354
446.000000 65.579000 5.000000 -2.000000 1.000000 53.144905 35.657015 202.827834 1933.942015 15.255736 0.000000 0.254213
448.000000 177.532000 2.000000 -1.000000 1.000000 67.057252 47.886409 -215.590602 1620.375681 5.633847 0.000000 0.320841
454.000000 45.953000 5.000000 -16.000000 2.000000 136.863421 -10.803720 1180.386546 -228.410040 21.741969 0.000000 0.030388
456.000000 50.221000 4.000000 -15.000000 2.000000 140.584804 -15.190475 1267.230558 -416.007554 19.893298 0.000000 0.061794
457.000000 48.476000 5.000000 -15.000000 2.000000 135.946080 -7.781496 1122.079866 -181.777333 20.610986 0.000000 0.025818
458.000000 46.497000 6.000000 -15.000000 2.000000 130.993186 -2.017487 1012.913927 5.036184 21.489388 0.000000 0.051358
460.000000 51.235000 5.000000 -14.000000 2.000000 134.789233 -4.534965 1060.367105 -130.760186 19.501321 0.000000 0.029178
461.000000 46.367000 7.000000 -14.000000 2.000000 123.874152 5.274404 875.640131 215.392533 21.551944 0.000000 0.089999
463.000000 56.809000 4.000000 -13.000000 2.000000 139.171365 -8.086948 1127.929218 -317.151184 17.586920 0.000000 0.028145
464.000000 54.251000 5.000000 -13.000000 2.000000 133.333233 -1.061414 994.940824 -74.601980 18.417471 0.000000 0.037699
465.000000 51.428000 6.000000 -13.000000 2.000000 127.351919 4.163716 896.647121 117.367276 19.430069 0.000000 0.071616
466.000000 48.460000 7.000000 -13.000000 2.000000 121.447779 8.140844 821.037775 276.094326 20.621929 0.000000 0.098439
468.000000 57.539000 5.000000 -12.000000 2.000000 131.503178 2.635610 925.455438 -12.339622 17.365295 0.000000 0.047918
469.000000 50.612000 7.000000 -12.000000 2.000000 118.595706 11.099554 763.848152 343.105827 19.746261 0.000000 0.105858
471.000000 64.993000 4.000000 -11.000000 2.000000 136.516587 0.404480 967.401769 -193.863597 15.372763 0.000000 0.019327
472.000000 61.105000 5.000000 -11.000000 2.000000 129.205106 6.544699 851.521108 57.277064 16.352572 0.000000 0.058034
473.000000 56.967000 6.000000 -11.000000 2.000000 122.050631 10.910122 767.541192 254.729359 17.542271 0.000000 0.089492
474.000000 52.774000 7.000000 -11.000000 2.000000 115.241126 14.138584 703.882908 417.739678 18.938129 0.000000 0.111872
475.000000 48.672000 8.000000 -11.000000 2.000000 108.863857 16.608631 653.966181 557.250252 20.536504 0.000000 0.126250
477.000000 64.930000 5.000000 -10.000000 2.000000 126.321402 10.645284 772.696426 135.908210 15.389850 0.000000 0.067055
478.000000 54.872000 7.000000 -10.000000 2.000000 111.294480 17.243532 640.934951 501.746923 18.215359 0.000000 0.116020
479.000000 45.618000 9.000000 -10.000000 2.000000 98.501866 21.014339 561.540256 768.647898 21.915290 0.000000 0.132323
481.000000 80.752000 3.000000 -9.000000 2.000000 141.077237 2.931161 919.890407 -393.528286 12.372067 0.000000 0.004310
482.000000 75.096000 4.000000 -9.000000 2.000000 131.717829 10.248850 780.396593 -34.102643 13.305368 0.000000 0.037415
483.000000 68.957000 5.000000 -9.000000 2.000000 122.705424 14.906992 688.479588 225.817783 14.491811 0.000000 0.074215
484.000000 62.756000 6.000000 -9.000000 2.000000 114.318939 18.093634 623.345155 429.302830 15.925992 0.000000 0.101165
485.000000 56.786000 7.000000 -9.000000 2.000000 106.652787 20.397834 574.776063 597.525196 17.602658 0.000000 0.117788
486.000000 51.224000 8.000000 -9.000000 2.000000 99.713116 22.136387 537.165773 742.111922 19.516702 0.000000 0.125988
487.000000 46.154000 9.000000 -9.000000 2.000000 93.462968 23.492507 507.181296 869.982778 21.663163 0.000000 0.128007
488.000000 88.314000 3.000000 -8.000000 2.000000 138.714337 9.590408 793.143783 -302.112341 11.312936 0.000000 0.019404
489.000000 73.057000 5.000000 -8.000000 2.000000 118.175697 19.290013 598.297710 330.192085 13.679505 0.000000 0.078817
490.000000 58.341000 7.000000 -8.000000 2.000000 101.200332 23.583211 505.154131 708.459744 17.135288 0.000000 0.116760
491.000000 46.229000 9.000000 -8.000000 2.000000 87.769120 25.978079 450.565854 987.640480 21.629948 0.000000 0.121671
493.000000 96.892000 3.000000 -7.000000 2.000000 135.212079 16.718630 651.714733 -191.148730 10.311799 0.000000 0.030748
494.000000 86.950000 4.000000 -7.000000 2.000000 123.240777 21.096232 559.773931 184.923936 11.492847 0.000000 0.044694
495.000000 76.976000 5.000000 -7.000000 2.000000 112.510789 23.746673 501.493771 453.688555 12.984228 0.000000 0.080386
496.000000 67.645000 6.000000 -7.000000 2.000000 103.063113 25.516685 461.249167 664.277239 14.777715 0.000000 0.102648
497.000000 59.281000 7.000000 -7.000000 2.000000 94.811991 26.780262 431.789943 839.508311 16.865371 0.000000 0.113210
498.000000 51.973000 8.000000 -7.000000 2.000000 87.624905 27.726706 409.292764 991.432238 19.239534 0.000000 0.116347
499.000000 45.679000 9.000000 -7.000000 2.000000 81.360291 28.461727 391.550448 1127.020534 21.892806 0.000000 0.116116
501.000000 106.374000 3.000000 -6.000000 2.000000 130.125703 24.129054 492.895169 -52.998036 9.393261 0.000000 0.034919
502.000000 80.259000 5.000000 -6.000000 2.000000 105.447822 28.224203 397.310585 603.437560 12.454619 0.000000 0.079700
503.000000 59.261000 7.000000 -6.000000 2.000000 87.361162 29.969159 354.373439 998.261521 16.873340 0.000000 0.110057
505.000000 116.222000 3.000000 -5.000000 2.000000 122.862468 31.584239 313.267384 124.812693 8.598131 0.000000 0.036817
506.000000 98.146000 4.000000 -5.000000 2.000000 108.563855 32.262768 295.573510 513.547857 10.184066 0.000000 0.040782
507.000000 82.144000 5.000000 -5.000000 2.000000 96.691111 32.668338 284.870950 791.006102 12.170607 0.000000 0.082671
508.000000 68.753000 6.000000 -5.000000 2.000000 86.874488 32.938052 277.699613 1011.026867 14.543760 0.000000 0.104394
509.000000 57.840000 7.000000 -5.000000 2.000000 78.734899 33.130371 272.559335 1197.001551 17.290176 0.000000 0.117878
510.000000 49.036000 8.000000 -5.000000 2.000000 71.940872 33.274426 268.694296 1360.755533 20.397112 0.000000 0.131194
512.000000 124.940000 3.000000 -4.000000 2.000000 112.654754 38.838192 108.455332 364.271654 7.999411 0.000000 0.065907
513.000000 100.958000 4.000000 -4.000000 2.000000 97.782487 37.708597 142.887260 755.065306 9.902158 0.000000 0.071195
514.000000 81.471000 5.000000 -4.000000 2.000000 85.943309 37.027194 163.152894 1036.612269 12.273386 0.000000 0.108014
515.000000 54.524000 7.000000 -4.000000 2.000000 68.858671 36.245375 185.961974 1457.061439 18.344521 0.000000 0.158539
517.000000 129.126000 3.000000 -3.000000 2.000000 98.585297 45.682256 -127.236603 708.416078 7.741814 0.000000 0.154113
518.000000 98.923000 4.000000 -3.000000 2.000000 84.045175 42.939297 -26.530866 1094.351837 10.108210 0.000000 0.154061
519.000000 76.708000 5.000000 -3.000000 2.000000 72.977182 41.254716 30.958520 1379.323076 13.038046 0.000000 0.184361
520.000000 60.613000 6.000000 -3.000000 2.000000 64.439837 40.116831 68.135570 1614.116737 16.502467 0.000000 0.218160
521.000000 48.859000 7.000000 -3.000000 2.000000 57.730875 39.297261 94.149243 1819.174722 20.474556 0.000000 0.256172
529.000000 46.046000 5.000000 -16.000000 3.000000 140.907035 -3.496072 1040.754916 -386.181999 21.696956 0.000000 0.017673
531.000000 48.517000 5.000000 -15.000000 3.000000 139.938435 0.050914 974.043577 -338.882636 20.592318 0.000000 0.006317
534.000000 51.205000 5.000000 -14.000000 3.000000 138.694312 3.819299 903.148470 -286.601218 19.511785 0.000000 0.007231
535.000000 48.849000 6.000000 -14.000000 3.000000 132.721509 8.524454 813.677094 -64.026971 20.454263 0.000000 0.034672
536.000000 46.347000 7.000000 -14.000000 3.000000 126.859190 12.036082 745.518079 115.956163 21.560465 0.000000 0.060529
539.000000 54.122000 5.000000 -13.000000 3.000000 137.109652 7.794918 827.663278 -228.427592 18.460296 0.000000 0.015619
540.000000 51.315000 6.000000 -13.000000 3.000000 130.614197 12.001943 746.188448 -2.584713 19.472058 0.000000 0.039817
541.000000 48.373000 7.000000 -13.000000 3.000000 124.336504 15.099870 684.596127 179.504597 20.657928 0.000000 0.064896
543.000000 57.276000 5.000000 -12.000000 3.000000 135.105222 11.954115 747.127314 -163.200639 17.444236 0.000000 0.022170
544.000000 50.441000 7.000000 -12.000000 3.000000 121.374192 18.224733 620.617554 250.031450 19.812046 0.000000 0.067965
545.000000 46.984000 8.000000 -12.000000 3.000000 115.081907 20.225390 578.459210 404.138387 21.271842 0.000000 0.088340
547.000000 64.487000 4.000000 -11.000000 3.000000 140.553270 11.882304 748.536374 -395.768872 15.492516 0.000000 0.033618
548.000000 60.659000 5.000000 -11.000000 3.000000 132.584888 16.263380 661.016104 -89.411998 16.472011 0.000000 0.025762
549.000000 56.602000 6.000000 -11.000000 3.000000 125.001156 19.244461 599.257947 142.731763 17.654370 0.000000 0.044822
550.000000 52.500000 7.000000 -11.000000 3.000000 117.898960 21.393469 553.346401 328.987270 19.036106 0.000000 0.069562
551.000000 48.487000 8.000000 -11.000000 3.000000 111.312314 23.011923 517.875829 484.801204 20.613815 0.000000 0.089329
553.000000 68.975000 4.000000 -10.000000 3.000000 138.137297 17.289765 639.982562 -316.964104 14.484947 0.000000 0.046470
554.000000 64.238000 5.000000 -10.000000 3.000000 129.432571 20.680075 568.729955 -5.060868 15.554915 0.000000 0.025427
555.000000 59.329000 6.000000 -10.000000 3.000000 121.311165 22.957191 519.088931 230.002006 16.843929 0.000000 0.043985
556.000000 54.472000 7.000000 -10.000000 3.000000 113.827156 24.587334 482.521781 418.293379 18.347906 0.000000 0.069710
557.000000 49.822000 8.000000 -10.000000 3.000000 106.981911 25.810113 454.464629 575.892972 20.062863 0.000000 0.089104
558.000000 45.471000 9.000000 -10.000000 3.000000 100.748466 26.760467 432.256416 712.181816 21.984917 0.000000 0.101933
559.000000 73.838000 4.000000 -9.000000 3.000000 134.937553 22.847498 521.517283 -224.384966 13.531416 0.000000 0.057245
560.000000 67.938000 5.000000 -9.000000 3.000000 125.508977 25.154411 469.579971 92.572092 14.708486 0.000000 0.020000
561.000000 56.242000 7.000000 -9.000000 3.000000 109.064880 27.786665 407.854501 520.556858 17.771838 0.000000 0.069006
562.000000 50.877000 8.000000 -9.000000 3.000000 102.016582 28.606665 388.022890 680.045590 19.648554 0.000000 0.088355
564.000000 78.994000 4.000000 -8.000000 3.000000 130.751858 28.454827 391.718155 -113.893793 12.648864 0.000000 0.066797
565.000000 71.613000 5.000000 -8.000000 3.000000 120.648579 29.632546 362.770824 207.290182 13.954707 0.000000 0.008854
566.000000 64.395000 6.000000 -8.000000 3.000000 111.584868 30.414638 343.172208 447.245355 15.521122 0.000000 0.039194
567.000000 57.641000 7.000000 -8.000000 3.000000 103.509508 30.971597 329.023107 639.416704 17.342261 0.000000 0.069517
568.000000 51.501000 8.000000 -8.000000 3.000000 96.339253 31.388329 318.328042 800.931542 19.412447 0.000000 0.089154
569.000000 46.021000 9.000000 -8.000000 3.000000 89.978516 31.711840 309.959814 941.474396 21.726173 0.000000 0.101524
571.000000 84.239000 4.000000 -7.000000 3.000000 125.335037 34.005612 248.876961 20.537767 11.862133 0.000000 0.078683
572.000000 74.999000 5.000000 -7.000000 3.000000 114.658162 34.060363 247.379371 344.597824 13.325731 0.000000 0.017161
573.000000 66.298000 6.000000 -7.000000 3.000000 105.269360 34.096801 246.381625 586.181479 15.077141 0.000000 0.045991
574.000000 58.432000 7.000000 -7.000000 3.000000 97.053779 34.122798 245.669266 780.125493 17.109168 0.000000 0.076253
575.000000 51.500000 8.000000 -7.000000 3.000000 89.874556 34.142278 245.135170 943.847178 19.414853 0.000000 0.096246
576.000000 45.479000 9.000000 -7.000000 3.000000 83.594032 34.157420 244.719865 1087.029657 21.987467 0.000000 0.110062
577.000000 89.155000 4.000000 -6.000000 3.000000 118.394575 39.399932 90.924046 188.065348 11.209193 0.000000 0.101165
578.000000 77.661000 5.000000 -6.000000 3.000000 107.319827 38.387304 122.327910 512.799374 12.870539 0.000000 0.052083
579.000000 58.307000 7.000000 -6.000000 3.000000 89.593994 37.222145 157.392316 950.577971 17.148221 0.000000 0.097284
580.000000 50.640000 8.000000 -6.000000 3.000000 82.556507 36.856443 168.174145 1116.740416 19.746763 0.000000 0.117468
582.000000 92.965000 4.000000 -5.000000 3.000000 109.594509 44.554145 -84.672620 403.332983 10.751129 0.000000 0.146967
583.000000 78.916000 5.000000 -5.000000 3.000000 98.404056 42.569591 -13.649584 725.086052 12.667599 0.000000 0.107029
584.000000 66.890000 6.000000 -5.000000 3.000000 88.978181 41.224340 31.967667 966.523062 14.947695 0.000000 0.119441
585.000000 56.884000 7.000000 -5.000000 3.000000 81.044168 40.253312 63.742825 1163.247064 17.579648 0.000000 0.140910
586.000000 48.662000 8.000000 -5.000000 3.000000 74.339900 39.519810 87.146287 1332.135976 20.552192 0.000000 0.161707
588.000000 94.370000 4.000000 -4.000000 3.000000 98.582083 49.406991 -281.044193 691.369525 10.592882 0.000000 0.231482
589.000000 77.803000 5.000000 -4.000000 3.000000 87.701770 46.572371 -162.050476 1003.834971 12.850988 0.000000 0.191565
590.000000 64.402000 6.000000 -4.000000 3.000000 78.746623 44.622545 -87.205975 1241.884127 15.527565 0.000000 0.197554
591.000000 53.752000 7.000000 -4.000000 3.000000 71.357421 43.202191 -35.785059 1439.123965 18.606731 0.000000 0.215822
593.000000 73.155000 5.000000 -3.000000 3.000000 75.085618 50.370621 -324.658833 1390.452088 13.670266 0.000000 0.323706
603.000000 46.239000 6.000000 -15.000000 4.000000 137.130349 13.106007 724.419526 -249.470747 21.607699 0.000000 0.025899
605.000000 45.992000 7.000000 -14.000000 4.000000 129.082626 19.211896 599.944100 15.307539 21.726012 0.000000 0.028128
607.000000 53.512000 5.000000 -13.000000 4.000000 139.726379 17.633513 632.886334 -391.937677 18.670154 0.000000 0.056528
608.000000 50.770000 6.000000 -13.000000 4.000000 132.900092 20.402642 574.673260 -126.101195 19.680319 0.000000 0.033740
609.000000 47.903000 7.000000 -13.000000 4.000000 126.404564 22.393268 531.531440 82.625769 20.859734 0.000000 0.025749
610.000000 56.447000 5.000000 -12.000000 4.000000 137.412792 22.079130 538.418820 -322.655245 17.699894 0.000000 0.068365
611.000000 49.832000 7.000000 -12.000000 4.000000 123.276100 25.593701 459.471662 157.801935 20.053515 0.000000 0.020465
613.000000 59.547000 5.000000 -11.000000 4.000000 134.540349 26.565872 436.833581 -243.188009 16.779049 0.000000 0.079611
614.000000 55.657000 6.000000 -11.000000 4.000000 126.809906 27.866799 405.929784 29.882491 17.953498 0.000000 0.035068
615.000000 51.724000 7.000000 -11.000000 4.000000 119.629735 28.793339 383.465136 242.477227 19.320986 0.000000 0.012078
616.000000 47.871000 8.000000 -11.000000 4.000000 112.998873 29.486444 366.398105 416.187313 20.878323 0.000000 0.039295
617.000000 62.763000 5.000000 -10.000000 4.000000 131.002508 31.039193 327.294688 -151.057543 15.919901 0.000000 0.091212
618.000000 53.501000 7.000000 -10.000000 4.000000 115.390245 31.972358 303.178483 338.812855 18.680244 0.000000 0.008156
620.000000 66.003000 5.000000 -9.000000 4.000000 126.676230 35.445514 208.829983 -42.899287 15.139171 0.000000 0.105229
621.000000 60.438000 6.000000 -9.000000 4.000000 118.181575 35.250753 214.329204 234.859417 16.535221 0.000000 0.045401
622.000000 55.051000 7.000000 -9.000000 4.000000 110.475417 35.111687 218.239692 449.719123 18.155838 0.000000 0.025535
623.000000 49.989000 8.000000 -9.000000 4.000000 103.513467 35.007415 221.163030 625.202195 19.996650 0.000000 0.050327
624.000000 69.107000 5.000000 -8.000000 4.000000 121.420942 39.735942 80.302144 85.975249 14.460218 0.000000 0.125354
625.000000 56.213000 7.000000 -8.000000 4.000000 104.798207 38.193673 128.232353 579.218503 17.781930 0.000000 0.053255
627.000000 71.813000 5.000000 -7.000000 4.000000 115.079585 43.869217 -59.627943 242.305241 13.916709 0.000000 0.157164
628.000000 63.959000 6.000000 -7.000000 4.000000 106.162327 42.322055 -5.110022 519.121512 15.627963 0.000000 0.101114
629.000000 56.776000 7.000000 -7.000000 4.000000 98.271241 41.202615 32.688829 733.044366 17.607504 0.000000 0.091807
630.000000 50.371000 8.000000 -7.000000 4.000000 91.309745 40.355662 60.436992 908.708131 19.848983 0.000000 0.104957
631.000000 73.716000 5.000000 -6.000000 4.000000 107.484415 47.813467 -212.548020 436.146695 13.558991 0.000000 0.207968
632.000000 56.469000 7.000000 -6.000000 4.000000 90.814795 44.125141 -68.917867 919.675931 17.705396 0.000000 0.144762
634.000000 74.236000 5.000000 -5.000000 4.000000 98.471836 51.546732 -380.354961 683.211647 13.465902 0.000000 0.287077
635.000000 63.841000 6.000000 -5.000000 4.000000 89.820097 48.903476 -258.930424 946.141199 15.660948 0.000000 0.230541
636.000000 54.976000 7.000000 -5.000000 4.000000 82.369382 46.950421 -177.183799 1152.232371 18.188811 0.000000 0.217834
637.000000 47.532000 8.000000 -5.000000 4.000000 75.959657 45.451656 -118.398062 1324.679612 21.039455 0.000000 0.223282
639.000000 51.969000 7.000000 -4.000000 4.000000 72.913335 49.670210 -292.785810 1452.193145 19.243792 0.000000 0.320183
644.000000 45.661000 6.000000 -15.000000 5.000000 138.918804 21.567292 549.575521 -386.542942 21.880575 0.000000 0.074574
646.000000 47.717000 6.000000 -14.000000 5.000000 136.754338 25.304361 466.137790 -324.757530 20.938349 0.000000 0.085828
648.000000 49.854000 6.000000 -13.000000 5.000000 134.175248 29.042806 377.348726 -255.153835 20.041205 0.000000 0.097150
649.000000 47.103000 7.000000 -13.000000 5.000000 127.641631 29.799665 358.608812 -15.597118 21.213802 0.000000 0.055127
651.000000 52.045000 6.000000 -12.000000 5.000000 131.119080 32.751047 282.676457 -176.134551 19.198430 0.000000 0.109277
652.000000 48.851000 7.000000 -12.000000 5.000000 124.313239 32.970835 276.824969 65.423767 20.455337 0.000000 0.060347
653.000000 45.665000 8.000000 -12.000000 5.000000 117.969976 33.135328 272.426563 258.452857 21.884797 0.000000 0.020857
655.000000 54.241000 6.000000 -11.000000 5.000000 127.515803 36.399007 181.516209 -85.633357 18.422041 0.000000 0.123486
656.000000 50.534000 7.000000 -11.000000 5.000000 120.470752 36.096472 190.254213 157.305130 19.775262 0.000000 0.069362
657.000000 46.894000 8.000000 -11.000000 5.000000 113.954874 35.869457 196.766918 350.910153 21.312587 0.000000 0.033664
658.000000 56.368000 6.000000 -10.000000 5.000000 123.287496 39.959505 73.177378 19.071301 17.727885 0.000000 0.141786
659.000000 52.073000 7.000000 -10.000000 5.000000 116.049011 39.159446 98.463598 262.524866 19.192179 0.000000 0.084822
660.000000 47.929000 8.000000 -10.000000 5.000000 109.406370 38.556539 117.141430 456.139764 20.853776 0.000000 0.054803
662.000000 58.314000 6.000000 -9.000000 5.000000 118.348737 43.409311 -43.132259 141.638924 17.137284 0.000000 0.167064
663.000000 53.359000 7.000000 -9.000000 5.000000 110.978773 42.144725 0.966345 384.398810 18.731081 0.000000 0.109338
664.000000 48.671000 8.000000 -9.000000 5.000000 104.269943 41.186306 33.229889 577.257215 20.537402 0.000000 0.084110
666.000000 59.919000 6.000000 -8.000000 5.000000 112.608358 46.729785 -168.325953 287.110051 16.679633 0.000000 0.203125
667.000000 54.246000 7.000000 -8.000000 5.000000 105.189244 45.039699 -102.786794 527.472075 18.426354 0.000000 0.145413
668.000000 48.996000 8.000000 -8.000000 5.000000 98.492551 43.749881 -55.323339 718.522282 20.403341 0.000000 0.122954
670.000000 60.960000 6.000000 -7.000000 5.000000 105.973611 49.907099 -303.462003 462.627012 16.396611 0.000000 0.254760
671.000000 54.547000 7.000000 -7.000000 5.000000 98.612646 47.834342 -213.417888 698.153390 18.326647 0.000000 0.195977
672.000000 48.751000 8.000000 -7.000000 5.000000 92.026963 46.239884 -148.914349 885.924936 20.507886 0.000000 0.173815
675.000000 54.033000 7.000000 -6.000000 5.000000 91.191575 50.521205 -331.634307 905.789114 18.503128 0.000000 0.265145
676.000000 47.766000 8.000000 -6.000000 5.000000 84.838002 48.650456 -247.985629 1088.174104 20.933166 0.000000 0.240457
679.000000 45.864000 8.000000 -5.000000 5.000000 76.910732 50.977225 -353.033045 1338.454561 21.803886 0.000000 0.328541
687.000000 46.030000 7.000000 -13.000000 6.000000 128.090172 37.076602 161.695755 -116.398482 21.708023 0.000000 0.136806
689.000000 47.575000 7.000000 -12.000000 6.000000 124.553076 40.118972 68.066786 -28.239759 21.003913 0.000000 0.153533
691.000000 49.026000 7.000000 -11.000000 6.000000 120.515480 43.079220 -31.446448 72.477545 20.383547 0.000000 0.174907
692.000000 45.633000 8.000000 -11.000000 6.000000 114.249211 42.011445 5.510930 288.496481 21.901268 0.000000 0.120257
693.000000 50.306000 7.000000 -10.000000 6.000000 115.922729 45.945521 -137.416650 188.639113 19.866149 0.000000 0.203114
694.000000 51.314000 7.000000 -9.000000 6.000000 110.718424 48.708654 -250.493338 324.087480 19.477317 0.000000 0.240877
695.000000 47.037000 8.000000 -9.000000 6.000000 104.385971 47.021123 -180.037735 536.052241 21.250536 0.000000 0.183261
699.000000 46.798000 8.000000 -7.000000 6.000000 92.148262 51.707828 -388.207820 875.846535 21.363239 0.000000 0.294690
#UB matrix in q= (UB) B0 G* 
#[[-0.065599692  0.917973685 -0.388283895]
# [ 0.561875226  0.355891747  0.746449117]
# [ 0.824616827 -0.169387192 -0.539953654]]
#B0 matrix in q= UB (B0) G*
#[[ 0.19670273 -0.          0.03056101]
# [ 0.          0.19187965 -0.        ]
# [ 0.          0.          0.18806537]]
#UBB0 matrix in q= (UB B0) G* i.e. recip. basis vectors are columns in LT frame: astar = UBB0[:,0], bstar = UBB0[:,1], cstar = UBB0[:,2]. (abcstar as columns on xyzlab1, xlab1 = ui, ui = unit vector along incident beam)
#[[-0.01290364  0.17614047 -0.07502755]
# [ 0.11052239  0.06828838  0.1575527 ]
# [ 0.16220438 -0.03250196 -0.07634546]]
#Euler angles phi theta psi (deg)
#[ 78.377 122.661  27.523]
#deviatoric strain in direct crystal frame (10-3 unit)
#[[-1.98  0.02  0.26]
# [ 0.02 -0.94 -0.65]
# [ 0.26 -0.65  2.93]]
#deviatoric strain in sample2 frame (10-3 unit)
#[[ 0.77 -2.27 -0.3 ]
# [-2.27  0.77 -0.38]
# [-0.3  -0.38 -1.54]]
#new lattice parameters
#[ 5.1505     5.2170248  5.3189089 90.0391207 99.2114774 89.997612 ]
#CCDLabel
#sCMOS
#DetectorParameters
#[79.0, 975.0, 941.0, 0.0, 0.0]
#pixelsize
#0.0734
#Frame dimensions
#[2018, 2016]
#
