#Strain and Orientation Refinement from experimental file: /home/micha/LaueProjects/DepthEffects/testZrO2_144.cor
#File created at Wed Jun 28 14:27:01 2023 with indexingSpotsSet.py
#Number of indexed spots: 535
#Element
#ZrO2
#grainIndex
#G_0
#Mean Deviation(pixel): 0.115
##spot_index intensity h k l 2theta Chi Xexp Yexp Energy GrainIndex PixDev
1.000000 46.543000 -1.000000 -11.000000 -10.000000 111.868662 -45.875796 2084.711134 320.526171 21.475734 0.000000 0.186872
2.000000 46.088000 0.000000 -11.000000 -10.000000 108.652699 -39.646307 1866.854223 469.160422 21.689098 0.000000 0.071360
4.000000 47.515000 -1.000000 -10.000000 -10.000000 107.231156 -48.368592 2185.921770 438.528102 21.038043 0.000000 0.225200
5.000000 47.033000 0.000000 -3.000000 -3.000000 104.066175 -42.104750 1947.668612 577.522874 6.376499 0.000000 0.100639
6.000000 46.032000 1.000000 -10.000000 -10.000000 100.217903 -36.216764 1763.212035 700.536268 21.719106 0.000000 0.060486
8.000000 48.181000 -1.000000 -9.000000 -10.000000 102.006841 -50.816919 2295.463085 578.689839 20.748792 0.000000 0.275276
9.000000 47.664000 0.000000 -9.000000 -10.000000 98.887427 -44.542937 2034.258057 704.862329 20.975202 0.000000 0.138885
10.000000 46.564000 1.000000 -9.000000 -10.000000 95.059791 -38.590229 1833.893964 819.080676 21.472803 0.000000 0.083883
12.000000 47.849000 0.000000 -4.000000 -5.000000 93.057006 -46.952423 2127.264529 856.793153 10.448068 0.000000 0.188543
13.000000 46.634000 1.000000 -8.000000 -10.000000 89.248838 -40.956787 1909.184103 959.685408 21.442284 0.000000 0.118319
15.000000 47.426000 0.000000 -7.000000 -10.000000 86.520216 -49.325369 2227.428813 1041.416643 21.084915 0.000000 0.253212
16.000000 46.079000 1.000000 -7.000000 -10.000000 82.727422 -43.308454 1989.548299 1129.756771 21.702941 0.000000 0.166329
18.000000 46.209000 0.000000 -3.000000 -5.000000 79.233821 -51.654668 2335.610281 1270.877230 10.821168 0.000000 0.338235
20.000000 46.779000 -1.000000 -13.000000 -9.000000 124.447933 -37.764535 1808.792893 7.103210 21.363443 0.000000 0.123966
21.000000 46.321000 0.000000 -13.000000 -9.000000 120.721944 -31.148246 1625.498940 193.640027 21.576363 0.000000 0.023232
22.000000 45.457000 1.000000 -13.000000 -9.000000 116.359225 -25.233856 1482.242661 351.416406 21.988082 0.000000 0.049957
24.000000 48.488000 -1.000000 -12.000000 -9.000000 121.049443 -40.638068 1898.736919 87.106328 20.611743 0.000000 0.142411
25.000000 48.008000 0.000000 -4.000000 -3.000000 117.381898 -33.881477 1697.734779 269.509233 6.939655 0.000000 0.030426
26.000000 47.062000 1.000000 -12.000000 -9.000000 113.020724 -27.779681 1541.977885 424.106834 21.239505 0.000000 0.047868
27.000000 45.663000 2.000000 -12.000000 -9.000000 108.109576 -22.359866 1417.734760 560.397201 21.892329 0.000000 0.100640
29.000000 50.123000 -1.000000 -11.000000 -9.000000 117.144143 -43.491271 1996.053542 180.379499 19.940426 0.000000 0.166869
30.000000 49.621000 0.000000 -11.000000 -9.000000 113.541087 -36.627005 1775.114035 356.722316 20.143483 0.000000 0.045498
31.000000 48.580000 1.000000 -11.000000 -9.000000 109.189550 -30.360959 1605.472670 506.878609 20.576816 0.000000 0.046949
32.000000 47.018000 2.000000 -11.000000 -9.000000 104.237293 -24.747522 1471.122019 640.293672 21.262605 0.000000 0.099861
34.000000 51.604000 -1.000000 -10.000000 -9.000000 112.664327 -46.310425 2101.687984 290.350819 19.369324 0.000000 0.199597
35.000000 51.076000 0.000000 -10.000000 -9.000000 109.128366 -39.372278 1858.206327 458.105360 19.570788 0.000000 0.068584
36.000000 49.928000 1.000000 -10.000000 -9.000000 104.793334 -32.967779 1673.093471 602.211978 20.022639 0.000000 0.050316
37.000000 48.181000 2.000000 -10.000000 -9.000000 99.809215 -27.177552 1527.607165 731.818865 20.751184 0.000000 0.098285
38.000000 45.896000 3.000000 -10.000000 -9.000000 94.347398 -22.018414 1410.253536 852.740205 21.786549 0.000000 0.129083
40.000000 52.819000 -1.000000 -9.000000 -9.000000 107.537075 -49.082791 2216.754263 421.707106 18.925374 0.000000 0.243480
41.000000 50.988000 1.000000 -9.000000 -9.000000 99.752583 -35.589614 1745.255968 713.516331 19.608305 0.000000 0.062172
42.000000 49.030000 2.000000 -9.000000 -9.000000 94.746583 -29.642146 1587.467897 838.174899 20.393542 0.000000 0.097106
43.000000 46.464000 1.000000 -3.000000 -3.000000 89.228903 -24.302077 1461.012465 956.894261 7.174014 0.000000 0.122926
45.000000 53.011000 0.000000 -8.000000 -9.000000 98.272846 -44.812224 2044.262588 720.406617 18.859941 0.000000 0.143784
46.000000 51.597000 1.000000 -8.000000 -9.000000 93.982896 -38.215565 1822.433620 845.620037 19.378497 0.000000 0.085812
47.000000 49.404000 2.000000 -8.000000 -9.000000 88.965647 -32.132765 1651.016123 963.947455 20.240916 0.000000 0.099462
48.000000 46.531000 3.000000 -8.000000 -9.000000 83.409809 -26.626005 1514.579168 1080.095752 21.493327 0.000000 0.115823
50.000000 53.126000 0.000000 -7.000000 -9.000000 91.667188 -47.483165 2148.876435 894.645386 18.820834 0.000000 0.201461
51.000000 51.548000 1.000000 -7.000000 -9.000000 87.399508 -40.834629 1905.168065 1005.609437 19.399198 0.000000 0.123727
52.000000 49.096000 2.000000 -7.000000 -9.000000 82.382202 -34.640295 1718.603403 1115.963148 20.370148 0.000000 0.111754
53.000000 45.896000 3.000000 -7.000000 -9.000000 76.810329 -28.983447 1571.193244 1229.351017 21.793258 0.000000 0.113060
55.000000 52.353000 0.000000 -2.000000 -3.000000 84.176349 -50.106980 2262.552206 1112.160544 6.367032 0.000000 0.278961
56.000000 50.581000 1.000000 -6.000000 -9.000000 79.925250 -43.435977 1994.081847 1204.347389 19.772114 0.000000 0.179700
57.000000 47.853000 2.000000 -6.000000 -9.000000 74.919529 -37.155243 1790.627454 1304.879852 20.901964 0.000000 0.143217
60.000000 48.408000 1.000000 -5.000000 -9.000000 71.502940 -46.009214 2089.894114 1459.415390 20.662616 0.000000 0.260580
64.000000 47.399000 -1.000000 -14.000000 -8.000000 132.099167 -30.691184 1613.832804 -189.879449 21.082164 0.000000 0.102203
65.000000 46.908000 0.000000 -7.000000 -4.000000 127.820358 -23.792542 1449.534988 27.927899 10.652046 0.000000 0.026022
66.000000 46.025000 1.000000 -14.000000 -8.000000 122.930385 -17.874585 1322.106437 208.549140 21.714771 0.000000 0.058293
68.000000 49.517000 -1.000000 -13.000000 -8.000000 129.476075 -33.932229 1699.118870 -127.429148 20.180777 0.000000 0.115069
69.000000 49.003000 0.000000 -13.000000 -8.000000 125.243081 -26.764209 1517.831735 89.300393 20.393981 0.000000 0.023570
70.000000 48.030000 1.000000 -13.000000 -8.000000 120.321270 -20.551011 1378.502482 268.746086 20.808762 0.000000 0.058686
71.000000 46.616000 2.000000 -13.000000 -8.000000 114.888762 -15.232361 1268.075557 423.475863 21.441998 0.000000 0.106784
73.000000 51.689000 -1.000000 -12.000000 -8.000000 126.396468 -37.190246 1791.663074 -54.954667 19.333710 0.000000 0.130939
74.000000 51.151000 0.000000 -6.000000 -4.000000 122.224424 -29.790082 1591.152163 159.276822 9.769224 0.000000 0.022253
75.000000 50.076000 1.000000 -12.000000 -8.000000 117.283074 -23.301154 1438.551237 336.588964 19.959546 0.000000 0.057935
76.000000 48.485000 1.000000 -6.000000 -4.000000 111.763483 -17.701552 1318.521440 489.952886 10.308269 0.000000 0.109435
77.000000 46.431000 3.000000 -12.000000 -8.000000 105.851843 -12.906882 1221.640363 627.465656 21.531381 0.000000 0.142451
79.000000 53.865000 -1.000000 -11.000000 -8.000000 122.787447 -40.444270 1892.433134 30.018859 18.553535 0.000000 0.151449
80.000000 53.303000 0.000000 -11.000000 -8.000000 118.689507 -32.854407 1670.071724 239.855465 18.750509 0.000000 0.026820
81.000000 52.111000 1.000000 -11.000000 -8.000000 113.741091 -26.114952 1502.619449 413.798343 19.181099 0.000000 0.056273
82.000000 50.315000 2.000000 -11.000000 -8.000000 108.144100 -20.245641 1371.972903 565.069820 19.868182 0.000000 0.110669
83.000000 47.980000 3.000000 -11.000000 -8.000000 102.104239 -15.188904 1267.198881 701.824139 20.837722 0.000000 0.143362
85.000000 55.969000 -1.000000 -10.000000 -8.000000 118.566098 -43.673489 2002.576800 130.825050 17.857028 0.000000 0.178869
86.000000 55.382000 0.000000 -5.000000 -4.000000 114.552007 -35.940154 1755.257249 333.715698 9.023841 0.000000 0.040990
87.000000 54.056000 1.000000 -10.000000 -8.000000 109.608461 -28.980654 1571.124666 502.685468 18.492390 0.000000 0.054707
88.000000 52.020000 1.000000 -5.000000 -4.000000 103.945477 -22.857627 1428.706805 650.961429 9.609166 0.000000 0.110236
89.000000 49.360000 3.000000 -10.000000 -8.000000 97.788048 -17.544352 1315.270470 786.613286 20.256708 0.000000 0.141638
90.000000 46.203000 2.000000 -5.000000 -4.000000 91.349896 -12.964823 1222.786191 914.974222 10.821755 0.000000 0.153439
92.000000 57.886000 -1.000000 -9.000000 -8.000000 113.639510 -46.858030 2123.465764 252.056271 17.267083 0.000000 0.216258
93.000000 57.270000 0.000000 -9.000000 -8.000000 109.713831 -39.029564 1847.485833 444.537856 17.454105 0.000000 0.065239
94.000000 55.787000 1.000000 -9.000000 -8.000000 104.785630 -31.885040 1644.544345 606.437249 17.919832 0.000000 0.055986
95.000000 53.475000 2.000000 -9.000000 -8.000000 99.069870 -25.529008 1489.035084 750.596413 18.697123 0.000000 0.108138
96.000000 50.441000 3.000000 -9.000000 -8.000000 92.809989 -19.968494 1366.068964 884.793206 19.824210 0.000000 0.136578
97.000000 46.852000 4.000000 -9.000000 -8.000000 86.244065 -15.149202 1266.398249 1014.199821 21.345850 0.000000 0.143368
98.000000 59.444000 -1.000000 -8.000000 -8.000000 107.906186 -49.979657 2256.753082 400.207311 16.815787 0.000000 0.267707
99.000000 57.127000 1.000000 -8.000000 -8.000000 99.161182 -34.813745 1723.426995 729.586120 17.501333 0.000000 0.065336
100.000000 54.496000 1.000000 -4.000000 -4.000000 93.407763 -28.249865 1553.310497 868.244183 9.174187 0.000000 0.105259
101.000000 51.041000 3.000000 -8.000000 -8.000000 87.066291 -22.455341 1419.833166 1000.682878 19.593133 0.000000 0.127785
102.000000 46.974000 1.000000 -2.000000 -2.000000 80.399204 -17.400908 1312.308923 1131.788241 5.323207 0.000000 0.127463
104.000000 59.698000 0.000000 -7.000000 -8.000000 97.493177 -45.148317 2056.880967 740.274539 16.747539 0.000000 0.150112
105.000000 57.820000 1.000000 -7.000000 -8.000000 92.615294 -37.751659 1808.405905 878.822331 17.293308 0.000000 0.088726
106.000000 54.831000 2.000000 -7.000000 -8.000000 86.841346 -31.009022 1621.933523 1010.298874 18.238360 0.000000 0.105071
107.000000 50.913000 3.000000 -7.000000 -8.000000 80.446401 -24.997653 1476.830599 1140.867677 19.644898 0.000000 0.116637
108.000000 46.335000 4.000000 -7.000000 -8.000000 73.716045 -19.715839 1360.704857 1274.982267 21.588754 0.000000 0.106844
110.000000 59.656000 0.000000 -3.000000 -4.000000 89.879973 -48.143926 2176.401275 944.379020 8.380697 0.000000 0.218717
111.000000 57.527000 1.000000 -6.000000 -8.000000 85.027718 -40.683383 1900.216183 1064.481480 17.383550 0.000000 0.131037
112.000000 54.144000 1.000000 -3.000000 -4.000000 79.252483 -33.794283 1695.360712 1186.827558 9.236149 0.000000 0.116734
113.000000 49.737000 3.000000 -6.000000 -8.000000 72.841031 -27.586992 1537.361961 1315.953208 20.111645 0.000000 0.111526
115.000000 58.248000 0.000000 -5.000000 -8.000000 81.127385 -51.076793 2307.761185 1208.423228 17.168852 0.000000 0.314688
116.000000 55.823000 1.000000 -5.000000 -8.000000 76.292685 -43.593715 1999.716075 1303.469790 17.916562 0.000000 0.198493
117.000000 52.023000 2.000000 -5.000000 -8.000000 70.537530 -36.592732 1774.114862 1414.715091 19.227882 0.000000 0.155744
118.000000 47.139000 3.000000 -5.000000 -8.000000 64.156596 -30.213844 1601.766432 1544.257850 21.223005 0.000000 0.136690
120.000000 52.240000 1.000000 -4.000000 -8.000000 66.342901 -46.468107 2107.913879 1625.564284 19.148172 0.000000 0.302632
121.000000 48.027000 1.000000 -2.000000 -4.000000 60.631073 -39.391079 1858.797476 1724.729931 10.415340 0.000000 0.239248
125.000000 47.284000 -1.000000 -15.000000 -7.000000 138.608347 -21.760591 1404.628511 -373.871168 21.131543 0.000000 0.080302
126.000000 46.761000 0.000000 -15.000000 -7.000000 133.711812 -14.950270 1262.391167 -124.004025 21.369376 0.000000 0.026446
127.000000 45.868000 1.000000 -15.000000 -7.000000 128.292588 -9.389132 1152.969616 79.681068 21.787251 0.000000 0.056000
129.000000 49.671000 -1.000000 -14.000000 -7.000000 136.792207 -25.323335 1484.298363 -326.633555 20.116685 0.000000 0.092502
130.000000 49.118000 0.000000 -4.000000 -2.000000 131.899100 -18.065967 1326.079729 -74.749450 5.812697 0.000000 0.027791
131.000000 48.130000 1.000000 -14.000000 -7.000000 126.391602 -12.090061 1205.542217 129.736740 20.763727 0.000000 0.060263
132.000000 46.726000 2.000000 -14.000000 -7.000000 120.466738 -7.183729 1110.657079 302.846210 21.389704 0.000000 0.102639
134.000000 52.213000 -1.000000 -13.000000 -7.000000 134.593551 -28.976308 1571.017998 -271.970995 19.137826 0.000000 0.105860
135.000000 51.630000 0.000000 -13.000000 -7.000000 129.727227 -21.299240 1394.613152 -18.992308 19.355066 0.000000 0.027437
136.000000 50.533000 1.000000 -13.000000 -7.000000 124.144736 -14.912040 1261.621962 185.628370 19.776945 0.000000 0.063618
137.000000 48.945000 2.000000 -13.000000 -7.000000 118.069215 -9.637908 1157.774101 358.838409 20.420848 0.000000 0.109150
138.000000 46.917000 3.000000 -13.000000 -7.000000 111.693817 -5.278420 1074.435958 511.001578 21.306184 0.000000 0.140851
140.000000 54.896000 -1.000000 -12.000000 -7.000000 131.940362 -32.692377 1665.766459 -208.112405 18.202809 0.000000 0.121144
141.000000 54.285000 0.000000 -12.000000 -7.000000 127.125092 -24.635203 1468.566127 44.681023 18.409226 0.000000 0.025368
142.000000 53.062000 1.000000 -12.000000 -7.000000 121.483022 -17.848807 1321.571907 248.556382 18.835388 0.000000 0.065827
143.000000 51.255000 2.000000 -12.000000 -7.000000 115.263138 -12.203689 1207.775598 421.341850 19.501441 0.000000 0.114750
144.000000 48.931000 3.000000 -12.000000 -7.000000 108.688732 -7.519628 1117.071938 573.772273 20.430076 0.000000 0.146639
145.000000 46.187000 4.000000 -12.000000 -7.000000 101.948755 -3.619326 1043.079175 712.777330 21.646935 0.000000 0.163719
147.000000 57.690000 -1.000000 -11.000000 -7.000000 128.747942 -36.441374 1769.712877 -132.699732 17.321939 0.000000 0.139607
148.000000 57.051000 0.000000 -11.000000 -7.000000 124.007531 -28.055258 1548.607976 118.133013 17.517470 0.000000 0.022647
149.000000 55.680000 1.000000 -11.000000 -7.000000 118.323025 -20.891181 1385.807006 320.098768 17.950366 0.000000 0.066676
150.000000 53.614000 2.000000 -11.000000 -7.000000 111.967689 -14.877877 1260.934810 491.795308 18.644264 0.000000 0.119065
151.000000 50.939000 3.000000 -11.000000 -7.000000 105.197310 -9.862600 1162.119557 644.245951 19.626048 0.000000 0.150659
152.000000 47.780000 4.000000 -11.000000 -7.000000 98.232778 -5.676145 1081.975884 784.507753 20.926429 0.000000 0.165072
154.000000 60.534000 -1.000000 -10.000000 -7.000000 124.917081 -40.191482 1884.264951 -42.529648 16.509022 0.000000 0.163213
155.000000 59.868000 0.000000 -10.000000 -7.000000 120.272954 -31.537486 1635.522972 203.870344 16.694055 0.000000 0.023799
156.000000 58.326000 1.000000 -10.000000 -7.000000 114.564185 -24.026946 1454.803736 402.378201 17.137305 0.000000 0.066109
157.000000 55.951000 2.000000 -10.000000 -7.000000 108.085295 -17.655120 1317.560619 572.145222 17.866909 0.000000 0.121614
158.000000 52.857000 3.000000 -10.000000 -7.000000 101.126261 -12.306062 1209.789386 724.349142 18.915250 0.000000 0.152152
159.000000 49.211000 4.000000 -10.000000 -7.000000 93.943657 -7.825250 1122.917226 866.104242 20.319782 0.000000 0.162831
160.000000 63.323000 -1.000000 -9.000000 -7.000000 120.332460 -43.910831 2011.133082 66.851844 15.782993 0.000000 0.194894
161.000000 62.631000 0.000000 -9.000000 -7.000000 115.801140 -35.057354 1730.236119 305.351658 15.958731 0.000000 0.035918
162.000000 60.886000 1.000000 -9.000000 -7.000000 110.086249 -27.240909 1529.111934 498.328283 16.417804 0.000000 0.064607
163.000000 58.144000 2.000000 -9.000000 -7.000000 103.499120 -20.527720 1378.003546 665.103377 17.194299 0.000000 0.121830
164.000000 54.556000 3.000000 -9.000000 -7.000000 96.364672 -14.847164 1260.317246 816.799483 18.328002 0.000000 0.150091
165.000000 50.341000 4.000000 -9.000000 -7.000000 88.978512 -10.066539 1166.068768 960.490607 19.865639 0.000000 0.155540
166.000000 45.750000 5.000000 -9.000000 -7.000000 81.584774 -6.040405 1088.890538 1101.114541 21.862452 0.000000 0.142225
167.000000 65.884000 -1.000000 -8.000000 -7.000000 114.862047 -47.569090 2152.416351 201.808682 15.170545 0.000000 0.238889
168.000000 65.163000 0.000000 -8.000000 -7.000000 110.451920 -38.588676 1833.846202 427.491350 15.339672 0.000000 0.061137
169.000000 63.180000 1.000000 -8.000000 -7.000000 104.747521 -30.515162 1609.369477 612.135757 15.823066 0.000000 0.064231
170.000000 60.004000 2.000000 -8.000000 -7.000000 98.071409 -23.485535 1442.663019 774.582660 16.662929 0.000000 0.119230
171.000000 55.837000 3.000000 -8.000000 -7.000000 90.782962 -17.481299 1313.968109 925.579020 17.909373 0.000000 0.143186
172.000000 50.970000 4.000000 -8.000000 -7.000000 83.219253 -12.398771 1211.614451 1072.029552 19.622364 0.000000 0.141281
173.000000 45.730000 5.000000 -8.000000 -7.000000 75.660448 -8.104498 1128.265576 1218.910983 21.874272 0.000000 0.117995
175.000000 64.923000 1.000000 -7.000000 -7.000000 98.385400 -33.829561 1696.320646 750.012165 15.399909 0.000000 0.070551
176.000000 61.240000 2.000000 -7.000000 -7.000000 91.644166 -26.516015 1511.996208 906.474282 16.328484 0.000000 0.114127
177.000000 56.410000 3.000000 -7.000000 -7.000000 84.234294 -20.201948 1371.040745 1056.798970 17.729384 0.000000 0.130284
178.000000 50.821000 4.000000 -7.000000 -7.000000 76.535044 -14.819405 1259.759209 1207.566089 19.682459 0.000000 0.118164
180.000000 68.296000 0.000000 -6.000000 -7.000000 96.471834 -45.579561 2073.291484 766.562035 14.639385 0.000000 0.158591
181.000000 65.690000 1.000000 -6.000000 -7.000000 90.821954 -37.162405 1790.839270 921.623844 15.221917 0.000000 0.092983
182.000000 61.429000 2.000000 -6.000000 -7.000000 84.044879 -29.604371 1586.528853 1070.127454 16.280341 0.000000 0.110265
183.000000 55.870000 3.000000 -6.000000 -7.000000 76.560989 -23.000608 1431.873290 1220.395766 17.903056 0.000000 0.112914
184.000000 49.521000 4.000000 -6.000000 -7.000000 68.789595 -17.324440 1310.732049 1378.541477 20.201795 0.000000 0.089094
186.000000 67.900000 0.000000 -5.000000 -7.000000 87.499104 -48.988892 2212.650250 1012.637466 14.726745 0.000000 0.242877
187.000000 64.891000 1.000000 -5.000000 -7.000000 81.878982 -40.491258 1893.958201 1142.947652 15.411775 0.000000 0.141274
188.000000 59.996000 2.000000 -5.000000 -7.000000 75.101608 -32.733914 1666.868618 1281.407186 16.671616 0.000000 0.121792
189.000000 53.688000 3.000000 -5.000000 -7.000000 67.609795 -25.866801 1496.849953 1433.771683 18.633476 0.000000 0.107641
190.000000 46.613000 4.000000 -5.000000 -7.000000 59.856378 -19.908312 1364.789701 1605.726114 21.465090 0.000000 0.092102
192.000000 61.780000 1.000000 -4.000000 -7.000000 71.408517 -43.793846 2006.907208 1442.548363 16.190413 0.000000 0.226862
193.000000 56.239000 2.000000 -4.000000 -7.000000 64.673102 -35.886534 1753.721696 1569.725296 17.788283 0.000000 0.176861
194.000000 49.249000 3.000000 -4.000000 -7.000000 57.260699 -28.788199 1566.409130 1730.601783 20.316039 0.000000 0.162725
197.000000 49.450000 2.000000 -3.000000 -7.000000 52.698270 -39.043304 1847.913622 1996.747958 20.233221 0.000000 0.306227
202.000000 45.993000 0.000000 -8.000000 -3.000000 138.141829 -4.672479 1062.967048 -264.318491 10.862451 0.000000 0.011047
205.000000 48.472000 0.000000 -5.000000 -2.000000 137.037004 -7.739079 1121.268285 -225.302995 6.871490 0.000000 0.017313
206.000000 47.483000 1.000000 -15.000000 -6.000000 130.997851 -2.513545 1022.246958 4.561566 21.045600 0.000000 0.048644
207.000000 46.112000 2.000000 -15.000000 -6.000000 124.678055 1.604072 944.859832 196.056304 21.673248 0.000000 0.086428
210.000000 51.173000 0.000000 -7.000000 -3.000000 135.670992 -10.997493 1184.161538 -181.415737 9.763228 0.000000 0.022440
211.000000 50.070000 1.000000 -14.000000 -6.000000 129.475119 -5.242580 1073.756997 50.832386 19.958270 0.000000 0.055636
212.000000 48.515000 1.000000 -7.000000 -3.000000 122.930339 -0.703175 988.209726 243.852789 10.300136 0.000000 0.096052
213.000000 46.555000 3.000000 -14.000000 -6.000000 116.207912 2.926706 919.974321 410.521004 21.469785 0.000000 0.126691
216.000000 54.114000 0.000000 -13.000000 -6.000000 133.983326 -14.443250 1252.211572 -131.661471 18.465602 0.000000 0.026073
217.000000 52.878000 1.000000 -13.000000 -6.000000 127.642185 -8.139457 1128.935640 102.431284 18.898958 0.000000 0.062186
218.000000 51.101000 2.000000 -13.000000 -6.000000 120.869902 -3.152998 1034.288545 296.643409 19.558260 0.000000 0.105438
219.000000 48.847000 3.000000 -13.000000 -6.000000 113.874521 0.833859 959.334957 464.574075 20.463562 0.000000 0.136418
220.000000 46.203000 4.000000 -13.000000 -6.000000 106.819667 4.065187 898.507548 614.823783 21.637362 0.000000 0.155368
223.000000 55.912000 1.000000 -12.000000 -6.000000 125.428245 -11.203958 1188.189281 160.442569 17.874232 0.000000 0.067989
224.000000 53.868000 1.000000 -6.000000 -3.000000 118.428569 -5.749221 1083.362349 355.410512 9.277348 0.000000 0.114311
225.000000 51.255000 1.000000 -4.000000 -2.000000 111.151406 -1.382760 1000.980032 524.461493 6.500990 0.000000 0.145294
226.000000 48.192000 2.000000 -6.000000 -3.000000 103.795754 2.153328 934.530946 676.534594 10.372825 0.000000 0.162107
229.000000 60.741000 0.000000 -11.000000 -6.000000 129.325530 -21.848560 1406.545483 -8.973724 16.452133 0.000000 0.027203
230.000000 59.162000 1.000000 -11.000000 -6.000000 122.744733 -14.432020 1251.986643 226.290789 16.892888 0.000000 0.072705
231.000000 56.793000 2.000000 -11.000000 -6.000000 115.521143 -8.493735 1135.732942 421.447924 17.599687 0.000000 0.122296
232.000000 53.745000 3.000000 -11.000000 -6.000000 107.956140 -3.727223 1045.114370 591.462121 18.600424 0.000000 0.152790
233.000000 50.175000 4.000000 -11.000000 -6.000000 100.291157 0.133418 972.493752 745.575238 19.927032 0.000000 0.166629
234.000000 46.261000 5.000000 -11.000000 -6.000000 92.712191 3.297226 912.993538 889.929196 21.616248 0.000000 0.166164
235.000000 65.168000 -1.000000 -10.000000 -6.000000 131.637208 -35.424466 1740.574436 -233.196165 15.333708 0.000000 0.150212
236.000000 64.396000 0.000000 -5.000000 -3.000000 126.147831 -25.766898 1494.534059 67.970324 7.759436 0.000000 0.024413
237.000000 62.596000 1.000000 -10.000000 -6.000000 119.480802 -17.815003 1320.871199 301.892320 15.966979 0.000000 0.075957
238.000000 59.831000 1.000000 -5.000000 -3.000000 112.041029 -11.385937 1191.744091 496.504271 8.353612 0.000000 0.128866
239.000000 56.250000 3.000000 -10.000000 -6.000000 104.186516 -6.202371 1091.968033 667.323210 17.773290 0.000000 0.158142
240.000000 52.067000 2.000000 -5.000000 -3.000000 96.208957 -1.998505 1012.556915 823.835523 9.602125 0.000000 0.167861
241.000000 47.519000 5.000000 -10.000000 -6.000000 88.332287 1.444836 947.853185 972.346596 21.045681 0.000000 0.161177
242.000000 69.000000 -1.000000 -9.000000 -6.000000 127.585214 -39.847952 1873.261712 -138.021110 14.482857 0.000000 0.178768
243.000000 66.135000 1.000000 -9.000000 -6.000000 115.498000 -21.339134 1395.476695 389.898144 15.113477 0.000000 0.077382
244.000000 62.884000 2.000000 -9.000000 -6.000000 107.855113 -14.422156 1251.789076 583.016172 15.897238 0.000000 0.133280
245.000000 58.653000 1.000000 -3.000000 -2.000000 99.716201 -8.809419 1141.800335 754.512465 5.682211 0.000000 0.160224
246.000000 53.733000 4.000000 -9.000000 -6.000000 91.431469 -4.245618 1054.899705 914.030420 18.610575 0.000000 0.164230
247.000000 48.441000 5.000000 -9.000000 -6.000000 83.269114 -0.506137 984.507963 1068.028716 20.647119 0.000000 0.149342
249.000000 69.625000 1.000000 -8.000000 -6.000000 110.624500 -24.985238 1476.546705 494.099832 14.357073 0.000000 0.076893
250.000000 65.778000 1.000000 -4.000000 -3.000000 102.798307 -17.595129 1316.319940 684.505641 7.599573 0.000000 0.134516
251.000000 60.757000 3.000000 -8.000000 -6.000000 94.390451 -11.547537 1194.904645 856.656911 16.457999 0.000000 0.157394
252.000000 54.961000 2.000000 -4.000000 -3.000000 85.817632 -6.610028 1099.722388 1020.231796 9.098346 0.000000 0.153410
253.000000 48.814000 5.000000 -8.000000 -6.000000 77.398216 -2.558878 1023.100200 1181.855623 20.491676 0.000000 0.127506
255.000000 75.562000 0.000000 -7.000000 -6.000000 111.410931 -38.000462 1815.907224 405.430336 13.228478 0.000000 0.056007
256.000000 72.785000 1.000000 -7.000000 -6.000000 104.650134 -28.728891 1564.959496 620.144383 13.735124 0.000000 0.075582
257.000000 68.213000 2.000000 -7.000000 -6.000000 96.669059 -20.893592 1385.858892 806.296157 14.658230 0.000000 0.131321
258.000000 62.246000 3.000000 -7.000000 -6.000000 88.023290 -14.413422 1251.614164 979.354191 16.066317 0.000000 0.147335
259.000000 55.434000 4.000000 -7.000000 -6.000000 79.202433 -9.092473 1147.249397 1148.878842 18.043809 0.000000 0.132062
260.000000 48.338000 5.000000 -7.000000 -6.000000 70.579178 -4.715872 1063.787678 1321.751728 20.695931 0.000000 0.091161
262.000000 75.136000 1.000000 -6.000000 -6.000000 97.325254 -32.541062 1661.759981 776.874643 13.306966 0.000000 0.078499
263.000000 54.693000 2.000000 -3.000000 -3.000000 71.401265 -11.691999 1197.733087 1310.860786 9.145359 0.000000 0.096694
264.000000 46.612000 5.000000 -6.000000 -6.000000 62.662200 -6.978679 1106.745790 1501.569451 21.465178 0.000000 0.039745
266.000000 79.744000 0.000000 -5.000000 -6.000000 95.076426 -46.152948 2095.505873 802.981475 12.537949 0.000000 0.170529
267.000000 75.912000 1.000000 -5.000000 -6.000000 88.369917 -36.389260 1768.201203 979.048423 13.172873 0.000000 0.098989
268.000000 69.473000 2.000000 -5.000000 -6.000000 80.212408 -27.800986 1542.489260 1150.895947 14.396415 0.000000 0.113292
269.000000 61.207000 3.000000 -5.000000 -6.000000 71.285201 -20.500671 1377.424312 1330.268500 16.343950 0.000000 0.100394
270.000000 52.122000 4.000000 -5.000000 -6.000000 62.224137 -14.405634 1251.458222 1526.288515 19.195812 0.000000 0.062957
271.000000 73.994000 1.000000 -4.000000 -6.000000 77.505213 -40.239099 1885.798879 1253.444196 13.516718 0.000000 0.156508
272.000000 66.480000 1.000000 -2.000000 -3.000000 69.358717 -31.367003 1631.122350 1415.834433 7.523598 0.000000 0.127928
273.000000 57.042000 3.000000 -4.000000 -6.000000 60.462710 -23.700062 1447.461542 1607.035012 17.540197 0.000000 0.110988
274.000000 46.977000 2.000000 -2.000000 -3.000000 51.506709 -17.228104 1308.747345 1837.123579 10.650650 0.000000 0.141072
275.000000 67.977000 1.000000 -3.000000 -6.000000 64.523366 -44.056106 2016.404031 1654.589063 14.716039 0.000000 0.274842
276.000000 59.449000 2.000000 -3.000000 -6.000000 56.479726 -34.973862 1727.897874 1811.050768 16.829959 0.000000 0.222896
277.000000 49.118000 1.000000 -1.000000 -2.000000 47.790501 -26.983145 1523.000567 2036.505986 6.790978 0.000000 0.244582
283.000000 47.223000 0.000000 -16.000000 -5.000000 140.433428 3.879301 902.016234 -364.554158 21.158757 0.000000 0.013677
284.000000 46.247000 1.000000 -16.000000 -5.000000 134.020561 7.794993 827.661848 -108.812551 21.606954 0.000000 0.027762
286.000000 49.961000 0.000000 -6.000000 -2.000000 139.753810 0.890759 958.265845 -330.695277 7.999667 0.000000 0.003815
287.000000 48.870000 1.000000 -15.000000 -5.000000 133.091610 5.365708 873.910134 -70.314243 20.447338 0.000000 0.034417
288.000000 47.374000 2.000000 -15.000000 -5.000000 126.248006 8.763522 809.082431 142.564702 21.095434 0.000000 0.069402
289.000000 45.516000 3.000000 -15.000000 -5.000000 119.347889 11.414107 757.705213 323.618103 21.959044 0.000000 0.099419
291.000000 52.991000 0.000000 -14.000000 -5.000000 138.870771 -2.357159 1019.303941 -292.553217 18.855730 0.000000 0.005410
292.000000 51.765000 1.000000 -14.000000 -5.000000 131.956958 2.736228 923.561181 -27.741136 19.304298 0.000000 0.042842
293.000000 50.052000 2.000000 -14.000000 -5.000000 124.802981 6.587817 850.700420 187.900369 19.966877 0.000000 0.081231
294.000000 47.912000 3.000000 -14.000000 -5.000000 117.567083 9.577444 793.394254 371.171567 20.861358 0.000000 0.111918
296.000000 56.351000 0.000000 -13.000000 -5.000000 137.727885 -5.876032 1085.769164 -249.242893 17.731912 0.000000 0.013670
297.000000 54.963000 1.000000 -13.000000 -5.000000 130.564520 -0.106728 977.004872 19.658141 18.181490 0.000000 0.052015
298.000000 52.988000 2.000000 -13.000000 -5.000000 123.085150 4.245377 895.104838 237.840670 18.861333 0.000000 0.093363
299.000000 50.502000 3.000000 -13.000000 -5.000000 115.490686 7.609497 831.210108 423.289563 19.792191 0.000000 0.124327
300.000000 47.610000 4.000000 -13.000000 -5.000000 107.933176 10.270780 779.971155 587.005696 20.997384 0.000000 0.144147
302.000000 60.078000 0.000000 -12.000000 -5.000000 136.252318 -9.671274 1158.419012 -199.613337 16.632245 0.000000 0.020547
303.000000 58.496000 1.000000 -12.000000 -5.000000 128.847073 -3.174464 1034.693020 72.848204 17.083733 0.000000 0.061319
304.000000 56.198000 2.000000 -12.000000 -5.000000 121.028965 1.725057 942.585215 293.262836 17.784456 0.000000 0.105536
305.000000 53.287000 3.000000 -12.000000 -5.000000 113.053027 5.500840 871.348731 480.845035 18.758774 0.000000 0.136326
306.000000 49.901000 4.000000 -12.000000 -5.000000 105.110537 8.475800 814.611460 647.172034 20.034326 0.000000 0.153750
307.000000 46.200000 5.000000 -12.000000 -5.000000 97.344492 10.868314 768.355611 799.740189 21.642603 0.000000 0.158943
309.000000 64.208000 0.000000 -11.000000 -5.000000 134.349954 -13.739517 1238.158827 -142.138567 15.562774 0.000000 0.025486
310.000000 62.392000 1.000000 -11.000000 -5.000000 126.717392 -6.474980 1097.152174 133.093146 16.017503 0.000000 0.070281
311.000000 59.693000 2.000000 -11.000000 -5.000000 118.549984 -0.983281 993.472631 355.317322 16.743914 0.000000 0.117410
312.000000 56.251000 3.000000 -11.000000 -5.000000 110.170597 3.242182 914.030909 544.993955 17.771011 0.000000 0.147444
313.000000 52.258000 4.000000 -11.000000 -5.000000 101.820406 6.560669 851.217165 714.265537 19.132078 0.000000 0.161540
314.000000 47.924000 5.000000 -11.000000 -5.000000 93.676364 9.219347 800.305388 870.939994 20.865501 0.000000 0.161569
316.000000 66.664000 1.000000 -10.000000 -5.000000 124.061760 -10.011358 1164.999729 202.089976 14.991724 0.000000 0.078430
317.000000 63.462000 2.000000 -10.000000 -5.000000 115.538768 -3.887975 1048.147452 425.553455 15.750378 0.000000 0.128510
318.000000 59.355000 3.000000 -10.000000 -5.000000 106.736647 0.824738 959.506328 617.312193 16.842836 0.000000 0.156974
319.000000 54.608000 4.000000 -10.000000 -5.000000 97.959592 4.517638 889.960420 790.041666 18.309959 0.000000 0.166480
320.000000 49.508000 2.000000 -4.000000 -2.000000 89.426757 7.466704 833.939425 951.860751 8.079826 0.000000 0.159783
322.000000 73.747000 0.000000 -9.000000 -5.000000 128.742433 -22.622264 1423.508830 5.434549 13.550702 0.000000 0.026797
323.000000 71.293000 1.000000 -9.000000 -5.000000 120.731389 -13.779975 1238.964412 282.183118 14.019035 0.000000 0.085206
324.000000 67.454000 2.000000 -9.000000 -5.000000 111.852836 -6.994573 1107.048848 506.124794 14.819150 0.000000 0.138117
325.000000 62.508000 3.000000 -9.000000 -5.000000 102.614315 -1.759291 1008.058462 700.023787 15.994492 0.000000 0.163825
326.000000 56.828000 4.000000 -9.000000 -5.000000 93.398697 2.339194 931.034086 877.027592 17.596433 0.000000 0.166988
327.000000 50.804000 5.000000 -9.000000 -5.000000 84.476868 5.603897 869.394507 1045.573722 19.686173 0.000000 0.151413
329.000000 79.087000 0.000000 -8.000000 -5.000000 124.676898 -27.365529 1532.076696 102.551328 12.636340 0.000000 0.023101
330.000000 76.195000 1.000000 -8.000000 -5.000000 116.531382 -17.768735 1319.912559 376.725083 13.117954 0.000000 0.089920
331.000000 71.545000 2.000000 -8.000000 -5.000000 107.306418 -10.304679 1170.686622 600.141501 13.972984 0.000000 0.145120
332.000000 65.538000 3.000000 -8.000000 -5.000000 97.628286 -4.516098 1060.010482 796.401898 15.256569 0.000000 0.166293
333.000000 58.706000 4.000000 -8.000000 -5.000000 87.976340 0.018369 974.654946 979.030018 17.035263 0.000000 0.160603
334.000000 51.586000 5.000000 -8.000000 -5.000000 78.683387 3.624532 906.822646 1156.821069 19.390159 0.000000 0.133084
336.000000 84.601000 0.000000 -7.000000 -5.000000 119.441765 -32.239269 1653.809329 222.774894 11.813705 0.000000 0.025190
337.000000 81.158000 1.000000 -7.000000 -5.000000 111.207354 -21.955645 1408.882198 490.716582 12.316747 0.000000 0.091814
338.000000 75.472000 2.000000 -7.000000 -5.000000 101.658319 -13.814697 1239.655995 712.311339 13.247248 0.000000 0.147796
339.000000 68.131000 3.000000 -7.000000 -5.000000 91.555783 -7.449531 1115.732464 911.518785 14.677566 0.000000 0.161666
340.000000 59.902000 4.000000 -7.000000 -5.000000 81.494123 -2.450877 1021.067527 1102.113506 16.697373 0.000000 0.143397
341.000000 51.515000 5.000000 -7.000000 -5.000000 71.877318 1.522502 946.393254 1293.383254 19.419149 0.000000 0.099350
343.000000 89.870000 0.000000 -6.000000 -5.000000 112.706694 -37.176484 1791.255785 375.759222 11.122187 0.000000 0.049460
344.000000 85.733000 1.000000 -6.000000 -5.000000 104.431526 -26.308130 1507.127813 632.020231 11.660805 0.000000 0.090680
345.000000 78.734000 2.000000 -6.000000 -5.000000 94.600042 -17.514622 1314.656290 850.192821 12.700069 0.000000 0.143562
346.000000 69.749000 3.000000 -6.000000 -5.000000 84.119551 -10.560248 1175.650215 1053.762924 14.339265 0.000000 0.145679
347.000000 59.880000 4.000000 -6.000000 -5.000000 73.715368 -5.073169 1070.548694 1256.653679 16.705793 0.000000 0.109136
348.000000 50.112000 5.000000 -6.000000 -5.000000 63.867617 -0.707752 988.295710 1469.065922 19.965869 0.000000 0.041202
349.000000 89.052000 1.000000 -5.000000 -5.000000 95.794735 -30.783489 1616.179856 813.861002 11.227941 0.000000 0.089918
350.000000 80.430000 2.000000 -5.000000 -5.000000 85.750880 -21.387059 1396.514719 1026.879691 12.434163 0.000000 0.129464
351.000000 69.509000 3.000000 -5.000000 -5.000000 74.989768 -13.844822 1240.256177 1238.233609 14.391174 0.000000 0.112762
352.000000 57.852000 4.000000 -5.000000 -5.000000 64.374096 -7.851160 1123.413173 1462.157432 17.294281 0.000000 0.052243
353.000000 46.732000 2.000000 -2.000000 -2.000000 54.454869 -3.070932 1032.742394 1711.098964 8.565185 0.000000 0.059418
354.000000 89.581000 1.000000 -4.000000 -5.000000 84.821450 -35.330703 1737.925053 1060.564685 11.163619 0.000000 0.107035
355.000000 79.075000 2.000000 -4.000000 -5.000000 74.676614 -25.406730 1486.217028 1267.489491 12.649710 0.000000 0.110073
356.000000 66.088000 3.000000 -4.000000 -5.000000 63.809764 -17.294888 1310.122989 1495.442452 15.138951 0.000000 0.075795
357.000000 52.756000 4.000000 -4.000000 -5.000000 53.205902 -10.784905 1180.020250 1760.472766 18.968056 0.000000 0.094499
358.000000 84.949000 1.000000 -3.000000 -5.000000 71.044268 -39.893570 1874.716486 1422.817053 11.774906 0.000000 0.182174
359.000000 72.520000 2.000000 -3.000000 -5.000000 60.964969 -29.540688 1584.947383 1627.731296 13.795934 0.000000 0.146012
360.000000 57.775000 3.000000 -3.000000 -5.000000 50.271168 -20.896455 1385.920510 1898.446575 17.320302 0.000000 0.174629
370.000000 47.136000 1.000000 -16.000000 -4.000000 134.990941 16.269208 660.897319 -179.836802 21.198966 0.000000 0.034499
371.000000 45.718000 1.000000 -8.000000 -2.000000 128.075097 18.275521 619.559763 53.043713 10.929432 0.000000 0.033535
373.000000 51.164000 0.000000 -15.000000 -4.000000 141.577349 10.893348 767.867980 -440.741231 19.528701 0.000000 0.042386
374.000000 49.967000 1.000000 -15.000000 -4.000000 134.363570 14.125621 704.141846 -144.466750 19.997971 0.000000 0.027922
375.000000 48.346000 2.000000 -15.000000 -4.000000 127.077708 16.504137 656.102586 92.713017 20.670875 0.000000 0.043513
376.000000 46.350000 3.000000 -15.000000 -4.000000 119.818371 18.321925 618.592742 291.200677 21.563503 0.000000 0.072773
378.000000 54.486000 0.000000 -7.000000 -2.000000 141.164486 7.910223 825.456087 -408.785620 9.169078 0.000000 0.029176
379.000000 53.129000 1.000000 -14.000000 -4.000000 133.585436 11.766501 750.807065 -105.408019 18.808033 0.000000 0.027231
380.000000 51.260000 1.000000 -7.000000 -2.000000 125.897994 14.573994 695.167935 136.049809 9.748052 0.000000 0.056099
381.000000 48.945000 3.000000 -14.000000 -4.000000 118.230113 16.699945 652.097360 337.723002 20.420873 0.000000 0.087283
382.000000 46.272000 2.000000 -7.000000 -2.000000 110.682489 18.361444 617.768792 512.881900 10.801499 0.000000 0.111312
384.000000 58.225000 0.000000 -13.000000 -4.000000 140.576912 4.587664 888.636639 -372.434199 17.160679 0.000000 0.016214
385.000000 56.675000 1.000000 -13.000000 -4.000000 132.613959 9.166943 801.315563 -61.997306 17.631628 0.000000 0.033208
386.000000 54.500000 2.000000 -13.000000 -4.000000 124.491125 12.467774 737.026342 183.669194 18.337596 0.000000 0.070202
387.000000 51.789000 3.000000 -13.000000 -4.000000 116.376423 14.944827 687.718351 388.589276 19.300091 0.000000 0.102167
388.000000 48.661000 4.000000 -13.000000 -4.000000 108.398055 16.865651 648.701473 566.914854 20.543330 0.000000 0.124408
390.000000 60.666000 1.000000 -12.000000 -4.000000 131.392259 6.300709 856.162521 -13.387528 16.472029 0.000000 0.043377
391.000000 58.108000 1.000000 -6.000000 -2.000000 122.798397 10.166770 781.988454 236.354045 8.599705 0.000000 0.085243
392.000000 54.901000 3.000000 -12.000000 -4.000000 114.195054 13.043210 725.662782 444.598764 18.206791 0.000000 0.117143
393.000000 51.207000 2.000000 -6.000000 -2.000000 105.747233 15.256609 681.435110 626.423086 9.761476 0.000000 0.136773
394.000000 47.206000 5.000000 -12.000000 -4.000000 97.577485 17.007697 645.785702 791.273936 21.180763 0.000000 0.144437
396.000000 67.249000 0.000000 -11.000000 -4.000000 138.611941 -3.211139 1035.384092 -282.249893 14.858225 0.000000 0.007579
397.000000 65.171000 1.000000 -11.000000 -4.000000 129.843602 3.141293 915.932003 41.525404 15.333657 0.000000 0.055498
398.000000 62.128000 2.000000 -11.000000 -4.000000 120.742079 7.651195 830.412761 295.123387 16.087082 0.000000 0.100815
399.000000 58.291000 3.000000 -11.000000 -4.000000 111.605125 10.980709 766.165641 506.804058 17.148728 0.000000 0.131810
400.000000 53.887000 4.000000 -11.000000 -4.000000 102.647184 13.523800 716.131701 692.601542 18.553370 0.000000 0.147774
401.000000 49.158000 5.000000 -11.000000 -4.000000 94.021840 15.522390 676.064185 862.461261 20.341219 0.000000 0.149922
403.000000 70.264000 1.000000 -10.000000 -4.000000 127.863440 -0.336322 981.317845 104.215782 14.222633 0.000000 0.068354
404.000000 66.596000 1.000000 -5.000000 -2.000000 118.218077 4.900732 882.715173 361.339671 7.504177 0.000000 0.116482
405.000000 61.950000 3.000000 -10.000000 -4.000000 108.500502 8.742083 809.494712 576.633459 16.136876 0.000000 0.145555
406.000000 56.645000 2.000000 -5.000000 -2.000000 98.991670 11.655936 752.973273 767.106174 8.825530 0.000000 0.156442
407.000000 51.018000 5.000000 -10.000000 -4.000000 89.885076 13.931156 708.022915 943.224254 19.601222 0.000000 0.151408
409.000000 78.920000 0.000000 -9.000000 -4.000000 134.871672 -12.697453 1217.503114 -157.344560 12.661525 0.000000 0.024469
410.000000 76.012000 1.000000 -9.000000 -4.000000 125.307948 -4.153010 1053.150699 176.710124 13.147682 0.000000 0.081137
411.000000 71.528000 2.000000 -9.000000 -4.000000 115.085443 1.895461 939.380995 436.884495 13.974401 0.000000 0.131635
412.000000 65.828000 3.000000 -9.000000 -4.000000 104.740655 6.311544 855.956501 656.096211 15.187293 0.000000 0.157397
413.000000 59.377000 4.000000 -9.000000 -4.000000 94.643767 9.641055 792.165081 852.323449 16.840495 0.000000 0.161261
414.000000 52.641000 5.000000 -9.000000 -4.000000 85.039122 12.224978 741.805747 1036.590716 18.998757 0.000000 0.146767
415.000000 46.011000 6.000000 -9.000000 -4.000000 76.072028 14.280797 701.040163 1216.424654 21.740182 0.000000 0.118352
417.000000 82.450000 1.000000 -8.000000 -4.000000 121.977488 -8.321848 1132.433522 261.894035 12.121682 0.000000 0.093044
418.000000 69.799000 3.000000 -8.000000 -4.000000 100.138212 3.673264 905.903496 748.145930 14.324456 0.000000 0.165725
419.000000 53.794000 5.000000 -8.000000 -4.000000 79.324861 10.394314 777.573439 1147.269279 18.593954 0.000000 0.132656
420.000000 46.029000 3.000000 -4.000000 -2.000000 69.999854 12.710968 732.230111 1342.584024 10.867157 0.000000 0.091827
421.000000 89.526000 1.000000 -7.000000 -4.000000 117.593002 -12.843558 1220.388682 364.059645 11.164469 0.000000 0.103004
422.000000 82.503000 2.000000 -7.000000 -4.000000 106.150401 -4.948342 1068.185816 628.151690 12.117392 0.000000 0.155794
423.000000 73.593000 3.000000 -7.000000 -4.000000 94.442708 0.812135 959.743127 857.368203 13.587599 0.000000 0.167823
424.000000 63.824000 4.000000 -7.000000 -4.000000 83.113751 5.120229 878.560266 1071.504597 15.670823 0.000000 0.147933
425.000000 54.109000 5.000000 -7.000000 -4.000000 72.547517 8.429198 815.506212 1283.068314 18.487971 0.000000 0.103690
426.000000 76.671000 3.000000 -6.000000 -4.000000 87.321413 -2.285143 1017.948909 991.393701 13.043820 0.000000 0.158944
427.000000 64.604000 2.000000 -3.000000 -2.000000 75.418444 2.589213 926.328806 1221.269837 7.741895 0.000000 0.118600
428.000000 53.035000 5.000000 -6.000000 -4.000000 64.475939 6.319418 855.806786 1458.062794 18.865196 0.000000 0.052091
429.000000 78.035000 3.000000 -5.000000 -4.000000 78.342627 -5.628620 1081.074398 1164.130698 12.818153 0.000000 0.130595
430.000000 63.275000 4.000000 -5.000000 -4.000000 65.993861 -0.137892 977.590296 1420.336652 15.811722 0.000000 0.058694
431.000000 49.782000 5.000000 -5.000000 -4.000000 54.852168 4.054782 898.704002 1700.676969 20.100993 0.000000 0.056762
432.000000 75.946000 3.000000 -4.000000 -4.000000 66.978848 -9.223301 1149.770858 1404.319005 13.173308 0.000000 0.070495
433.000000 89.297000 2.000000 -3.000000 -4.000000 66.099146 -22.088834 1411.793467 1455.748738 11.203528 0.000000 0.094537
434.000000 67.745000 3.000000 -3.000000 -4.000000 52.672542 -13.067084 1224.809810 1783.548905 14.771150 0.000000 0.109315
435.000000 48.204000 4.000000 -3.000000 -4.000000 40.453751 -6.216969 1092.245501 2210.707638 20.762298 0.000000 0.290015
442.000000 47.725000 1.000000 -16.000000 -3.000000 135.036855 25.171597 469.185904 -249.756405 20.937128 0.000000 0.080437
443.000000 46.211000 2.000000 -16.000000 -3.000000 127.881991 26.025030 449.474056 9.187437 21.625290 0.000000 0.036633
446.000000 50.714000 1.000000 -15.000000 -3.000000 134.630771 23.458712 507.935872 -217.243110 19.703292 0.000000 0.066117
447.000000 48.974000 2.000000 -15.000000 -3.000000 127.042268 24.591375 482.429972 47.683636 20.405686 0.000000 0.026685
448.000000 46.852000 1.000000 -5.000000 -1.000000 119.543026 25.447295 462.848729 265.453718 7.110793 0.000000 0.034035
451.000000 54.083000 1.000000 -14.000000 -3.000000 134.125598 21.547751 549.999880 -181.375358 18.476044 0.000000 0.051847
452.000000 52.064000 2.000000 -14.000000 -3.000000 126.055000 23.014425 517.820354 89.687837 19.194914 0.000000 0.025048
453.000000 49.588000 3.000000 -14.000000 -3.000000 118.086255 24.108501 493.358652 311.757591 20.155724 0.000000 0.049881
454.000000 46.755000 4.000000 -14.000000 -3.000000 110.301191 24.955391 474.135554 501.839694 21.379908 0.000000 0.079155
457.000000 57.905000 1.000000 -13.000000 -3.000000 133.491342 19.407335 595.822065 -141.567424 17.256880 0.000000 0.038674
458.000000 55.536000 2.000000 -13.000000 -3.000000 124.883092 21.274353 555.925302 135.765056 17.995040 0.000000 0.034365
459.000000 52.618000 3.000000 -13.000000 -3.000000 116.390669 22.648223 525.918728 362.317034 18.995790 0.000000 0.066838
460.000000 49.282000 4.000000 -13.000000 -3.000000 108.117050 23.700425 502.530317 556.422881 20.284326 0.000000 0.094401
461.000000 45.676000 5.000000 -13.000000 -3.000000 100.144325 24.531572 483.788018 729.315407 21.889172 0.000000 0.111829
463.000000 62.268000 1.000000 -12.000000 -3.000000 132.686738 17.000690 645.929634 -97.077315 16.047788 0.000000 0.029630
464.000000 59.457000 2.000000 -12.000000 -3.000000 123.477189 19.348235 597.069596 186.627237 16.808828 0.000000 0.049724
465.000000 55.975000 1.000000 -4.000000 -1.000000 114.398749 21.051324 560.742786 417.886494 5.952322 0.000000 0.084463
466.000000 52.008000 4.000000 -12.000000 -3.000000 105.583277 22.341207 532.674999 616.471632 19.222236 0.000000 0.109293
467.000000 47.751000 5.000000 -12.000000 -3.000000 97.131488 23.351051 510.337155 794.326226 20.939023 0.000000 0.122255
469.000000 69.638000 0.000000 -11.000000 -3.000000 141.456108 9.934476 786.489154 -430.526889 14.347918 0.000000 0.037970
470.000000 67.285000 1.000000 -11.000000 -3.000000 131.654141 14.285142 700.953245 -46.946576 14.851462 0.000000 0.030427
471.000000 63.902000 2.000000 -11.000000 -3.000000 121.770619 17.209681 641.631978 243.191105 15.640068 0.000000 0.067831
472.000000 59.694000 3.000000 -11.000000 -3.000000 112.034608 19.300552 598.075461 479.452465 16.745317 0.000000 0.102387
473.000000 54.921000 4.000000 -11.000000 -3.000000 102.617983 20.865922 564.736509 683.154612 18.203636 0.000000 0.123284
474.000000 49.854000 5.000000 -11.000000 -3.000000 93.645482 22.080116 538.397265 867.000302 20.057263 0.000000 0.130493
476.000000 75.904000 0.000000 -10.000000 -3.000000 140.795544 5.735100 866.905587 -385.095339 13.163661 0.000000 0.020490
477.000000 73.093000 1.000000 -10.000000 -3.000000 130.311676 11.212002 761.653685 10.092048 13.671657 0.000000 0.041607
478.000000 68.957000 2.000000 -10.000000 -3.000000 119.671807 14.828556 690.056849 306.668481 14.494089 0.000000 0.087441
479.000000 63.796000 3.000000 -10.000000 -3.000000 109.196711 17.376335 638.197950 548.344643 15.669487 0.000000 0.120100
480.000000 57.985000 4.000000 -10.000000 -3.000000 99.114402 19.261270 598.903681 758.089520 17.242943 0.000000 0.135503
481.000000 51.901000 5.000000 -10.000000 -3.000000 89.580561 20.709370 568.101116 949.423534 19.267571 0.000000 0.135261
482.000000 45.866000 6.000000 -10.000000 -3.000000 80.689056 21.855370 543.306027 1131.126082 21.806375 0.000000 0.123260
484.000000 79.859000 1.000000 -9.000000 -3.000000 128.540984 7.727290 828.957264 75.762181 12.513755 0.000000 0.058088
485.000000 74.710000 2.000000 -9.000000 -3.000000 117.052736 12.170897 742.869135 378.713818 13.378641 0.000000 0.107838
486.000000 61.113000 4.000000 -9.000000 -3.000000 94.932026 17.512333 635.390995 843.609130 16.361736 0.000000 0.144545
487.000000 53.752000 5.000000 -9.000000 -3.000000 84.802221 19.228347 599.597498 1044.693044 18.605983 0.000000 0.134596
488.000000 46.615000 2.000000 -3.000000 -1.000000 75.462174 20.575422 570.974406 1239.124063 7.152765 0.000000 0.113380
489.000000 87.774000 1.000000 -8.000000 -3.000000 126.167758 3.773987 904.003413 152.491474 11.385764 0.000000 0.076774
490.000000 81.230000 2.000000 -8.000000 -3.000000 113.731077 9.199220 800.693396 461.678582 12.305433 0.000000 0.128198
491.000000 73.068000 3.000000 -8.000000 -3.000000 101.496448 12.916763 728.164269 716.411920 13.683090 0.000000 0.150984
492.000000 64.129000 4.000000 -8.000000 -3.000000 89.884604 15.602477 674.443082 943.250644 15.593840 0.000000 0.148096
493.000000 55.169000 5.000000 -8.000000 -3.000000 79.139553 17.625419 633.053722 1157.662044 18.130162 0.000000 0.125495
494.000000 46.732000 6.000000 -8.000000 -3.000000 69.371219 19.200356 600.187173 1370.034928 21.407239 0.000000 0.095703
495.000000 88.520000 2.000000 -7.000000 -3.000000 109.442251 5.873514 864.278640 559.079616 11.293046 0.000000 0.147152
496.000000 77.972000 3.000000 -7.000000 -3.000000 96.179978 10.329778 778.826272 822.537508 12.823882 0.000000 0.160209
497.000000 66.697000 4.000000 -7.000000 -3.000000 83.724616 13.513307 716.340218 1062.725864 14.995440 0.000000 0.142216
498.000000 55.766000 5.000000 -7.000000 -3.000000 72.377225 15.887735 668.658585 1296.470602 17.938492 0.000000 0.103711
499.000000 45.849000 6.000000 -7.000000 -3.000000 62.240847 17.720933 631.077346 1535.703864 21.821993 0.000000 0.078762
500.000000 68.199000 4.000000 -6.000000 -3.000000 76.125247 11.224737 761.405060 1212.037273 14.667227 0.000000 0.119979
501.000000 54.931000 5.000000 -6.000000 -3.000000 64.249891 14.001191 706.625941 1476.040937 18.213717 0.000000 0.068415
502.000000 85.668000 3.000000 -5.000000 -3.000000 80.718193 4.297656 894.117298 1117.395036 11.675539 0.000000 0.140581
503.000000 67.557000 4.000000 -5.000000 -3.000000 66.665459 8.715233 810.010973 1410.718471 14.809335 0.000000 0.069702
504.000000 51.745000 5.000000 -5.000000 -3.000000 54.445896 11.950463 747.198997 1727.288963 19.338050 0.000000 0.086696
505.000000 85.374000 3.000000 -4.000000 -3.000000 69.351038 0.793584 960.091662 1346.641354 11.718281 0.000000 0.083261
506.000000 62.997000 4.000000 -4.000000 -3.000000 54.835547 5.962325 862.592397 1703.366576 15.884366 0.000000 0.061517
507.000000 51.971000 4.000000 -3.000000 -3.000000 40.104843 2.943508 919.657868 2220.609535 19.257531 0.000000 0.294455
512.000000 46.378000 1.000000 -8.000000 -1.000000 126.846470 33.758179 255.620899 -29.101871 10.773859 0.000000 0.093392
515.000000 49.214000 2.000000 -15.000000 -2.000000 126.074337 32.717707 283.561536 9.027695 20.306316 0.000000 0.076453
516.000000 46.984000 3.000000 -15.000000 -2.000000 118.479221 32.576573 287.300983 248.115480 21.272509 0.000000 0.022330
518.000000 54.558000 1.000000 -14.000000 -2.000000 133.423159 31.567424 313.702593 -254.534930 18.315268 0.000000 0.122825
519.000000 52.403000 1.000000 -7.000000 -1.000000 125.177328 31.566681 313.721824 50.652129 9.535336 0.000000 0.058501
520.000000 49.791000 3.000000 -14.000000 -2.000000 117.074180 31.566127 313.736140 295.305040 20.073749 0.000000 0.004220
521.000000 46.828000 2.000000 -7.000000 -1.000000 109.188297 31.565699 313.747212 501.397819 10.673387 0.000000 0.038892
523.000000 58.555000 1.000000 -13.000000 -2.000000 132.978223 30.054420 352.237432 -217.680594 17.065209 0.000000 0.104530
524.000000 56.012000 2.000000 -13.000000 -2.000000 124.124775 30.287585 346.377204 96.320388 17.842156 0.000000 0.039720
525.000000 52.917000 3.000000 -13.000000 -2.000000 115.447160 30.458308 342.068685 346.859392 18.888368 0.000000 0.014932
526.000000 49.415000 4.000000 -13.000000 -2.000000 107.036027 30.588708 338.767622 557.891109 20.230109 0.000000 0.055073
527.000000 45.659000 5.000000 -13.000000 -2.000000 98.965160 30.691560 336.157645 743.544443 21.897176 0.000000 0.082741
529.000000 63.164000 1.000000 -12.000000 -2.000000 132.425142 28.330859 394.727281 -176.511593 15.820243 0.000000 0.085114
530.000000 60.123000 1.000000 -6.000000 -1.000000 122.875696 28.859305 381.850654 146.717564 8.311303 0.000000 0.021474
531.000000 56.408000 3.000000 -12.000000 -2.000000 113.544648 29.239290 372.510497 403.536684 17.719937 0.000000 0.034897
532.000000 52.221000 2.000000 -6.000000 -1.000000 104.543950 29.525648 365.425819 620.096285 9.571830 0.000000 0.071640
533.000000 47.772000 5.000000 -12.000000 -2.000000 95.961213 29.749177 359.867651 811.553192 20.929824 0.000000 0.094934
535.000000 68.529000 1.000000 -11.000000 -2.000000 131.726933 26.353381 441.813960 -130.174891 14.581755 0.000000 0.064785
536.000000 64.837000 2.000000 -11.000000 -2.000000 121.374298 27.256252 420.523412 202.715924 15.414555 0.000000 0.015897
537.000000 60.313000 3.000000 -11.000000 -2.000000 111.295494 27.892735 405.306226 466.322180 16.573425 0.000000 0.055600
538.000000 55.246000 4.000000 -11.000000 -2.000000 101.631273 28.365462 393.888054 689.227146 18.096626 0.000000 0.087955
539.000000 49.925000 5.000000 -11.000000 -2.000000 92.486145 28.730381 385.004121 887.708032 20.028652 0.000000 0.105642
540.000000 74.844000 1.000000 -10.000000 -2.000000 130.829847 24.067353 494.286100 -77.557739 13.351688 0.000000 0.044541
541.000000 64.677000 3.000000 -10.000000 -2.000000 108.603471 26.399274 440.739878 536.535787 15.455947 0.000000 0.076721
542.000000 58.462000 2.000000 -5.000000 -1.000000 98.191613 27.095297 424.343867 766.964025 8.551183 0.000000 0.103206
543.000000 52.038000 5.000000 -10.000000 -2.000000 88.432242 27.626214 411.699779 974.248048 19.217106 0.000000 0.113759
544.000000 45.739000 3.000000 -5.000000 -1.000000 79.395665 28.044479 401.651999 1169.315417 10.933581 0.000000 0.114344
546.000000 82.364000 1.000000 -9.000000 -2.000000 129.653675 21.403748 553.123673 -17.170897 12.132845 0.000000 0.029265
547.000000 76.596000 2.000000 -9.000000 -2.000000 117.271546 23.394447 509.369719 336.462690 13.048950 0.000000 0.058254
548.000000 69.530000 3.000000 -9.000000 -2.000000 105.335998 24.735883 479.143061 616.013553 14.378078 0.000000 0.097644
549.000000 61.795000 4.000000 -9.000000 -2.000000 94.083120 25.700183 457.010313 855.734109 16.181039 0.000000 0.116143
550.000000 53.969000 5.000000 -9.000000 -2.000000 83.660972 26.426412 440.104340 1074.517834 18.531194 0.000000 0.117722
551.000000 46.486000 6.000000 -9.000000 -2.000000 74.137916 26.992878 426.769177 1284.208737 21.517873 0.000000 0.112475
552.000000 74.855000 3.000000 -8.000000 -2.000000 101.306804 22.875154 520.905396 707.433175 13.356234 0.000000 0.117209
553.000000 65.086000 2.000000 -4.000000 -1.000000 89.114496 24.162655 492.137145 959.232842 7.682287 0.000000 0.124723
554.000000 55.478000 5.000000 -8.000000 -2.000000 77.993768 25.119188 470.387321 1193.804306 18.029193 0.000000 0.115512
555.000000 46.584000 3.000000 -4.000000 -1.000000 67.998883 25.857458 453.366790 1424.258463 10.737421 0.000000 0.108975
556.000000 80.523000 3.000000 -7.000000 -2.000000 96.248964 20.784478 566.487780 814.942721 12.417356 0.000000 0.133232
557.000000 68.005000 4.000000 -7.000000 -2.000000 83.025605 22.462326 530.013209 1083.473437 14.706721 0.000000 0.125563
558.000000 56.161000 5.000000 -7.000000 -2.000000 71.201431 23.691002 502.741427 1341.087563 17.812013 0.000000 0.105853
559.000000 45.646000 6.000000 -7.000000 -2.000000 60.791867 24.628789 481.579701 1602.939807 21.918853 0.000000 0.116201
560.000000 86.142000 3.000000 -6.000000 -2.000000 89.773039 18.425163 616.439471 945.493814 11.608962 0.000000 0.141481
561.000000 55.365000 5.000000 -6.000000 -2.000000 62.994499 22.126298 537.386654 1533.136908 18.070918 0.000000 0.097575
562.000000 90.733000 3.000000 -5.000000 -2.000000 81.304313 15.751642 671.420325 1112.036087 11.023413 0.000000 0.133431
563.000000 69.665000 4.000000 -5.000000 -2.000000 65.947984 18.474301 615.413682 1447.468779 14.360852 0.000000 0.085451
564.000000 52.069000 5.000000 -5.000000 -2.000000 53.021408 20.407223 574.575299 1805.684896 19.217809 0.000000 0.141903
565.000000 65.177000 2.000000 -2.000000 -1.000000 53.870605 16.127021 663.793672 1758.878347 7.676371 0.000000 0.111189
566.000000 85.413000 3.000000 -3.000000 -2.000000 54.685497 9.243086 799.847669 1713.498228 11.715592 0.000000 0.073681
570.000000 46.198000 2.000000 -16.000000 -1.000000 124.984219 41.203958 32.644244 -60.087564 21.632134 0.000000 0.180927
572.000000 49.038000 2.000000 -15.000000 -1.000000 124.180922 40.566802 53.585462 -21.188827 20.379565 0.000000 0.164214
573.000000 46.724000 3.000000 -15.000000 -1.000000 116.637330 39.495424 87.915813 241.424236 21.391103 0.000000 0.097239
575.000000 52.238000 2.000000 -14.000000 -1.000000 123.258356 39.860887 76.325988 21.417823 19.131175 0.000000 0.146118
576.000000 49.522000 3.000000 -14.000000 -1.000000 115.196247 38.826464 108.818401 291.002514 20.183255 0.000000 0.080025
577.000000 46.468000 4.000000 -14.000000 -1.000000 107.351781 38.020369 133.490400 514.116043 21.512476 0.000000 0.049588
579.000000 55.870000 2.000000 -13.000000 -1.000000 122.188615 39.074703 101.108132 68.323968 17.887975 0.000000 0.126474
580.000000 52.642000 3.000000 -13.000000 -1.000000 113.536131 38.091642 131.330982 345.347611 18.987496 0.000000 0.062527
581.000000 49.025000 4.000000 -13.000000 -1.000000 105.156159 37.335323 154.034374 574.330879 20.391073 0.000000 0.046865
583.000000 60.020000 2.000000 -12.000000 -1.000000 120.934591 38.194087 128.219758 120.266213 16.651325 0.000000 0.105105
584.000000 56.133000 3.000000 -12.000000 -1.000000 111.604944 37.281012 155.647016 405.300266 17.807111 0.000000 0.046022
585.000000 51.800000 4.000000 -12.000000 -1.000000 102.620462 36.588371 176.012222 640.872539 19.299557 0.000000 0.051213
586.000000 47.239000 5.000000 -12.000000 -1.000000 94.069521 36.045082 191.731817 846.294837 21.166562 0.000000 0.080531
589.000000 64.802000 2.000000 -11.000000 -1.000000 119.445941 37.201441 158.005515 178.178965 15.423112 0.000000 0.081848
590.000000 60.048000 3.000000 -11.000000 -1.000000 109.333420 36.382585 181.992255 471.952738 16.646693 0.000000 0.034516
591.000000 54.791000 4.000000 -11.000000 -1.000000 99.663930 35.771015 199.579490 715.111204 18.247212 0.000000 0.061407
592.000000 49.327000 5.000000 -11.000000 -1.000000 90.539528 35.296963 213.026816 928.581893 20.271680 0.000000 0.091548
594.000000 75.268000 1.000000 -10.000000 -1.000000 129.081223 37.073646 161.782974 -154.547698 13.276654 0.000000 0.151767
595.000000 70.356000 2.000000 -10.000000 -1.000000 117.652796 36.074661 190.881568 243.275019 14.206020 0.000000 0.056645
596.000000 64.441000 3.000000 -10.000000 -1.000000 106.627615 35.381805 210.631769 546.767739 15.512867 0.000000 0.035947
597.000000 57.970000 4.000000 -10.000000 -1.000000 96.179856 34.873194 224.915064 798.950564 17.247615 0.000000 0.074863
598.000000 51.362000 5.000000 -10.000000 -1.000000 86.426031 34.484018 235.725374 1022.554132 19.470084 0.000000 0.102415
600.000000 83.124000 1.000000 -9.000000 -1.000000 128.104131 35.563498 205.485632 -96.587526 12.021939 0.000000 0.124324
601.000000 76.862000 2.000000 -9.000000 -1.000000 115.455606 34.785669 227.355161 317.174605 13.004009 0.000000 0.030115
602.000000 69.350000 3.000000 -9.000000 -1.000000 103.357461 34.260853 241.878896 631.779926 14.415555 0.000000 0.050457
603.000000 61.264000 4.000000 -9.000000 -1.000000 92.025259 33.882926 252.225723 895.154319 16.321437 0.000000 0.089235
604.000000 53.197000 5.000000 -9.000000 -1.000000 81.588339 33.597814 259.970982 1132.078224 18.800266 0.000000 0.112214
605.000000 45.575000 6.000000 -9.000000 -1.000000 72.097413 33.375074 265.986288 1357.348402 21.948257 0.000000 0.131246
606.000000 84.542000 2.000000 -8.000000 -1.000000 112.708199 33.298357 268.050977 402.124448 11.823170 0.000000 0.014067
607.000000 74.777000 3.000000 -8.000000 -1.000000 99.338771 32.997737 276.106755 729.959659 13.370314 0.000000 0.070402
608.000000 64.510000 4.000000 -8.000000 -1.000000 87.005955 32.785851 281.751791 1007.960864 15.501769 0.000000 0.102426
609.000000 54.582000 5.000000 -8.000000 -1.000000 75.844126 32.628467 285.927384 1263.331382 18.325277 0.000000 0.120688
610.000000 45.520000 6.000000 -8.000000 -1.000000 65.875870 32.506956 289.141216 1512.538949 21.976798 0.000000 0.145457
611.000000 80.617000 3.000000 -7.000000 -1.000000 94.304384 31.565081 313.763217 845.923222 12.403002 0.000000 0.090762
612.000000 67.371000 4.000000 -7.000000 -1.000000 80.855261 31.564655 313.774231 1144.340769 14.845111 0.000000 0.112346
613.000000 55.097000 5.000000 -7.000000 -1.000000 68.957669 31.564344 313.782272 1426.959626 18.156017 0.000000 0.130473
614.000000 86.507000 3.000000 -6.000000 -1.000000 87.857360 29.928505 355.390608 987.464050 11.559997 0.000000 0.107334
615.000000 69.192000 4.000000 -6.000000 -1.000000 73.204904 30.198336 348.623612 1316.860079 14.456501 0.000000 0.118184
616.000000 54.059000 5.000000 -6.000000 -1.000000 60.628323 30.391685 343.751842 1643.259377 18.507272 0.000000 0.154216
617.000000 68.731000 4.000000 -5.000000 -1.000000 63.549977 28.661261 386.691565 1551.218549 14.555912 0.000000 0.130001
618.000000 50.393000 5.000000 -5.000000 -1.000000 50.485907 29.094142 376.086408 1956.851410 19.856538 0.000000 0.226929
619.000000 63.756000 4.000000 -4.000000 -1.000000 51.222238 26.921977 428.445562 1910.775747 15.694644 0.000000 0.202166
620.000000 86.233000 3.000000 -3.000000 -1.000000 52.299194 23.296173 511.559666 1846.719717 11.603922 0.000000 0.166338
625.000000 46.069000 1.000000 -5.000000 0.000000 114.078680 46.025172 -140.515720 248.302521 7.231930 0.000000 0.199948
628.000000 48.774000 3.000000 -14.000000 0.000000 112.518348 45.679813 -127.142571 302.327655 20.493064 0.000000 0.184975
629.000000 45.675000 2.000000 -7.000000 0.000000 104.845305 44.170438 -70.570525 543.270026 10.943227 0.000000 0.132234
632.000000 51.782000 3.000000 -13.000000 0.000000 110.727605 45.300882 -112.658111 361.955606 19.303494 0.000000 0.169527
633.000000 48.113000 4.000000 -13.000000 0.000000 102.534973 43.767923 -55.973037 609.630027 20.778329 0.000000 0.123375
636.000000 55.133000 1.000000 -4.000000 0.000000 108.652751 44.883274 -96.917809 428.236407 6.043573 0.000000 0.153986
637.000000 50.741000 2.000000 -6.000000 0.000000 99.873959 43.329196 -40.284410 683.461622 9.851596 0.000000 0.117124
638.000000 46.156000 5.000000 -12.000000 0.000000 91.508803 42.096164 2.624366 902.794539 21.663680 0.000000 0.119492
640.000000 63.745000 2.000000 -11.000000 0.000000 116.074616 46.489373 -158.756287 176.020613 15.679278 0.000000 0.221149
641.000000 58.872000 3.000000 -11.000000 0.000000 106.222528 44.420800 -79.750936 502.546932 16.979856 0.000000 0.139076
642.000000 53.547000 4.000000 -11.000000 0.000000 96.780113 42.849201 -23.377553 766.462551 18.671506 0.000000 0.114660
643.000000 48.066000 5.000000 -11.000000 0.000000 87.861893 41.616397 18.870257 994.748403 20.804061 0.000000 0.127049
645.000000 63.039000 3.000000 -10.000000 0.000000 103.340593 43.905893 -60.954349 586.749310 15.858340 0.000000 0.126094
646.000000 56.494000 2.000000 -5.000000 0.000000 93.145168 42.321904 -5.104842 861.012013 8.849341 0.000000 0.117038
647.000000 49.881000 2.000000 -4.000000 0.000000 83.622088 41.094869 36.258393 1100.636500 8.019497 0.000000 0.138136
649.000000 75.356000 2.000000 -9.000000 0.000000 111.654791 45.494840 -120.047737 331.381950 13.264290 0.000000 0.177293
650.000000 59.491000 4.000000 -9.000000 0.000000 88.824452 41.740055 14.706206 970.598527 16.808399 0.000000 0.124829
651.000000 51.442000 5.000000 -9.000000 0.000000 78.648375 40.525976 54.913629 1225.265526 19.441961 0.000000 0.153012
652.000000 72.689000 3.000000 -8.000000 0.000000 95.634863 42.679021 -17.446371 796.552001 13.754802 0.000000 0.114875
653.000000 52.486000 5.000000 -8.000000 0.000000 72.758689 39.903089 74.979705 1376.413891 19.057094 0.000000 0.173035
654.000000 77.994000 3.000000 -7.000000 0.000000 90.351725 41.940573 7.919772 932.117429 12.820521 0.000000 0.121619
655.000000 64.706000 4.000000 -7.000000 0.000000 77.269997 40.375601 59.791802 1260.166638 15.456903 0.000000 0.157437
656.000000 52.580000 5.000000 -7.000000 0.000000 65.718691 39.218309 96.622960 1567.715179 19.025372 0.000000 0.202691
657.000000 65.860000 2.000000 -3.000000 0.000000 69.399481 39.568987 85.592788 1465.822286 7.594083 0.000000 0.186155
658.000000 51.027000 5.000000 -6.000000 0.000000 57.231153 38.462156 120.036946 1825.775751 19.606900 0.000000 0.254297
659.000000 87.030000 3.000000 -5.000000 0.000000 74.836954 40.117176 68.124497 1322.413107 11.492587 0.000000 0.165612
660.000000 64.526000 4.000000 -5.000000 0.000000 59.507548 38.658474 114.005679 1752.638253 15.504602 0.000000 0.238137
662.000000 87.149000 3.000000 -4.000000 0.000000 63.066980 38.974709 104.220427 1644.368607 11.479144 0.000000 0.216470
669.000000 46.709000 4.000000 -13.000000 1.000000 99.276001 49.760046 -296.822281 668.879627 21.403763 0.000000 0.243411
672.000000 49.084000 4.000000 -12.000000 1.000000 96.423792 49.599618 -289.624407 754.032479 20.368846 0.000000 0.239188
675.000000 51.573000 4.000000 -11.000000 1.000000 93.118310 49.424541 -281.823133 850.854587 19.386992 0.000000 0.238018
676.000000 46.200000 5.000000 -11.000000 1.000000 84.560948 47.560255 -202.051854 1092.863902 21.645081 0.000000 0.221788
678.000000 60.546000 3.000000 -10.000000 1.000000 98.958708 51.669702 -386.344256 667.419061 16.512107 0.000000 0.294203
679.000000 54.115000 4.000000 -10.000000 1.000000 89.249374 49.232716 -273.339264 962.594902 18.477469 0.000000 0.241261
680.000000 47.674000 5.000000 -10.000000 1.000000 80.144708 47.309133 -191.742028 1216.761645 20.977544 0.000000 0.235547
682.000000 64.551000 3.000000 -9.000000 1.000000 95.143660 51.568722 -381.423642 785.132462 15.488689 0.000000 0.290750
683.000000 56.592000 4.000000 -9.000000 1.000000 84.671223 49.021624 -264.079113 1094.086333 17.670162 0.000000 0.250712
684.000000 48.816000 5.000000 -9.000000 1.000000 74.985299 47.035650 -180.625070 1364.580193 20.488340 0.000000 0.256598
686.000000 68.755000 3.000000 -8.000000 1.000000 90.506109 51.455447 -375.929816 925.742281 14.542668 0.000000 0.293105
687.000000 58.780000 4.000000 -8.000000 1.000000 79.188977 48.788217 -253.931026 1252.953470 17.014045 0.000000 0.268865
688.000000 49.351000 5.000000 -8.000000 1.000000 68.905605 46.736696 -168.602335 1546.800213 20.268517 0.000000 0.288117
690.000000 72.911000 3.000000 -7.000000 1.000000 84.769508 51.327486 -369.756423 1098.678085 13.715161 0.000000 0.305009
691.000000 60.270000 4.000000 -7.000000 1.000000 72.540214 48.528767 -242.760859 1452.177136 16.595330 0.000000 0.299724
694.000000 76.445000 3.000000 -6.000000 1.000000 77.532947 51.181787 -362.769059 1320.610570 13.082688 0.000000 0.332493
#UB matrix in q= (UB) B0 G* 
#[[ 0.34854649   0.927140809  0.129904017]
# [ 0.490454164 -0.299048012  0.818397889]
# [ 0.798730278 -0.221771162 -0.559708029]]
#B0 matrix in q= UB (B0) G*
#[[ 0.19670273 -0.          0.03056101]
# [ 0.          0.19187965 -0.        ]
# [ 0.          0.          0.18806537]]
#UBB0 matrix in q= (UB B0) G* i.e. recip. basis vectors are columns in LT frame: astar = UBB0[:,0], bstar = UBB0[:,1], cstar = UBB0[:,2]. (abcstar as columns on xyzlab1, xlab1 = ui, ui = unit vector along incident beam)
#[[ 0.06856005  0.17789946  0.03508238]
# [ 0.09647367 -0.05738123  0.16890108]
# [ 0.15711243 -0.04255337 -0.0808517 ]]
#Euler angles phi theta psi (deg)
#[ 74.504 124.018   9.038]
#deviatoric strain in direct crystal frame (10-3 unit)
#[[-2.37  0.31  0.34]
# [ 0.31 -1.4   0.26]
# [ 0.34  0.26  3.77]]
#deviatoric strain in sample2 frame (10-3 unit)
#[[-1.58 -1.14  0.09]
# [-1.14  1.88 -2.61]
# [ 0.09 -2.61 -0.3 ]]
#new lattice parameters
#[ 5.1505     5.216609   5.3178276 89.9900153 99.2084839 89.9646321]
#CCDLabel
#sCMOS
#DetectorParameters
#[79.0, 975.0, 941.0, 0.0, 0.0]
#pixelsize
#0.0734
#Frame dimensions
#[2018, 2016]
#
