#Strain and Orientation Refinement from experimental file: /home/micha/LaueProjects/DepthEffects/testZrO2_141.cor
#File created at Wed Jun 28 14:26:51 2023 with indexingSpotsSet.py
#Number of indexed spots: 535
#Element
#ZrO2
#grainIndex
#G_0
#Mean Deviation(pixel): 0.115
##spot_index intensity h k l 2theta Chi Xexp Yexp Energy GrainIndex PixDev
17.000000 46.223000 3.000000 8.000000 -14.000000 121.973254 -44.011451 2014.781098 6.845334 21.627229 0.000000 0.204894
18.000000 47.114000 2.000000 4.000000 -7.000000 127.339173 -38.611850 1834.558937 -109.792209 10.608445 0.000000 0.156248
19.000000 47.598000 5.000000 8.000000 -14.000000 132.150533 -32.246035 1653.986989 -210.894954 20.999648 0.000000 0.117395
20.000000 47.688000 3.000000 4.000000 -7.000000 136.247231 -24.832737 1473.064235 -297.739644 10.479662 0.000000 0.085167
21.000000 47.410000 7.000000 8.000000 -14.000000 139.474850 -16.400932 1291.789652 -371.464153 21.081496 0.000000 0.055945
22.000000 46.805000 4.000000 4.000000 -7.000000 141.711292 -7.157796 1110.162213 -433.085856 10.676634 0.000000 0.026946
40.000000 47.071000 2.000000 8.000000 -13.000000 114.772659 -45.143230 2056.688906 236.805101 21.240146 0.000000 0.180685
41.000000 48.430000 3.000000 8.000000 -13.000000 120.587794 -40.117981 1881.901370 109.048626 20.642363 0.000000 0.127879
42.000000 49.323000 4.000000 8.000000 -13.000000 125.905669 -34.212231 1706.784761 -1.329610 20.267103 0.000000 0.088966
43.000000 49.745000 5.000000 8.000000 -13.000000 130.557480 -27.334511 1531.338148 -95.889369 20.094064 0.000000 0.061869
44.000000 49.715000 6.000000 8.000000 -13.000000 134.376298 -19.472787 1355.560597 -176.006187 20.105344 0.000000 0.042491
45.000000 49.272000 7.000000 8.000000 -13.000000 137.219822 -10.755668 1179.451172 -242.897778 20.285093 0.000000 0.025068
46.000000 48.473000 8.000000 8.000000 -13.000000 139.002105 -1.490700 1003.008931 -297.646031 20.619227 0.000000 0.004523
47.000000 47.379000 9.000000 8.000000 -13.000000 139.722639 7.869648 826.232931 -341.215414 21.095189 0.000000 0.023384
48.000000 46.054000 10.000000 8.000000 -13.000000 139.474053 16.845136 649.122222 -374.468476 21.701750 0.000000 0.059425
49.000000 45.600000 3.000000 9.000000 -13.000000 115.956521 -36.071634 1759.031399 292.793716 21.925087 0.000000 0.044559
50.000000 46.467000 4.000000 9.000000 -13.000000 120.791940 -30.524134 1609.596582 196.417265 21.514336 0.000000 0.017550
51.000000 46.920000 5.000000 9.000000 -13.000000 125.028263 -24.253825 1459.921650 113.543382 21.305691 0.000000 0.023799
52.000000 46.971000 6.000000 9.000000 -13.000000 128.542203 -17.289211 1310.006022 43.007526 21.281454 0.000000 0.035750
53.000000 46.653000 7.000000 9.000000 -13.000000 131.235713 -9.745240 1159.849119 -16.222653 21.425932 0.000000 0.040348
54.000000 46.009000 8.000000 9.000000 -13.000000 133.053766 -1.833315 1009.450357 -65.065547 21.725164 0.000000 0.037212
64.000000 52.516000 2.000000 7.000000 -12.000000 117.517476 -46.355629 2103.469131 128.602482 19.036916 0.000000 0.222289
65.000000 54.034000 3.000000 7.000000 -12.000000 123.972201 -40.660060 1899.454567 -14.999082 18.500576 0.000000 0.160889
66.000000 54.923000 4.000000 7.000000 -12.000000 129.780591 -33.780707 1694.991493 -137.137055 18.199802 0.000000 0.114672
67.000000 55.187000 5.000000 7.000000 -12.000000 134.702746 -25.574217 1490.078428 -239.878390 18.111499 0.000000 0.079345
68.000000 54.870000 6.000000 7.000000 -12.000000 138.502982 -16.053675 1284.713885 -325.028214 18.215494 0.000000 0.049181
69.000000 54.042000 7.000000 7.000000 -12.000000 140.997461 -5.513767 1078.896370 -394.169986 18.494091 0.000000 0.019109
70.000000 52.792000 8.000000 7.000000 -12.000000 142.117937 5.433548 872.624383 -448.698487 18.931699 0.000000 0.022989
74.000000 47.333000 1.000000 8.000000 -12.000000 106.715712 -46.169723 2096.162726 474.264875 21.124902 0.000000 0.168535
75.000000 49.275000 1.000000 4.000000 -6.000000 112.963411 -41.478102 1926.491664 332.292784 10.145427 0.000000 0.105950
76.000000 50.702000 3.000000 8.000000 -12.000000 118.787650 -35.983861 1756.510455 210.144254 19.718047 0.000000 0.059482
77.000000 51.582000 2.000000 4.000000 -6.000000 124.008698 -29.591870 1586.218247 105.861287 9.690166 0.000000 0.032086
78.000000 51.914000 5.000000 8.000000 -12.000000 128.444907 -22.263249 1415.614187 17.738901 19.254935 0.000000 0.027436
79.000000 51.732000 3.000000 4.000000 -6.000000 131.932997 -14.067496 1244.697416 -55.714449 9.660965 0.000000 0.030477
80.000000 51.091000 7.000000 8.000000 -12.000000 134.357275 -5.227275 1073.467075 -115.809242 19.563813 0.000000 0.028043
81.000000 50.063000 4.000000 4.000000 -6.000000 135.680368 3.884279 901.922299 -163.701542 9.982568 0.000000 0.020802
82.000000 48.727000 9.000000 8.000000 -12.000000 135.959466 12.820739 730.062222 -200.415078 20.512222 0.000000 0.027382
83.000000 47.163000 5.000000 4.000000 -6.000000 135.334721 21.183663 557.885974 -226.859644 10.596457 0.000000 0.057531
84.000000 46.057000 2.000000 9.000000 -12.000000 108.452903 -37.480400 1800.284847 488.433287 21.710327 0.000000 0.041327
85.000000 47.393000 1.000000 3.000000 -4.000000 113.737939 -32.269590 1654.605727 381.230583 7.032111 0.000000 0.012600
86.000000 48.257000 4.000000 9.000000 -12.000000 118.477141 -26.375276 1508.698363 289.340293 20.717276 0.000000 0.034701
87.000000 48.646000 5.000000 9.000000 -12.000000 122.532423 -19.803414 1362.562219 211.315239 20.550670 0.000000 0.053968
88.000000 48.582000 2.000000 3.000000 -4.000000 125.786731 -12.631252 1216.196755 145.887316 6.858935 0.000000 0.064053
89.000000 48.109000 7.000000 9.000000 -12.000000 128.161792 -5.023133 1069.601431 91.940635 20.778334 0.000000 0.065091
90.000000 47.285000 8.000000 9.000000 -12.000000 129.633919 2.777945 922.775706 48.489357 21.139938 0.000000 0.057716
91.000000 46.175000 3.000000 3.000000 -4.000000 130.240967 10.489789 775.719036 14.659290 7.216009 0.000000 0.043421
92.000000 45.459000 5.000000 10.000000 -12.000000 116.999086 -17.910325 1322.847790 364.693937 21.993373 0.000000 0.089809
93.000000 45.495000 3.000000 5.000000 -6.000000 120.067589 -11.545574 1194.866222 305.039030 10.987538 0.000000 0.097260
109.000000 53.080000 1.000000 7.000000 -11.000000 108.752739 -47.455689 2147.746952 400.580651 18.837236 0.000000 0.202368
110.000000 55.377000 2.000000 7.000000 -11.000000 115.757280 -42.192550 1950.669086 240.072800 18.053853 0.000000 0.131572
111.000000 56.961000 3.000000 7.000000 -11.000000 122.212410 -35.867343 1753.172607 104.222358 17.550311 0.000000 0.080885
112.000000 57.793000 4.000000 7.000000 -11.000000 127.862721 -28.330177 1555.256180 -9.604341 17.296282 0.000000 0.049724
113.000000 57.893000 5.000000 7.000000 -11.000000 132.450336 -19.537014 1356.918463 -103.673477 17.265669 0.000000 0.033910
114.000000 57.325000 6.000000 7.000000 -11.000000 135.755493 -9.657776 1158.158110 -179.945652 17.435888 0.000000 0.022524
115.000000 56.191000 7.000000 7.000000 -11.000000 137.655664 0.853082 958.973769 -240.125693 17.787304 0.000000 0.009865
116.000000 54.608000 8.000000 7.000000 -11.000000 138.177062 11.329232 759.364082 -285.703017 18.302758 0.000000 0.029704
117.000000 52.695000 9.000000 7.000000 -11.000000 137.496871 21.116907 559.327685 -317.984592 18.967192 0.000000 0.071200
121.000000 46.775000 0.000000 8.000000 -11.000000 97.744206 -47.104391 2133.408621 725.965543 21.380419 0.000000 0.177130
122.000000 49.405000 1.000000 8.000000 -11.000000 104.382646 -42.711132 1968.563023 565.381614 20.240274 0.000000 0.103101
123.000000 51.502000 2.000000 8.000000 -11.000000 110.693041 -37.585509 1803.424617 427.968959 19.414126 0.000000 0.044323
124.000000 52.991000 3.000000 8.000000 -11.000000 116.483792 -31.632890 1637.992622 311.185501 18.867154 0.000000 0.001214
125.000000 53.836000 4.000000 8.000000 -11.000000 121.556262 -24.797740 1472.266255 212.851776 18.569500 0.000000 0.031164
126.000000 54.049000 5.000000 8.000000 -11.000000 125.724037 -17.106486 1306.244729 131.088524 18.495419 0.000000 0.049428
127.000000 53.677000 6.000000 8.000000 -11.000000 128.840549 -8.712020 1139.927255 64.266733 18.622591 0.000000 0.055783
128.000000 52.800000 7.000000 8.000000 -11.000000 130.830468 0.089804 973.313040 10.967342 18.931573 0.000000 0.051253
129.000000 51.510000 8.000000 8.000000 -11.000000 131.712139 8.902885 806.401290 -30.051514 19.405346 0.000000 0.038191
130.000000 49.906000 9.000000 8.000000 -11.000000 131.596340 17.328163 639.191208 -59.881311 20.028955 0.000000 0.028096
131.000000 48.081000 10.000000 8.000000 -11.000000 130.658434 25.062660 471.681992 -79.485219 20.789196 0.000000 0.049286
132.000000 46.118000 11.000000 8.000000 -11.000000 129.097859 31.945750 303.872840 -89.716408 21.674378 0.000000 0.093519
133.000000 45.824000 1.000000 9.000000 -11.000000 100.079023 -38.773192 1839.534014 695.613828 21.823505 0.000000 0.065389
134.000000 47.733000 2.000000 9.000000 -11.000000 105.789924 -33.870163 1697.426452 574.439474 20.948971 0.000000 0.042780
135.000000 49.126000 3.000000 9.000000 -11.000000 111.026451 -28.323803 1555.101659 471.012380 20.353374 0.000000 0.056007
136.000000 49.972000 4.000000 9.000000 -11.000000 115.634553 -22.123821 1412.559135 383.478796 20.007271 0.000000 0.075336
137.000000 50.276000 5.000000 9.000000 -11.000000 119.476508 -15.317709 1269.798382 310.237082 19.885223 0.000000 0.088377
138.000000 50.073000 6.000000 9.000000 -11.000000 122.449008 -8.029002 1126.818898 249.896265 19.965133 0.000000 0.092971
139.000000 49.421000 7.000000 9.000000 -11.000000 124.500622 -0.458879 983.620179 201.242518 20.227721 0.000000 0.088879
140.000000 48.395000 8.000000 9.000000 -11.000000 125.642488 7.138722 840.201721 163.211832 20.656081 0.000000 0.076358
141.000000 47.075000 9.000000 9.000000 -11.000000 125.946518 14.504409 696.563018 134.867608 21.235335 0.000000 0.056073
142.000000 45.537000 10.000000 9.000000 -11.000000 125.530380 21.423131 552.703561 115.382144 21.952331 0.000000 0.030678
143.000000 46.285000 4.000000 10.000000 -11.000000 110.131180 -20.037742 1367.542175 521.046978 21.603252 0.000000 0.108126
144.000000 46.659000 5.000000 10.000000 -11.000000 113.709126 -13.948612 1242.325204 453.974094 21.429117 0.000000 0.118254
145.000000 46.594000 6.000000 10.000000 -11.000000 116.561591 -7.512725 1116.940014 398.275268 21.457898 0.000000 0.121859
146.000000 46.135000 7.000000 10.000000 -11.000000 118.650301 -0.872244 991.386267 352.890792 21.670445 0.000000 0.118558
155.000000 60.304000 1.000000 6.000000 -10.000000 111.235951 -49.139229 2219.228452 301.701054 16.579928 0.000000 0.252779
156.000000 63.051000 1.000000 3.000000 -5.000000 119.200965 -43.156873 1984.184125 116.383452 7.927910 0.000000 0.169452
157.000000 64.772000 3.000000 6.000000 -10.000000 126.430725 -35.705199 1748.544008 -37.293004 15.432935 0.000000 0.110397
158.000000 65.434000 2.000000 3.000000 -5.000000 132.543955 -26.529211 1512.305833 -163.006471 7.637843 0.000000 0.070504
159.000000 65.097000 5.000000 6.000000 -10.000000 137.156015 -15.598052 1275.467321 -263.877346 15.353881 0.000000 0.040531
160.000000 63.897000 3.000000 3.000000 -5.000000 139.971332 -3.351328 1038.026179 -342.570082 7.820867 0.000000 0.009782
161.000000 62.012000 7.000000 6.000000 -10.000000 140.912485 9.236217 799.980106 -401.373473 16.117095 0.000000 0.032601
166.000000 48.725000 -1.000000 7.000000 -10.000000 91.174410 -52.533271 2379.341781 904.728075 20.526523 0.000000 0.311948
167.000000 52.566000 0.000000 7.000000 -10.000000 98.856560 -48.443970 2189.134844 688.182161 19.024646 0.000000 0.205044
168.000000 55.819000 1.000000 7.000000 -10.000000 106.361135 -43.560787 1998.537501 504.954682 17.913894 0.000000 0.119422
169.000000 58.316000 2.000000 7.000000 -10.000000 113.445542 -37.723115 1807.548549 350.881291 17.144890 0.000000 0.054008
170.000000 59.949000 3.000000 7.000000 -10.000000 119.835975 -30.782975 1616.166780 222.470511 16.676233 0.000000 0.013307
171.000000 60.685000 4.000000 7.000000 -10.000000 125.247884 -22.662264 1424.390981 116.773141 16.472950 0.000000 0.028689
172.000000 60.562000 5.000000 7.000000 -10.000000 129.423014 -13.440821 1232.219933 31.280941 16.505295 0.000000 0.042194
173.000000 59.683000 6.000000 7.000000 -10.000000 132.184528 -3.437596 1039.652414 -36.152784 16.747809 0.000000 0.041918
174.000000 58.185000 7.000000 7.000000 -10.000000 133.493833 6.798556 846.687194 -87.376036 17.178570 0.000000 0.031058
175.000000 56.221000 8.000000 7.000000 -10.000000 133.472655 16.640066 653.323042 -123.988303 17.778604 0.000000 0.029989
176.000000 53.938000 9.000000 7.000000 -10.000000 132.365966 25.589932 459.558718 -147.380952 18.531406 0.000000 0.064607
177.000000 51.464000 10.000000 7.000000 -10.000000 130.467023 33.397095 265.392979 -158.769992 19.422545 0.000000 0.119945
180.000000 48.527000 0.000000 4.000000 -5.000000 94.783611 -43.833091 2008.323029 816.140181 10.304809 0.000000 0.126502
181.000000 51.420000 1.000000 8.000000 -10.000000 101.528681 -39.038343 1847.759142 658.357148 19.448081 0.000000 0.063285
182.000000 53.681000 1.000000 4.000000 -5.000000 107.864757 -33.482747 1686.917653 525.075542 9.313630 0.000000 0.035303
183.000000 55.220000 3.000000 8.000000 -10.000000 113.575425 -27.101276 1525.797843 413.399068 18.106488 0.000000 0.053138
184.000000 56.005000 2.000000 4.000000 -5.000000 118.448719 -19.889922 1364.398989 320.874865 8.925660 0.000000 0.073879
185.000000 56.062000 5.000000 8.000000 -10.000000 122.304490 -11.946354 1202.720363 245.411788 17.832393 0.000000 0.084830
186.000000 55.462000 3.000000 4.000000 -5.000000 125.026700 -3.496407 1040.761240 185.216115 9.012257 0.000000 0.084708
187.000000 54.311000 7.000000 8.000000 -10.000000 126.590697 5.122308 878.520887 138.740505 18.405952 0.000000 0.073786
188.000000 52.729000 4.000000 4.000000 -5.000000 127.071179 13.530500 715.998572 104.643111 9.478929 0.000000 0.053084
189.000000 50.836000 9.000000 8.000000 -10.000000 126.623184 21.400523 553.193559 81.754575 19.663806 0.000000 0.027682
190.000000 48.741000 5.000000 4.000000 -5.000000 125.444094 28.521160 390.105110 69.051190 10.254708 0.000000 0.036426
191.000000 46.535000 11.000000 8.000000 -10.000000 123.734547 34.808022 226.732484 65.632920 21.482043 0.000000 0.083878
192.000000 47.235000 1.000000 9.000000 -10.000000 96.881401 -35.340960 1738.214576 781.765508 21.173031 0.000000 0.072131
193.000000 49.277000 2.000000 9.000000 -10.000000 102.587023 -30.115724 1599.300653 663.172808 20.294174 0.000000 0.077032
194.000000 50.719000 3.000000 9.000000 -10.000000 107.742383 -24.265224 1460.179269 563.261086 19.715563 0.000000 0.094892
195.000000 51.532000 4.000000 9.000000 -10.000000 112.187712 -17.813978 1320.849960 479.935862 19.403214 0.000000 0.110249
196.000000 51.729000 5.000000 9.000000 -10.000000 115.792324 -10.851261 1181.312258 411.407352 19.328084 0.000000 0.118402
197.000000 51.362000 6.000000 9.000000 -10.000000 118.473989 -3.539071 1041.565697 356.137011 19.465206 0.000000 0.118170
198.000000 50.510000 7.000000 9.000000 -10.000000 120.213178 3.900838 901.609806 312.794957 19.792999 0.000000 0.109377
199.000000 49.265000 8.000000 9.000000 -10.000000 121.056136 11.222736 761.444115 280.225765 20.292709 0.000000 0.092174
200.000000 47.724000 9.000000 9.000000 -10.000000 121.104193 18.203089 621.068152 257.420773 20.947967 0.000000 0.066843
201.000000 45.976000 10.000000 9.000000 -10.000000 120.492858 24.677082 480.481444 243.495508 21.744415 0.000000 0.033904
202.000000 46.523000 3.000000 10.000000 -10.000000 102.365265 -22.023640 1410.367765 686.472206 21.495786 0.000000 0.121333
203.000000 47.345000 2.000000 5.000000 -5.000000 106.460044 -16.205208 1287.798492 609.846075 10.560731 0.000000 0.134312
204.000000 47.648000 2.000000 4.000000 -4.000000 109.855753 -10.014883 1165.068004 546.312741 8.394261 0.000000 0.141474
205.000000 47.470000 3.000000 5.000000 -5.000000 112.490503 -3.571434 1042.175983 494.526207 10.531790 0.000000 0.141914
206.000000 46.867000 7.000000 10.000000 -10.000000 114.346760 2.971952 919.122110 453.320753 21.333778 0.000000 0.135428
207.000000 45.911000 4.000000 5.000000 -5.000000 115.452649 9.447381 795.906066 421.681738 10.888782 0.000000 0.122080
212.000000 74.938000 4.000000 5.000000 -9.000000 138.307102 -23.756787 1448.733001 -379.174317 13.337388 0.000000 0.092016
220.000000 59.925000 0.000000 2.000000 -3.000000 100.210625 -50.171976 2265.524489 638.320256 5.562594 0.000000 0.246984
221.000000 64.046000 1.000000 6.000000 -9.000000 108.834712 -44.688114 2039.640114 424.605552 15.612065 0.000000 0.145924
222.000000 67.048000 2.000000 6.000000 -9.000000 116.904199 -37.911041 1813.205371 248.784307 14.911234 0.000000 0.073092
223.000000 69.211000 4.000000 6.000000 -9.000000 129.719958 -19.620103 1358.676718 -8.307279 14.442600 0.000000 0.028611
224.000000 68.469000 5.000000 6.000000 -9.000000 133.671583 -8.225155 1130.578750 -97.187649 14.598560 0.000000 0.029656
225.000000 64.303000 7.000000 6.000000 -9.000000 135.842944 15.688258 672.705312 -210.328974 15.543626 0.000000 0.035464
226.000000 61.370000 8.000000 6.000000 -9.000000 134.508079 26.305840 442.925726 -239.188645 16.286647 0.000000 0.085570
231.000000 50.570000 -1.000000 7.000000 -9.000000 87.783248 -49.336176 2227.906796 1004.936387 19.778907 0.000000 0.238381
232.000000 54.903000 0.000000 7.000000 -9.000000 95.685350 -44.788497 2043.377365 790.022572 18.215980 0.000000 0.138611
233.000000 58.527000 1.000000 7.000000 -9.000000 103.336126 -39.381009 1858.480798 610.908982 17.086008 0.000000 0.062552
234.000000 61.232000 2.000000 7.000000 -9.000000 110.445478 -32.972370 1673.215999 462.722296 16.329538 0.000000 0.025611
235.000000 62.890000 3.000000 7.000000 -9.000000 116.699369 -25.465983 1487.581865 341.442659 15.897524 0.000000 0.049720
236.000000 63.477000 4.000000 7.000000 -9.000000 121.796352 -16.879241 1301.577293 243.724720 15.749148 0.000000 0.070731
237.000000 63.070000 5.000000 7.000000 -9.000000 125.501358 -7.421722 1115.201171 166.761887 15.850164 0.000000 0.077341
238.000000 61.814000 6.000000 7.000000 -9.000000 127.706178 2.476387 928.452385 108.182093 16.171625 0.000000 0.069569
239.000000 59.897000 7.000000 7.000000 -9.000000 128.467026 12.249176 741.329818 65.966872 16.688896 0.000000 0.049071
240.000000 57.512000 8.000000 7.000000 -9.000000 127.988607 21.371039 553.832344 38.387856 17.380884 0.000000 0.026230
241.000000 54.836000 9.000000 7.000000 -9.000000 126.558619 29.504160 365.958837 23.956492 18.229417 0.000000 0.051765
242.000000 52.014000 10.000000 7.000000 -9.000000 124.472350 36.530121 177.708163 21.383865 19.218760 0.000000 0.110672
243.000000 49.160000 11.000000 7.000000 -9.000000 121.982739 42.490704 -10.920813 29.548340 20.335219 0.000000 0.184456
245.000000 46.332000 -1.000000 8.000000 -9.000000 84.146437 -44.857586 2045.957063 1096.661617 21.590139 0.000000 0.171861
246.000000 50.095000 0.000000 8.000000 -9.000000 91.231271 -40.360549 1889.721103 910.641323 19.966183 0.000000 0.101849
247.000000 53.272000 1.000000 8.000000 -9.000000 98.049124 -35.163733 1733.222257 754.819411 18.773383 0.000000 0.068493
248.000000 55.699000 2.000000 8.000000 -9.000000 104.368794 -29.197539 1576.459863 625.148188 17.953520 0.000000 0.076644
249.000000 57.274000 3.000000 8.000000 -9.000000 109.952169 -22.437156 1419.433253 518.277508 17.458404 0.000000 0.097009
250.000000 57.969000 4.000000 8.000000 -9.000000 114.582489 -14.937876 1262.141759 431.410736 17.247803 0.000000 0.111603
251.000000 57.832000 5.000000 8.000000 -9.000000 118.098645 -6.865307 1104.584711 362.194987 17.287869 0.000000 0.116156
252.000000 56.966000 6.000000 8.000000 -9.000000 120.427234 1.502916 946.761436 308.636488 17.549919 0.000000 0.109889
253.000000 55.511000 7.000000 8.000000 -9.000000 121.599070 9.821732 788.671257 269.034599 18.009484 0.000000 0.092904
254.000000 53.617000 8.000000 8.000000 -9.000000 121.739654 17.757821 630.313498 241.929866 18.645563 0.000000 0.065603
255.000000 51.426000 9.000000 8.000000 -9.000000 121.036002 25.062421 471.687478 226.062742 19.440032 0.000000 0.028967
256.000000 49.061000 10.000000 8.000000 -9.000000 119.695207 31.602581 312.792516 220.340508 20.377166 0.000000 0.022236
257.000000 46.623000 11.000000 8.000000 -9.000000 117.911010 37.348999 153.627926 223.810547 21.443254 0.000000 0.077254
258.000000 45.620000 0.000000 3.000000 -3.000000 86.976514 -36.695429 1777.111467 1011.899145 7.308806 0.000000 0.102070
259.000000 48.405000 1.000000 9.000000 -9.000000 93.089894 -31.766074 1641.448769 872.663963 20.663214 0.000000 0.094617
260.000000 50.579000 2.000000 9.000000 -9.000000 98.759008 -26.242230 1505.588168 756.113498 19.773073 0.000000 0.108872
261.000000 52.062000 1.000000 3.000000 -3.000000 103.802429 -20.131048 1369.529234 659.383864 6.402847 0.000000 0.126194
262.000000 52.824000 4.000000 9.000000 -9.000000 108.060188 -13.493765 1233.271530 580.077209 18.929891 0.000000 0.138291
263.000000 52.895000 5.000000 9.000000 -9.000000 111.415649 -6.457239 1096.814622 516.170638 18.903602 0.000000 0.142571
264.000000 52.345000 2.000000 3.000000 -3.000000 113.813672 0.790050 960.158071 465.945689 6.367066 0.000000 0.138359
265.000000 51.278000 7.000000 9.000000 -9.000000 115.268811 8.022721 823.301440 427.933151 19.498333 0.000000 0.125630
266.000000 49.806000 8.000000 9.000000 -9.000000 115.859559 15.018054 686.244289 400.869467 20.074065 0.000000 0.104604
267.000000 48.044000 3.000000 3.000000 -3.000000 115.710127 21.594421 548.986176 383.661972 6.936762 0.000000 0.075615
268.000000 46.093000 10.000000 9.000000 -9.000000 114.966497 27.633448 411.526660 375.360959 21.691254 0.000000 0.039291
269.000000 45.926000 2.000000 10.000000 -9.000000 93.634192 -23.877365 1451.439371 866.242229 21.778738 0.000000 0.126676
270.000000 47.312000 3.000000 10.000000 -9.000000 98.233654 -18.321968 1331.408156 776.941304 21.139168 0.000000 0.142449
271.000000 48.110000 4.000000 10.000000 -9.000000 102.182475 -12.378857 1211.222302 703.110944 20.787253 0.000000 0.153738
272.000000 48.334000 5.000000 10.000000 -9.000000 105.392494 -6.145199 1090.881509 642.978363 20.689748 0.000000 0.158654
273.000000 48.033000 6.000000 10.000000 -9.000000 107.819429 0.245649 970.385479 595.033899 20.818339 0.000000 0.156633
274.000000 47.281000 7.000000 10.000000 -9.000000 109.467458 6.638586 849.733910 557.983952 21.148763 0.000000 0.147640
275.000000 46.164000 8.000000 10.000000 -9.000000 110.385770 12.878208 728.926502 530.713666 21.660111 0.000000 0.131869
280.000000 74.927000 1.000000 5.000000 -8.000000 112.007471 -46.254296 2099.480445 311.874575 13.344050 0.000000 0.189673
281.000000 78.556000 2.000000 5.000000 -8.000000 121.370952 -38.183058 1821.444865 106.151477 12.725881 0.000000 0.105024
282.000000 80.216000 3.000000 5.000000 -8.000000 129.320091 -27.804597 1542.575959 -55.635029 12.461176 0.000000 0.056336
283.000000 79.962000 4.000000 5.000000 -8.000000 135.166092 -14.974060 1262.869976 -179.604955 12.499889 0.000000 0.030762
284.000000 78.078000 5.000000 5.000000 -8.000000 138.387958 -0.389836 982.323142 -270.774411 12.800999 0.000000 0.005883
285.000000 74.976000 6.000000 5.000000 -8.000000 138.925452 14.286221 700.931658 -333.293645 13.330558 0.000000 0.044389
290.000000 57.442000 -1.000000 6.000000 -8.000000 87.674367 -51.089626 2308.372056 1010.591584 17.412754 0.000000 0.279711
291.000000 63.163000 0.000000 3.000000 -4.000000 96.816781 -46.036585 2090.960494 755.664009 7.916725 0.000000 0.157802
292.000000 67.829000 1.000000 6.000000 -8.000000 105.650814 -39.840962 1873.038983 548.285919 14.742226 0.000000 0.065548
293.000000 72.765000 3.000000 6.000000 -8.000000 120.598283 -23.171148 1435.658922 248.677725 13.739139 0.000000 0.045448
294.000000 71.605000 5.000000 6.000000 -8.000000 129.009790 -1.129347 996.217403 68.960131 13.960009 0.000000 0.062396
295.000000 66.172000 7.000000 6.000000 -8.000000 129.742615 21.330981 554.699816 -19.724594 15.105814 0.000000 0.028880
296.000000 62.641000 4.000000 3.000000 -4.000000 127.954915 30.809502 333.157894 -36.476613 7.978857 0.000000 0.073613
297.000000 58.914000 9.000000 6.000000 -8.000000 125.337420 38.752950 111.091415 -37.537443 16.967601 0.000000 0.148201
301.000000 46.724000 -2.000000 7.000000 -8.000000 75.563070 -50.145291 2264.303223 1373.375777 21.411470 0.000000 0.304538
302.000000 52.130000 -1.000000 7.000000 -8.000000 83.692510 -45.895301 2085.467282 1111.935693 19.188642 0.000000 0.188548
303.000000 57.014000 0.000000 7.000000 -8.000000 91.779044 -40.868693 1906.286453 896.792941 17.542831 0.000000 0.103628
304.000000 61.045000 1.000000 7.000000 -8.000000 99.527569 -34.933161 1726.759738 720.656273 16.382586 0.000000 0.063812
305.000000 63.957000 2.000000 7.000000 -8.000000 106.598403 -27.983825 1546.886135 577.698194 15.634816 0.000000 0.076425
306.000000 65.606000 3.000000 7.000000 -8.000000 112.644094 -19.996501 1366.664638 463.205232 15.240395 0.000000 0.098953
307.000000 65.989000 4.000000 7.000000 -8.000000 117.364948 -11.096601 1186.094235 373.323917 15.150983 0.000000 0.111049
308.000000 65.229000 5.000000 7.000000 -8.000000 120.574684 -1.605867 1005.173913 304.873227 15.326675 0.000000 0.109260
309.000000 63.537000 6.000000 7.000000 -8.000000 122.251718 7.991337 823.902654 255.204070 15.734234 0.000000 0.093374
310.000000 61.160000 7.000000 7.000000 -8.000000 122.543992 17.178226 642.279436 222.092588 16.345757 0.000000 0.063963
311.000000 58.334000 8.000000 7.000000 -8.000000 121.717765 25.557683 460.303232 203.658153 17.137645 0.000000 0.023210
312.000000 55.264000 9.000000 7.000000 -8.000000 120.079444 32.927799 277.973013 198.299634 18.089805 0.000000 0.037832
313.000000 52.111000 10.000000 7.000000 -8.000000 117.911230 39.260946 95.287744 204.645358 19.185022 0.000000 0.104366
314.000000 48.988000 11.000000 7.000000 -8.000000 115.439170 44.637309 -87.753612 221.513446 20.408460 0.000000 0.183576
316.000000 47.159000 -1.000000 8.000000 -8.000000 79.794712 -41.567751 1929.495988 1199.975932 21.213376 0.000000 0.152125
317.000000 54.801000 1.000000 8.000000 -8.000000 93.826636 -31.108383 1624.477025 856.918389 18.251202 0.000000 0.095677
318.000000 57.394000 1.000000 4.000000 -4.000000 100.085307 -24.768155 1471.592046 730.173732 8.712482 0.000000 0.113397
319.000000 58.986000 3.000000 8.000000 -8.000000 105.498588 -17.698386 1318.455912 627.718135 16.953305 0.000000 0.131550
320.000000 59.195000 5.000000 8.000000 -8.000000 113.027210 -1.938463 1011.427701 483.274884 16.891102 0.000000 0.140942
321.000000 58.035000 3.000000 4.000000 -4.000000 114.990084 6.228549 857.534380 436.363634 8.614018 0.000000 0.129602
322.000000 56.259000 7.000000 8.000000 -8.000000 115.829051 14.163385 703.387414 403.692486 17.771533 0.000000 0.107676
323.000000 51.570000 9.000000 8.000000 -8.000000 114.839152 28.347241 394.330037 374.907084 19.387421 0.000000 0.034332
324.000000 48.957000 5.000000 4.000000 -4.000000 113.422454 34.350230 239.418364 376.255846 10.211216 0.000000 0.021128
325.000000 46.314000 11.000000 8.000000 -8.000000 111.641075 39.611420 84.250525 386.696371 21.588155 0.000000 0.079851
326.000000 46.183000 0.000000 9.000000 -8.000000 82.507720 -33.288556 1681.685513 1110.334148 21.661256 0.000000 0.110514
327.000000 49.190000 1.000000 9.000000 -8.000000 88.616368 -28.068870 1548.936356 970.461600 20.335190 0.000000 0.114698
328.000000 51.496000 2.000000 9.000000 -8.000000 94.218079 -22.280738 1415.997807 855.215531 19.422875 0.000000 0.132258
329.000000 53.009000 3.000000 9.000000 -8.000000 99.124081 -15.962955 1282.869460 761.208782 18.867028 0.000000 0.148649
330.000000 53.707000 4.000000 9.000000 -8.000000 103.180434 -9.211893 1149.550910 685.651990 18.620475 0.000000 0.158373
331.000000 53.637000 5.000000 9.000000 -8.000000 106.290860 -2.183771 1016.041747 626.227289 18.644015 0.000000 0.159769
332.000000 52.894000 6.000000 9.000000 -8.000000 108.430913 4.920475 882.341563 580.992743 18.904802 0.000000 0.152517
333.000000 51.609000 7.000000 9.000000 -8.000000 109.648136 11.886710 748.449947 548.309108 19.375108 0.000000 0.136809
334.000000 49.917000 8.000000 9.000000 -8.000000 110.047770 18.524436 614.366489 526.783081 20.031365 0.000000 0.113106
335.000000 47.949000 9.000000 9.000000 -8.000000 109.769366 24.694251 480.090775 515.222852 20.853410 0.000000 0.082296
336.000000 45.817000 10.000000 9.000000 -8.000000 108.962493 30.317538 345.622392 512.602958 21.823897 0.000000 0.047406
337.000000 46.273000 1.000000 5.000000 -4.000000 88.963471 -20.306233 1373.266460 961.763629 10.808793 0.000000 0.139213
338.000000 47.695000 3.000000 10.000000 -8.000000 93.451643 -14.608386 1255.521877 873.914015 20.971448 0.000000 0.154979
339.000000 48.464000 2.000000 5.000000 -4.000000 97.249286 -8.592420 1137.628555 802.537615 10.318738 0.000000 0.165309
340.000000 48.604000 5.000000 10.000000 -8.000000 100.281563 -2.372160 1019.586212 745.594478 20.576711 0.000000 0.168790
341.000000 48.181000 3.000000 5.000000 -4.000000 102.523455 3.912243 901.394565 701.370606 10.378211 0.000000 0.165110
342.000000 47.286000 7.000000 10.000000 -8.000000 104.000013 10.111839 783.053331 668.415364 21.148901 0.000000 0.154419
343.000000 46.019000 4.000000 5.000000 -4.000000 104.778269 16.089257 664.562225 645.492770 10.865272 0.000000 0.137121
352.000000 74.259000 0.000000 5.000000 -7.000000 98.274148 -47.734189 2159.250823 708.283443 13.467016 0.000000 0.189751
353.000000 80.478000 1.000000 5.000000 -7.000000 108.717370 -40.490749 1893.941640 461.494370 12.424445 0.000000 0.077106
354.000000 84.409000 2.000000 5.000000 -7.000000 118.072620 -31.240742 1627.873479 269.620213 11.844185 0.000000 0.005596
355.000000 85.805000 3.000000 5.000000 -7.000000 125.554642 -19.731793 1361.043080 123.750867 11.650330 0.000000 0.039674
356.000000 84.835000 4.000000 5.000000 -7.000000 130.481078 -6.280180 1093.447162 16.826312 11.782728 0.000000 0.049743
357.000000 81.977000 5.000000 5.000000 -7.000000 132.558877 7.929737 825.082428 -56.819744 12.193098 0.000000 0.034921
358.000000 77.833000 6.000000 5.000000 -7.000000 132.077281 21.273417 555.945557 -101.787478 12.842238 0.000000 0.038589
359.000000 72.973000 7.000000 5.000000 -7.000000 129.750366 32.624471 286.033214 -121.850306 13.697983 0.000000 0.105742
364.000000 59.550000 -1.000000 6.000000 -7.000000 83.075294 -47.231908 2138.591251 1133.504506 16.798009 0.000000 0.212757
365.000000 66.135000 0.000000 6.000000 -7.000000 92.487719 -41.540028 1928.566060 878.526579 15.123256 0.000000 0.106890
366.000000 71.409000 1.000000 6.000000 -7.000000 101.458914 -34.620906 1718.065435 675.884929 14.004290 0.000000 0.057550
367.000000 74.919000 2.000000 6.000000 -7.000000 109.461153 -26.306417 1507.087762 516.748413 13.346598 0.000000 0.076323
368.000000 76.462000 3.000000 6.000000 -7.000000 115.961930 -16.588958 1295.631417 394.181277 13.075948 0.000000 0.099824
369.000000 76.123000 4.000000 6.000000 -7.000000 120.544366 -5.766739 1083.694769 302.660622 13.133226 0.000000 0.106131
370.000000 74.213000 5.000000 6.000000 -7.000000 123.040008 5.504666 871.276179 237.734151 13.470771 0.000000 0.093164
371.000000 71.153000 6.000000 6.000000 -7.000000 123.594263 16.392914 658.374002 195.772800 14.049732 0.000000 0.061699
372.000000 67.373000 7.000000 6.000000 -7.000000 122.598621 26.217611 444.986584 173.788931 14.838123 0.000000 0.017859
373.000000 63.235000 8.000000 6.000000 -7.000000 120.533235 34.650540 231.112265 169.300671 15.809367 0.000000 0.059765
374.000000 59.012000 9.000000 6.000000 -7.000000 117.830668 41.679440 16.749377 180.229282 16.941204 0.000000 0.142547
375.000000 54.888000 10.000000 6.000000 -7.000000 114.816460 47.464372 -198.103757 204.820544 18.214845 0.000000 0.241897
378.000000 47.082000 -2.000000 7.000000 -7.000000 70.449837 -46.897503 2125.052698 1500.334813 21.250738 0.000000 0.268224
379.000000 53.168000 -1.000000 7.000000 -7.000000 78.755918 -42.209370 1951.244839 1229.881064 18.816019 0.000000 0.162487
380.000000 63.119000 1.000000 7.000000 -7.000000 94.763089 -30.249023 1602.651667 837.184124 15.845712 0.000000 0.097466
381.000000 66.233000 2.000000 7.000000 -7.000000 101.728591 -22.819544 1427.864520 698.575669 15.099247 0.000000 0.119126
382.000000 67.833000 3.000000 7.000000 -7.000000 107.505057 -14.470082 1252.749103 590.420273 14.741631 0.000000 0.137011
383.000000 67.953000 4.000000 7.000000 -7.000000 111.817264 -5.429795 1077.304491 508.194736 14.714569 0.000000 0.142493
384.000000 66.786000 5.000000 7.000000 -7.000000 114.549491 3.905080 901.529755 448.237168 14.970867 0.000000 0.133937
385.000000 64.622000 6.000000 7.000000 -7.000000 115.772353 13.055275 725.423962 407.551327 15.471905 0.000000 0.111442
386.000000 58.517000 8.000000 7.000000 -7.000000 114.665601 29.251248 372.215457 374.506373 17.085893 0.000000 0.027899
387.000000 55.087000 9.000000 7.000000 -7.000000 112.943653 35.927307 195.110863 378.351833 18.149913 0.000000 0.036431
388.000000 51.648000 10.000000 7.000000 -7.000000 110.803243 41.652047 17.671446 393.732253 19.358933 0.000000 0.108336
389.000000 48.311000 11.000000 7.000000 -7.000000 108.441061 46.523353 -160.103744 419.398773 20.696851 0.000000 0.192167
390.000000 47.412000 -1.000000 8.000000 -7.000000 74.664862 -38.094954 1818.769473 1316.037316 21.102246 0.000000 0.145053
391.000000 51.995000 0.000000 8.000000 -7.000000 81.899108 -32.853635 1670.051178 1123.363895 19.240295 0.000000 0.111483
392.000000 55.783000 1.000000 8.000000 -7.000000 88.735938 -26.902529 1521.094989 967.631195 17.932008 0.000000 0.118567
393.000000 58.535000 2.000000 8.000000 -7.000000 94.890676 -20.242241 1371.900335 842.843117 17.087023 0.000000 0.138978
394.000000 60.126000 3.000000 8.000000 -7.000000 100.101970 -12.948667 1222.466642 744.241277 16.633628 0.000000 0.155247
395.000000 60.556000 4.000000 8.000000 -7.000000 104.176702 -5.191705 1072.793335 668.001339 16.514186 0.000000 0.161894
396.000000 59.945000 5.000000 8.000000 -7.000000 107.026432 2.772415 922.879839 611.014570 16.681841 0.000000 0.157650
397.000000 58.483000 6.000000 8.000000 -7.000000 108.680692 10.643785 772.725573 570.727967 17.098111 0.000000 0.142575
398.000000 56.394000 7.000000 8.000000 -7.000000 109.270402 18.142451 622.329958 545.025401 17.731097 0.000000 0.117267
399.000000 53.892000 8.000000 8.000000 -7.000000 108.989012 25.062205 471.692411 532.138025 18.554136 0.000000 0.082989
400.000000 51.161000 9.000000 8.000000 -7.000000 108.048697 31.291856 320.812348 530.575853 19.544762 0.000000 0.044735
401.000000 48.344000 10.000000 8.000000 -7.000000 106.646762 36.804772 169.689183 539.074906 20.683919 0.000000 0.042038
402.000000 45.545000 11.000000 8.000000 -7.000000 104.947768 41.632696 18.322328 556.555940 21.955334 0.000000 0.095878
403.000000 46.179000 0.000000 9.000000 -7.000000 77.303054 -29.758351 1590.360996 1220.329243 21.665552 0.000000 0.115308
404.000000 49.408000 1.000000 9.000000 -7.000000 83.373294 -24.275119 1460.402929 1078.168047 20.247864 0.000000 0.125048
405.000000 51.841000 2.000000 9.000000 -7.000000 88.880026 -18.267034 1330.263442 963.157884 19.296004 0.000000 0.144449
406.000000 53.377000 3.000000 9.000000 -7.000000 93.632385 -11.804722 1199.942155 871.198256 18.739221 0.000000 0.160570
407.000000 54.004000 4.000000 9.000000 -7.000000 97.488508 -5.014535 1069.438687 798.979213 18.520400 0.000000 0.169024
408.000000 53.790000 5.000000 9.000000 -7.000000 100.376911 1.928873 938.752656 743.799607 18.592930 0.000000 0.168668
409.000000 52.862000 6.000000 9.000000 -7.000000 102.304251 8.825845 807.883678 703.433291 18.918393 0.000000 0.159504
410.000000 51.377000 7.000000 9.000000 -7.000000 103.346779 15.484468 676.831368 676.029114 19.464843 0.000000 0.142033
411.000000 49.493000 8.000000 9.000000 -7.000000 103.629128 21.750311 545.595342 660.035163 20.205496 0.000000 0.117211
412.000000 47.354000 9.000000 9.000000 -7.000000 103.298474 27.522673 414.175213 654.140655 21.117727 0.000000 0.087143
413.000000 46.074000 2.000000 10.000000 -7.000000 83.602056 -16.708428 1298.076327 1067.006619 21.713351 0.000000 0.140702
414.000000 47.530000 3.000000 10.000000 -7.000000 87.971185 -10.913926 1182.532920 979.829295 21.046626 0.000000 0.157189
415.000000 48.271000 4.000000 10.000000 -7.000000 91.623187 -4.877560 1066.846343 910.389615 20.722354 0.000000 0.167545
416.000000 48.334000 5.000000 10.000000 -7.000000 94.498630 1.276543 951.016329 856.298675 20.694092 0.000000 0.170598
417.000000 47.802000 6.000000 10.000000 -7.000000 96.591619 7.408961 835.042612 815.580926 20.923435 0.000000 0.166256
418.000000 46.783000 7.000000 10.000000 -7.000000 97.945441 13.383154 718.924923 786.588495 21.378344 0.000000 0.154910
424.000000 69.350000 -1.000000 5.000000 -6.000000 82.193402 -49.015913 2213.829673 1165.991051 14.424274 0.000000 0.250072
425.000000 78.694000 0.000000 5.000000 -6.000000 93.439610 -42.467889 1960.132894 853.302747 12.709400 0.000000 0.113214
426.000000 85.877000 1.000000 5.000000 -6.000000 104.086771 -34.174251 1705.741964 614.550755 11.644468 0.000000 0.048717
427.000000 90.056000 2.000000 5.000000 -6.000000 113.251615 -23.842398 1450.654030 435.404421 11.102491 0.000000 0.075974
428.000000 89.053000 4.000000 5.000000 -6.000000 123.981147 1.948920 938.375656 215.125627 11.225792 0.000000 0.091237
429.000000 85.009000 5.000000 5.000000 -6.000000 125.022117 15.269277 681.179434 159.151083 11.759521 0.000000 0.058380
430.000000 79.700000 6.000000 5.000000 -6.000000 123.779828 27.140390 423.274637 131.948967 12.542925 0.000000 0.019447
431.000000 73.837000 7.000000 5.000000 -6.000000 121.066391 36.976081 164.658335 129.368710 13.539206 0.000000 0.092212
432.000000 67.924000 8.000000 5.000000 -6.000000 117.590110 44.823202 -94.672422 148.037739 14.718457 0.000000 0.199917
435.000000 52.494000 -1.000000 3.000000 -3.000000 67.712357 -48.297886 2182.916473 1604.125242 9.530258 0.000000 0.311666
436.000000 60.881000 -1.000000 6.000000 -6.000000 77.369036 -43.044806 1980.235396 1271.027932 16.432653 0.000000 0.177369
437.000000 74.362000 1.000000 6.000000 -6.000000 95.991570 -29.079086 1573.543233 811.744293 13.449785 0.000000 0.100433
438.000000 75.878000 5.000000 6.000000 -6.000000 115.665269 11.562734 754.797957 413.104643 13.176711 0.000000 0.116136
439.000000 67.611000 7.000000 6.000000 -6.000000 114.417933 30.432489 342.721236 374.287029 14.787769 0.000000 0.019443
440.000000 62.925000 4.000000 3.000000 -3.000000 112.265663 37.937308 136.001640 382.262708 7.944710 0.000000 0.058897
441.000000 58.288000 3.000000 2.000000 -2.000000 109.639989 44.186964 -71.174118 405.350438 5.717912 0.000000 0.148855
442.000000 53.873000 5.000000 3.000000 -3.000000 106.813350 49.356528 -278.807549 441.689327 9.280074 0.000000 0.254133
445.000000 46.549000 -2.000000 7.000000 -6.000000 64.392924 -43.422532 1993.602973 1651.221847 21.496338 0.000000 0.251214
446.000000 53.343000 -1.000000 7.000000 -6.000000 72.811058 -38.284993 1824.548362 1365.161951 18.756645 0.000000 0.153104
447.000000 59.462000 0.000000 7.000000 -6.000000 81.099434 -32.291671 1655.186024 1140.392172 16.824304 0.000000 0.112610
448.000000 64.374000 1.000000 7.000000 -6.000000 88.856269 -25.376235 1485.515118 964.782394 15.538853 0.000000 0.123660
449.000000 67.673000 2.000000 7.000000 -6.000000 95.655013 -17.557143 1315.534801 829.217787 14.779714 0.000000 0.146953
450.000000 69.189000 3.000000 7.000000 -6.000000 101.125184 -8.988365 1145.244225 726.716754 14.454520 0.000000 0.161639
451.000000 69.008000 4.000000 7.000000 -6.000000 105.038059 0.019029 974.642539 651.841396 14.491325 0.000000 0.162622
452.000000 67.414000 5.000000 7.000000 -6.000000 107.360390 9.041688 803.728891 600.293245 14.833253 0.000000 0.149298
453.000000 64.785000 6.000000 7.000000 -6.000000 108.246580 17.652073 632.502425 568.629717 15.434752 0.000000 0.122411
454.000000 61.501000 7.000000 7.000000 -6.000000 107.973577 25.529122 460.962279 554.061226 16.258906 0.000000 0.083839
455.000000 57.882000 8.000000 7.000000 -6.000000 106.856301 32.508229 289.107593 554.303394 17.275482 0.000000 0.042508
456.000000 54.170000 9.000000 7.000000 -6.000000 105.182657 38.563177 116.937499 567.467665 18.459485 0.000000 0.058188
457.000000 50.529000 10.000000 7.000000 -6.000000 103.182421 43.756145 -55.548871 591.979161 19.790068 0.000000 0.127972
458.000000 47.059000 11.000000 7.000000 -6.000000 101.022824 48.190130 -228.352390 626.514176 21.249708 0.000000 0.214100
459.000000 46.823000 -1.000000 8.000000 -6.000000 68.643583 -34.451073 1713.364139 1451.363919 21.370231 0.000000 0.142528
460.000000 51.823000 0.000000 4.000000 -3.000000 75.877337 -28.858919 1568.139895 1250.198132 9.653285 0.000000 0.115111
461.000000 55.917000 1.000000 8.000000 -6.000000 82.653439 -22.585065 1422.688937 1091.291346 17.891304 0.000000 0.127939
462.000000 58.821000 1.000000 4.000000 -3.000000 88.668734 -15.674246 1277.010733 966.978224 8.503145 0.000000 0.150069
463.000000 60.399000 3.000000 8.000000 -6.000000 93.664402 -8.252581 1131.104751 871.349400 16.560443 0.000000 0.165795
464.000000 60.681000 2.000000 4.000000 -3.000000 97.474944 -0.530755 984.970455 799.775923 8.241204 0.000000 0.170828
465.000000 59.832000 5.000000 8.000000 -6.000000 100.057468 7.222273 838.607310 748.580308 16.715497 0.000000 0.164523
466.000000 58.096000 3.000000 4.000000 -3.000000 101.489076 14.731110 692.014778 714.804044 8.607050 0.000000 0.147448
467.000000 55.741000 7.000000 8.000000 -6.000000 101.934681 21.768818 545.192318 696.040096 17.941107 0.000000 0.120948
468.000000 53.008000 4.000000 4.000000 -3.000000 101.601182 28.189939 398.139389 690.310149 9.433008 0.000000 0.088179
469.000000 50.094000 9.000000 8.000000 -6.000000 100.696307 33.933170 250.855449 695.973245 19.963524 0.000000 0.060768
470.000000 47.145000 5.000000 4.000000 -3.000000 99.402390 39.003026 103.339952 711.656829 10.606233 0.000000 0.072456
471.000000 48.833000 1.000000 9.000000 -6.000000 77.282513 -20.415288 1375.597186 1200.177817 20.488673 0.000000 0.121190
472.000000 51.387000 2.000000 9.000000 -6.000000 82.673651 -14.239870 1248.141373 1083.766157 19.468770 0.000000 0.142460
473.000000 52.946000 1.000000 3.000000 -2.000000 87.269451 -7.699507 1120.511264 992.798901 6.298016 0.000000 0.159589
474.000000 53.510000 4.000000 9.000000 -6.000000 90.944868 -0.942508 992.706499 923.246749 18.693598 0.000000 0.168246
475.000000 53.174000 5.000000 9.000000 -6.000000 93.654732 5.849909 864.726721 871.893150 18.810811 0.000000 0.167601
476.000000 52.094000 2.000000 3.000000 -2.000000 95.433714 12.490853 736.571568 836.139228 6.399982 0.000000 0.158016
477.000000 50.453000 7.000000 9.000000 -6.000000 96.379853 18.817118 608.240682 813.862328 19.823641 0.000000 0.140486
478.000000 48.431000 8.000000 9.000000 -6.000000 96.628861 24.709940 479.733699 803.311720 20.651080 0.000000 0.116867
479.000000 46.182000 3.000000 3.000000 -2.000000 96.328312 30.101744 351.050257 803.030572 7.218872 0.000000 0.091404
480.000000 46.661000 3.000000 10.000000 -6.000000 81.761054 -7.268677 1112.278465 1098.105769 21.441452 0.000000 0.146717
481.000000 47.386000 2.000000 5.000000 -3.000000 85.285341 -1.262384 998.717570 1029.786290 10.556086 0.000000 0.158480
482.000000 47.393000 5.000000 10.000000 -6.000000 88.038392 4.778988 885.018514 977.991583 21.107488 0.000000 0.162472
483.000000 46.784000 3.000000 5.000000 -3.000000 90.031361 10.723181 771.181046 940.400415 10.690740 0.000000 0.158839
484.000000 45.682000 7.000000 10.000000 -6.000000 91.321596 16.450176 657.204912 915.109799 21.896493 0.000000 0.148315
487.000000 82.816000 -1.000000 4.000000 -5.000000 80.845918 -51.511004 2328.620869 1219.673674 12.078957 0.000000 0.312813
488.000000 88.583000 6.000000 4.000000 -5.000000 121.671805 40.274015 63.074938 70.705279 11.285261 0.000000 0.144475
493.000000 71.093000 -1.000000 5.000000 -5.000000 75.426429 -44.176914 2020.806993 1331.165782 14.072474 0.000000 0.200134
494.000000 90.356000 1.000000 5.000000 -5.000000 97.669604 -27.394888 1532.776141 777.753650 11.068698 0.000000 0.105333
495.000000 80.018000 6.000000 5.000000 -5.000000 114.042279 32.039912 301.413738 374.571916 12.494972 0.000000 0.010379
496.000000 73.263000 7.000000 5.000000 -5.000000 111.254457 40.579066 53.186161 389.796106 13.647384 0.000000 0.092936
497.000000 66.727000 8.000000 5.000000 -5.000000 107.955076 47.405802 -195.699159 425.669443 14.984751 0.000000 0.210257
499.000000 51.320000 -2.000000 6.000000 -5.000000 60.501576 -44.385058 2028.435521 1793.017860 19.498922 0.000000 0.293303
500.000000 60.827000 -1.000000 6.000000 -5.000000 70.304976 -38.534730 1832.188811 1433.519284 16.449426 0.000000 0.164999
501.000000 69.397000 0.000000 6.000000 -5.000000 80.002593 -31.537653 1635.527281 1163.609706 14.416168 0.000000 0.113859
502.000000 76.004000 1.000000 6.000000 -5.000000 88.954544 -23.296590 1438.449613 962.384417 13.161099 0.000000 0.130396
503.000000 79.918000 2.000000 6.000000 -5.000000 96.484051 -13.879862 1240.954484 814.996025 12.515134 0.000000 0.156056
504.000000 80.946000 3.000000 6.000000 -5.000000 102.059008 -3.617279 1043.040568 710.608807 12.354864 0.000000 0.166267
505.000000 79.441000 4.000000 6.000000 -5.000000 105.461145 6.902495 844.706531 641.129619 12.588110 0.000000 0.156986
506.000000 76.075000 5.000000 6.000000 -5.000000 106.837721 16.999649 645.951033 600.391920 13.144630 0.000000 0.128881
507.000000 71.579000 6.000000 6.000000 -5.000000 106.598624 26.141034 446.772729 583.614754 13.969962 0.000000 0.084904
508.000000 66.570000 7.000000 6.000000 -5.000000 105.239306 34.068002 247.170270 587.034347 15.021225 0.000000 0.042541
509.000000 61.484000 8.000000 6.000000 -5.000000 103.202020 40.764149 47.142298 607.647315 16.264201 0.000000 0.083831
510.000000 56.590000 9.000000 6.000000 -5.000000 100.818246 46.351658 -153.312548 643.027928 17.671248 0.000000 0.174423
511.000000 52.032000 10.000000 6.000000 -5.000000 98.309731 51.001748 -354.195636 691.195651 19.219793 0.000000 0.283398
513.000000 52.195000 -1.000000 7.000000 -5.000000 65.692267 -34.138533 1704.762131 1528.350880 19.171730 0.000000 0.150587
514.000000 58.938000 0.000000 7.000000 -5.000000 73.967529 -27.693713 1539.916494 1290.296419 16.976622 0.000000 0.113829
515.000000 64.286000 1.000000 7.000000 -5.000000 81.625319 -20.377010 1374.778723 1110.024621 15.562417 0.000000 0.130570
516.000000 67.756000 2.000000 7.000000 -5.000000 88.213325 -12.283632 1209.348041 975.359977 14.763868 0.000000 0.155573
517.000000 69.177000 3.000000 7.000000 -5.000000 93.378294 -3.648195 1043.623669 877.336494 14.459279 0.000000 0.169491
518.000000 68.708000 4.000000 7.000000 -5.000000 96.953099 5.170682 877.604823 809.205575 14.557048 0.000000 0.168558
519.000000 66.733000 5.000000 7.000000 -5.000000 98.984815 13.767164 711.290718 765.790498 14.986901 0.000000 0.153101
520.000000 63.725000 6.000000 7.000000 -5.000000 99.690978 21.792310 544.680565 743.053990 15.694031 0.000000 0.125080
521.000000 60.119000 7.000000 7.000000 -5.000000 99.374013 29.025517 377.773574 737.801109 16.635060 0.000000 0.089500
522.000000 56.263000 8.000000 7.000000 -5.000000 98.340037 35.384028 210.568950 747.470493 17.775213 0.000000 0.065839
523.000000 52.399000 9.000000 7.000000 -5.000000 96.849586 40.888403 43.065896 769.984757 19.086280 0.000000 0.094926
524.000000 48.679000 10.000000 7.000000 -5.000000 95.100983 45.617216 -124.736387 803.641360 20.545142 0.000000 0.163941
525.000000 50.452000 0.000000 8.000000 -5.000000 68.802743 -24.742818 1471.014883 1400.601153 19.833897 0.000000 0.105369
526.000000 54.834000 1.000000 8.000000 -5.000000 75.473720 -18.201946 1328.908055 1234.564937 18.247338 0.000000 0.117818
527.000000 57.883000 2.000000 8.000000 -5.000000 81.328319 -11.121727 1186.584428 1108.293633 17.284471 0.000000 0.142453
528.000000 59.459000 3.000000 8.000000 -5.000000 86.119877 -3.670454 1044.043505 1014.149312 16.824947 0.000000 0.159824
529.000000 59.623000 4.000000 8.000000 -5.000000 89.716356 3.918059 901.284788 946.340748 16.777509 0.000000 0.165533
530.000000 58.592000 5.000000 8.000000 -5.000000 92.117982 11.383283 758.307778 900.397134 17.071703 0.000000 0.159454
531.000000 56.663000 6.000000 8.000000 -5.000000 93.438447 18.488749 615.111973 872.812080 17.652271 0.000000 0.142929
532.000000 54.137000 7.000000 8.000000 -5.000000 93.861719 25.062010 471.696871 860.796892 18.475260 0.000000 0.118728
533.000000 51.278000 8.000000 8.000000 -5.000000 93.594921 31.009198 328.061967 862.105910 19.505276 0.000000 0.093433
534.000000 48.286000 9.000000 8.000000 -5.000000 92.832908 36.306102 184.206757 874.910481 20.713495 0.000000 0.084062
535.000000 47.216000 1.000000 9.000000 -5.000000 70.288045 -16.523276 1294.288550 1343.233028 21.193241 0.000000 0.098960
536.000000 49.888000 2.000000 9.000000 -5.000000 75.553765 -10.238778 1169.408013 1222.758222 20.056713 0.000000 0.122244
537.000000 51.484000 3.000000 9.000000 -5.000000 80.006715 -3.687245 1044.360226 1131.043064 19.433647 0.000000 0.142379
538.000000 52.017000 4.000000 9.000000 -5.000000 83.540981 2.970745 919.144853 1063.012469 19.232988 0.000000 0.153402
539.000000 51.609000 5.000000 9.000000 -5.000000 86.135680 9.558431 793.761557 1014.724589 19.384010 0.000000 0.154597
540.000000 50.443000 6.000000 9.000000 -5.000000 87.847171 15.909823 668.210000 983.071246 19.830940 0.000000 0.146837
541.000000 48.726000 7.000000 9.000000 -5.000000 88.786609 21.892788 542.489842 965.568621 20.529208 0.000000 0.131966
542.000000 46.649000 8.000000 9.000000 -5.000000 89.092436 27.421030 416.600745 960.207989 21.442765 0.000000 0.113429
543.000000 45.670000 4.000000 10.000000 -5.000000 78.242695 2.229616 933.095775 1165.182411 21.908395 0.000000 0.135608
544.000000 45.664000 2.000000 4.000000 -2.000000 80.920456 8.119301 821.450714 1114.741875 8.764005 0.000000 0.142614
548.000000 85.112000 -1.000000 4.000000 -4.000000 72.517840 -45.796209 2081.631200 1427.201659 11.755009 0.000000 0.238241
551.000000 70.409000 -1.000000 5.000000 -4.000000 66.733487 -38.877521 1842.763013 1535.458928 14.211502 0.000000 0.184319
552.000000 83.223000 0.000000 5.000000 -4.000000 78.406835 -30.473306 1608.310532 1197.185773 12.021552 0.000000 0.115003
553.000000 85.531000 5.000000 5.000000 -4.000000 104.633809 26.977656 427.129258 625.653105 11.691573 0.000000 0.086282
554.000000 78.177000 6.000000 5.000000 -4.000000 102.932182 36.136799 189.093377 634.985669 12.791539 0.000000 0.049485
555.000000 70.846000 7.000000 5.000000 -4.000000 100.399470 43.589013 -49.547717 668.287637 14.115472 0.000000 0.124894
556.000000 64.003000 8.000000 5.000000 -4.000000 97.530960 49.581094 -288.796337 721.544618 15.625020 0.000000 0.245912
560.000000 58.537000 -1.000000 6.000000 -4.000000 61.628213 -33.724954 1693.476504 1639.877893 17.095588 0.000000 0.165055
561.000000 68.088000 0.000000 3.000000 -2.000000 71.283433 -26.126093 1502.879057 1347.149916 7.347929 0.000000 0.110225
562.000000 75.346000 1.000000 6.000000 -4.000000 80.066941 -17.380650 1311.891044 1138.501054 13.278642 0.000000 0.131794
563.000000 80.169000 3.000000 6.000000 -4.000000 92.420073 2.461183 928.738509 895.470165 12.477052 0.000000 0.169081
564.000000 74.219000 5.000000 6.000000 -4.000000 96.582284 21.823116 544.009225 807.218406 13.475735 0.000000 0.129261
565.000000 63.967000 7.000000 6.000000 -4.000000 95.148088 37.211979 157.693439 819.243506 15.635151 0.000000 0.077729
566.000000 58.734000 4.000000 3.000000 -2.000000 93.429909 43.210037 -36.062462 852.493970 8.514239 0.000000 0.130233
567.000000 53.811000 9.000000 6.000000 -4.000000 91.448844 48.234247 -230.218683 900.131202 18.586610 0.000000 0.221449
568.000000 49.307000 5.000000 3.000000 -2.000000 89.382269 52.443158 -424.776465 960.037796 10.142345 0.000000 0.332800
569.000000 49.166000 -1.000000 7.000000 -4.000000 57.256647 -29.797445 1591.335809 1738.567546 20.356007 0.000000 0.158680
570.000000 56.459000 0.000000 7.000000 -4.000000 65.428603 -22.950929 1430.772338 1475.421458 17.724948 0.000000 0.097504
571.000000 62.208000 1.000000 7.000000 -4.000000 72.926830 -15.324320 1269.931888 1283.745953 16.085205 0.000000 0.109570
572.000000 65.849000 2.000000 7.000000 -4.000000 79.291113 -7.087115 1108.813743 1146.107912 15.194197 0.000000 0.138577
573.000000 67.222000 3.000000 7.000000 -4.000000 84.201461 1.468031 947.417183 1050.334152 14.882524 0.000000 0.155601
574.000000 66.565000 4.000000 7.000000 -4.000000 87.554748 9.973088 785.741486 987.666839 15.028304 0.000000 0.156607
575.000000 64.363000 5.000000 7.000000 -4.000000 89.461331 18.072431 623.785927 951.644273 15.541602 0.000000 0.143173
576.000000 61.161000 6.000000 7.000000 -4.000000 90.173222 25.503651 461.549778 937.394720 16.354609 0.000000 0.119703
577.000000 57.435000 7.000000 7.000000 -4.000000 89.992076 32.130916 299.032309 941.175766 17.415231 0.000000 0.097012
578.000000 53.538000 8.000000 7.000000 -4.000000 89.199522 37.929653 136.232789 960.065040 18.682787 0.000000 0.099596
579.000000 49.701000 9.000000 7.000000 -4.000000 88.023375 42.948387 -26.849517 991.747306 20.125042 0.000000 0.143333
580.000000 46.060000 10.000000 7.000000 -4.000000 86.631496 47.271742 -190.215347 1034.364610 21.716129 0.000000 0.215250
581.000000 47.495000 0.000000 2.000000 -1.000000 60.603163 -20.543739 1378.346697 1588.564522 5.267943 0.000000 0.088860
582.000000 52.131000 1.000000 8.000000 -4.000000 67.134021 -13.803540 1239.433751 1408.390026 19.196340 0.000000 0.082315
583.000000 55.330000 1.000000 4.000000 -2.000000 72.827489 -6.641089 1100.313747 1275.849769 9.042515 0.000000 0.109918
584.000000 56.948000 3.000000 8.000000 -4.000000 77.455964 0.745972 960.986223 1180.497017 17.569655 0.000000 0.132556
585.000000 55.986000 5.000000 8.000000 -4.000000 83.254845 15.243149 681.706753 1072.937256 17.869164 0.000000 0.140505
586.000000 54.005000 3.000000 4.000000 -2.000000 84.594052 21.926511 541.753874 1050.794659 9.262032 0.000000 0.128989
587.000000 51.460000 7.000000 8.000000 -4.000000 85.125659 28.046983 401.591608 1044.998813 19.439317 0.000000 0.113486
588.000000 48.624000 2.000000 2.000000 -1.000000 85.045900 33.551678 261.219484 1052.946444 5.143250 0.000000 0.104726
589.000000 45.694000 9.000000 8.000000 -4.000000 84.531097 38.442565 120.637030 1072.564896 21.891729 0.000000 0.117632
590.000000 47.108000 2.000000 9.000000 -4.000000 67.517040 -6.301781 1093.857852 1389.148645 21.243541 0.000000 0.078006
591.000000 48.775000 3.000000 9.000000 -4.000000 71.858923 0.197498 971.290004 1293.643542 20.516111 0.000000 0.104408
592.000000 49.342000 4.000000 9.000000 -4.000000 75.310567 6.700171 848.561218 1225.088604 20.278998 0.000000 0.121488
593.000000 48.949000 5.000000 9.000000 -4.000000 77.869841 13.042786 725.671178 1178.456079 20.440268 0.000000 0.128136
594.000000 47.803000 6.000000 9.000000 -4.000000 79.606057 19.084794 602.619565 1149.901472 20.929615 0.000000 0.126143
595.000000 46.120000 7.000000 9.000000 -4.000000 80.634198 24.724332 479.406061 1136.434808 21.692359 0.000000 0.118888
598.000000 82.572000 -1.000000 4.000000 -3.000000 61.249192 -39.377237 1858.362198 1704.914532 12.119174 0.000000 0.220635
599.000000 83.008000 6.000000 4.000000 -3.000000 96.195489 47.324935 -192.387899 768.632964 12.047994 0.000000 0.195256
603.000000 65.546000 -1.000000 5.000000 -3.000000 55.696662 -33.151969 1678.019319 1818.054300 15.268984 0.000000 0.196607
604.000000 80.000000 0.000000 5.000000 -3.000000 67.254170 -23.908308 1452.134700 1434.587750 12.508672 0.000000 0.101840
605.000000 90.335000 1.000000 5.000000 -3.000000 77.509151 -13.112116 1225.701451 1185.811073 11.075966 0.000000 0.128339
606.000000 88.434000 4.000000 5.000000 -3.000000 91.997866 21.865282 543.089859 900.544862 11.310684 0.000000 0.132183
607.000000 81.316000 5.000000 5.000000 -3.000000 91.925606 31.538841 314.441978 898.542521 12.300395 0.000000 0.094932
608.000000 73.662000 6.000000 5.000000 -3.000000 90.609222 39.580291 85.235363 926.151025 13.578319 0.000000 0.103223
609.000000 66.304000 7.000000 5.000000 -3.000000 88.657801 46.128059 -144.532037 977.386541 15.085244 0.000000 0.187894
610.000000 59.619000 8.000000 5.000000 -3.000000 86.460082 51.433371 -374.862283 1047.799926 16.777138 0.000000 0.311687
613.000000 52.985000 -1.000000 6.000000 -3.000000 51.137815 -28.658566 1563.242669 1929.369791 18.890386 0.000000 0.198230
614.000000 71.159000 1.000000 6.000000 -3.000000 69.138441 -11.454441 1193.083445 1359.505024 14.062848 0.000000 0.090674
615.000000 75.444000 2.000000 6.000000 -3.000000 76.040456 -1.727027 1007.451817 1208.664826 13.262649 0.000000 0.126315
616.000000 73.877000 4.000000 6.000000 -3.000000 83.803168 17.527435 635.079030 1063.552536 13.541637 0.000000 0.137516
617.000000 69.804000 5.000000 6.000000 -3.000000 85.025867 26.073944 448.335657 1045.287543 14.331069 0.000000 0.118579
618.000000 59.629000 7.000000 6.000000 -3.000000 84.288682 39.942236 73.729391 1081.399495 16.775715 0.000000 0.128087
619.000000 54.595000 8.000000 6.000000 -3.000000 83.081401 45.339772 -114.135743 1126.801988 18.322519 0.000000 0.195135
620.000000 49.930000 3.000000 2.000000 -1.000000 81.648400 49.883131 -302.377045 1186.215652 6.678220 0.000000 0.290226
622.000000 51.380000 0.000000 7.000000 -3.000000 55.406829 -18.123600 1327.277943 1722.045860 19.480235 0.000000 0.096764
623.000000 57.470000 1.000000 7.000000 -3.000000 62.706510 -10.295934 1170.516927 1505.450996 17.414591 0.000000 0.052933
624.000000 61.323000 2.000000 7.000000 -3.000000 68.875797 -2.048237 1013.492277 1357.095667 16.318854 0.000000 0.085899
625.000000 62.789000 3.000000 7.000000 -3.000000 73.634384 6.298563 856.203325 1258.988384 15.936485 0.000000 0.113459
626.000000 62.169000 4.000000 7.000000 -3.000000 76.930143 14.400259 698.649404 1198.969581 16.094090 0.000000 0.123678
627.000000 60.017000 5.000000 7.000000 -3.000000 78.907995 21.968830 540.829845 1168.525800 16.670256 0.000000 0.120592
628.000000 56.917000 6.000000 7.000000 -3.000000 79.823539 28.822815 382.743975 1161.518424 17.577432 0.000000 0.113372
629.000000 53.353000 7.000000 7.000000 -3.000000 79.956115 34.891964 224.391118 1173.409631 18.750892 0.000000 0.117756
630.000000 49.668000 8.000000 7.000000 -3.000000 79.553429 40.190378 65.770599 1200.772564 20.141755 0.000000 0.148459
631.000000 46.075000 9.000000 7.000000 -3.000000 78.809903 44.781549 -93.118262 1240.970992 21.712413 0.000000 0.205699
632.000000 47.459000 1.000000 8.000000 -3.000000 57.645145 -9.441274 1153.976034 1632.211100 21.089494 0.000000 0.041945
633.000000 50.833000 2.000000 8.000000 -3.000000 63.201826 -2.283535 1017.918661 1485.064346 19.688468 0.000000 0.042946
634.000000 52.586000 3.000000 8.000000 -3.000000 67.736895 4.956336 881.662898 1383.264724 19.030404 0.000000 0.078670
635.000000 52.833000 4.000000 8.000000 -3.000000 71.177079 12.051854 745.208311 1316.149651 18.939972 0.000000 0.100477
636.000000 51.863000 5.000000 8.000000 -3.000000 73.574950 18.802150 608.554465 1276.167506 19.292982 0.000000 0.109815
637.000000 50.030000 6.000000 8.000000 -3.000000 75.069569 25.061833 471.700922 1257.820214 19.999013 0.000000 0.112314
638.000000 47.665000 7.000000 8.000000 -3.000000 75.838347 30.750981 334.647244 1257.009675 20.990662 0.000000 0.116482
642.000000 71.045000 -1.000000 4.000000 -2.000000 46.301684 -32.305639 1655.553266 2157.821339 14.088774 0.000000 0.282323
643.000000 85.612000 5.000000 4.000000 -2.000000 83.725060 42.756889 -20.156226 1102.183515 11.684297 0.000000 0.157185
647.000000 70.009000 0.000000 5.000000 -2.000000 53.226889 -17.153833 1307.218630 1782.831231 14.297265 0.000000 0.108799
648.000000 81.210000 1.000000 5.000000 -2.000000 63.094623 -6.034999 1088.787845 1490.206030 12.323752 0.000000 0.046223
649.000000 86.032000 2.000000 5.000000 -2.000000 70.535048 5.580139 869.845082 1323.206240 11.631561 0.000000 0.096463
650.000000 84.953000 3.000000 5.000000 -2.000000 75.173168 16.783365 650.388537 1238.584599 11.778087 0.000000 0.115846
651.000000 80.017000 4.000000 5.000000 -2.000000 77.384830 26.838507 430.416401 1210.958757 12.503529 0.000000 0.114002
652.000000 73.318000 5.000000 5.000000 -2.000000 77.885169 35.406742 209.926854 1224.450320 13.645343 0.000000 0.124945
653.000000 66.268000 6.000000 5.000000 -2.000000 77.350188 42.495368 -11.081931 1268.617603 15.096630 0.000000 0.181926
654.000000 59.605000 7.000000 5.000000 -2.000000 76.267372 48.290707 -232.611791 1336.312418 16.784198 0.000000 0.281481
657.000000 54.030000 0.000000 3.000000 -1.000000 47.925156 -14.891434 1261.207477 1946.415860 9.263470 0.000000 0.159640
658.000000 62.335000 1.000000 6.000000 -2.000000 56.184471 -5.642408 1081.335920 1665.448775 16.057271 0.000000 0.035776
659.000000 67.020000 1.000000 3.000000 -1.000000 62.897226 3.926931 901.117345 1493.129657 7.466628 0.000000 0.042730
660.000000 68.034000 3.000000 6.000000 -2.000000 67.745806 13.301213 720.550746 1393.555840 14.709065 0.000000 0.084484
661.000000 66.196000 2.000000 3.000000 -1.000000 70.808700 22.023508 539.635115 1345.109955 7.558112 0.000000 0.103879
662.000000 62.601000 5.000000 6.000000 -2.000000 72.420423 29.809260 358.369438 1333.997915 15.983400 0.000000 0.118005
663.000000 58.184000 3.000000 3.000000 -1.000000 72.987348 36.562949 176.752699 1351.003630 8.598057 0.000000 0.147069
664.000000 53.575000 7.000000 6.000000 -2.000000 72.868163 42.325142 -5.216124 1389.735424 18.674962 0.000000 0.202422
665.000000 49.132000 4.000000 3.000000 -1.000000 72.332276 47.206044 -187.538054 1445.621145 10.181568 0.000000 0.282820
666.000000 49.614000 1.000000 7.000000 -2.000000 51.059521 -5.367423 1076.122380 1814.546408 20.175454 0.000000 0.094256
667.000000 53.778000 2.000000 7.000000 -2.000000 57.105530 2.766647 922.988449 1637.951018 18.611890 0.000000 0.024334
668.000000 55.583000 3.000000 7.000000 -2.000000 61.855591 10.804243 769.603284 1527.150595 18.006096 0.000000 0.053826
669.000000 55.344000 4.000000 7.000000 -2.000000 65.282760 18.447835 615.966268 1463.270837 18.082451 0.000000 0.085746
670.000000 53.622000 5.000000 7.000000 -2.000000 67.533075 25.480793 462.076779 1434.046829 18.661835 0.000000 0.108503
671.000000 50.993000 6.000000 7.000000 -2.000000 68.838659 31.789812 307.934194 1431.162916 19.622792 0.000000 0.132639
672.000000 47.921000 7.000000 7.000000 -2.000000 69.442234 37.352028 153.537889 1448.781625 20.880053 0.000000 0.168069
673.000000 46.279000 3.000000 8.000000 -2.000000 57.120995 8.932708 805.827269 1645.268484 21.627694 0.000000 0.050080
674.000000 46.843000 2.000000 4.000000 -1.000000 60.656325 15.707242 672.320534 1569.538621 10.682929 0.000000 0.072258
675.000000 46.228000 5.000000 8.000000 -2.000000 63.249371 22.069790 538.623137 1526.406342 21.648616 0.000000 0.098074
680.000000 71.289000 0.000000 4.000000 -1.000000 40.907480 -12.073026 1205.207565 2211.276580 14.042580 0.000000 0.266010
681.000000 88.504000 1.000000 4.000000 -1.000000 52.589406 1.908077 939.143748 1764.661194 11.309943 0.000000 0.073366
682.000000 89.556000 3.000000 4.000000 -1.000000 65.027564 27.916498 404.734667 1508.266333 11.174139 0.000000 0.122545
683.000000 81.153000 4.000000 4.000000 -1.000000 66.763598 37.924682 136.382872 1526.824796 12.330083 0.000000 0.186982
684.000000 71.916000 5.000000 4.000000 -1.000000 66.989712 45.824840 -132.738145 1596.930438 13.913284 0.000000 0.293006
689.000000 63.618000 1.000000 5.000000 -1.000000 46.040480 0.723279 961.412570 1978.979474 15.735291 0.000000 0.168424
690.000000 69.602000 2.000000 5.000000 -1.000000 53.474593 11.809667 749.960880 1755.393062 14.381057 0.000000 0.092966
691.000000 69.994000 3.000000 5.000000 -1.000000 58.513999 22.096888 538.030311 1652.448898 14.298822 0.000000 0.112273
692.000000 66.729000 4.000000 5.000000 -1.000000 61.493021 31.104627 325.619235 1623.705626 14.997307 0.000000 0.156946
693.000000 61.735000 5.000000 5.000000 -1.000000 62.992563 38.699989 112.726016 1643.913715 16.209371 0.000000 0.218414
694.000000 56.288000 6.000000 5.000000 -1.000000 63.545357 44.982872 -100.650989 1698.165854 17.777273 0.000000 0.304298
697.000000 48.557000 1.000000 6.000000 -1.000000 41.544018 -0.055221 976.037316 2155.648330 20.616912 0.000000 0.248113
698.000000 53.967000 2.000000 6.000000 -1.000000 48.241920 9.187198 800.925156 1914.388772 18.548804 0.000000 0.149047
699.000000 55.959000 3.000000 6.000000 -1.000000 53.329648 17.990667 625.484609 1783.575158 17.886784 0.000000 0.125079
700.000000 55.257000 4.000000 6.000000 -1.000000 56.871191 26.014682 449.714752 1722.588003 18.112482 0.000000 0.147401
701.000000 52.855000 5.000000 6.000000 -1.000000 59.141405 33.090956 273.614655 1708.592672 18.934443 0.000000 0.187910
702.000000 49.599000 6.000000 6.000000 -1.000000 60.469414 39.200397 97.183388 1727.766214 20.176217 0.000000 0.242825
703.000000 46.062000 7.000000 6.000000 -1.000000 61.145654 44.416158 -79.579985 1771.251138 21.724722 0.000000 0.314434
704.000000 45.771000 3.000000 7.000000 -1.000000 49.196183 14.966826 687.275630 1902.785510 21.869525 0.000000 0.156979
705.000000 46.302000 4.000000 7.000000 -1.000000 52.933134 22.127262 537.365544 1818.656833 21.617158 0.000000 0.153458
#UB matrix in q= (UB) B0 G* 
#[[-0.413358249 -0.156797067  0.896135824]
# [ 0.910552936 -0.0655912    0.408542772]
# [-0.005320633  0.985909501  0.170127482]]
#B0 matrix in q= UB (B0) G*
#[[ 0.19670273 -0.          0.03056101]
# [ 0.          0.19187965 -0.        ]
# [ 0.          0.          0.18806537]]
#UBB0 matrix in q= (UB B0) G* i.e. recip. basis vectors are columns in LT frame: astar = UBB0[:,0], bstar = UBB0[:,1], cstar = UBB0[:,2]. (abcstar as columns on xyzlab1, xlab1 = ui, ui = unit vector along incident beam)
#[[-0.0813087  -0.03008617  0.15589947]
# [ 0.17910825 -0.01258562  0.10466016]
# [-0.00104658  0.18917597  0.03183248]]
#Euler angles phi theta psi (deg)
#[180.309  80.223  65.531]
#deviatoric strain in direct crystal frame (10-3 unit)
#[[ 4.63  0.11 -0.76]
# [ 0.11  4.06 -0.37]
# [-0.76 -0.37 -8.69]]
#deviatoric strain in sample2 frame (10-3 unit)
#[[-3.91 -4.77  4.03]
# [-4.77  1.84  2.64]
# [ 4.03  2.63  2.07]]
#new lattice parameters
#[ 5.1505     5.2086166  5.3195616 90.0241883 99.2723423 89.9872535]
#CCDLabel
#sCMOS
#DetectorParameters
#[79.0, 975.0, 941.0, 0.0, 0.0]
#pixelsize
#0.0734
#Frame dimensions
#[2018, 2016]
#
