#Strain and Orientation Refinement from experimental file: /home/micha/LaueProjects/DepthEffects/testZrO2_142.cor
#File created at Wed Jun 28 14:26:53 2023 with indexingSpotsSet.py
#Number of indexed spots: 541
#Element
#ZrO2
#grainIndex
#G_0
#Mean Deviation(pixel): 0.116
##spot_index intensity h k l 2theta Chi Xexp Yexp Energy GrainIndex PixDev
4.000000 170.158000 0.000000 2.000000 1.000000 53.731541 9.196833 800.739417 1740.988694 5.881545 0.000000 0.069140
5.000000 146.004000 1.000000 2.000000 1.000000 51.959505 -17.537010 1315.118771 1824.166310 6.854537 0.000000 0.120148
12.000000 82.444000 1.000000 3.000000 1.000000 38.604088 -8.867953 1142.926477 2305.362557 12.140801 0.000000 0.282187
20.000000 191.878000 -1.000000 2.000000 2.000000 82.469496 35.223514 215.096209 1115.168655 5.212754 0.000000 0.114067
21.000000 182.625000 1.000000 2.000000 2.000000 84.859688 -19.112210 1347.957186 1043.468167 5.476972 0.000000 0.138713
22.000000 136.961000 2.000000 2.000000 2.000000 73.383236 -36.568716 1773.415241 1340.929058 7.304030 0.000000 0.146115
27.000000 120.551000 -1.000000 3.000000 2.000000 63.164166 27.681890 410.366773 1555.901888 8.300035 0.000000 0.125856
28.000000 130.489000 0.000000 3.000000 2.000000 67.886808 8.552881 813.131054 1383.244669 7.667861 0.000000 0.084589
29.000000 120.817000 1.000000 3.000000 2.000000 66.729098 -10.049646 1165.741466 1411.090335 8.281849 0.000000 0.080247
30.000000 100.273000 2.000000 3.000000 2.000000 61.637346 -25.005803 1477.016972 1582.141196 9.978980 0.000000 0.114770
31.000000 79.268000 3.000000 3.000000 2.000000 55.464871 -35.890088 1753.823400 1855.268852 12.623481 0.000000 0.228041
35.000000 79.449000 -1.000000 4.000000 2.000000 50.451849 23.675613 503.086131 1911.426009 12.596482 0.000000 0.175742
36.000000 82.109000 1.000000 4.000000 2.000000 54.049496 -5.051400 1070.136564 1724.597292 12.188617 0.000000 0.049797
37.000000 61.823000 3.000000 4.000000 2.000000 48.633644 -27.649651 1538.861178 2010.944137 16.187766 0.000000 0.214650
39.000000 55.344000 -1.000000 5.000000 2.000000 41.778499 21.213613 557.238749 2233.244382 18.084547 0.000000 0.274493
40.000000 58.892000 0.000000 5.000000 2.000000 44.275990 9.582501 793.296544 2060.464759 16.995388 0.000000 0.191511
41.000000 58.250000 1.000000 5.000000 2.000000 45.106937 -1.928934 1011.248483 2013.892127 17.182727 0.000000 0.165395
42.000000 54.158000 2.000000 5.000000 2.000000 44.430972 -12.474223 1213.100732 2065.431821 18.480982 0.000000 0.191340
43.000000 48.230000 3.000000 5.000000 2.000000 42.745343 -21.574159 1400.573632 2193.247933 20.752025 0.000000 0.250485
46.000000 187.983000 -1.000000 2.000000 3.000000 107.118330 33.688249 257.519837 542.609081 5.318411 0.000000 0.036159
47.000000 195.290000 0.000000 2.000000 3.000000 112.907230 5.316439 874.843733 484.230484 5.119115 0.000000 0.137157
48.000000 174.098000 1.000000 2.000000 3.000000 106.153392 -20.652448 1380.677231 607.847447 5.742877 0.000000 0.115852
49.000000 140.544000 2.000000 2.000000 3.000000 93.665651 -37.562015 1802.722037 854.014467 7.115225 0.000000 0.085806
50.000000 109.066000 3.000000 2.000000 3.000000 81.403953 -47.757145 2160.204521 1183.011633 9.170410 0.000000 0.236069
54.000000 117.335000 -2.000000 3.000000 3.000000 77.505926 42.873648 -24.232288 1266.428103 8.524886 0.000000 0.183192
55.000000 136.039000 -1.000000 3.000000 3.000000 86.538902 26.540541 437.428276 1013.763433 7.352116 0.000000 0.119373
56.000000 141.095000 0.000000 3.000000 3.000000 90.386989 7.261155 837.865129 933.671580 7.088471 0.000000 0.163279
57.000000 130.755000 1.000000 3.000000 3.000000 87.868981 -11.219865 1188.499822 981.829758 7.649389 0.000000 0.156158
58.000000 111.632000 2.000000 3.000000 3.000000 81.227431 -25.919761 1498.079242 1125.667845 8.960482 0.000000 0.122294
59.000000 73.682000 4.000000 3.000000 3.000000 65.985060 -44.151840 2019.891694 1609.342641 13.577834 0.000000 0.258233
64.000000 87.334000 -2.000000 4.000000 3.000000 65.492855 35.972544 193.814179 1547.275213 11.456065 0.000000 0.172768
65.000000 98.176000 -1.000000 4.000000 3.000000 71.351787 22.782600 522.952104 1334.957858 10.190586 0.000000 0.108854
66.000000 101.700000 0.000000 4.000000 3.000000 74.209212 8.230397 819.320716 1248.541227 9.837322 0.000000 0.117831
67.000000 97.024000 1.000000 4.000000 3.000000 73.533623 -5.971497 1087.581771 1260.861626 10.311680 0.000000 0.115648
68.000000 86.705000 2.000000 4.000000 3.000000 70.131364 -18.328907 1331.552815 1350.733911 11.539212 0.000000 0.103759
69.000000 74.367000 3.000000 4.000000 3.000000 65.365880 -28.294439 1554.390011 1501.509260 13.454141 0.000000 0.124438
70.000000 62.543000 4.000000 4.000000 3.000000 60.313084 -36.060991 1758.725419 1700.016172 15.998131 0.000000 0.197693
71.000000 52.335000 5.000000 4.000000 3.000000 55.549490 -42.078450 1946.771449 1935.773339 19.119265 0.000000 0.303511
74.000000 65.787000 -2.000000 5.000000 3.000000 56.100039 31.427603 317.315236 1788.578742 15.210741 0.000000 0.187440
75.000000 72.375000 -1.000000 5.000000 3.000000 60.202120 20.484044 572.931649 1598.948973 13.826100 0.000000 0.094858
76.000000 74.909000 0.000000 5.000000 3.000000 62.468604 8.810630 808.176370 1508.732393 13.358427 0.000000 0.052951
77.000000 72.919000 1.000000 5.000000 3.000000 62.621113 -2.680594 1025.391398 1499.005483 13.722944 0.000000 0.043850
78.000000 67.408000 2.000000 5.000000 3.000000 60.967451 -13.156116 1226.572990 1554.501465 14.845011 0.000000 0.062014
79.000000 60.070000 3.000000 5.000000 3.000000 58.154995 -22.163740 1413.433189 1662.838720 16.658654 0.000000 0.108622
80.000000 52.377000 4.000000 5.000000 3.000000 54.819452 -29.641373 1587.448668 1813.928064 19.105344 0.000000 0.176687
81.000000 50.593000 -2.000000 6.000000 3.000000 48.793665 28.245003 396.807192 2010.815394 19.780771 0.000000 0.226493
82.000000 54.834000 -1.000000 6.000000 3.000000 51.854818 18.937584 605.713165 1834.665650 18.251034 0.000000 0.133268
83.000000 55.984000 1.000000 6.000000 3.000000 54.261481 -0.437829 983.224728 1715.516224 17.876458 0.000000 0.040632
84.000000 53.032000 2.000000 6.000000 3.000000 53.564840 -9.460182 1154.341063 1746.487106 18.871545 0.000000 0.069149
88.000000 167.328000 -1.000000 2.000000 4.000000 123.127383 32.103233 299.757249 111.856677 5.973338 0.000000 0.049590
89.000000 169.248000 0.000000 2.000000 4.000000 127.076514 3.367122 911.676103 126.291919 5.905380 0.000000 0.072709
90.000000 154.869000 1.000000 2.000000 4.000000 120.135091 -22.156725 1413.279545 266.397481 6.454319 0.000000 0.051489
91.000000 131.935000 2.000000 2.000000 4.000000 108.041538 -38.526367 1831.932104 492.882397 7.577588 0.000000 0.055627
92.000000 108.259000 3.000000 2.000000 4.000000 95.703707 -48.385435 2186.638888 779.132606 9.236446 0.000000 0.211166
95.000000 121.115000 -2.000000 3.000000 4.000000 95.413477 42.011305 5.515672 803.727540 8.256261 0.000000 0.108860
96.000000 133.525000 -1.000000 3.000000 4.000000 103.707212 25.379351 464.413172 650.442449 7.488128 0.000000 0.098684
97.000000 135.406000 0.000000 3.000000 4.000000 106.576105 5.965410 862.533823 618.887140 7.383969 0.000000 0.154481
98.000000 126.616000 1.000000 3.000000 4.000000 103.341435 -12.377813 1211.201756 679.678503 7.896997 0.000000 0.149972
99.000000 111.299000 2.000000 3.000000 4.000000 96.157767 -26.817683 1519.092348 810.885392 8.984720 0.000000 0.110269
100.000000 94.275000 3.000000 3.000000 4.000000 87.674049 -37.234167 1792.963877 995.908827 10.608457 0.000000 0.105053
101.000000 78.554000 4.000000 3.000000 4.000000 79.476370 -44.648244 2038.159354 1222.035720 12.732924 0.000000 0.194678
102.000000 65.270000 5.000000 3.000000 4.000000 72.183912 -50.028159 2258.958561 1479.430480 15.325867 0.000000 0.328776
106.000000 83.626000 -3.000000 4.000000 4.000000 74.831375 46.290177 -150.891117 1363.268033 11.961532 0.000000 0.245712
107.000000 104.119000 -1.000000 4.000000 4.000000 88.097078 21.879645 542.776577 979.535041 9.605956 0.000000 0.133042
108.000000 100.877000 1.000000 4.000000 4.000000 89.011179 -6.886782 1104.993986 959.711738 9.914779 0.000000 0.162377
109.000000 79.832000 3.000000 4.000000 4.000000 79.289944 -28.930414 1569.892019 1173.588812 12.530130 0.000000 0.118775
110.000000 58.315000 5.000000 4.000000 4.000000 67.750271 -42.485086 1960.726730 1538.078827 17.155484 0.000000 0.224965
113.000000 67.543000 -3.000000 5.000000 4.000000 66.285379 40.488630 56.127182 1562.651691 14.812139 0.000000 0.213080
114.000000 75.742000 -2.000000 5.000000 4.000000 71.800087 30.781112 333.880646 1352.889112 13.208276 0.000000 0.123800
115.000000 81.185000 -1.000000 5.000000 4.000000 75.853937 19.748694 588.598573 1229.218437 12.322502 0.000000 0.118742
116.000000 82.655000 0.000000 5.000000 4.000000 77.769388 8.036756 823.032546 1176.619173 12.103239 0.000000 0.132779
117.000000 80.009000 1.000000 5.000000 4.000000 77.360256 -3.430185 1039.512695 1182.797478 12.503735 0.000000 0.133119
118.000000 74.208000 2.000000 5.000000 4.000000 75.017852 -13.833240 1240.025414 1237.636505 13.481510 0.000000 0.120661
119.000000 66.707000 3.000000 5.000000 4.000000 71.443809 -22.747593 1426.274488 1332.770105 14.997880 0.000000 0.111100
120.000000 58.792000 4.000000 5.000000 4.000000 67.312627 -30.132808 1599.729627 1461.249335 17.017541 0.000000 0.129555
121.000000 51.288000 5.000000 5.000000 4.000000 63.102018 -36.163133 1761.665330 1617.279485 19.508209 0.000000 0.183676
122.000000 54.716000 -3.000000 6.000000 4.000000 59.034694 36.219475 186.709728 1741.506411 18.287101 0.000000 0.211892
123.000000 64.002000 -1.000000 6.000000 4.000000 66.239166 18.318508 618.663965 1440.117006 15.633485 0.000000 0.090249
124.000000 63.894000 1.000000 6.000000 4.000000 67.990406 -1.069948 995.101177 1376.136638 15.659974 0.000000 0.083093
125.000000 55.564000 3.000000 6.000000 4.000000 64.474840 -18.065889 1326.078101 1481.597491 18.008150 0.000000 0.086694
126.000000 48.586000 -2.000000 7.000000 4.000000 56.168096 25.408895 463.733119 1739.637704 20.596435 0.000000 0.141231
127.000000 51.227000 -1.000000 7.000000 4.000000 58.602197 17.293401 639.907646 1629.018004 19.534666 0.000000 0.082139
128.000000 52.270000 0.000000 7.000000 4.000000 60.046985 8.921026 806.052130 1568.817223 19.144703 0.000000 0.043144
129.000000 51.637000 1.000000 7.000000 4.000000 60.424343 0.638816 962.999415 1551.853510 19.379637 0.000000 0.023312
130.000000 49.548000 2.000000 7.000000 4.000000 59.817813 -7.227509 1111.492622 1571.983896 20.196824 0.000000 0.035917
131.000000 46.421000 3.000000 7.000000 4.000000 58.430260 -14.442518 1252.196913 1623.939344 21.557416 0.000000 0.067197
133.000000 146.046000 -1.000000 2.000000 5.000000 133.948900 30.468553 341.809668 -262.739053 6.842749 0.000000 0.116072
134.000000 145.896000 0.000000 2.000000 5.000000 136.517403 1.417707 948.363103 -194.215166 6.849650 0.000000 0.019137
135.000000 135.975000 1.000000 2.000000 5.000000 129.737682 -23.624285 1445.764763 -35.598996 7.350026 0.000000 0.037508
136.000000 120.194000 2.000000 2.000000 5.000000 118.452736 -39.462496 1861.045918 185.559276 8.316356 0.000000 0.108115
137.000000 102.821000 3.000000 2.000000 5.000000 106.648049 -48.996743 2212.992791 450.465977 9.723132 0.000000 0.237894
141.000000 116.408000 -2.000000 3.000000 5.000000 109.036530 41.127664 35.173131 447.979611 8.588066 0.000000 0.092548
142.000000 124.198000 -1.000000 3.000000 5.000000 116.313280 24.198777 491.321787 357.476984 8.048666 0.000000 0.057422
143.000000 124.449000 0.000000 3.000000 5.000000 118.332857 4.666956 887.137395 358.748368 8.032378 0.000000 0.116372
144.000000 117.477000 1.000000 3.000000 5.000000 114.758668 -13.522753 1233.847478 430.470770 8.509532 0.000000 0.113373
145.000000 105.767000 2.000000 3.000000 5.000000 107.548063 -27.699555 1540.056462 556.599473 9.452661 0.000000 0.072628
146.000000 92.274000 3.000000 3.000000 5.000000 99.004917 -37.886647 1812.469450 724.886124 10.836299 0.000000 0.068278
147.000000 79.136000 4.000000 3.000000 5.000000 90.568373 -45.135283 2056.388878 925.864426 12.636803 0.000000 0.161048
148.000000 67.431000 5.000000 3.000000 5.000000 82.872555 -50.401012 2276.063072 1152.140460 14.832191 0.000000 0.285891
153.000000 87.446000 -3.000000 4.000000 5.000000 88.748066 45.701817 -127.989692 974.679006 11.436294 0.000000 0.177217
154.000000 97.001000 -2.000000 4.000000 5.000000 96.152498 34.462094 236.331377 800.284287 10.308803 0.000000 0.076134
155.000000 102.694000 -1.000000 4.000000 5.000000 101.279732 20.967035 562.559678 711.109196 9.736750 0.000000 0.125735
156.000000 103.209000 0.000000 4.000000 5.000000 103.011726 6.289652 856.372765 690.779729 9.688085 0.000000 0.160849
157.000000 98.679000 1.000000 4.000000 5.000000 101.180388 -7.796830 1122.373305 726.285864 10.133177 0.000000 0.161624
158.000000 90.542000 2.000000 4.000000 5.000000 96.667826 -19.886767 1364.331965 807.198110 11.044592 0.000000 0.137541
159.000000 80.672000 3.000000 4.000000 5.000000 90.736707 -29.557604 1585.367272 925.089725 12.396889 0.000000 0.108067
160.000000 70.602000 4.000000 4.000000 5.000000 84.406536 -37.069028 1788.080761 1073.104670 14.166446 0.000000 0.114807
161.000000 61.248000 5.000000 4.000000 5.000000 78.283862 -42.885870 1974.659841 1245.630432 16.331299 0.000000 0.178132
162.000000 53.009000 6.000000 4.000000 5.000000 72.652540 -47.436457 2146.957049 1438.047452 18.870999 0.000000 0.272704
165.000000 64.747000 -4.000000 5.000000 5.000000 73.194536 48.212151 -229.283533 1428.810495 15.449537 0.000000 0.290793
166.000000 73.071000 -3.000000 5.000000 5.000000 79.568813 39.944359 73.661538 1199.446319 13.688595 0.000000 0.145720
167.000000 79.897000 -2.000000 5.000000 5.000000 85.048243 30.126950 350.417475 1048.814515 12.518393 0.000000 0.111293
168.000000 84.017000 -1.000000 5.000000 5.000000 88.851905 19.007737 604.239586 963.813633 11.904243 0.000000 0.141157
169.000000 81.857000 1.000000 5.000000 5.000000 89.549896 -4.177460 1053.612425 949.477846 12.218408 0.000000 0.164875
170.000000 76.412000 2.000000 5.000000 5.000000 86.765781 -14.505460 1253.458049 1003.821534 13.089688 0.000000 0.149726
171.000000 69.450000 3.000000 5.000000 5.000000 82.730767 -23.325682 1439.097568 1090.508569 14.402529 0.000000 0.127942
172.000000 62.003000 4.000000 5.000000 5.000000 78.109574 -30.618734 1611.993760 1204.338825 16.133313 0.000000 0.119322
173.000000 48.184000 6.000000 5.000000 5.000000 68.838861 -41.417566 1924.467647 1496.571175 20.762369 0.000000 0.206366
175.000000 54.816000 -4.000000 6.000000 5.000000 66.611389 43.296952 -39.140335 1580.590880 18.250963 0.000000 0.247376
176.000000 60.864000 -3.000000 6.000000 5.000000 71.546246 35.724241 200.913405 1383.400991 16.436616 0.000000 0.146781
177.000000 65.753000 -2.000000 6.000000 5.000000 75.721582 27.113721 423.907120 1248.730726 15.213992 0.000000 0.116238
178.000000 68.760000 -1.000000 6.000000 5.000000 78.668165 17.695828 631.597026 1167.399181 14.548409 0.000000 0.127795
179.000000 69.431000 0.000000 6.000000 5.000000 80.048816 7.907602 825.506280 1131.647179 14.407846 0.000000 0.140855
180.000000 67.763000 1.000000 6.000000 5.000000 79.792309 -1.700996 1006.962403 1134.890504 14.762688 0.000000 0.142530
181.000000 64.187000 2.000000 6.000000 5.000000 78.112755 -10.636241 1177.127710 1171.521183 15.585508 0.000000 0.133424
182.000000 59.369000 3.000000 6.000000 5.000000 75.401978 -18.590971 1337.024232 1236.746422 16.850864 0.000000 0.120013
183.000000 53.976000 4.000000 6.000000 5.000000 72.081856 -25.464785 1487.554263 1326.457284 18.535129 0.000000 0.114888
184.000000 48.528000 5.000000 6.000000 5.000000 68.503210 -31.304672 1629.517396 1437.120990 20.616327 0.000000 0.132600
185.000000 46.418000 -4.000000 7.000000 5.000000 60.768860 39.433294 89.873999 1720.798098 21.555161 0.000000 0.235575
186.000000 50.847000 -3.000000 7.000000 5.000000 64.664506 32.530176 288.527753 1545.403852 19.677419 0.000000 0.150449
187.000000 54.397000 -2.000000 7.000000 5.000000 67.941198 24.908965 475.196119 1421.867779 18.392775 0.000000 0.108986
188.000000 56.633000 -1.000000 7.000000 5.000000 70.307599 16.756842 650.932007 1343.290601 17.666534 0.000000 0.101387
189.000000 57.281000 0.000000 7.000000 5.000000 71.560008 8.368644 816.668506 1303.732351 17.466655 0.000000 0.104882
190.000000 56.324000 1.000000 7.000000 5.000000 71.646607 0.093934 973.235456 1298.063800 17.763502 0.000000 0.105494
191.000000 53.996000 2.000000 7.000000 5.000000 70.678338 -7.744571 1121.373346 1321.843580 18.529623 0.000000 0.101004
192.000000 50.687000 3.000000 7.000000 5.000000 68.881095 -14.918157 1261.745023 1371.216093 19.739554 0.000000 0.095961
193.000000 46.821000 4.000000 7.000000 5.000000 66.521734 -21.314601 1394.945609 1442.826305 21.369638 0.000000 0.099639
194.000000 47.075000 -1.000000 8.000000 5.000000 63.395046 16.051905 665.322115 1501.955177 21.255922 0.000000 0.076967
195.000000 47.676000 0.000000 8.000000 5.000000 64.538436 8.714000 810.034684 1459.464738 20.987950 0.000000 0.064653
196.000000 47.159000 1.000000 8.000000 5.000000 64.828414 1.452191 947.714930 1446.976351 21.218350 0.000000 0.060372
197.000000 45.650000 2.000000 8.000000 5.000000 64.323290 -5.512023 1078.863297 1460.850480 21.919628 0.000000 0.059744
200.000000 119.829000 1.000000 2.000000 6.000000 136.638799 -25.054601 1478.133514 -317.073100 8.339608 0.000000 0.091844
201.000000 108.659000 2.000000 2.000000 6.000000 126.216920 -40.371144 1890.063955 -93.588706 9.198059 0.000000 0.178246
203.000000 108.511000 -2.000000 3.000000 6.000000 119.468503 40.222363 64.740501 144.507405 9.211571 0.000000 0.126875
204.000000 113.333000 -1.000000 3.000000 6.000000 125.740882 22.999357 518.154444 99.551639 8.819013 0.000000 0.026375
205.000000 107.381000 1.000000 3.000000 6.000000 123.363274 -14.654003 1256.437195 208.475963 9.308259 0.000000 0.069460
206.000000 98.482000 2.000000 3.000000 6.000000 116.357093 -28.565398 1560.971756 333.815736 10.150373 0.000000 0.025623
207.000000 77.274000 4.000000 3.000000 6.000000 99.687071 -45.613153 2074.580385 678.348707 12.939345 0.000000 0.154734
208.000000 67.324000 5.000000 3.000000 6.000000 91.903019 -50.767368 2293.133684 884.458033 14.853332 0.000000 0.271175
210.000000 86.903000 -3.000000 4.000000 6.000000 100.188861 45.102221 -105.141577 666.945289 11.505449 0.000000 0.147574
211.000000 97.804000 -1.000000 4.000000 6.000000 111.664521 20.045085 582.301539 485.893412 10.221693 0.000000 0.100100
212.000000 93.733000 1.000000 4.000000 6.000000 110.791437 -8.701230 1139.719820 527.580008 10.665977 0.000000 0.139174
213.000000 78.860000 3.000000 4.000000 6.000000 100.134590 -30.176040 1600.815838 718.454034 12.679552 0.000000 0.083606
214.000000 62.031000 5.000000 4.000000 6.000000 87.324302 -43.280889 1988.570836 1010.092219 16.122535 0.000000 0.146894
218.000000 67.845000 -4.000000 5.000000 6.000000 84.535737 47.768284 -210.667603 1094.181326 14.741363 0.000000 0.228008
219.000000 74.818000 -3.000000 5.000000 6.000000 90.850830 39.392294 91.164302 920.317388 13.366342 0.000000 0.101202
220.000000 80.202000 -2.000000 5.000000 6.000000 96.095127 29.465154 366.925796 808.995821 12.468363 0.000000 0.096321
221.000000 83.162000 -1.000000 5.000000 6.000000 99.554788 18.261360 619.854751 750.223870 12.024119 0.000000 0.138821
222.000000 83.247000 0.000000 5.000000 6.000000 100.730033 6.484107 852.674175 735.734682 12.011800 0.000000 0.163626
223.000000 80.571000 1.000000 5.000000 6.000000 99.581314 -4.922177 1067.690635 758.646990 12.410971 0.000000 0.166374
224.000000 75.745000 2.000000 5.000000 6.000000 96.537623 -15.172644 1266.870939 813.200919 13.202465 0.000000 0.151578
225.000000 69.603000 3.000000 5.000000 6.000000 92.259526 -23.897975 1451.902468 894.550897 14.368289 0.000000 0.127184
226.000000 62.936000 4.000000 5.000000 6.000000 87.376159 -31.099176 1624.241101 998.601878 15.891532 0.000000 0.108690
227.000000 56.330000 5.000000 5.000000 6.000000 82.352634 -36.969555 1785.149598 1121.878749 17.756288 0.000000 0.120703
228.000000 50.145000 6.000000 5.000000 6.000000 77.478026 -41.752940 1935.728593 1261.421412 19.947580 0.000000 0.169687
229.000000 52.749000 -5.000000 6.000000 6.000000 72.095906 49.441663 -282.583639 1475.768955 18.963669 0.000000 0.323874
230.000000 70.312000 -1.000000 6.000000 6.000000 89.275283 17.069662 644.512384 955.241824 14.224391 0.000000 0.146148
231.000000 68.780000 1.000000 6.000000 6.000000 89.841306 -2.330825 1018.808436 943.983527 14.541458 0.000000 0.165953
232.000000 50.642000 5.000000 6.000000 6.000000 77.319201 -31.697286 1639.662468 1225.631133 19.753014 0.000000 0.121003
233.000000 46.035000 -5.000000 7.000000 6.000000 66.760248 45.203711 -108.974992 1596.963946 21.731950 0.000000 0.275965
234.000000 50.591000 -4.000000 7.000000 6.000000 71.148496 39.036296 102.304585 1414.101728 19.774051 0.000000 0.173195
235.000000 54.607000 -3.000000 7.000000 6.000000 75.112381 32.076813 300.448677 1278.682367 18.319194 0.000000 0.122555
236.000000 57.681000 -2.000000 7.000000 6.000000 78.350096 24.405560 486.645323 1184.683271 17.342481 0.000000 0.119572
237.000000 59.470000 -1.000000 7.000000 6.000000 80.583461 16.217873 661.943489 1126.896009 16.820624 0.000000 0.134362
238.000000 59.785000 0.000000 7.000000 6.000000 81.632071 7.815320 827.272832 1100.802091 16.731829 0.000000 0.145785
239.000000 58.651000 1.000000 7.000000 6.000000 81.468141 -0.450364 983.460200 1102.470136 17.055668 0.000000 0.148137
240.000000 56.285000 2.000000 7.000000 6.000000 80.219782 -8.259813 1131.243459 1128.470312 17.772979 0.000000 0.141826
241.000000 53.026000 3.000000 7.000000 6.000000 78.121863 -15.391208 1271.283147 1175.802815 18.865771 0.000000 0.130050
242.000000 49.239000 4.000000 7.000000 6.000000 75.445498 -21.739642 1404.172351 1241.837811 20.317130 0.000000 0.118852
243.000000 46.736000 -3.000000 8.000000 6.000000 68.714600 29.630976 362.809851 1423.397939 21.407138 0.000000 0.124142
244.000000 50.500000 -1.000000 8.000000 6.000000 73.222379 15.578977 674.918903 1277.869958 19.810943 0.000000 0.112026
245.000000 50.144000 1.000000 8.000000 6.000000 74.288752 0.973631 956.708708 1243.804386 19.951841 0.000000 0.119364
246.000000 46.167000 3.000000 8.000000 6.000000 72.088348 -12.438279 1212.392578 1297.236690 21.671197 0.000000 0.108854
254.000000 99.956000 -2.000000 3.000000 7.000000 127.583032 39.295063 94.218193 -129.365803 9.998734 0.000000 0.172539
255.000000 102.940000 -1.000000 3.000000 7.000000 132.958788 21.781711 544.911464 -138.269427 9.708360 0.000000 0.046053
256.000000 102.130000 0.000000 3.000000 7.000000 133.752822 2.067245 936.150202 -90.100268 9.785373 0.000000 0.034418
257.000000 97.841000 1.000000 3.000000 7.000000 130.004412 -15.770942 1278.971116 2.408234 10.214784 0.000000 0.034667
258.000000 91.010000 2.000000 3.000000 7.000000 123.292736 -29.415261 1581.838399 129.598715 10.982410 0.000000 0.028513
259.000000 82.786000 3.000000 3.000000 7.000000 115.329797 -39.153543 1851.351978 284.036235 12.074818 0.000000 0.085959
260.000000 74.169000 4.000000 3.000000 7.000000 107.225255 -46.082046 2092.733995 459.922438 13.479277 0.000000 0.173871
261.000000 65.851000 5.000000 3.000000 7.000000 99.543203 -51.127366 2310.170497 652.684496 15.183713 0.000000 0.278927
266.000000 83.975000 -3.000000 4.000000 7.000000 109.582326 44.491201 -82.346586 404.275025 11.904709 0.000000 0.151724
267.000000 89.136000 -2.000000 4.000000 7.000000 115.948112 32.901961 278.661743 317.206567 11.214623 0.000000 0.012815
268.000000 91.640000 -1.000000 4.000000 7.000000 119.924766 19.114136 602.002287 285.336183 10.907714 0.000000 0.068597
269.000000 91.134000 0.000000 4.000000 7.000000 120.757280 4.342075 893.278143 298.643321 10.968155 0.000000 0.105416
270.000000 87.832000 1.000000 4.000000 7.000000 118.468619 -9.599590 1157.033624 349.094606 11.380978 0.000000 0.107802
271.000000 82.400000 2.000000 4.000000 7.000000 113.838355 -21.409134 1396.993065 430.189645 12.132019 0.000000 0.084713
272.000000 75.695000 3.000000 4.000000 7.000000 107.888422 -30.785765 1616.237788 536.624908 13.207863 0.000000 0.050490
273.000000 68.504000 4.000000 4.000000 7.000000 101.455497 -38.047765 1817.339132 664.041450 14.595793 0.000000 0.061269
274.000000 61.408000 5.000000 4.000000 7.000000 95.075865 -43.670230 2002.459768 808.833132 16.283749 0.000000 0.129328
275.000000 54.766000 6.000000 4.000000 7.000000 89.039733 -48.073447 2173.431786 967.999101 18.260286 0.000000 0.216104
276.000000 48.752000 7.000000 4.000000 7.000000 83.476884 -51.576822 2331.817530 1139.029129 20.514531 0.000000 0.313006
279.000000 68.485000 -4.000000 5.000000 7.000000 94.285073 47.317568 -192.086767 822.043051 14.601074 0.000000 0.193668
280.000000 74.122000 -3.000000 5.000000 7.000000 100.375506 38.832371 108.635559 688.027634 13.489594 0.000000 0.068029
281.000000 78.245000 -2.000000 5.000000 7.000000 105.283534 28.795770 383.405682 605.390992 12.778096 0.000000 0.073180
282.000000 80.305000 -1.000000 5.000000 7.000000 108.372930 17.509760 635.444132 566.161364 12.449851 0.000000 0.122014
283.000000 80.053000 0.000000 5.000000 7.000000 109.228837 5.705893 867.459739 563.717872 12.489051 0.000000 0.148152
284.000000 77.620000 1.000000 5.000000 7.000000 107.858440 -5.664099 1081.747376 592.526974 12.880744 0.000000 0.151824
285.000000 73.461000 2.000000 5.000000 7.000000 104.679135 -15.834670 1280.264126 647.937537 13.610780 0.000000 0.137820
286.000000 68.181000 3.000000 5.000000 7.000000 100.304278 -24.464447 1464.689226 726.019917 14.665755 0.000000 0.112946
287.000000 62.371000 4.000000 5.000000 7.000000 95.316535 -31.574158 1636.471686 823.438467 16.032965 0.000000 0.090699
288.000000 56.500000 5.000000 5.000000 7.000000 90.154443 -37.365694 1796.868432 937.349671 17.700358 0.000000 0.097287
289.000000 50.881000 6.000000 5.000000 7.000000 85.100305 -42.084423 1946.975120 1065.320149 19.656497 0.000000 0.142471
290.000000 45.691000 7.000000 5.000000 7.000000 80.313018 -45.954130 2087.751194 1205.260168 21.890517 0.000000 0.210012
292.000000 55.199000 -5.000000 6.000000 7.000000 81.652169 49.086175 -266.902452 1182.145962 18.119384 0.000000 0.266404
293.000000 60.380000 -4.000000 6.000000 7.000000 87.066984 42.445115 -9.346970 1015.729270 16.563515 0.000000 0.139365
294.000000 64.830000 -3.000000 6.000000 7.000000 91.923685 34.717280 229.258185 897.020691 15.425526 0.000000 0.088795
295.000000 68.084000 -2.000000 6.000000 7.000000 95.795710 25.962399 450.930279 819.493147 14.687718 0.000000 0.113297
296.000000 69.766000 -1.000000 6.000000 7.000000 98.285027 16.440129 657.410075 777.592114 14.333376 0.000000 0.146110
297.000000 69.701000 0.000000 6.000000 7.000000 99.145433 6.613703 850.207632 766.569342 14.346704 0.000000 0.164956
298.000000 67.968000 1.000000 6.000000 7.000000 98.374270 -2.959285 1030.639304 782.348969 14.712761 0.000000 0.168469
299.000000 64.864000 2.000000 6.000000 7.000000 96.206883 -11.800420 1199.857829 821.418962 15.417406 0.000000 0.159108
300.000000 60.805000 3.000000 6.000000 7.000000 93.018549 -19.629561 1358.876988 880.742497 16.447243 0.000000 0.140934
301.000000 56.220000 4.000000 6.000000 7.000000 89.204257 -26.370728 1508.591930 957.685171 17.789573 0.000000 0.120689
302.000000 51.470000 5.000000 6.000000 7.000000 85.097829 -32.086165 1649.796028 1049.954877 19.432350 0.000000 0.110498
303.000000 46.818000 6.000000 6.000000 7.000000 80.942954 -36.903076 1783.194951 1155.551864 21.364141 0.000000 0.124676
304.000000 48.870000 -5.000000 7.000000 7.000000 75.987791 44.858986 -96.009405 1319.917720 20.468237 0.000000 0.216925
305.000000 52.977000 -4.000000 7.000000 7.000000 80.424495 38.635303 114.719262 1173.441346 18.880533 0.000000 0.133515
306.000000 56.473000 -3.000000 7.000000 7.000000 84.350244 31.619480 312.354818 1066.037250 17.711039 0.000000 0.109720
307.000000 59.034000 -2.000000 7.000000 7.000000 87.473500 23.898722 498.080758 992.944334 16.942064 0.000000 0.127043
308.000000 60.407000 -1.000000 7.000000 7.000000 89.537448 15.676573 672.942114 950.024886 16.556903 0.000000 0.149437
309.000000 59.266000 1.000000 7.000000 7.000000 90.014358 -0.993980 993.673666 940.730255 16.875718 0.000000 0.166413
310.000000 56.988000 2.000000 7.000000 7.000000 88.556886 -8.773163 1141.102977 968.435447 17.550621 0.000000 0.160000
311.000000 53.917000 3.000000 7.000000 7.000000 86.248982 -15.861626 1280.811302 1014.356329 18.551082 0.000000 0.146688
312.000000 50.354000 4.000000 7.000000 7.000000 83.356914 -22.161754 1413.389694 1076.351172 19.864404 0.000000 0.130842
313.000000 46.572000 5.000000 7.000000 7.000000 80.126208 -27.670916 1539.370381 1152.528806 21.478544 0.000000 0.119684
314.000000 46.419000 -4.000000 8.000000 7.000000 74.422705 35.599575 204.461061 1310.013873 21.550629 0.000000 0.136943
315.000000 49.169000 -3.000000 8.000000 7.000000 77.644276 29.216209 373.079820 1211.131972 20.344674 0.000000 0.116727
316.000000 51.194000 -2.000000 8.000000 7.000000 80.216086 22.332348 532.869520 1141.646556 19.539716 0.000000 0.124735
317.000000 52.319000 -1.000000 8.000000 7.000000 81.967305 15.104347 684.505918 1098.324759 19.119052 0.000000 0.139109
318.000000 52.463000 0.000000 8.000000 7.000000 82.795420 7.746093 828.597527 1078.307922 19.066894 0.000000 0.149055
319.000000 51.646000 1.000000 8.000000 7.000000 82.690517 0.495398 965.693771 1079.062708 19.368307 0.000000 0.151737
320.000000 49.993000 2.000000 8.000000 7.000000 81.734645 -6.429768 1096.291997 1098.339452 20.009151 0.000000 0.147438
321.000000 47.690000 3.000000 8.000000 7.000000 80.077080 -12.866571 1220.843492 1134.136526 20.976033 0.000000 0.137952
322.000000 45.626000 0.000000 9.000000 7.000000 76.208238 8.122832 821.383026 1207.876601 21.926754 0.000000 0.126575
326.000000 93.641000 -1.000000 3.000000 8.000000 138.613929 20.546546 571.593166 -363.390382 10.671698 0.000000 0.073442
327.000000 92.732000 0.000000 3.000000 8.000000 138.977354 0.768660 960.559947 -296.258368 10.776317 0.000000 0.007019
328.000000 89.313000 1.000000 3.000000 8.000000 135.247274 -16.873008 1301.449447 -193.462783 11.189306 0.000000 0.038891
329.000000 83.987000 2.000000 3.000000 8.000000 128.853984 -30.249217 1602.656561 -62.694338 11.899762 0.000000 0.075157
330.000000 77.499000 3.000000 3.000000 8.000000 121.285456 -39.768395 1870.729215 90.112711 12.897291 0.000000 0.131456
331.000000 70.536000 4.000000 3.000000 8.000000 113.508968 -46.542150 2110.849825 260.319186 14.171976 0.000000 0.208943
336.000000 79.926000 -3.000000 4.000000 8.000000 117.332982 43.868569 -59.604535 169.356855 12.506241 0.000000 0.177008
337.000000 85.288000 -1.000000 4.000000 8.000000 126.582738 18.174554 621.662050 100.230910 11.718848 0.000000 0.040709
338.000000 81.853000 1.000000 4.000000 8.000000 124.686103 -10.491531 1174.314809 183.459988 12.210986 0.000000 0.074698
339.000000 71.952000 3.000000 4.000000 8.000000 114.337596 -31.386825 1631.633189 370.737909 13.893336 0.000000 0.013338
340.000000 59.926000 5.000000 4.000000 8.000000 101.737398 -44.053979 2016.326689 629.844824 16.684703 0.000000 0.128068
341.000000 48.755000 7.000000 4.000000 8.000000 90.077175 -51.834512 2344.422592 938.653922 20.511115 0.000000 0.302342
344.000000 67.526000 -4.000000 5.000000 8.000000 102.639921 46.859901 -173.540924 588.011992 14.806249 0.000000 0.183086
345.000000 71.996000 -3.000000 5.000000 8.000000 108.417042 38.264528 126.075395 484.543877 13.886040 0.000000 0.053240
346.000000 75.107000 -2.000000 5.000000 8.000000 112.950665 28.118852 399.857207 424.241460 13.310162 0.000000 0.045695
347.000000 76.508000 -1.000000 5.000000 8.000000 115.679382 16.753143 651.007794 400.552470 13.066026 0.000000 0.098344
348.000000 76.068000 0.000000 5.000000 8.000000 116.260310 4.926800 882.221878 408.020374 13.141647 0.000000 0.124938
349.000000 73.910000 1.000000 5.000000 8.000000 114.734070 -6.402994 1095.782696 442.072060 13.525613 0.000000 0.129119
350.000000 70.369000 2.000000 5.000000 8.000000 111.499765 -16.491424 1293.637654 498.852562 14.207047 0.000000 0.115679
351.000000 65.882000 3.000000 5.000000 8.000000 107.121558 -25.025077 1477.457882 575.095164 15.175578 0.000000 0.090567
352.000000 60.888000 4.000000 5.000000 8.000000 102.133263 -32.043710 1648.685548 668.018360 16.421312 0.000000 0.066647
353.000000 55.754000 5.000000 5.000000 8.000000 96.942145 -37.757178 1808.571774 775.243440 17.934805 0.000000 0.074897
354.000000 50.744000 6.000000 5.000000 8.000000 91.818043 -42.412060 1958.207256 894.728067 19.707036 0.000000 0.122692
355.000000 46.025000 7.000000 5.000000 8.000000 86.920239 -46.230532 2098.547180 1024.712347 21.729385 0.000000 0.189124
357.000000 56.148000 -5.000000 6.000000 8.000000 90.105664 48.726098 -251.246102 937.991036 17.810497 0.000000 0.230781
358.000000 64.210000 -3.000000 6.000000 8.000000 100.079560 34.205527 243.399379 709.663844 15.572181 0.000000 0.063090
359.000000 67.960000 -1.000000 6.000000 8.000000 105.941159 15.807358 670.290136 621.490543 14.712165 0.000000 0.134661
360.000000 66.075000 1.000000 6.000000 8.000000 105.631917 -3.586231 1042.455036 639.255967 15.132171 0.000000 0.158694
361.000000 59.723000 3.000000 6.000000 8.000000 100.059779 -20.142987 1369.783662 737.622875 16.743047 0.000000 0.131928
362.000000 51.380000 5.000000 6.000000 8.000000 91.951010 -32.471327 1659.918098 897.542157 19.463734 0.000000 0.096013
363.000000 46.426000 -6.000000 7.000000 8.000000 79.560172 49.998981 -307.631249 1249.509721 21.543674 0.000000 0.296243
364.000000 50.385000 -5.000000 7.000000 8.000000 84.267274 44.510547 -83.060951 1092.516094 19.849899 0.000000 0.175100
365.000000 53.978000 -4.000000 7.000000 8.000000 88.659704 38.230294 127.118060 973.057205 18.527823 0.000000 0.103252
366.000000 56.939000 -3.000000 7.000000 8.000000 92.474731 31.158182 324.246203 886.641979 17.563550 0.000000 0.096959
367.000000 59.019000 -2.000000 7.000000 8.000000 95.437993 23.388495 509.502447 829.367791 16.943866 0.000000 0.124794
368.000000 60.038000 -1.000000 7.000000 8.000000 97.317132 15.133024 683.927906 797.831653 16.656203 0.000000 0.150579
369.000000 59.921000 0.000000 7.000000 8.000000 97.981225 6.706252 848.445417 789.056737 16.688596 0.000000 0.165616
370.000000 58.722000 1.000000 7.000000 8.000000 97.438316 -1.536818 1003.875873 800.431245 17.029647 0.000000 0.169392
371.000000 56.600000 2.000000 7.000000 8.000000 95.829403 -9.284548 1150.951919 829.657291 17.668493 0.000000 0.163372
372.000000 53.783000 3.000000 7.000000 8.000000 93.382719 -16.329373 1290.329503 874.707955 18.594776 0.000000 0.149911
373.000000 50.515000 4.000000 7.000000 8.000000 90.354340 -22.580922 1422.597654 933.791027 19.798612 0.000000 0.132531
374.000000 47.021000 5.000000 7.000000 8.000000 86.980816 -28.041941 1548.286806 1005.318284 21.270564 0.000000 0.117075
375.000000 50.364000 -3.000000 8.000000 8.000000 85.630766 28.798505 383.338773 1034.841365 19.859035 0.000000 0.113751
376.000000 52.926000 -1.000000 8.000000 8.000000 89.711726 14.628071 694.083175 946.596642 18.897084 0.000000 0.151735
377.000000 52.045000 1.000000 8.000000 8.000000 90.124274 0.017560 974.670133 938.665521 19.217034 0.000000 0.166584
378.000000 48.249000 3.000000 8.000000 8.000000 87.197191 -13.293013 1229.286601 995.143135 20.729803 0.000000 0.152261
379.000000 45.928000 -2.000000 9.000000 8.000000 81.600869 20.698167 568.341629 1110.881589 21.779315 0.000000 0.129545
380.000000 46.668000 -1.000000 9.000000 8.000000 83.012253 14.235859 701.938836 1077.098042 21.433755 0.000000 0.142630
381.000000 46.723000 0.000000 9.000000 8.000000 83.686180 7.692241 829.627715 1061.168121 21.408891 0.000000 0.151361
382.000000 46.110000 1.000000 9.000000 8.000000 83.620462 1.235285 951.791729 1061.364521 21.693329 0.000000 0.154186
385.000000 81.846000 1.000000 3.000000 9.000000 139.470683 -17.959697 1323.872393 -382.356121 12.209471 0.000000 0.065436
386.000000 77.623000 2.000000 3.000000 9.000000 133.389998 -31.067366 1623.426412 -246.825357 12.874675 0.000000 0.118458
392.000000 78.198000 -2.000000 4.000000 9.000000 129.032916 31.292083 320.806506 -80.133907 12.780655 0.000000 0.085547
393.000000 79.235000 -1.000000 4.000000 9.000000 132.025130 17.226730 641.280958 -74.510313 12.613113 0.000000 0.030085
394.000000 78.516000 0.000000 4.000000 9.000000 132.239537 2.392145 930.037720 -37.130626 12.728641 0.000000 0.043126
395.000000 76.186000 1.000000 4.000000 9.000000 129.792584 -11.376696 1191.563467 26.533493 13.118229 0.000000 0.045263
396.000000 72.567000 2.000000 4.000000 9.000000 125.356653 -22.895132 1429.536752 112.035185 13.773249 0.000000 0.027216
397.000000 68.065000 3.000000 4.000000 9.000000 119.752017 -31.979275 1647.002109 215.729649 14.685428 0.000000 0.025314
398.000000 63.082000 4.000000 4.000000 9.000000 113.646856 -38.997913 1846.501013 334.606730 15.846837 0.000000 0.075909
399.000000 57.957000 5.000000 4.000000 9.000000 107.486275 -44.432223 2030.171652 466.163451 17.249866 0.000000 0.142530
400.000000 52.937000 6.000000 4.000000 9.000000 101.532401 -48.693177 2199.825875 608.305828 18.887213 0.000000 0.219444
401.000000 48.184000 7.000000 4.000000 9.000000 95.922970 -52.088914 2357.009159 759.272406 20.751870 0.000000 0.304229
403.000000 65.609000 -4.000000 5.000000 9.000000 109.806255 46.395180 -155.029976 378.967968 15.237207 0.000000 0.191216
404.000000 69.120000 -3.000000 5.000000 9.000000 115.231801 37.688712 143.483893 300.070767 14.462084 0.000000 0.065789
405.000000 71.453000 -2.000000 5.000000 9.000000 119.388833 27.434463 416.280445 258.004981 13.989224 0.000000 0.020630
406.000000 72.385000 -1.000000 5.000000 9.000000 121.782711 15.991725 666.545800 247.272606 13.808810 0.000000 0.072841
407.000000 71.851000 0.000000 5.000000 9.000000 122.129830 4.147113 896.960648 263.286272 13.911445 0.000000 0.098790
408.000000 69.959000 1.000000 5.000000 9.000000 120.494815 -7.138637 1109.796645 302.193602 14.288132 0.000000 0.102984
409.000000 66.953000 2.000000 5.000000 9.000000 117.256415 -17.142796 1306.991567 360.740407 14.930249 0.000000 0.089747
410.000000 63.153000 3.000000 5.000000 9.000000 112.932090 -25.579849 1490.208472 436.163080 15.829534 0.000000 0.063993
411.000000 58.886000 4.000000 5.000000 9.000000 108.008697 -32.507862 1660.882721 526.103186 16.978064 0.000000 0.039036
412.000000 54.433000 5.000000 5.000000 9.000000 102.861240 -38.144054 1820.259654 628.539099 18.368236 0.000000 0.058023
413.000000 50.014000 6.000000 5.000000 9.000000 97.743931 -42.735898 1969.425029 741.730854 19.992757 0.000000 0.112022
414.000000 45.777000 7.000000 5.000000 9.000000 92.812708 -46.503841 2109.329790 864.175339 21.844621 0.000000 0.178095
416.000000 56.018000 -5.000000 6.000000 9.000000 97.558742 48.361372 -235.614531 726.049555 17.849635 0.000000 0.213075
417.000000 59.705000 -4.000000 6.000000 9.000000 102.688575 41.572170 20.355688 617.084413 16.746165 0.000000 0.092458
418.000000 64.638000 -2.000000 6.000000 9.000000 110.483866 24.791455 477.876995 498.119621 15.466587 0.000000 0.078982
419.000000 65.467000 -1.000000 6.000000 9.000000 112.470240 15.171476 683.152603 479.763599 15.270420 0.000000 0.116828
420.000000 63.603000 1.000000 6.000000 9.000000 111.831308 -4.211519 1054.255662 508.663230 15.718371 0.000000 0.141846
421.000000 61.167000 2.000000 6.000000 9.000000 109.469012 -12.951953 1222.531631 550.586413 16.344885 0.000000 0.133652
422.000000 54.455000 4.000000 6.000000 9.000000 102.229547 -27.260624 1529.580518 678.568175 18.361691 0.000000 0.093502
423.000000 50.665000 5.000000 6.000000 9.000000 97.992731 -32.852791 1670.028696 761.104793 19.736470 0.000000 0.077436
424.000000 47.404000 -6.000000 7.000000 9.000000 87.004659 49.699588 -294.104135 1028.073034 21.097003 0.000000 0.260846
425.000000 50.888000 -5.000000 7.000000 9.000000 91.663002 44.158359 -70.129594 897.443652 19.651324 0.000000 0.145538
426.000000 53.967000 -4.000000 7.000000 9.000000 95.947162 37.821251 139.501010 799.063377 18.528973 0.000000 0.077082
427.000000 56.431000 -3.000000 7.000000 9.000000 99.606186 30.692929 336.122860 729.163917 17.719241 0.000000 0.080821
428.000000 58.093000 -2.000000 7.000000 9.000000 102.385938 22.874928 520.910415 684.463061 17.211884 0.000000 0.114900
429.000000 58.826000 -1.000000 7.000000 9.000000 104.078515 14.587310 694.900886 662.091972 16.997103 0.000000 0.142579
430.000000 58.590000 0.000000 7.000000 9.000000 104.574628 6.150713 859.013717 659.534968 17.065517 0.000000 0.158360
431.000000 57.438000 1.000000 7.000000 9.000000 103.894451 -2.078783 1014.066839 674.579378 17.408141 0.000000 0.162681
432.000000 55.500000 2.000000 7.000000 9.000000 102.179041 -9.793900 1160.790300 705.273555 18.016369 0.000000 0.157160
433.000000 52.958000 3.000000 7.000000 9.000000 99.647383 -16.794407 1299.837765 749.891568 18.881947 0.000000 0.143964
434.000000 50.007000 4.000000 7.000000 9.000000 96.542616 -22.997132 1431.796244 806.903355 19.996963 0.000000 0.126127
435.000000 46.832000 5.000000 7.000000 9.000000 93.089691 -28.410060 1557.194384 874.949396 21.353825 0.000000 0.108682
436.000000 46.027000 -5.000000 8.000000 9.000000 86.085374 40.728028 48.324460 1038.187819 21.729006 0.000000 0.127074
437.000000 48.584000 -4.000000 8.000000 9.000000 89.688941 34.844355 225.719641 948.119796 20.584738 0.000000 0.095026
438.000000 50.627000 -3.000000 8.000000 9.000000 92.748836 28.377881 393.586728 882.265829 19.753235 0.000000 0.107465
439.000000 52.019000 -2.000000 8.000000 9.000000 95.085467 21.424527 552.673291 838.108629 19.224262 0.000000 0.132682
440.000000 52.666000 -1.000000 8.000000 9.000000 96.557120 14.150208 703.650688 813.413511 18.988024 0.000000 0.153514
441.000000 52.535000 0.000000 8.000000 9.000000 97.089883 6.775652 847.123537 806.191914 19.035145 0.000000 0.165941
442.000000 51.663000 1.000000 8.000000 9.000000 96.694228 -0.459818 983.637805 814.670331 19.356644 0.000000 0.169754
443.000000 50.143000 2.000000 8.000000 9.000000 95.460454 -7.342486 1113.687752 837.263715 19.943916 0.000000 0.165883
444.000000 48.107000 3.000000 8.000000 9.000000 93.535321 -13.717568 1237.721915 872.552654 20.788715 0.000000 0.155813
445.000000 45.702000 4.000000 8.000000 9.000000 91.090611 -19.500590 1356.148269 919.263692 21.883128 0.000000 0.141624
446.000000 46.513000 -2.000000 9.000000 9.000000 88.533861 20.289980 577.080618 970.369651 21.502872 0.000000 0.137623
447.000000 47.083000 -1.000000 9.000000 9.000000 89.833922 13.810881 710.420037 944.212636 21.242351 0.000000 0.153417
448.000000 46.383000 1.000000 9.000000 9.000000 90.197712 0.809199 959.798285 937.285610 21.563079 0.000000 0.166610
459.000000 73.668000 -1.000000 4.000000 10.000000 136.534556 16.271081 660.859135 -241.928392 13.565423 0.000000 0.040723
460.000000 70.979000 1.000000 4.000000 10.000000 134.042814 -12.254743 1208.779691 -124.192671 14.079846 0.000000 0.028560
461.000000 64.263000 3.000000 4.000000 10.000000 124.341596 -32.563175 1662.344619 68.497597 15.553171 0.000000 0.062930
462.000000 55.746000 5.000000 4.000000 10.000000 112.473666 -44.805046 2043.994707 313.472460 17.932419 0.000000 0.167712
464.000000 63.170000 -4.000000 5.000000 10.000000 115.974127 45.923304 -136.553826 187.223803 15.823826 0.000000 0.210862
465.000000 65.921000 -3.000000 5.000000 10.000000 121.040275 37.104873 160.861139 128.828854 15.162502 0.000000 0.092219
466.000000 67.668000 -2.000000 5.000000 10.000000 124.837100 26.742679 432.675467 102.201055 14.770526 0.000000 0.024069
467.000000 68.270000 -1.000000 5.000000 10.000000 126.927541 15.225731 682.058213 102.659221 14.640031 0.000000 0.049402
468.000000 66.045000 1.000000 5.000000 10.000000 125.366132 -7.870807 1123.789271 169.809487 15.133507 0.000000 0.076509
469.000000 63.491000 2.000000 5.000000 10.000000 122.154998 -17.788688 1320.325907 230.428729 15.743202 0.000000 0.063404
470.000000 60.269000 3.000000 5.000000 10.000000 117.918055 -26.128753 1502.941037 305.782174 16.585796 0.000000 0.036639
471.000000 56.623000 4.000000 5.000000 10.000000 113.098961 -32.966647 1673.063241 393.846015 17.654801 0.000000 0.012882
472.000000 48.898000 6.000000 5.000000 10.000000 102.983039 -43.055980 1980.628466 601.392840 20.447277 0.000000 0.112620
474.000000 55.152000 -5.000000 6.000000 10.000000 104.125440 47.991937 -220.007680 536.277509 18.127723 0.000000 0.210412
475.000000 60.578000 -3.000000 6.000000 10.000000 113.209905 33.165440 271.619604 389.663686 16.502061 0.000000 0.011983
476.000000 62.656000 -1.000000 6.000000 10.000000 118.067855 14.532621 695.997511 348.118870 15.954082 0.000000 0.096018
477.000000 60.872000 1.000000 6.000000 10.000000 117.156972 -4.835006 1066.041211 386.909535 16.422080 0.000000 0.121254
478.000000 56.010000 3.000000 6.000000 10.000000 111.449084 -21.157911 1391.557719 487.575146 17.848971 0.000000 0.095656
479.000000 49.542000 5.000000 6.000000 10.000000 103.330149 -33.230576 1680.127843 636.120395 20.181870 0.000000 0.055984
480.000000 47.631000 -6.000000 7.000000 10.000000 93.700734 49.396875 -280.595482 834.034729 20.993926 0.000000 0.239617
481.000000 50.651000 -5.000000 7.000000 10.000000 98.256116 43.802390 -57.215303 724.614026 19.741081 0.000000 0.127329
482.000000 53.256000 -4.000000 7.000000 10.000000 102.390981 37.408154 151.868142 643.313160 18.774297 0.000000 0.054658
483.000000 55.283000 -3.000000 7.000000 10.000000 105.868904 30.223732 347.984817 586.907920 18.085068 0.000000 0.061665
484.000000 56.596000 -2.000000 7.000000 10.000000 108.456548 22.358070 532.304688 552.585145 17.665219 0.000000 0.100085
485.000000 57.107000 -1.000000 7.000000 10.000000 109.968857 14.039518 705.861077 537.881615 17.506897 0.000000 0.128929
486.000000 56.796000 0.000000 7.000000 10.000000 110.315269 5.594642 869.570049 540.633416 17.602550 0.000000 0.145171
487.000000 55.714000 1.000000 7.000000 10.000000 109.525121 -2.619780 1024.246582 558.933739 17.944912 0.000000 0.149902
488.000000 53.965000 2.000000 7.000000 10.000000 107.737350 -10.301150 1170.618139 591.097526 18.526994 0.000000 0.144826
489.000000 51.693000 3.000000 7.000000 10.000000 105.160310 -17.256693 1309.336104 635.631708 19.342068 0.000000 0.131959
490.000000 49.054000 4.000000 7.000000 10.000000 102.023148 -23.410373 1440.985479 691.210033 20.383654 0.000000 0.113999
491.000000 46.196000 5.000000 7.000000 10.000000 98.538045 -28.775276 1566.093127 756.651694 21.645513 0.000000 0.095518
492.000000 46.292000 -5.000000 8.000000 10.000000 92.647911 40.389630 59.337609 875.647448 21.602028 0.000000 0.101721
493.000000 50.221000 -3.000000 8.000000 10.000000 99.085165 27.954349 403.823703 746.157435 19.910818 0.000000 0.096933
494.000000 51.814000 -1.000000 8.000000 10.000000 102.609109 13.670815 713.208473 693.220364 19.297799 0.000000 0.147835
495.000000 50.754000 1.000000 8.000000 10.000000 102.505142 -0.936670 992.596800 702.258067 19.701350 0.000000 0.165097
496.000000 47.472000 3.000000 8.000000 10.000000 99.179745 -14.140203 1246.149444 761.634175 21.064458 0.000000 0.151826
497.000000 45.501000 -3.000000 9.000000 10.000000 92.870387 26.155661 446.431737 880.878525 21.978610 0.000000 0.116429
498.000000 46.467000 -2.000000 9.000000 10.000000 94.759167 19.880011 585.811545 845.715113 21.521483 0.000000 0.138290
499.000000 46.892000 -1.000000 9.000000 10.000000 95.945487 13.384733 718.893589 825.782562 21.326111 0.000000 0.155543
500.000000 46.763000 0.000000 9.000000 10.000000 96.385621 6.829622 846.095279 819.686930 21.384951 0.000000 0.166086
501.000000 46.104000 1.000000 9.000000 10.000000 96.089770 0.383391 967.797932 826.169113 21.690744 0.000000 0.169829
511.000000 68.633000 -1.000000 4.000000 11.000000 140.318056 15.308048 680.396711 -403.952754 14.559861 0.000000 0.054384
512.000000 67.940000 0.000000 4.000000 11.000000 140.107482 0.444372 966.652358 -346.613885 14.708393 0.000000 0.002231
513.000000 66.263000 1.000000 4.000000 11.000000 137.623899 -13.125351 1225.963571 -270.325600 15.081186 0.000000 0.035307
514.000000 63.766000 2.000000 4.000000 11.000000 133.454119 -24.344123 1461.963658 -178.244774 15.672434 0.000000 0.064568
515.000000 60.658000 3.000000 4.000000 11.000000 128.268469 -33.138588 1677.660784 -72.965421 16.476532 0.000000 0.098792
516.000000 57.154000 4.000000 4.000000 11.000000 122.604257 -39.920208 1875.566879 43.364445 17.488064 0.000000 0.143238
517.000000 53.449000 5.000000 4.000000 11.000000 116.825331 -45.172533 2057.795908 168.953753 18.701798 0.000000 0.198468
518.000000 49.704000 6.000000 4.000000 11.000000 111.156515 -49.296200 2226.139684 302.299713 20.112675 0.000000 0.263122
522.000000 62.652000 -3.000000 5.000000 11.000000 126.024417 36.512963 178.207216 -32.812235 15.952605 0.000000 0.120798
523.000000 63.960000 -2.000000 5.000000 11.000000 129.485781 26.043584 449.042347 -45.999646 15.625809 0.000000 0.047516
524.000000 64.331000 -1.000000 5.000000 11.000000 131.304431 14.455397 697.545097 -35.612448 15.535460 0.000000 0.032666
525.000000 63.757000 0.000000 5.000000 11.000000 131.285194 2.587115 926.368299 -5.019183 15.675336 0.000000 0.048657
526.000000 62.311000 1.000000 5.000000 11.000000 129.523191 -8.599293 1137.760623 42.943811 16.039433 0.000000 0.052104
527.000000 60.130000 2.000000 5.000000 11.000000 126.358071 -18.429006 1333.640718 105.873985 16.621952 0.000000 0.040587
528.000000 57.387000 3.000000 5.000000 11.000000 122.226818 -26.671781 1515.655613 181.725087 17.417294 0.000000 0.017927
529.000000 54.267000 4.000000 5.000000 11.000000 117.534207 -33.420099 1685.227141 268.745607 18.420047 0.000000 0.026098
530.000000 50.939000 5.000000 5.000000 11.000000 112.594986 -38.904164 1843.589153 365.429461 19.624983 0.000000 0.070430
531.000000 47.546000 6.000000 5.000000 11.000000 107.629306 -43.372353 1991.817594 470.476170 21.027050 0.000000 0.124061
534.000000 53.813000 -5.000000 6.000000 11.000000 109.918120 47.617733 -204.425489 362.431121 18.576955 0.000000 0.219102
535.000000 56.326000 -4.000000 6.000000 11.000000 114.590665 40.677743 49.968052 291.524836 17.747217 0.000000 0.106187
536.000000 58.227000 -3.000000 6.000000 11.000000 118.503851 32.637100 285.698726 246.935815 17.167029 0.000000 0.023987
537.000000 59.392000 -2.000000 6.000000 11.000000 121.354897 23.601386 504.747591 225.325566 16.829712 0.000000 0.037558
538.000000 59.749000 -1.000000 6.000000 11.000000 122.896602 13.890930 708.824897 223.830564 16.728825 0.000000 0.074649
539.000000 59.291000 0.000000 6.000000 11.000000 123.012768 4.017128 899.414841 239.982985 16.858152 0.000000 0.094375
540.000000 58.074000 1.000000 6.000000 11.000000 121.761126 -5.456554 1077.811711 271.646699 17.211693 0.000000 0.099152
541.000000 56.209000 2.000000 6.000000 11.000000 119.351467 -14.090129 1245.149324 316.965195 17.783655 0.000000 0.091384
542.000000 53.836000 3.000000 6.000000 11.000000 116.074203 -21.659346 1402.425149 374.318939 18.568442 0.000000 0.073531
543.000000 51.108000 4.000000 6.000000 11.000000 112.225382 -28.134478 1550.520201 442.290226 19.560649 0.000000 0.049425
544.000000 48.169000 5.000000 6.000000 11.000000 108.059509 -33.604703 1690.215557 519.634042 20.755051 0.000000 0.033589
545.000000 47.306000 -6.000000 7.000000 11.000000 99.716037 49.090805 -267.105253 659.590483 21.136130 0.000000 0.230516
546.000000 49.897000 -5.000000 7.000000 11.000000 104.132745 43.442606 -44.318042 567.753810 20.037427 0.000000 0.120877
547.000000 52.083000 -4.000000 7.000000 11.000000 108.094441 36.990988 164.219486 500.711612 19.195199 0.000000 0.040575
548.000000 53.740000 -3.000000 7.000000 11.000000 111.380165 29.750604 359.832100 455.664297 18.602526 0.000000 0.040784
549.000000 54.769000 -2.000000 7.000000 11.000000 113.776553 21.837976 543.685289 430.165969 18.252737 0.000000 0.082625
550.000000 55.110000 -1.000000 7.000000 11.000000 115.119140 13.489737 716.808501 422.072090 18.139395 0.000000 0.112087
551.000000 54.758000 0.000000 7.000000 11.000000 115.333309 5.038142 880.114433 429.496077 18.256288 0.000000 0.128523
552.000000 53.754000 1.000000 7.000000 11.000000 114.455290 -3.159716 1034.415122 450.773123 18.597422 0.000000 0.133495
553.000000 52.185000 2.000000 7.000000 11.000000 112.620670 -10.806232 1180.435451 484.429872 19.157007 0.000000 0.128735
554.000000 50.165000 3.000000 7.000000 11.000000 110.026822 -17.716194 1318.824535 529.158867 19.929452 0.000000 0.116110
555.000000 47.816000 4.000000 7.000000 11.000000 106.888851 -23.820632 1450.165373 583.796945 20.909355 0.000000 0.098049
556.000000 46.031000 -5.000000 8.000000 11.000000 98.556220 40.048186 70.338297 729.461998 21.722382 0.000000 0.081857
557.000000 47.919000 -4.000000 8.000000 11.000000 101.937047 34.076726 246.931436 666.291548 20.865651 0.000000 0.056430
558.000000 49.354000 -3.000000 8.000000 11.000000 104.728016 27.527927 414.049716 621.956624 20.258517 0.000000 0.083054
559.000000 50.256000 -2.000000 8.000000 11.000000 106.776339 20.507206 572.435756 594.579183 19.894314 0.000000 0.114305
560.000000 50.580000 -1.000000 8.000000 11.000000 107.968530 13.189954 722.756544 582.486267 19.766609 0.000000 0.137221
561.000000 50.319000 0.000000 8.000000 11.000000 108.253781 5.803224 865.612826 584.183954 19.869195 0.000000 0.150635
562.000000 49.505000 1.000000 8.000000 11.000000 107.655123 -1.412932 1001.547131 598.335124 20.196080 0.000000 0.155232
563.000000 48.205000 2.000000 8.000000 11.000000 106.263022 -8.249761 1131.050657 623.740413 20.741478 0.000000 0.152125
564.000000 46.506000 3.000000 8.000000 11.000000 104.214340 -14.560886 1254.569200 659.321822 21.499802 0.000000 0.142640
565.000000 45.966000 -2.000000 9.000000 11.000000 100.347494 19.468291 594.534419 732.565373 21.753875 0.000000 0.133315
566.000000 46.272000 -1.000000 9.000000 11.000000 101.421679 12.957457 727.359503 717.875734 21.609909 0.000000 0.151483
567.000000 46.087000 0.000000 9.000000 11.000000 101.757931 6.397691 854.318174 715.571159 21.696323 0.000000 0.162501
573.000000 62.020000 1.000000 4.000000 12.000000 140.674736 -13.988216 1243.115199 -412.942831 16.112428 0.000000 0.051636
574.000000 57.298000 3.000000 4.000000 12.000000 131.658027 -33.705586 1692.950673 -210.015478 17.441975 0.000000 0.132382
578.000000 59.455000 -3.000000 5.000000 12.000000 130.331392 35.912946 195.522208 -187.247827 16.809508 0.000000 0.147576
579.000000 60.435000 -2.000000 5.000000 12.000000 133.484770 25.337272 465.381157 -188.471802 16.536347 0.000000 0.070184
580.000000 60.644000 -1.000000 5.000000 12.000000 135.061131 13.680966 713.006513 -169.089133 16.478978 0.000000 0.028792
581.000000 60.086000 0.000000 5.000000 12.000000 134.898482 1.807382 941.037291 -132.020818 16.632193 0.000000 0.027947
582.000000 58.819000 1.000000 5.000000 12.000000 133.101834 -9.323888 1151.710749 -79.728589 16.990953 0.000000 0.032846
583.000000 56.946000 2.000000 5.000000 12.000000 129.993418 -19.063663 1346.936042 -14.299663 17.550375 0.000000 0.030165
584.000000 54.599000 3.000000 5.000000 12.000000 125.976582 -27.208932 1528.352240 62.486526 18.305733 0.000000 0.032491
585.000000 51.917000 4.000000 5.000000 12.000000 121.421486 -33.868255 1697.374455 149.105279 19.252447 0.000000 0.055667
586.000000 49.034000 5.000000 5.000000 12.000000 116.616299 -39.277492 1855.230832 244.244139 20.386076 0.000000 0.094581
587.000000 46.063000 6.000000 5.000000 12.000000 111.764647 -43.685062 2002.992440 346.768549 21.702319 0.000000 0.143332
588.000000 52.191000 -5.000000 6.000000 12.000000 115.040478 47.238697 -188.867901 200.424790 19.152964 0.000000 0.235077
589.000000 56.879000 -1.000000 6.000000 12.000000 127.089141 13.246547 721.634797 105.084509 17.571801 0.000000 0.054657
590.000000 55.325000 1.000000 6.000000 12.000000 125.767511 -6.076025 1089.567191 161.299359 18.066004 0.000000 0.077132
591.000000 46.659000 5.000000 6.000000 12.000000 112.264953 -33.975193 1700.291857 409.633305 21.425447 0.000000 0.017267
592.000000 46.588000 -6.000000 7.000000 12.000000 105.120416 48.781339 -253.633409 499.654206 21.459543 0.000000 0.231398
593.000000 48.798000 -5.000000 7.000000 12.000000 109.376735 43.078974 -31.437778 422.756331 20.486847 0.000000 0.125284
594.000000 50.625000 -4.000000 7.000000 12.000000 113.153557 36.569735 176.555073 367.908898 19.746574 0.000000 0.042895
595.000000 51.974000 -3.000000 7.000000 12.000000 116.245209 29.273560 371.664737 332.653378 19.232985 0.000000 0.020160
596.000000 52.776000 -2.000000 7.000000 12.000000 118.456798 21.314700 555.052243 314.839635 18.940531 0.000000 0.064418
597.000000 52.990000 -1.000000 7.000000 12.000000 119.642057 12.938058 727.743181 312.580439 18.863840 0.000000 0.093821
598.000000 52.617000 0.000000 7.000000 12.000000 119.739879 4.481319 890.646890 324.213751 18.997716 0.000000 0.110133
599.000000 51.694000 1.000000 7.000000 12.000000 118.791680 -3.698497 1044.572476 348.271258 19.337125 0.000000 0.115156
600.000000 50.291000 2.000000 7.000000 12.000000 116.929086 -11.309083 1190.242253 383.451988 19.877194 0.000000 0.110564
601.000000 48.497000 3.000000 7.000000 12.000000 114.338716 -18.172878 1328.303075 428.600086 20.613202 0.000000 0.098048
602.000000 46.411000 4.000000 7.000000 12.000000 111.222154 -24.227901 1459.335940 482.685998 21.540577 0.000000 0.079751
603.000000 48.185000 -3.000000 8.000000 12.000000 109.761230 27.098633 424.264784 506.651511 20.747936 0.000000 0.067058
604.000000 49.115000 -1.000000 8.000000 12.000000 112.727034 12.707685 732.294915 478.859422 20.354625 0.000000 0.123513
605.000000 48.055000 1.000000 8.000000 12.000000 112.232338 -1.888538 1010.488811 500.824548 20.803859 0.000000 0.141995
617.000000 57.139000 -2.000000 5.000000 13.000000 136.951895 24.623850 481.691969 -326.506821 17.489245 0.000000 0.089487
618.000000 57.236000 -1.000000 5.000000 13.000000 138.312451 12.902690 728.442527 -298.839939 17.459445 0.000000 0.035294
619.000000 56.703000 0.000000 5.000000 13.000000 138.026851 1.028210 955.683134 -255.665695 17.623680 0.000000 0.011467
620.000000 55.588000 1.000000 5.000000 13.000000 136.207791 -10.044394 1165.639698 -199.129695 17.977659 0.000000 0.025130
621.000000 53.970000 2.000000 5.000000 13.000000 133.161646 -19.692581 1360.211923 -131.052497 18.517216 0.000000 0.039603
622.000000 51.950000 3.000000 5.000000 13.000000 129.262013 -27.740207 1541.030954 -52.987429 19.238308 0.000000 0.058002
623.000000 49.634000 4.000000 5.000000 13.000000 124.848351 -34.311153 1709.505216 33.733464 20.137005 0.000000 0.085263
624.000000 47.127000 5.000000 5.000000 13.000000 120.184807 -39.646400 1866.857172 127.962572 21.209493 0.000000 0.122056
627.000000 52.114000 -4.000000 6.000000 13.000000 123.770882 39.761483 79.490532 4.728910 19.179079 0.000000 0.149824
628.000000 53.331000 -3.000000 6.000000 13.000000 127.186721 31.563844 313.795216 -17.337691 18.740331 0.000000 0.074097
629.000000 54.010000 -2.000000 6.000000 13.000000 129.579452 22.392770 531.542389 -21.301266 18.504561 0.000000 0.031961
630.000000 54.118000 -1.000000 6.000000 13.000000 130.752823 12.599619 734.427246 -9.373572 18.467216 0.000000 0.038076
631.000000 53.663000 0.000000 6.000000 13.000000 130.628499 2.717105 923.921212 16.535881 18.623877 0.000000 0.052463
632.000000 52.685000 1.000000 6.000000 13.000000 129.276144 -6.693287 1101.307680 54.771184 18.970257 0.000000 0.056473
633.000000 51.249000 2.000000 6.000000 13.000000 126.888599 -15.214298 1267.711117 103.890433 19.502195 0.000000 0.049479
634.000000 49.443000 3.000000 6.000000 13.000000 123.719731 -22.650021 1424.120931 162.633282 20.215649 0.000000 0.032808
635.000000 47.358000 4.000000 6.000000 13.000000 120.023732 -28.992323 1571.411148 229.894189 21.106695 0.000000 0.010199
636.000000 45.605000 -6.000000 7.000000 13.000000 109.981337 48.468439 -240.179913 350.769359 21.920622 0.000000 0.239783
637.000000 47.482000 -5.000000 7.000000 13.000000 114.065728 42.711461 -18.574478 286.820527 21.052843 0.000000 0.137645
638.000000 49.005000 -4.000000 7.000000 13.000000 117.654258 36.144383 188.874933 242.612033 20.397550 0.000000 0.058592
639.000000 50.103000 -3.000000 7.000000 13.000000 120.555753 28.792619 383.482755 215.965810 19.949909 0.000000 0.011737
640.000000 50.724000 -2.000000 7.000000 13.000000 122.592032 20.788303 566.405575 204.975424 19.705230 0.000000 0.047364
641.000000 50.843000 -1.000000 7.000000 13.000000 123.632783 12.384573 738.665139 207.966128 19.658965 0.000000 0.075459
642.000000 50.464000 0.000000 7.000000 13.000000 123.628344 3.924277 901.167440 223.461710 19.806699 0.000000 0.091231
643.000000 49.620000 1.000000 7.000000 13.000000 122.624061 -4.236033 1054.718664 250.156840 20.144148 0.000000 0.096111
644.000000 48.365000 2.000000 7.000000 13.000000 120.747359 -11.809639 1200.038563 286.893876 20.667152 0.000000 0.091569
645.000000 46.773000 3.000000 7.000000 13.000000 118.174640 -18.626712 1337.771738 332.643312 21.371674 0.000000 0.079057
646.000000 45.850000 -4.000000 8.000000 13.000000 111.767248 33.296661 268.096599 426.818074 21.803764 0.000000 0.016855
647.000000 46.832000 -3.000000 8.000000 13.000000 114.261233 26.666487 434.468925 398.172570 21.345820 0.000000 0.050226
648.000000 47.397000 -2.000000 8.000000 13.000000 116.024049 19.580713 592.157044 383.241893 21.090845 0.000000 0.084483
649.000000 47.524000 -1.000000 8.000000 13.000000 116.965521 12.224070 741.823603 380.712872 21.034292 0.000000 0.108062
650.000000 47.216000 0.000000 8.000000 13.000000 117.052048 4.829366 884.065501 389.410328 21.171751 0.000000 0.121756
651.000000 46.498000 1.000000 8.000000 13.000000 116.314073 -2.363425 1019.421852 408.280100 21.498941 0.000000 0.126709
659.000000 54.106000 -1.000000 5.000000 14.000000 141.148130 12.120830 743.853199 -425.627537 18.468915 0.000000 0.043197
660.000000 53.603000 0.000000 5.000000 14.000000 140.756486 0.249886 970.305883 -376.635338 18.642401 0.000000 0.000296
661.000000 52.617000 1.000000 5.000000 14.000000 138.923905 -10.760619 1179.547518 -315.920833 18.992089 0.000000 0.031614
662.000000 51.210000 2.000000 5.000000 14.000000 135.942365 -20.315688 1373.468402 -245.075153 19.514382 0.000000 0.057450
663.000000 49.460000 3.000000 5.000000 14.000000 132.159093 -28.265613 1553.691794 -165.456736 20.205782 0.000000 0.083500
664.000000 47.450000 4.000000 5.000000 14.000000 127.886336 -34.748834 1721.619460 -78.231269 21.062882 0.000000 0.113814
666.000000 50.955000 -3.000000 6.000000 14.000000 130.769744 31.018946 327.812675 -141.898759 19.613309 0.000000 0.096380
667.000000 51.504000 -1.000000 6.000000 14.000000 133.974354 11.950296 747.202281 -120.438614 19.403799 0.000000 0.027831
668.000000 50.186000 1.000000 6.000000 14.000000 132.367828 -7.308209 1113.033206 -48.724358 19.913867 0.000000 0.038555
669.000000 47.336000 3.000000 6.000000 14.000000 126.900661 -23.139215 1434.949329 62.177101 21.114354 0.000000 0.026360
670.000000 46.043000 -5.000000 7.000000 14.000000 118.269451 42.340037 -5.728108 157.970271 21.709663 0.000000 0.154580
671.000000 47.312000 -4.000000 7.000000 14.000000 121.671703 35.714918 201.179095 123.198546 21.126282 0.000000 0.078843
672.000000 48.205000 -3.000000 7.000000 14.000000 124.390369 28.307802 395.286180 104.246635 20.734467 0.000000 0.028494
673.000000 48.683000 -2.000000 7.000000 14.000000 126.262227 20.258845 577.745310 99.412806 20.530204 0.000000 0.034212
674.000000 48.732000 -1.000000 7.000000 14.000000 127.170915 11.829378 749.574397 107.201091 20.509590 0.000000 0.058092
675.000000 47.585000 1.000000 7.000000 14.000000 126.027369 -4.772233 1064.853703 155.517601 21.004231 0.000000 0.077282
676.000000 46.463000 2.000000 7.000000 14.000000 124.146691 -12.307841 1209.824398 193.841768 21.512204 0.000000 0.072783
677.000000 45.882000 -1.000000 8.000000 14.000000 120.754146 11.739174 751.342620 286.885220 21.785942 0.000000 0.091895
688.000000 49.892000 1.000000 5.000000 15.000000 141.315613 -11.472379 1193.434257 -430.588741 20.028751 0.000000 0.042993
689.000000 48.662000 2.000000 5.000000 15.000000 138.398990 -20.932919 1386.705523 -356.877083 20.535904 0.000000 0.076106
690.000000 47.136000 3.000000 5.000000 15.000000 134.729092 -28.785159 1566.334798 -275.483229 21.201329 0.000000 0.107668
693.000000 49.071000 -2.000000 6.000000 15.000000 135.950727 21.166271 558.261710 -252.110295 20.365294 0.000000 0.060645
694.000000 49.051000 -1.000000 6.000000 15.000000 136.823889 11.298733 759.959935 -228.766315 20.373296 0.000000 0.026418
695.000000 47.841000 1.000000 6.000000 15.000000 135.108017 -7.920662 1124.743799 -149.766229 20.889042 0.000000 0.025848
696.000000 46.721000 2.000000 6.000000 15.000000 132.773503 -16.323867 1290.217218 -96.561113 21.390435 0.000000 0.030864
697.000000 45.603000 -4.000000 7.000000 15.000000 125.270728 35.281330 213.467590 8.488066 21.916879 0.000000 0.099642
698.000000 46.329000 -3.000000 7.000000 15.000000 127.815730 27.819131 407.075041 -3.492318 21.572928 0.000000 0.047761
699.000000 46.695000 -2.000000 7.000000 15.000000 129.534451 19.726390 589.071471 -2.696648 21.403294 0.000000 0.029343
700.000000 46.692000 -1.000000 7.000000 15.000000 130.322738 11.272570 760.470977 9.531952 21.404592 0.000000 0.042793
701.000000 46.327000 0.000000 7.000000 15.000000 130.149025 2.809959 922.172899 32.008023 21.573524 0.000000 0.055236
702.000000 45.622000 1.000000 7.000000 15.000000 129.063970 -5.307010 1074.977612 63.681907 21.906877 0.000000 0.059426
712.000000 46.763000 -1.000000 6.000000 16.000000 139.358415 10.645087 772.700245 -334.848093 21.369519 0.000000 0.030742
713.000000 45.652000 1.000000 6.000000 16.000000 137.549964 -8.530523 1136.439487 -248.790070 21.889919 0.000000 0.022705
#UB matrix in q= (UB) B0 G* 
#[[-0.093553917 -0.009339203 -0.994651031]
# [-0.977081315  0.192840734  0.090085563]
# [ 0.191206088  0.981520508 -0.027264152]]
#B0 matrix in q= UB (B0) G*
#[[ 0.19670273 -0.          0.03056101]
# [ 0.          0.19187965 -0.        ]
# [ 0.          0.          0.18806537]]
#UBB0 matrix in q= (UB B0) G* i.e. recip. basis vectors are columns in LT frame: astar = UBB0[:,0], bstar = UBB0[:,1], cstar = UBB0[:,2]. (abcstar as columns on xyzlab1, xlab1 = ui, ui = unit vector along incident beam)
#[[-0.01840231 -0.001792   -0.18991852]
# [-0.19219456  0.03700221 -0.01291861]
# [ 0.03761076  0.18833381  0.00071601]]
#Euler angles phi theta psi (deg)
#[168.973  91.556  84.834]
#deviatoric strain in direct crystal frame (10-3 unit)
#[[ 0.43 -0.07 -0.11]
# [-0.07  0.11  0.07]
# [-0.11  0.07 -0.54]]
#deviatoric strain in sample2 frame (10-3 unit)
#[[-0.35 -0.02  0.31]
# [-0.02  0.46  0.02]
# [ 0.31  0.02 -0.11]]
#new lattice parameters
#[ 5.1505     5.2099156  5.3221484 89.9943309 99.2281395 90.0079952]
#CCDLabel
#sCMOS
#DetectorParameters
#[79.0, 975.0, 941.0, 0.0, 0.0]
#pixelsize
#0.0734
#Frame dimensions
#[2018, 2016]
#
