#Strain and Orientation Refinement from experimental file: /home/micha/LaueProjects/DepthEffects/testZrO2_48.cor
#File created at Wed Jun 28 14:21:14 2023 with indexingSpotsSet.py
#Number of indexed spots: 534
#Element
#ZrO2
#grainIndex
#G_0
#Mean Deviation(pixel): 0.114
##spot_index intensity h k l 2theta Chi Xexp Yexp Energy GrainIndex PixDev
1.000000 46.343000 5.000000 6.000000 -10.000000 83.012965 -47.782263 2161.249041 1137.302016 21.584458 0.000000 0.243518
4.000000 46.739000 5.000000 7.000000 -10.000000 88.496947 -43.884038 2010.163768 980.183312 21.400027 0.000000 0.157617
5.000000 47.529000 6.000000 7.000000 -10.000000 93.439403 -49.046458 2215.164419 842.309329 21.042162 0.000000 0.241015
7.000000 46.529000 5.000000 8.000000 -10.000000 93.262445 -39.992930 1877.891829 860.920321 21.495243 0.000000 0.100400
8.000000 47.263000 3.000000 4.000000 -5.000000 98.219159 -45.070597 2053.949870 720.869624 10.579591 0.000000 0.154818
9.000000 47.406000 7.000000 8.000000 -10.000000 102.474255 -50.361103 2274.219449 567.769313 21.093577 0.000000 0.275300
11.000000 45.863000 5.000000 9.000000 -10.000000 97.357338 -36.144387 1761.125194 768.906281 21.805949 0.000000 0.070510
12.000000 46.562000 6.000000 9.000000 -10.000000 102.333145 -41.090739 1913.605043 628.764508 21.476415 0.000000 0.091883
13.000000 46.728000 7.000000 9.000000 -10.000000 106.649701 -46.308403 2101.608376 475.040062 21.398162 0.000000 0.186271
15.000000 45.548000 3.000000 5.000000 -5.000000 105.833663 -37.144974 1790.323819 558.062137 10.976715 0.000000 0.048488
16.000000 45.747000 7.000000 10.000000 -10.000000 110.215383 -42.239117 1952.263836 405.672737 21.856177 0.000000 0.119366
17.000000 45.525000 4.000000 5.000000 -5.000000 113.945396 -47.599616 2153.676762 232.171068 10.980443 0.000000 0.244113
21.000000 47.247000 3.000000 5.000000 -9.000000 70.510555 -41.179007 1916.528078 1447.091179 21.176748 0.000000 0.205058
22.000000 50.067000 4.000000 5.000000 -9.000000 77.268716 -46.673244 2116.067677 1295.394950 19.981273 0.000000 0.249250
25.000000 48.492000 1.000000 2.000000 -3.000000 77.005292 -37.030798 1786.953348 1252.128269 6.877034 0.000000 0.138721
26.000000 51.010000 4.000000 6.000000 -9.000000 83.699483 -42.390039 1957.448649 1101.896613 19.609986 0.000000 0.156808
27.000000 52.471000 5.000000 6.000000 -9.000000 89.585395 -48.041632 2172.093991 952.649035 19.061768 0.000000 0.226510
29.000000 45.568000 2.000000 7.000000 -9.000000 75.357830 -28.190010 1551.862331 1260.042712 21.956799 0.000000 0.115553
30.000000 48.758000 3.000000 7.000000 -9.000000 82.593716 -32.961335 1672.921489 1107.746047 20.517048 0.000000 0.111035
31.000000 51.023000 4.000000 7.000000 -9.000000 89.223442 -38.131971 1819.892736 959.546425 19.603612 0.000000 0.102879
32.000000 52.347000 5.000000 7.000000 -9.000000 95.100168 -43.660004 2002.092684 808.219592 19.105122 0.000000 0.136495
33.000000 52.799000 6.000000 7.000000 -9.000000 100.125480 -49.471553 2233.912462 645.211239 18.939557 0.000000 0.248992
35.000000 48.297000 3.000000 8.000000 -9.000000 87.346926 -29.007918 1571.794120 998.027238 20.711257 0.000000 0.109693
36.000000 50.347000 4.000000 8.000000 -9.000000 93.904831 -33.944937 1699.465680 852.441887 19.865088 0.000000 0.083620
37.000000 51.573000 5.000000 8.000000 -9.000000 99.775891 -39.289966 1855.621931 701.395805 19.390752 0.000000 0.076710
38.000000 52.024000 6.000000 8.000000 -9.000000 104.856642 -44.991970 2050.992619 537.287571 19.220475 0.000000 0.155971
40.000000 47.330000 1.000000 3.000000 -3.000000 91.354308 -25.201412 1481.498034 912.878004 7.044435 0.000000 0.119108
41.000000 49.196000 4.000000 9.000000 -9.000000 97.828261 -29.870344 1593.155603 770.355855 20.328972 0.000000 0.088089
42.000000 50.344000 5.000000 9.000000 -9.000000 103.686998 -34.981534 1728.112519 621.090644 19.863000 0.000000 0.047875
43.000000 50.811000 2.000000 3.000000 -3.000000 108.825699 -40.508275 1894.511032 458.383434 6.559391 0.000000 0.088363
44.000000 50.675000 7.000000 9.000000 -9.000000 113.174023 -46.389039 2104.787482 273.051589 19.729488 0.000000 0.212204
46.000000 46.031000 3.000000 10.000000 -9.000000 94.710854 -21.565315 1400.381548 845.631343 21.728503 0.000000 0.130099
47.000000 47.736000 4.000000 10.000000 -9.000000 101.086330 -25.942943 1498.617661 706.472842 20.949534 0.000000 0.100362
48.000000 48.820000 5.000000 10.000000 -9.000000 106.919076 -30.780600 1616.106327 559.924465 20.482044 0.000000 0.051964
49.000000 49.309000 6.000000 10.000000 -9.000000 112.106551 -36.074790 1759.122144 400.100938 20.276912 0.000000 0.039028
50.000000 49.261000 7.000000 10.000000 -9.000000 116.571253 -41.790546 1936.998626 219.027225 20.294830 0.000000 0.139742
52.000000 46.096000 4.000000 11.000000 -9.000000 103.771091 -22.189573 1413.999075 656.113636 21.693856 0.000000 0.112466
53.000000 47.123000 5.000000 11.000000 -9.000000 109.560355 -26.726265 1516.937956 512.846124 21.218639 0.000000 0.068063
54.000000 47.632000 6.000000 11.000000 -9.000000 114.779459 -31.742277 1640.830498 356.761896 20.989976 0.000000 0.008824
55.000000 47.666000 7.000000 11.000000 -9.000000 119.348226 -37.228618 1792.799452 180.941228 20.973152 0.000000 0.086356
56.000000 47.287000 8.000000 11.000000 -9.000000 123.208827 -43.140559 1983.608409 -24.554236 21.139673 0.000000 0.207634
58.000000 45.867000 2.000000 4.000000 -3.000000 116.925158 -27.554694 1536.589817 324.432976 7.265666 0.000000 0.027867
59.000000 45.972000 7.000000 12.000000 -9.000000 121.577368 -32.759269 1667.541934 154.325904 21.745215 0.000000 0.047386
60.000000 45.707000 8.000000 12.000000 -9.000000 125.588709 -38.447175 1829.504157 -42.462972 21.869776 0.000000 0.146853
64.000000 48.535000 1.000000 2.000000 -4.000000 61.341866 -39.285002 1855.466283 1700.983983 10.308893 0.000000 0.240242
65.000000 53.372000 3.000000 4.000000 -8.000000 69.549911 -45.320223 2063.392722 1511.781779 18.746388 0.000000 0.270727
69.000000 51.153000 2.000000 5.000000 -8.000000 69.188164 -34.734491 1721.220449 1438.809306 19.560678 0.000000 0.152323
70.000000 55.428000 3.000000 5.000000 -8.000000 77.286405 -40.574336 1896.659822 1260.686238 18.049215 0.000000 0.165123
71.000000 58.135000 4.000000 5.000000 -8.000000 84.453242 -46.809012 2121.498302 1093.713261 17.206153 0.000000 0.219049
73.000000 47.166000 1.000000 6.000000 -8.000000 67.290409 -25.243259 1482.458544 1438.990828 21.215929 0.000000 0.110532
74.000000 52.194000 1.000000 3.000000 -4.000000 75.876841 -30.306740 1604.105453 1254.677308 9.584368 0.000000 0.117896
75.000000 55.975000 3.000000 6.000000 -8.000000 83.852082 -35.883764 1753.642398 1084.090671 17.871151 0.000000 0.112357
76.000000 58.375000 2.000000 3.000000 -4.000000 90.966895 -41.935347 1941.902813 916.581751 8.566883 0.000000 0.125644
77.000000 59.435000 5.000000 6.000000 -8.000000 97.041187 -48.374316 2186.165413 740.871340 16.826028 0.000000 0.222089
79.000000 47.633000 1.000000 7.000000 -8.000000 73.118839 -21.323150 1395.130655 1291.618483 21.006096 0.000000 0.109676
80.000000 52.071000 2.000000 7.000000 -8.000000 81.497352 -26.047076 1501.038915 1120.094050 19.212619 0.000000 0.117676
81.000000 55.422000 3.000000 7.000000 -8.000000 89.331541 -31.308527 1629.616598 955.697763 18.047941 0.000000 0.100839
82.000000 57.581000 4.000000 7.000000 -8.000000 96.393333 -37.100663 1789.014546 789.793366 17.368661 0.000000 0.075344
83.000000 58.574000 5.000000 7.000000 -8.000000 102.504046 -43.372512 1991.823231 612.637025 17.071904 0.000000 0.125053
84.000000 58.534000 6.000000 7.000000 -8.000000 107.553245 -50.019665 2258.571997 411.130476 17.081946 0.000000 0.278796
85.000000 47.237000 1.000000 8.000000 -8.000000 78.027892 -17.621217 1316.859374 1180.461714 21.180515 0.000000 0.123626
86.000000 51.149000 1.000000 4.000000 -4.000000 86.173449 -21.990160 1409.636105 1018.636561 9.778776 0.000000 0.129297
87.000000 54.128000 3.000000 8.000000 -8.000000 93.846267 -26.899991 1521.035041 859.860085 18.478013 0.000000 0.109744
88.000000 56.090000 2.000000 4.000000 -4.000000 100.841812 -32.371579 1657.288445 696.943882 8.914487 0.000000 0.066663
89.000000 57.050000 5.000000 8.000000 -8.000000 106.988354 -38.390139 1827.758760 521.483752 17.526773 0.000000 0.058923
90.000000 57.105000 3.000000 4.000000 -4.000000 112.163432 -44.890440 2047.185976 322.153609 8.754052 0.000000 0.175791
92.000000 46.268000 1.000000 9.000000 -8.000000 82.144234 -14.148004 1246.305289 1094.146635 21.622993 0.000000 0.138206
93.000000 49.718000 2.000000 9.000000 -8.000000 90.038723 -18.159423 1328.023130 940.234463 20.119136 0.000000 0.141455
94.000000 52.376000 3.000000 9.000000 -8.000000 97.530397 -22.698114 1425.182033 786.777840 19.095187 0.000000 0.122546
95.000000 54.171000 4.000000 9.000000 -8.000000 104.439183 -27.806229 1542.615142 627.692349 18.459554 0.000000 0.080121
96.000000 55.111000 5.000000 9.000000 -8.000000 110.605117 -33.500888 1687.407637 455.722201 18.142557 0.000000 0.022933
97.000000 55.265000 6.000000 9.000000 -8.000000 115.901313 -39.757453 1870.381370 261.136547 18.090250 0.000000 0.103199
99.000000 47.991000 1.000000 5.000000 -4.000000 93.221638 -14.567763 1254.707106 878.405708 10.420912 0.000000 0.151009
100.000000 50.370000 3.000000 10.000000 -8.000000 100.515109 -18.730458 1339.943326 730.055383 19.854488 0.000000 0.133461
101.000000 52.021000 2.000000 5.000000 -4.000000 107.314020 -23.450667 1441.884554 575.274969 9.610939 0.000000 0.095827
102.000000 52.943000 5.000000 10.000000 -8.000000 113.473446 -28.770452 1565.975190 407.784088 18.884877 0.000000 0.035875
103.000000 53.186000 3.000000 5.000000 -4.000000 118.868973 -34.701885 1720.313868 219.229094 9.398405 0.000000 0.051731
104.000000 52.834000 7.000000 10.000000 -8.000000 123.405845 -41.208166 1917.495416 -2.537182 18.920340 0.000000 0.174222
106.000000 46.118000 2.000000 11.000000 -8.000000 95.837865 -11.219055 1188.484007 828.811467 21.687565 0.000000 0.157602
107.000000 48.254000 3.000000 11.000000 -8.000000 102.920034 -15.012723 1263.648352 685.374667 20.724290 0.000000 0.141384
108.000000 49.776000 4.000000 11.000000 -8.000000 109.586911 -19.337294 1352.699543 535.128909 20.088236 0.000000 0.108405
109.000000 50.677000 5.000000 11.000000 -8.000000 115.710157 -24.251881 1459.877727 372.619112 19.728493 0.000000 0.057253
110.000000 50.994000 6.000000 11.000000 -8.000000 121.173008 -29.797808 1591.344875 190.659092 19.604194 0.000000 0.017562
111.000000 50.788000 7.000000 11.000000 -8.000000 125.876820 -35.980455 1756.412744 -20.971005 19.682151 0.000000 0.115209
113.000000 46.122000 3.000000 12.000000 -8.000000 104.849565 -11.550347 1194.959636 649.736141 21.681699 0.000000 0.146521
114.000000 47.527000 1.000000 3.000000 -2.000000 111.365418 -15.485163 1273.182699 504.094248 5.259544 0.000000 0.117398
115.000000 48.404000 5.000000 12.000000 -8.000000 117.423304 -19.983256 1366.382926 346.769415 20.654463 0.000000 0.073587
116.000000 48.778000 3.000000 6.000000 -4.000000 122.917295 -25.106290 1479.317164 171.557892 10.247210 0.000000 0.019330
117.000000 48.693000 7.000000 12.000000 -8.000000 127.751285 -30.893977 1618.995184 -30.187891 20.528310 0.000000 0.073035
120.000000 46.181000 5.000000 13.000000 -8.000000 118.708778 -15.987641 1283.371186 327.814444 21.648286 0.000000 0.085215
121.000000 46.596000 6.000000 13.000000 -8.000000 124.198130 -20.672076 1381.098373 159.271871 21.453542 0.000000 0.036871
122.000000 46.611000 7.000000 13.000000 -8.000000 129.121009 -26.018951 1500.384539 -33.057857 21.445215 0.000000 0.044115
123.000000 46.272000 8.000000 13.000000 -8.000000 133.395617 -32.065223 1649.248116 -259.839901 21.600797 0.000000 0.128645
128.000000 54.672000 2.000000 3.000000 -7.000000 58.773777 -43.634880 2001.191312 1842.552647 18.303899 0.000000 0.325645
131.000000 51.673000 1.000000 4.000000 -7.000000 58.433844 -31.935910 1645.870473 1720.204786 19.367690 0.000000 0.184805
132.000000 59.083000 2.000000 4.000000 -7.000000 68.380954 -38.325650 1825.788647 1484.721614 16.935264 0.000000 0.185707
133.000000 64.213000 3.000000 4.000000 -7.000000 77.329132 -45.262884 2061.216350 1284.790145 15.579427 0.000000 0.224750
135.000000 46.452000 0.000000 5.000000 -7.000000 56.466352 -21.756032 1404.529230 1708.996977 21.546087 0.000000 0.123337
136.000000 54.444000 1.000000 5.000000 -7.000000 66.701088 -27.105899 1525.907439 1461.690934 18.379987 0.000000 0.118295
137.000000 60.907000 2.000000 5.000000 -7.000000 76.445107 -33.123073 1677.245177 1250.834783 16.426297 0.000000 0.123287
138.000000 65.358000 3.000000 5.000000 -7.000000 85.267595 -39.783085 1871.196388 1056.944759 15.304880 0.000000 0.126479
139.000000 67.670000 4.000000 5.000000 -7.000000 92.825289 -46.988225 2128.708864 863.134613 14.779478 0.000000 0.197725
141.000000 48.277000 0.000000 6.000000 -7.000000 63.637492 -17.611410 1316.656569 1500.629140 20.729923 0.000000 0.083193
142.000000 55.237000 1.000000 6.000000 -7.000000 73.571144 -22.519861 1421.252841 1284.557042 18.114199 0.000000 0.110950
143.000000 60.845000 2.000000 6.000000 -7.000000 83.067176 -28.105909 1549.830288 1089.367323 16.441341 0.000000 0.114357
144.000000 64.735000 3.000000 6.000000 -7.000000 91.748965 -34.390942 1711.704160 901.174265 15.450653 0.000000 0.089175
145.000000 66.805000 4.000000 6.000000 -7.000000 99.296318 -41.335561 1921.731861 706.362058 14.969436 0.000000 0.098313
146.000000 67.204000 5.000000 6.000000 -7.000000 105.492976 -48.816480 2205.154780 487.920327 14.878751 0.000000 0.241229
148.000000 48.659000 0.000000 2.000000 -2.000000 69.627263 -13.751405 1238.395514 1352.482013 5.875777 0.000000 0.094490
149.000000 54.683000 1.000000 7.000000 -7.000000 79.212251 -18.213672 1329.152175 1156.892357 18.296299 0.000000 0.125935
150.000000 59.544000 2.000000 7.000000 -7.000000 88.423288 -23.336355 1439.335354 973.265274 16.799357 0.000000 0.126322
151.000000 62.966000 3.000000 7.000000 -7.000000 96.938257 -29.176040 1575.930003 790.992832 15.883500 0.000000 0.093657
152.000000 64.865000 4.000000 7.000000 -7.000000 104.467226 -35.746659 1749.725732 598.849751 15.415982 0.000000 0.045584
153.000000 65.342000 5.000000 7.000000 -7.000000 110.788787 -42.990174 1978.315627 382.392703 15.301629 0.000000 0.134309
155.000000 48.079000 0.000000 8.000000 -7.000000 74.605907 -10.179112 1168.250848 1242.080431 20.811386 0.000000 0.116263
156.000000 53.283000 1.000000 8.000000 -7.000000 83.814468 -14.206507 1247.474381 1061.327920 18.775371 0.000000 0.141775
157.000000 57.504000 2.000000 8.000000 -7.000000 92.713069 -18.857201 1342.599911 887.104470 17.394089 0.000000 0.139913
158.000000 60.532000 3.000000 8.000000 -7.000000 101.031011 -24.210787 1458.949411 710.950489 16.521113 0.000000 0.109275
159.000000 62.297000 4.000000 8.000000 -7.000000 108.513132 -30.323101 1604.517872 523.483002 16.050652 0.000000 0.048054
160.000000 62.862000 5.000000 8.000000 -7.000000 114.945275 -37.197996 1791.892493 312.498809 15.904364 0.000000 0.062357
161.000000 62.390000 6.000000 8.000000 -7.000000 120.177106 -44.754297 2042.102628 59.696096 16.023002 0.000000 0.218100
162.000000 46.900000 0.000000 9.000000 -7.000000 78.739831 -6.888262 1105.022200 1156.844810 21.333321 0.000000 0.134142
163.000000 51.401000 1.000000 9.000000 -7.000000 87.559961 -10.503374 1174.544904 987.645150 19.461455 0.000000 0.153579
164.000000 55.078000 2.000000 9.000000 -7.000000 96.128629 -14.692228 1257.204483 821.526852 18.159066 0.000000 0.150150
165.000000 57.771000 3.000000 9.000000 -7.000000 104.221247 -19.546207 1357.112912 651.550557 17.309906 0.000000 0.122935
166.000000 59.419000 4.000000 9.000000 -7.000000 111.618595 -25.149097 1480.298193 469.792731 16.827350 0.000000 0.069769
167.000000 60.060000 5.000000 9.000000 -7.000000 118.123345 -31.554673 1635.967508 265.934275 16.645525 0.000000 0.013688
168.000000 59.810000 6.000000 9.000000 -7.000000 123.576386 -38.753365 1838.921401 24.860896 16.713449 0.000000 0.136377
170.000000 49.281000 1.000000 10.000000 -7.000000 90.609294 -7.098434 1109.029671 929.465643 20.297592 0.000000 0.161230
171.000000 52.498000 2.000000 10.000000 -7.000000 98.839718 -10.848857 1181.265440 770.570717 19.050574 0.000000 0.156656
172.000000 54.903000 3.000000 10.000000 -7.000000 106.684339 -15.211690 1267.658499 606.704148 18.213489 0.000000 0.132472
173.000000 56.443000 4.000000 10.000000 -7.000000 113.958243 -20.285465 1372.822975 431.118038 17.713903 0.000000 0.087469
174.000000 57.141000 5.000000 10.000000 -7.000000 120.486473 -26.157986 1503.622487 235.054874 17.495499 0.000000 0.021373
175.000000 57.075000 6.000000 10.000000 -7.000000 126.114180 -32.879177 1670.731264 5.968723 17.513828 0.000000 0.080747
177.000000 47.079000 1.000000 11.000000 -7.000000 93.097424 -3.978328 1049.852742 882.617838 21.245964 0.000000 0.165513
178.000000 49.908000 2.000000 11.000000 -7.000000 100.989026 -7.321890 1113.294440 730.285306 20.038683 0.000000 0.160054
179.000000 52.063000 3.000000 11.000000 -7.000000 108.570118 -11.217688 1188.457326 572.369105 19.206283 0.000000 0.138288
180.000000 53.502000 4.000000 11.000000 -7.000000 115.686674 -15.768439 1278.920338 403.079713 18.687174 0.000000 0.099660
181.000000 54.235000 5.000000 11.000000 -7.000000 122.187928 -21.080406 1389.884575 214.948109 18.432557 0.000000 0.044465
182.000000 54.316000 6.000000 11.000000 -7.000000 127.931877 -27.245027 1529.209798 -2.510329 18.403268 0.000000 0.044255
185.000000 47.391000 2.000000 12.000000 -7.000000 102.692890 -4.097361 1052.099905 697.965767 21.102216 0.000000 0.161060
186.000000 49.330000 3.000000 12.000000 -7.000000 110.002027 -7.559921 1117.842108 545.782484 20.269784 0.000000 0.141181
187.000000 50.673000 4.000000 12.000000 -7.000000 116.934712 -11.612283 1196.171949 382.717745 19.730095 0.000000 0.107426
188.000000 51.422000 5.000000 12.000000 -7.000000 123.363550 -16.366522 1291.087397 202.366352 19.440395 0.000000 0.060313
189.000000 51.615000 6.000000 12.000000 -7.000000 129.163626 -21.937223 1408.479960 -4.097999 19.365871 0.000000 0.026176
190.000000 51.315000 7.000000 12.000000 -7.000000 134.215421 -28.418785 1557.406272 -249.702731 19.477887 0.000000 0.099534
192.000000 46.745000 3.000000 13.000000 -7.000000 111.079359 -4.223845 1054.488467 525.008131 21.390276 0.000000 0.141870
193.000000 47.997000 4.000000 13.000000 -7.000000 117.809593 -7.813994 1122.701789 367.983431 20.829803 0.000000 0.111873
194.000000 48.749000 5.000000 13.000000 -7.000000 124.128751 -12.035396 1204.468451 195.110652 20.506540 0.000000 0.070896
195.000000 49.024000 6.000000 13.000000 -7.000000 129.929990 -17.010574 1304.273391 -1.095245 20.389308 0.000000 0.027576
196.000000 48.870000 7.000000 13.000000 -7.000000 135.106417 -22.863001 1428.825690 -231.408303 20.452162 0.000000 0.064150
198.000000 45.493000 4.000000 14.000000 -7.000000 118.397227 -4.358501 1057.032207 357.429521 21.976419 0.000000 0.113872
199.000000 46.235000 5.000000 14.000000 -7.000000 124.578473 -8.085775 1127.906735 191.661518 21.621287 0.000000 0.077660
200.000000 46.570000 6.000000 14.000000 -7.000000 130.334664 -12.490184 1213.415246 4.962901 21.463872 0.000000 0.036006
201.000000 46.530000 2.000000 4.000000 -2.000000 135.573666 -17.705922 1318.611907 -211.667269 6.137300 0.000000 0.039511
209.000000 59.260000 1.000000 3.000000 -6.000000 55.463918 -35.478355 1742.099930 1850.595077 16.888264 0.000000 0.243140
210.000000 69.263000 2.000000 3.000000 -6.000000 66.910258 -43.269638 1988.172117 1571.171596 14.446153 0.000000 0.255320
212.000000 52.997000 0.000000 2.000000 -3.000000 53.786777 -23.198568 1436.268466 1798.437808 9.442899 0.000000 0.152509
213.000000 64.202000 1.000000 4.000000 -6.000000 65.791301 -29.670637 1588.176609 1497.923045 15.586513 0.000000 0.132880
214.000000 77.804000 3.000000 4.000000 -6.000000 86.750639 -45.184437 2058.245915 1027.694166 12.855946 0.000000 0.182821
215.000000 56.102000 0.000000 5.000000 -6.000000 62.528782 -18.282663 1330.589049 1530.346263 17.838728 0.000000 0.085156
216.000000 65.661000 1.000000 5.000000 -6.000000 74.148376 -24.160921 1457.823741 1275.950051 15.238206 0.000000 0.112401
217.000000 72.906000 2.000000 5.000000 -6.000000 85.069393 -30.968026 1620.885636 1049.285817 13.720933 0.000000 0.108118
218.000000 77.251000 3.000000 5.000000 -6.000000 94.699129 -38.703651 1837.386916 827.632385 12.946464 0.000000 0.087327
219.000000 78.715000 4.000000 5.000000 -6.000000 102.590493 -47.235705 2138.745961 586.952204 12.703488 0.000000 0.198716
221.000000 47.514000 -1.000000 6.000000 -6.000000 58.390507 -9.279301 1150.850717 1612.169389 21.065027 0.000000 0.047666
222.000000 64.847000 1.000000 6.000000 -6.000000 80.782212 -19.019723 1346.012320 1125.750759 15.427948 0.000000 0.128248
224.000000 48.052000 -1.000000 7.000000 -6.000000 64.636739 -5.659330 1081.656909 1453.715685 20.827028 0.000000 0.058769
225.000000 55.902000 0.000000 7.000000 -6.000000 75.349277 -9.611371 1157.261268 1226.377235 17.898788 0.000000 0.119613
226.000000 62.715000 1.000000 7.000000 -6.000000 85.995563 -14.285255 1249.049002 1018.749654 15.951046 0.000000 0.145559
227.000000 67.950000 2.000000 7.000000 -6.000000 96.174175 -19.816458 1362.839056 817.239154 14.719030 0.000000 0.135065
228.000000 71.297000 3.000000 7.000000 -6.000000 105.471559 -26.329180 1507.619967 608.610603 14.025430 0.000000 0.085561
229.000000 72.729000 4.000000 7.000000 -6.000000 113.513907 -33.892974 1698.048178 376.841888 13.747034 0.000000 0.020172
230.000000 72.464000 5.000000 7.000000 -6.000000 120.016929 -42.456844 1959.751637 98.177167 13.795561 0.000000 0.172477
232.000000 47.506000 -1.000000 8.000000 -6.000000 69.787674 -2.374976 1019.639208 1337.602774 21.064649 0.000000 0.091154
233.000000 54.156000 0.000000 4.000000 -3.000000 79.956442 -5.851788 1085.308947 1132.622062 9.237197 0.000000 0.138900
234.000000 59.916000 1.000000 8.000000 -6.000000 90.077819 -9.968016 1164.160291 939.515773 16.694954 0.000000 0.157420
235.000000 64.398000 1.000000 4.000000 -3.000000 99.833512 -14.861467 1260.604827 747.986796 7.765014 0.000000 0.146538
236.000000 67.371000 3.000000 8.000000 -6.000000 108.889225 -20.680071 1381.269955 547.365119 14.841955 0.000000 0.104625
237.000000 68.824000 5.000000 8.000000 -6.000000 123.666424 -35.545263 1743.996822 59.930231 14.524590 0.000000 0.093483
239.000000 46.311000 -1.000000 9.000000 -6.000000 74.046565 0.599594 963.736296 1248.692855 21.606510 0.000000 0.114942
240.000000 51.960000 0.000000 3.000000 -2.000000 83.676417 -2.450655 1021.063355 1060.381608 6.417981 0.000000 0.151347
241.000000 56.856000 1.000000 9.000000 -6.000000 93.276384 -6.057905 1089.222954 879.040343 17.592663 0.000000 0.164116
242.000000 60.716000 2.000000 9.000000 -6.000000 102.595051 -10.352040 1171.605828 696.538039 16.471000 0.000000 0.153081
243.000000 64.777000 4.000000 9.000000 -6.000000 119.322281 -21.618905 1401.545895 290.717188 15.433386 0.000000 0.055732
244.000000 65.025000 5.000000 9.000000 -6.000000 126.218669 -28.889954 1568.900175 40.688557 15.372811 0.000000 0.044509
245.000000 49.580000 0.000000 5.000000 -3.000000 86.695769 0.620196 963.349243 1003.142114 10.088446 0.000000 0.158536
246.000000 53.769000 1.000000 10.000000 -6.000000 95.790796 -2.531453 1022.584003 831.742062 18.601788 0.000000 0.166906
247.000000 57.116000 1.000000 5.000000 -3.000000 104.671491 -6.279181 1093.428163 657.511081 8.754260 0.000000 0.155756
248.000000 59.492000 3.000000 10.000000 -6.000000 113.125759 -10.766680 1179.665497 473.112906 16.806494 0.000000 0.124736
249.000000 60.860000 2.000000 5.000000 -3.000000 120.938102 -16.162295 1286.924483 269.332405 8.213243 0.000000 0.073617
250.000000 61.270000 5.000000 10.000000 -6.000000 127.897595 -22.642658 1423.958524 33.233157 16.314694 0.000000 0.023744
251.000000 60.839000 3.000000 5.000000 -3.000000 133.805830 -30.348730 1605.164179 -255.268687 8.214334 0.000000 0.114288
253.000000 47.175000 0.000000 11.000000 -6.000000 89.162647 3.391384 911.218765 956.758297 21.204504 0.000000 0.161948
254.000000 50.784000 1.000000 11.000000 -6.000000 97.776992 0.642120 962.937340 793.997087 19.694206 0.000000 0.166903
255.000000 53.706000 2.000000 11.000000 -6.000000 106.228808 -2.617906 1024.211304 627.393395 18.619720 0.000000 0.155633
256.000000 55.841000 3.000000 11.000000 -6.000000 114.349630 -6.517346 1097.958330 450.743443 17.905199 0.000000 0.128082
257.000000 57.154000 4.000000 11.000000 -6.000000 121.966270 -11.215702 1188.418549 256.260141 17.491431 0.000000 0.084535
258.000000 57.675000 5.000000 11.000000 -6.000000 128.904354 -16.899823 1301.999571 33.201183 17.331514 0.000000 0.031163
259.000000 57.483000 6.000000 11.000000 -6.000000 134.990123 -23.762645 1448.864376 -234.586447 17.387818 0.000000 0.069227
261.000000 47.966000 1.000000 12.000000 -6.000000 99.354847 3.496485 909.237295 763.361292 20.850526 0.000000 0.164946
262.000000 50.533000 1.000000 6.000000 -3.000000 107.393790 0.665499 962.498113 603.815186 9.894213 0.000000 0.153541
263.000000 52.457000 1.000000 4.000000 -2.000000 115.175337 -2.710630 1025.956885 434.533435 6.353345 0.000000 0.128603
264.000000 53.706000 2.000000 6.000000 -3.000000 122.560813 -6.774401 1102.852633 248.885701 9.307033 0.000000 0.090663
265.000000 54.298000 5.000000 12.000000 -6.000000 129.408690 -11.703505 1197.958486 37.872838 18.409225 0.000000 0.042687
267.000000 47.610000 2.000000 13.000000 -6.000000 108.262176 3.608174 907.131143 585.132345 21.002875 0.000000 0.150093
268.000000 49.349000 3.000000 13.000000 -6.000000 115.707438 0.690482 962.028751 422.804820 20.260100 0.000000 0.127150
269.000000 50.531000 4.000000 13.000000 -6.000000 122.840386 -2.810332 1027.834129 245.464950 19.783723 0.000000 0.093471
270.000000 51.163000 5.000000 13.000000 -6.000000 129.547056 -7.052674 1108.156818 45.510292 19.537086 0.000000 0.051042
271.000000 51.283000 6.000000 13.000000 -6.000000 135.709088 -12.235257 1208.396411 -187.912235 19.489963 0.000000 0.022448
274.000000 46.509000 3.000000 14.000000 -6.000000 116.024020 3.727089 904.888158 414.383753 21.497142 0.000000 0.124332
275.000000 47.622000 2.000000 7.000000 -3.000000 122.894356 0.717239 961.526042 244.809830 10.496107 0.000000 0.093962
276.000000 48.273000 5.000000 14.000000 -6.000000 129.425158 -2.917830 1029.858516 54.981494 20.706741 0.000000 0.056253
277.000000 48.488000 3.000000 7.000000 -3.000000 135.521158 -7.354890 1113.924622 -164.147193 10.306693 0.000000 0.018487
278.000000 48.307000 7.000000 14.000000 -6.000000 141.079711 -12.817074 1219.865375 -425.960212 20.689174 0.000000 0.044173
280.000000 45.619000 5.000000 15.000000 -6.000000 129.122660 0.745967 960.986301 65.538153 21.911593 0.000000 0.059025
281.000000 45.901000 2.000000 5.000000 -2.000000 135.107463 -3.034074 1032.048053 -140.855751 7.258431 0.000000 0.022408
282.000000 45.839000 7.000000 15.000000 -6.000000 140.661429 -7.684259 1120.219608 -384.069178 21.803167 0.000000 0.021554
290.000000 61.001000 0.000000 3.000000 -5.000000 49.779152 -25.266796 1482.999080 1947.502732 16.408461 0.000000 0.206877
291.000000 77.759000 1.000000 3.000000 -5.000000 64.259184 -33.407032 1684.874850 1562.636714 12.869022 0.000000 0.163651
292.000000 89.338000 2.000000 3.000000 -5.000000 77.352751 -42.746565 1969.796528 1269.873170 11.198161 0.000000 0.188858
293.000000 50.741000 -1.000000 4.000000 -5.000000 46.816081 -13.160521 1226.660264 1978.385137 19.727799 0.000000 0.177011
294.000000 66.851000 0.000000 4.000000 -5.000000 60.919922 -19.235661 1350.556607 1574.960707 14.970779 0.000000 0.090886
295.000000 80.766000 1.000000 4.000000 -5.000000 74.899424 -26.545142 1512.679736 1265.640920 12.388090 0.000000 0.114210
296.000000 90.286000 2.000000 4.000000 -5.000000 87.659773 -35.189560 1733.948427 994.821176 11.078892 0.000000 0.100483
297.000000 54.718000 -1.000000 5.000000 -5.000000 56.172805 -8.469381 1135.265277 1670.208487 18.292075 0.000000 0.053993
298.000000 79.501000 1.000000 5.000000 -5.000000 82.959838 -20.179689 1370.566047 1082.610928 12.583713 0.000000 0.129996
299.000000 87.365000 2.000000 5.000000 -5.000000 95.305642 -27.949227 1546.052997 827.850967 11.447998 0.000000 0.102785
300.000000 55.711000 -1.000000 6.000000 -5.000000 63.649521 -4.279169 1055.533471 1475.608461 17.964039 0.000000 0.050161
301.000000 66.728000 0.000000 6.000000 -5.000000 76.352035 -8.829596 1142.188492 1205.471129 14.994645 0.000000 0.124062
302.000000 76.009000 1.000000 6.000000 -5.000000 88.961550 -14.396955 1251.284432 961.141826 13.160373 0.000000 0.149111
303.000000 82.555000 2.000000 6.000000 -5.000000 100.813735 -21.217032 1392.835166 720.470128 12.113913 0.000000 0.123297
304.000000 85.924000 3.000000 6.000000 -5.000000 111.236120 -29.496599 1583.853672 460.467994 11.636530 0.000000 0.041347
305.000000 86.303000 4.000000 6.000000 -5.000000 119.663667 -39.294422 1855.761706 148.905780 11.583606 0.000000 0.117814
307.000000 54.933000 -1.000000 7.000000 -5.000000 69.615770 -0.551820 985.366193 1340.951626 18.216895 0.000000 0.089930
308.000000 63.977000 0.000000 7.000000 -5.000000 81.539528 -4.449807 1058.757544 1101.578251 15.638141 0.000000 0.144619
309.000000 71.584000 1.000000 7.000000 -5.000000 93.403506 -9.221789 1149.741705 876.152119 13.972786 0.000000 0.160639
310.000000 77.080000 2.000000 7.000000 -5.000000 104.704681 -15.104935 1265.505934 648.437524 12.973676 0.000000 0.137517
311.000000 80.142000 3.000000 7.000000 -5.000000 114.916680 -22.361455 1417.769650 400.365387 12.475449 0.000000 0.072308
312.000000 80.856000 4.000000 7.000000 -5.000000 123.550140 -31.207727 1627.025388 106.504971 12.363287 0.000000 0.045595
314.000000 53.190000 -1.000000 8.000000 -5.000000 74.398436 2.758608 923.139805 1241.887110 18.812187 0.000000 0.116584
315.000000 60.651000 0.000000 8.000000 -5.000000 85.561825 -0.570450 985.716179 1024.541858 16.494451 0.000000 0.156187
316.000000 66.941000 1.000000 8.000000 -5.000000 96.693764 -4.634807 1062.254695 814.268815 14.941199 0.000000 0.165659
317.000000 71.594000 2.000000 8.000000 -5.000000 107.414770 -9.650373 1158.015008 598.559218 13.967011 0.000000 0.144625
318.000000 74.377000 3.000000 8.000000 -5.000000 117.320880 -15.884610 1281.277948 362.911910 13.441948 0.000000 0.092045
319.000000 75.317000 4.000000 8.000000 -5.000000 126.013122 -23.629366 1445.878481 87.052615 13.272239 0.000000 0.020871
320.000000 74.655000 5.000000 8.000000 -5.000000 133.124984 -33.106463 1676.800438 -262.426824 13.388519 0.000000 0.137970
321.000000 50.980000 -1.000000 9.000000 -5.000000 78.262268 5.699634 867.578485 1165.740192 19.626263 0.000000 0.132824
322.000000 57.184000 0.000000 9.000000 -5.000000 88.707499 2.859636 921.237444 965.313871 17.493325 0.000000 0.161509
323.000000 62.437000 1.000000 9.000000 -5.000000 99.142374 -0.590555 986.093891 767.779876 16.018187 0.000000 0.166183
324.000000 66.413000 2.000000 9.000000 -5.000000 109.279486 -4.836060 1066.061155 563.174593 15.056288 0.000000 0.146605
325.000000 68.937000 3.000000 9.000000 -5.000000 118.811207 -10.120603 1167.116532 339.671406 14.502535 0.000000 0.102683
326.000000 70.007000 4.000000 9.000000 -5.000000 127.423973 -16.747113 1298.868664 80.917459 14.278695 0.000000 0.038040
327.000000 69.771000 5.000000 9.000000 -5.000000 134.806673 -25.040424 1477.809044 -238.960628 14.325328 0.000000 0.076855
329.000000 48.594000 -1.000000 10.000000 -5.000000 81.413044 8.316670 817.665822 1105.250884 20.588609 0.000000 0.142096
330.000000 53.801000 0.000000 4.000000 -2.000000 91.192839 5.893510 863.899014 918.470353 7.436947 0.000000 0.162693
331.000000 58.234000 1.000000 10.000000 -5.000000 100.976692 2.968160 919.193546 731.963494 17.173780 0.000000 0.163756
332.000000 61.659000 2.000000 10.000000 -5.000000 110.544993 -0.612318 986.502757 537.603408 16.216795 0.000000 0.145174
333.000000 63.945000 3.000000 10.000000 -5.000000 119.663145 -5.055800 1070.219855 325.615567 15.634499 0.000000 0.107325
334.000000 65.076000 4.000000 10.000000 -5.000000 128.089026 -10.638786 1177.177195 82.655892 15.360510 0.000000 0.052549
336.000000 46.196000 -1.000000 11.000000 -5.000000 84.007860 10.651163 772.582078 1055.954402 21.656073 0.000000 0.146718
337.000000 50.608000 0.000000 11.000000 -5.000000 93.177748 8.581718 812.577051 880.568523 19.764478 0.000000 0.161166
338.000000 54.386000 1.000000 11.000000 -5.000000 102.360864 6.100834 859.961477 703.788472 18.388107 0.000000 0.159442
339.000000 57.361000 2.000000 11.000000 -5.000000 111.387409 3.085047 916.991703 518.865924 17.431637 0.000000 0.141540
340.000000 59.431000 3.000000 11.000000 -5.000000 120.077122 -0.635953 986.946799 317.629679 16.821894 0.000000 0.108076
341.000000 60.576000 4.000000 11.000000 -5.000000 128.243773 -5.296689 1074.782063 89.069938 16.501771 0.000000 0.061066
342.000000 60.848000 5.000000 11.000000 -5.000000 135.693872 -11.212552 1188.357045 -183.140689 16.426051 0.000000 0.020617
344.000000 47.648000 0.000000 12.000000 -5.000000 94.780128 10.970131 766.371807 849.321678 20.991521 0.000000 0.157875
345.000000 50.899000 1.000000 12.000000 -5.000000 103.412876 8.863941 807.150715 681.232525 19.647477 0.000000 0.153956
346.000000 53.501000 2.000000 12.000000 -5.000000 111.931197 6.323049 855.737734 504.999277 18.688872 0.000000 0.136517
347.000000 55.377000 3.000000 12.000000 -5.000000 120.195005 3.211300 914.612872 313.722399 18.053193 0.000000 0.106304
348.000000 56.505000 4.000000 12.000000 -5.000000 128.060321 -0.661714 987.430761 98.224253 17.690752 0.000000 0.065246
349.000000 56.914000 5.000000 12.000000 -5.000000 135.378152 -5.561924 1079.809499 -154.754729 17.561557 0.000000 0.019646
352.000000 47.752000 1.000000 13.000000 -5.000000 104.217712 11.308417 759.770757 662.902618 20.942145 0.000000 0.147772
353.000000 50.044000 2.000000 13.000000 -5.000000 112.263931 9.165049 801.352072 494.672882 19.979817 0.000000 0.130654
354.000000 51.747000 3.000000 13.000000 -5.000000 120.115561 6.561812 851.195406 312.586803 19.319861 0.000000 0.102909
355.000000 52.838000 4.000000 13.000000 -5.000000 127.660111 3.348092 912.034820 108.921300 18.918621 0.000000 0.066466
356.000000 53.334000 5.000000 13.000000 -5.000000 134.782441 -0.689898 987.960278 -127.228955 18.740460 0.000000 0.025334
357.000000 53.286000 6.000000 13.000000 -5.000000 141.359646 -5.855381 1085.377149 -412.365813 18.755999 0.000000 0.017249
359.000000 46.947000 2.000000 14.000000 -5.000000 112.447266 11.667803 752.740845 486.962475 21.298009 0.000000 0.124317
360.000000 48.495000 3.000000 14.000000 -5.000000 119.906909 9.486984 795.141445 313.346242 20.615438 0.000000 0.098483
361.000000 49.539000 4.000000 14.000000 -5.000000 127.126804 6.819034 846.297034 120.408490 20.178598 0.000000 0.065685
362.000000 50.087000 5.000000 14.000000 -5.000000 134.016989 3.496796 909.231427 -100.922079 19.955524 0.000000 0.030063
363.000000 50.174000 6.000000 14.000000 -5.000000 140.483505 -0.720866 988.542101 -363.987083 19.919562 0.000000 0.004666
365.000000 45.578000 3.000000 15.000000 -5.000000 119.615798 12.050298 745.238875 315.401922 21.934947 0.000000 0.093425
366.000000 46.569000 4.000000 15.000000 -5.000000 126.517080 9.831963 788.473309 132.208613 21.465393 0.000000 0.063556
367.000000 47.145000 2.000000 6.000000 -2.000000 133.157288 7.096929 840.999049 -75.990400 8.480414 0.000000 0.032939
368.000000 47.328000 6.000000 15.000000 -5.000000 139.463647 3.659039 906.171797 -320.131661 21.117580 0.000000 0.015274
372.000000 56.107000 -1.000000 3.000000 -4.000000 40.681816 -13.020550 1223.888761 2226.153290 17.842197 0.000000 0.276462
373.000000 82.379000 0.000000 3.000000 -4.000000 58.378648 -20.693799 1381.564607 1649.397893 12.149189 0.000000 0.106661
374.000000 64.077000 -1.000000 4.000000 -4.000000 52.879098 -7.302732 1112.928641 1762.274220 15.621142 0.000000 0.079108
375.000000 49.027000 -2.000000 5.000000 -4.000000 47.440239 1.865941 939.936125 1929.833527 20.418021 0.000000 0.136311
376.000000 66.120000 -1.000000 5.000000 -4.000000 62.192609 -2.338906 1018.960496 1509.116322 15.136579 0.000000 0.036663
377.000000 82.662000 0.000000 5.000000 -4.000000 77.777037 -7.685201 1120.237620 1176.267843 12.104047 0.000000 0.130183
378.000000 51.169000 -1.000000 3.000000 -2.000000 55.529559 5.431314 872.666711 1683.231657 9.780632 0.000000 0.037827
379.000000 64.965000 -1.000000 6.000000 -4.000000 69.290572 1.949816 938.358805 1348.135848 15.403818 0.000000 0.087872
380.000000 88.393000 1.000000 6.000000 -4.000000 97.987411 -8.110052 1128.372023 788.452215 11.314706 0.000000 0.161608
381.000000 51.163000 -2.000000 7.000000 -4.000000 61.978811 8.535394 813.466951 1520.201499 19.561383 0.000000 0.044804
382.000000 62.287000 -1.000000 7.000000 -4.000000 74.745297 5.653115 868.460978 1235.960944 16.064315 0.000000 0.117879
383.000000 72.561000 0.000000 7.000000 -4.000000 87.990350 2.041313 936.637949 978.790499 13.786310 0.000000 0.160636
384.000000 80.887000 1.000000 7.000000 -4.000000 101.208954 -2.573936 1023.383633 727.497799 12.363990 0.000000 0.163822
385.000000 86.452000 2.000000 7.000000 -4.000000 113.795229 -8.584690 1137.480041 461.027255 11.565345 0.000000 0.126828
386.000000 88.974000 3.000000 7.000000 -4.000000 125.101414 -16.523030 1294.283523 151.944362 11.235289 0.000000 0.050583
387.000000 88.717000 4.000000 7.000000 -4.000000 134.483627 -26.995518 1523.293283 -245.326798 11.266220 0.000000 0.089517
388.000000 49.978000 -1.000000 4.000000 -2.000000 67.164885 11.247173 760.966954 1403.083199 10.011767 0.000000 0.079190
389.000000 59.006000 -1.000000 8.000000 -4.000000 78.992148 8.857868 807.267577 1152.890631 16.956247 0.000000 0.133981
390.000000 73.989000 1.000000 8.000000 -4.000000 103.397961 2.141522 934.753031 684.451835 13.516058 0.000000 0.160947
391.000000 81.123000 3.000000 8.000000 -4.000000 126.060921 -9.118331 1147.747604 147.246068 12.322508 0.000000 0.067396
393.000000 48.194000 -2.000000 9.000000 -4.000000 71.380779 13.626486 714.090291 1314.117491 20.763158 0.000000 0.101596
394.000000 55.593000 -1.000000 9.000000 -4.000000 82.347444 11.641909 753.247955 1088.650763 17.995867 0.000000 0.141707
395.000000 62.307000 0.000000 9.000000 -4.000000 93.610347 9.205253 800.577099 872.204177 16.053325 0.000000 0.160480
396.000000 67.845000 1.000000 9.000000 -4.000000 104.895305 6.154931 858.933559 653.054835 14.739606 0.000000 0.155151
397.000000 71.845000 2.000000 9.000000 -4.000000 115.888642 2.251747 932.679417 418.239574 13.916289 0.000000 0.125881
398.000000 74.142000 3.000000 9.000000 -4.000000 126.256065 -2.863051 1028.826869 150.666676 13.482802 0.000000 0.074779
399.000000 74.788000 4.000000 9.000000 -4.000000 135.648837 -9.722593 1159.411196 -175.994638 13.364313 0.000000 0.018904
401.000000 46.147000 -1.000000 5.000000 -2.000000 74.847859 15.724069 671.979407 1243.788462 10.841223 0.000000 0.115219
402.000000 52.280000 -1.000000 10.000000 -4.000000 85.037763 14.072109 705.210474 1037.339904 19.135483 0.000000 0.144293
403.000000 57.824000 0.000000 5.000000 -2.000000 95.466080 12.064768 744.954646 835.681422 8.648621 0.000000 0.155777
404.000000 62.442000 1.000000 10.000000 -4.000000 105.925288 9.580524 793.334754 629.551995 16.014873 0.000000 0.147759
405.000000 65.878000 1.000000 5.000000 -2.000000 116.183003 6.440249 853.508605 408.433272 7.588268 0.000000 0.120586
406.000000 68.010000 3.000000 10.000000 -4.000000 125.994574 2.373569 930.387276 158.510811 14.698505 0.000000 0.076546
408.000000 49.167000 -1.000000 11.000000 -4.000000 87.225536 16.204616 662.213574 995.316672 20.345945 0.000000 0.143680
409.000000 53.806000 0.000000 11.000000 -4.000000 96.913479 14.547069 695.707845 806.174881 18.588168 0.000000 0.149663
410.000000 57.706000 1.000000 11.000000 -4.000000 106.635747 12.518816 736.020457 611.579411 17.328764 0.000000 0.139573
411.000000 60.685000 2.000000 11.000000 -4.000000 116.216502 9.987142 785.469324 402.857836 16.475400 0.000000 0.113873
412.000000 62.646000 3.000000 11.000000 -4.000000 125.473001 6.752882 847.557273 168.693883 15.957224 0.000000 0.074954
413.000000 63.587000 4.000000 11.000000 -4.000000 134.219641 2.508917 927.840143 -107.373520 15.718962 0.000000 0.029058
414.000000 63.589000 5.000000 11.000000 -4.000000 142.261140 -3.227325 1035.689101 -451.820747 15.716860 0.000000 0.011883
416.000000 46.292000 -1.000000 12.000000 -4.000000 89.028163 18.086020 623.503440 960.206550 21.608427 0.000000 0.141068
417.000000 50.222000 0.000000 6.000000 -2.000000 98.059264 16.714471 651.799913 781.878384 9.957210 0.000000 0.142805
418.000000 53.553000 1.000000 12.000000 -4.000000 107.124982 15.054290 685.514497 597.589073 18.672264 0.000000 0.131087
419.000000 56.155000 1.000000 6.000000 -2.000000 116.089537 13.007569 726.368113 400.093082 8.902192 0.000000 0.106448
420.000000 57.951000 3.000000 12.000000 -4.000000 124.813446 10.429159 776.896784 180.009364 17.250003 0.000000 0.071355
421.000000 59.145000 5.000000 12.000000 -4.000000 140.979052 2.660177 924.992963 -388.552353 16.897998 0.000000 0.014883
423.000000 47.025000 0.000000 13.000000 -4.000000 98.978722 18.618152 612.407308 761.550358 21.267892 0.000000 0.135618
424.000000 49.901000 1.000000 13.000000 -4.000000 107.459159 17.256311 640.671752 586.533496 20.038958 0.000000 0.122596
425.000000 52.189000 2.000000 13.000000 -4.000000 115.865949 15.597084 674.552283 399.219418 19.157310 0.000000 0.098739
426.000000 53.832000 3.000000 13.000000 -4.000000 124.090390 13.535088 715.907398 191.748095 18.570211 0.000000 0.066584
427.000000 54.815000 4.000000 13.000000 -4.000000 132.025248 10.911349 767.517292 -46.817372 18.235090 0.000000 0.034434
428.000000 55.166000 5.000000 13.000000 -4.000000 139.564408 7.477344 833.736110 -332.883610 18.117202 0.000000 0.027145
430.000000 46.674000 1.000000 14.000000 -4.000000 107.683423 19.181217 600.590267 577.683965 21.424162 0.000000 0.114284
431.000000 48.701000 1.000000 7.000000 -2.000000 115.586462 17.833137 628.752943 399.627201 10.264791 0.000000 0.091010
432.000000 50.203000 3.000000 14.000000 -4.000000 123.348551 16.179223 662.730800 203.491346 19.912834 0.000000 0.061160
433.000000 51.165000 2.000000 7.000000 -2.000000 130.885331 14.106071 704.532323 -19.805073 9.768048 0.000000 0.034332
434.000000 51.604000 5.000000 14.000000 -4.000000 138.115159 11.439370 757.211279 -283.513027 19.368115 0.000000 0.035848
437.000000 45.617000 2.000000 15.000000 -4.000000 115.277121 19.777872 587.979703 400.904306 21.917714 0.000000 0.083424
438.000000 46.991000 3.000000 15.000000 -4.000000 122.614249 18.448321 615.956120 214.994060 21.274010 0.000000 0.055413
439.000000 47.920000 4.000000 15.000000 -4.000000 129.772661 16.805010 649.944897 5.169755 20.859435 0.000000 0.033259
440.000000 48.411000 5.000000 15.000000 -4.000000 136.687808 14.725994 692.117524 -239.422823 20.645724 0.000000 0.041830
443.000000 45.544000 5.000000 16.000000 -4.000000 135.313263 17.479379 636.071536 -199.804829 21.946019 0.000000 0.045984
448.000000 75.897000 -1.000000 3.000000 -3.000000 47.498399 -5.479220 1078.241388 1931.824508 13.189256 0.000000 0.143857
449.000000 53.382000 -2.000000 4.000000 -3.000000 41.429724 5.292742 875.292710 2165.762142 18.752975 0.000000 0.234475
450.000000 80.860000 -1.000000 4.000000 -3.000000 59.846434 0.580198 964.100681 1566.283113 12.377790 0.000000 0.013384
451.000000 57.987000 -2.000000 5.000000 -3.000000 51.747933 9.260146 799.518687 1800.749308 17.261917 0.000000 0.087893
452.000000 79.107000 -1.000000 5.000000 -3.000000 68.634311 5.577225 869.900355 1364.054471 12.650190 0.000000 0.084322
453.000000 58.515000 -2.000000 6.000000 -3.000000 59.628911 12.594751 734.523257 1587.279877 17.104181 0.000000 0.053025
454.000000 74.728000 -1.000000 6.000000 -3.000000 74.992449 9.709871 790.834803 1233.737857 13.389787 0.000000 0.118001
455.000000 57.017000 -2.000000 7.000000 -3.000000 65.731804 15.418794 678.159305 1444.363385 17.551550 0.000000 0.078847
456.000000 69.609000 -1.000000 7.000000 -3.000000 79.701246 13.151029 723.527787 1141.838906 14.373144 0.000000 0.132927
457.000000 81.013000 0.000000 7.000000 -3.000000 94.282592 10.204694 781.253063 859.106402 12.346361 0.000000 0.159124
458.000000 89.865000 1.000000 7.000000 -3.000000 108.905877 6.247225 857.179352 570.176673 11.127153 0.000000 0.145731
459.000000 54.608000 -2.000000 8.000000 -3.000000 70.537526 17.830168 628.814483 1340.532911 18.324436 0.000000 0.100056
460.000000 64.545000 -1.000000 8.000000 -3.000000 83.274113 16.041301 665.537784 1073.071023 15.499712 0.000000 0.137969
461.000000 73.461000 0.000000 8.000000 -3.000000 96.469029 13.757456 711.484024 815.356490 13.615085 0.000000 0.151811
462.000000 80.499000 1.000000 8.000000 -3.000000 109.721595 10.751671 770.626627 548.278887 12.421498 0.000000 0.135429
463.000000 85.075000 2.000000 8.000000 -3.000000 122.572954 6.645399 849.604191 248.745721 11.750730 0.000000 0.090568
464.000000 87.027000 3.000000 8.000000 -3.000000 134.541809 0.776892 960.405279 -118.313742 11.485064 0.000000 0.027115
466.000000 51.864000 -2.000000 9.000000 -3.000000 74.386626 19.906233 585.254485 1260.890713 19.292507 0.000000 0.112423
467.000000 59.839000 -1.000000 9.000000 -3.000000 86.047612 18.491455 615.055454 1019.411430 16.717557 0.000000 0.137612
468.000000 72.676000 1.000000 9.000000 -3.000000 110.131274 14.420976 698.234550 533.630573 13.758512 0.000000 0.124239
469.000000 76.592000 2.000000 9.000000 -3.000000 121.940830 11.359389 758.774789 256.594391 13.052373 0.000000 0.083930
471.000000 49.077000 -2.000000 10.000000 -3.000000 77.519475 21.707909 546.518382 1197.409057 20.386817 0.000000 0.118680
472.000000 55.582000 -1.000000 10.000000 -3.000000 88.245431 20.587690 570.711465 976.218921 17.997149 0.000000 0.134271
473.000000 61.383000 0.000000 10.000000 -3.000000 99.244709 19.201576 600.161489 755.496304 16.293033 0.000000 0.133198
474.000000 66.103000 1.000000 10.000000 -3.000000 110.301085 17.444541 636.790730 523.648469 15.126380 0.000000 0.112985
475.000000 69.478000 2.000000 10.000000 -3.000000 121.179596 15.149846 683.588766 266.246138 14.388888 0.000000 0.075815
476.000000 71.399000 3.000000 10.000000 -3.000000 131.643989 12.038397 745.472616 -37.578308 13.999520 0.000000 0.034542
477.000000 71.920000 4.000000 10.000000 -3.000000 141.463303 7.613240 831.138537 -422.327732 13.896436 0.000000 0.033228
479.000000 46.388000 -2.000000 11.000000 -3.000000 80.107181 23.283273 511.846908 1145.345983 21.567470 0.000000 0.121000
480.000000 51.773000 -1.000000 11.000000 -3.000000 90.019272 22.396956 531.450408 940.608441 19.320456 0.000000 0.129311
481.000000 56.576000 0.000000 11.000000 -3.000000 100.147889 21.315054 555.044592 734.209155 17.676835 0.000000 0.123575
482.000000 60.536000 1.000000 11.000000 -3.000000 110.327998 19.965903 583.986124 516.770759 16.517280 0.000000 0.102094
483.000000 63.467000 2.000000 11.000000 -3.000000 120.383388 18.238772 620.325201 276.581200 15.751982 0.000000 0.067156
484.000000 65.280000 3.000000 11.000000 -3.000000 130.139108 15.953944 667.313669 -2.937939 15.312054 0.000000 0.033694
485.000000 65.997000 4.000000 11.000000 -3.000000 139.428760 12.801792 730.436538 -348.053242 15.143776 0.000000 0.046209
487.000000 48.377000 -1.000000 12.000000 -3.000000 91.474292 23.971436 496.445707 910.684749 20.675844 0.000000 0.123535
488.000000 52.413000 0.000000 4.000000 -1.000000 100.849371 23.128568 515.287174 716.696308 6.360201 0.000000 0.114254
489.000000 55.780000 1.000000 12.000000 -3.000000 110.269762 22.092864 538.118356 512.014208 17.925826 0.000000 0.091776
490.000000 58.342000 2.000000 12.000000 -3.000000 119.599870 20.790584 566.356556 286.996949 17.135797 0.000000 0.058455
491.000000 60.031000 1.000000 4.000000 -1.000000 128.706125 19.105663 602.180554 28.259911 5.550404 0.000000 0.031674
492.000000 60.851000 4.000000 12.000000 -3.000000 137.463405 16.845178 649.121356 -284.655295 16.424964 0.000000 0.054277
494.000000 48.784000 0.000000 13.000000 -3.000000 101.403515 24.698776 479.987790 702.052707 20.499749 0.000000 0.105407
495.000000 51.679000 1.000000 13.000000 -3.000000 110.161416 23.906553 497.904759 508.738798 19.348192 0.000000 0.082130
496.000000 53.935000 2.000000 13.000000 -3.000000 118.852026 22.926238 519.774550 297.170985 18.536078 0.000000 0.049977
497.000000 55.498000 3.000000 13.000000 -3.000000 127.370740 21.682674 547.067452 56.390360 18.011804 0.000000 0.029340
498.000000 56.361000 4.000000 13.000000 -3.000000 135.620196 20.055204 582.086140 -229.847909 17.733722 0.000000 0.059384
501.000000 45.600000 0.000000 14.000000 -3.000000 101.847875 26.069616 448.436423 689.638326 21.930991 0.000000 0.097121
502.000000 48.114000 1.000000 14.000000 -3.000000 110.024559 25.468482 462.360537 506.516088 20.781583 0.000000 0.073198
503.000000 50.114000 2.000000 14.000000 -3.000000 118.149740 24.735147 479.159812 306.936846 19.949663 0.000000 0.041863
504.000000 51.554000 3.000000 14.000000 -3.000000 126.139746 23.820958 499.827308 81.816350 19.389909 0.000000 0.027280
505.000000 52.426000 4.000000 14.000000 -3.000000 133.916772 22.650301 525.872909 -181.959190 19.065234 0.000000 0.062740
508.000000 46.774000 2.000000 15.000000 -3.000000 117.495968 26.284061 443.434734 316.216325 21.374148 0.000000 0.034176
509.000000 48.100000 1.000000 5.000000 -1.000000 125.010789 25.619073 458.885596 104.867220 6.927502 0.000000 0.025903
510.000000 48.959000 4.000000 15.000000 -3.000000 132.353630 24.783566 478.056789 -139.733569 20.415743 0.000000 0.065075
513.000000 45.888000 4.000000 16.000000 -3.000000 130.923394 26.563597 436.887008 -102.207315 21.782277 0.000000 0.066829
518.000000 64.633000 -1.000000 2.000000 -1.000000 45.640285 14.841570 689.795235 2029.829531 7.743809 0.000000 0.181923
519.000000 67.045000 -2.000000 5.000000 -2.000000 55.817225 18.275785 619.554250 1710.806432 14.928493 0.000000 0.093422
520.000000 47.820000 -3.000000 6.000000 -2.000000 48.109664 22.431921 530.681850 1985.402163 20.931898 0.000000 0.183255
521.000000 65.446000 -1.000000 3.000000 -1.000000 63.308122 21.058000 560.598775 1520.852667 7.645727 0.000000 0.090533
522.000000 83.880000 -1.000000 6.000000 -2.000000 80.157182 19.236954 599.416141 1138.779968 11.927443 0.000000 0.126891
523.000000 48.490000 -3.000000 7.000000 -2.000000 55.120862 24.352245 487.852524 1764.521464 20.640628 0.000000 0.133337
524.000000 62.264000 -2.000000 7.000000 -2.000000 68.969824 23.347728 510.411220 1391.706569 16.071265 0.000000 0.103206
525.000000 76.091000 -1.000000 7.000000 -2.000000 83.984239 22.047334 539.114225 1063.370923 13.147282 0.000000 0.127661
526.000000 88.337000 0.000000 7.000000 -2.000000 99.725787 20.299957 576.867581 744.310501 11.321389 0.000000 0.128363
527.000000 47.702000 -3.000000 8.000000 -2.000000 60.719498 25.987068 450.356898 1612.388790 20.979858 0.000000 0.118050
528.000000 58.600000 -1.000000 4.000000 -1.000000 73.359271 25.259391 467.171004 1296.700764 8.537399 0.000000 0.111392
529.000000 69.249000 -1.000000 8.000000 -2.000000 86.844477 24.336537 488.207986 1006.122899 14.445490 0.000000 0.123476
530.000000 85.751000 1.000000 8.000000 -2.000000 114.954591 21.481019 551.448240 402.767629 11.659501 0.000000 0.076080
531.000000 46.185000 -3.000000 9.000000 -2.000000 65.262711 27.393496 417.257035 1499.516782 21.667070 0.000000 0.115975
532.000000 54.936000 -2.000000 9.000000 -2.000000 76.841019 26.876108 429.528954 1223.100538 18.212266 0.000000 0.114702
533.000000 63.335000 -1.000000 9.000000 -2.000000 89.048082 26.231592 444.660216 960.936480 15.793588 0.000000 0.117139
534.000000 70.711000 0.000000 9.000000 -2.000000 101.637552 25.406775 463.781931 695.599244 14.142684 0.000000 0.101191
535.000000 76.459000 1.000000 9.000000 -2.000000 114.308503 24.314240 488.712422 407.523342 13.076507 0.000000 0.062320
536.000000 80.188000 2.000000 9.000000 -2.000000 126.742202 22.799771 522.572602 69.419928 12.465916 0.000000 0.028247
537.000000 81.808000 3.000000 9.000000 -2.000000 138.640762 20.564576 571.206848 -364.776630 12.217189 0.000000 0.080952
539.000000 51.473000 -1.000000 5.000000 -1.000000 79.658610 28.259179 396.464002 1163.974328 9.718130 0.000000 0.114778
540.000000 58.237000 -1.000000 10.000000 -2.000000 90.789576 27.822965 406.982961 924.228038 17.175403 0.000000 0.110045
541.000000 64.182000 0.000000 5.000000 -1.000000 102.208970 27.275482 420.066231 678.988391 7.790639 0.000000 0.089437
542.000000 68.908000 1.000000 10.000000 -2.000000 113.693691 26.568083 436.781666 412.917531 14.509625 0.000000 0.049952
543.000000 73.825000 3.000000 10.000000 -2.000000 135.942559 24.280107 489.484310 -279.236255 13.538556 0.000000 0.086939
544.000000 48.283000 -2.000000 11.000000 -2.000000 81.978745 29.454525 367.189165 1115.184473 20.719385 0.000000 0.112921
545.000000 53.830000 -1.000000 11.000000 -2.000000 92.195697 29.176279 374.064108 893.737414 18.581072 0.000000 0.102918
546.000000 58.715000 0.000000 11.000000 -2.000000 102.634828 28.832898 382.497198 665.590128 17.031749 0.000000 0.079071
547.000000 62.667000 1.000000 11.000000 -2.000000 113.126195 28.398517 393.085847 418.457584 15.954763 0.000000 0.039061
548.000000 65.499000 2.000000 11.000000 -2.000000 123.494021 27.831515 406.777621 135.614319 15.262358 0.000000 0.025576
549.000000 67.139000 3.000000 11.000000 -2.000000 133.573223 27.060396 425.170833 -208.860608 14.887251 0.000000 0.090053
551.000000 49.999000 -1.000000 12.000000 -2.000000 93.351880 30.340010 345.055763 867.960085 20.004238 0.000000 0.096140
552.000000 54.081000 0.000000 6.000000 -1.000000 102.959699 30.149002 349.863601 654.567143 9.245569 0.000000 0.070096
553.000000 57.432000 1.000000 12.000000 -2.000000 112.609369 29.911731 355.810076 423.894185 17.409108 0.000000 0.029760
554.000000 59.919000 1.000000 6.000000 -1.000000 122.164789 29.609084 363.354016 162.483360 8.341975 0.000000 0.027280
555.000000 61.482000 3.000000 12.000000 -2.000000 131.497287 29.209752 373.239015 -149.847070 16.257572 0.000000 0.091807
557.000000 46.648000 -1.000000 13.000000 -2.000000 94.317475 31.350601 319.300187 845.851123 21.440617 0.000000 0.089909
558.000000 50.107000 0.000000 13.000000 -2.000000 103.212522 31.274730 321.252833 645.347377 19.957391 0.000000 0.062497
559.000000 52.984000 1.000000 13.000000 -2.000000 112.141233 31.181953 323.636276 429.104839 18.870659 0.000000 0.022356
560.000000 55.181000 2.000000 13.000000 -2.000000 120.995969 31.065915 326.610757 186.132792 18.116852 0.000000 0.030417
561.000000 56.648000 3.000000 13.000000 -2.000000 129.674262 30.916613 330.427238 -99.591777 17.645299 0.000000 0.092946
564.000000 46.666000 0.000000 7.000000 -1.000000 103.412684 32.247893 295.964225 637.527283 10.714521 0.000000 0.056248
565.000000 49.162000 1.000000 14.000000 -2.000000 111.717769 32.262366 295.584073 434.034761 20.337959 0.000000 0.017572
566.000000 51.113000 1.000000 7.000000 -1.000000 119.963402 32.280165 295.116384 207.089255 9.779444 0.000000 0.034332
567.000000 52.480000 3.000000 14.000000 -2.000000 128.066554 32.302587 294.526992 -56.244209 19.047242 0.000000 0.093837
570.000000 45.844000 1.000000 15.000000 -2.000000 111.334397 33.191934 270.909150 438.665695 21.809917 0.000000 0.016310
571.000000 47.587000 2.000000 15.000000 -2.000000 119.046515 33.306904 267.821148 225.775682 21.008409 0.000000 0.038564
572.000000 48.855000 3.000000 15.000000 -2.000000 126.641635 33.449137 263.989591 -18.449122 20.460948 0.000000 0.094658
575.000000 45.677000 3.000000 16.000000 -2.000000 125.372154 34.412648 237.696884 14.810982 21.884496 0.000000 0.095492
579.000000 74.785000 -2.000000 4.000000 -1.000000 49.127832 26.575388 436.610122 1982.431503 13.384026 0.000000 0.197993
581.000000 74.517000 -2.000000 5.000000 -1.000000 58.972046 28.910446 380.597597 1680.587838 13.430330 0.000000 0.143168
582.000000 51.545000 -3.000000 6.000000 -1.000000 49.945084 30.919433 330.355271 1995.770116 19.417994 0.000000 0.222886
583.000000 70.815000 -2.000000 6.000000 -1.000000 66.025542 30.740122 334.923401 1497.864823 14.130725 0.000000 0.130859
584.000000 90.758000 -1.000000 6.000000 -1.000000 83.918339 30.497080 341.088098 1074.086039 11.022353 0.000000 0.109987
585.000000 51.457000 -3.000000 7.000000 -1.000000 56.815153 32.197449 297.288248 1772.820768 19.449189 0.000000 0.179861
586.000000 66.151000 -2.000000 7.000000 -1.000000 71.276258 32.209689 296.967117 1372.156308 15.125659 0.000000 0.126867
587.000000 80.730000 -1.000000 7.000000 -1.000000 86.969128 32.225783 296.544728 1008.365110 12.390674 0.000000 0.102872
588.000000 50.038000 -3.000000 8.000000 -1.000000 62.243651 33.270542 268.798675 1618.461069 19.999249 0.000000 0.159937
589.000000 61.462000 -2.000000 8.000000 -1.000000 75.313936 33.414459 264.924917 1278.939038 16.278298 0.000000 0.123479
590.000000 72.500000 -1.000000 8.000000 -1.000000 89.252190 33.599013 259.938525 957.866120 13.796523 0.000000 0.095792
591.000000 82.018000 0.000000 8.000000 -1.000000 103.704516 33.844237 253.279751 624.991748 12.192248 0.000000 0.047695
592.000000 89.008000 1.000000 8.000000 -1.000000 118.228119 34.185921 243.937730 242.533924 11.232068 0.000000 0.042846
593.000000 48.027000 -3.000000 9.000000 -1.000000 66.618720 34.183740 243.997599 1503.517107 20.835063 0.000000 0.149503
594.000000 57.086000 -2.000000 9.000000 -1.000000 78.504065 34.419257 237.514467 1206.351887 17.525202 0.000000 0.119693
595.000000 65.690000 -1.000000 9.000000 -1.000000 91.020372 34.715000 229.321559 917.679183 15.226234 0.000000 0.089656
596.000000 73.120000 0.000000 9.000000 -1.000000 103.902180 35.097432 218.639769 615.398255 13.675831 0.000000 0.043974
597.000000 78.751000 1.000000 9.000000 -1.000000 116.832154 35.611160 204.131854 271.329428 12.695206 0.000000 0.051060
598.000000 82.213000 2.000000 9.000000 -1.000000 129.484397 36.337659 183.293590 -159.798824 12.158307 0.000000 0.151842
600.000000 45.804000 -3.000000 10.000000 -1.000000 70.207566 34.969926 222.212257 1413.668036 21.844973 0.000000 0.142848
601.000000 53.119000 -2.000000 10.000000 -1.000000 81.082164 35.269565 213.799169 1147.856041 18.832934 0.000000 0.115717
602.000000 59.992000 -1.000000 10.000000 -1.000000 92.427820 35.639183 203.335108 884.849539 16.672058 0.000000 0.084763
603.000000 65.946000 0.000000 10.000000 -1.000000 104.041440 36.106489 189.965974 607.828112 15.163517 0.000000 0.044050
604.000000 70.576000 1.000000 10.000000 -1.000000 115.688007 36.716011 172.286993 295.163597 14.165937 0.000000 0.058511
605.000000 73.630000 2.000000 10.000000 -1.000000 127.126826 37.544093 147.813621 -86.624185 13.576041 0.000000 0.148575
607.000000 49.566000 -2.000000 11.000000 -1.000000 83.205578 35.998168 193.079004 1099.502318 20.182198 0.000000 0.111842
608.000000 55.168000 -1.000000 11.000000 -1.000000 93.573385 36.416719 181.002546 857.476886 18.129272 0.000000 0.081130
609.000000 60.043000 0.000000 11.000000 -1.000000 104.142712 36.935939 165.839209 601.707015 16.654188 0.000000 0.046549
610.000000 63.916000 1.000000 11.000000 -1.000000 114.734739 37.596987 146.232000 315.205106 15.642329 0.000000 0.065142
611.000000 66.608000 2.000000 11.000000 -1.000000 125.166679 38.466887 119.891985 -27.500959 15.007514 0.000000 0.145898
613.000000 46.395000 -2.000000 12.000000 -1.000000 84.982857 36.629258 174.820266 1058.740233 21.561080 0.000000 0.108270
614.000000 51.041000 -1.000000 12.000000 -1.000000 94.523163 37.079716 161.603847 834.276138 19.594836 0.000000 0.078652
615.000000 55.104000 0.000000 12.000000 -1.000000 104.218301 37.629544 145.257344 596.658107 18.147098 0.000000 0.050300
616.000000 58.389000 1.000000 12.000000 -1.000000 113.929095 38.315556 124.519433 332.285907 17.123057 0.000000 0.071019
617.000000 60.770000 2.000000 12.000000 -1.000000 123.513495 39.195200 97.345940 21.321795 16.449689 0.000000 0.143805
619.000000 47.474000 -1.000000 13.000000 -1.000000 95.322921 37.651603 144.596507 814.343378 21.066703 0.000000 0.077167
620.000000 50.910000 0.000000 13.000000 -1.000000 104.275957 38.217990 127.492577 592.424154 19.641733 0.000000 0.054558
621.000000 53.733000 1.000000 13.000000 -1.000000 113.239722 38.912662 106.147208 347.013066 18.607177 0.000000 0.076231
622.000000 55.846000 2.000000 13.000000 -1.000000 122.101651 39.784474 78.759404 62.354363 17.900364 0.000000 0.142214
624.000000 47.307000 0.000000 14.000000 -1.000000 104.320748 38.723406 112.003580 588.823738 21.137723 0.000000 0.058911
625.000000 49.757000 1.000000 14.000000 -1.000000 112.643426 39.416600 90.399550 359.839320 20.094002 0.000000 0.080872
626.000000 51.642000 2.000000 14.000000 -1.000000 120.882634 40.270960 63.173526 97.344451 19.357902 0.000000 0.141032
629.000000 46.325000 1.000000 15.000000 -1.000000 112.122726 39.847536 76.751551 371.108877 21.583017 0.000000 0.085019
630.000000 48.014000 2.000000 15.000000 -1.000000 119.819925 40.679339 49.915931 127.548593 20.821061 0.000000 0.140175
637.000000 146.825000 -1.000000 3.000000 0.000000 67.234112 41.272638 30.362666 1541.972729 6.814879 0.000000 0.209046
638.000000 125.537000 -1.000000 4.000000 0.000000 76.130105 42.038772 4.580681 1298.827846 7.969329 0.000000 0.175148
639.000000 166.200000 0.000000 4.000000 0.000000 104.507071 45.344702 -114.323195 544.764189 6.016523 0.000000 0.154980
641.000000 78.300000 -2.000000 5.000000 0.000000 60.433790 40.739284 47.956229 1746.848462 12.780266 0.000000 0.242787
642.000000 107.686000 -1.000000 5.000000 0.000000 81.646987 42.562460 -13.402640 1155.559206 9.289506 0.000000 0.157861
644.000000 93.658000 -1.000000 6.000000 0.000000 85.385930 42.943007 -26.660905 1059.659613 10.680163 0.000000 0.147829
646.000000 52.988000 -3.000000 7.000000 0.000000 57.614242 40.529109 54.811740 1839.149613 18.886136 0.000000 0.259820
647.000000 67.970000 -2.000000 7.000000 0.000000 72.267915 41.695429 16.210792 1401.904728 14.719928 0.000000 0.188821
648.000000 82.614000 -1.000000 7.000000 0.000000 88.081538 43.232020 -36.840112 990.481522 12.107307 0.000000 0.141789
650.000000 51.218000 -3.000000 8.000000 0.000000 62.948424 40.931914 41.634817 1668.502994 19.537314 0.000000 0.229240
651.000000 73.784000 -1.000000 8.000000 0.000000 90.114839 43.458969 -44.901276 938.028064 13.555777 0.000000 0.138141
653.000000 58.047000 -2.000000 9.000000 0.000000 79.180375 42.323118 -5.146566 1219.208667 17.234110 0.000000 0.165266
654.000000 66.599000 -1.000000 9.000000 0.000000 91.702226 43.641902 -51.443171 896.800786 15.017790 0.000000 0.135982
656.000000 46.520000 -3.000000 10.000000 0.000000 70.743306 41.564589 20.610115 1443.533708 21.507786 0.000000 0.194622
657.000000 60.656000 -1.000000 10.000000 0.000000 92.975404 43.792489 -56.858309 863.500754 16.488940 0.000000 0.134770
658.000000 70.921000 1.000000 10.000000 0.000000 115.986203 47.361248 -193.873534 166.504297 14.096655 0.000000 0.245097
659.000000 50.122000 -2.000000 11.000000 0.000000 83.680981 42.766692 -20.497832 1103.350658 19.957649 0.000000 0.152201
660.000000 55.666000 -1.000000 11.000000 0.000000 94.019003 43.918611 -61.414711 836.018962 17.966543 0.000000 0.134170
661.000000 64.166000 1.000000 11.000000 0.000000 114.951850 47.153461 -185.400007 204.593775 15.581102 0.000000 0.234079
663.000000 51.423000 -1.000000 12.000000 0.000000 94.889837 44.025781 -65.301641 812.939935 19.448875 0.000000 0.133967
664.000000 58.574000 1.000000 12.000000 0.000000 114.088011 46.984485 -178.557871 235.661378 17.068629 0.000000 0.225315
665.000000 47.772000 -1.000000 13.000000 0.000000 95.627441 44.117972 -68.656547 793.276287 20.934775 0.000000 0.134024
666.000000 53.872000 1.000000 13.000000 0.000000 113.355831 46.844376 -172.917363 261.495056 18.558566 0.000000 0.218197
668.000000 49.865000 1.000000 14.000000 0.000000 112.727399 46.726321 -168.187489 283.320832 20.050424 0.000000 0.212314
669.000000 46.408000 1.000000 15.000000 0.000000 112.182161 46.625494 -164.164193 302.008152 21.543837 0.000000 0.207381
686.000000 62.294000 -2.000000 8.000000 1.000000 75.669565 50.766541 -343.094843 1375.720712 16.059639 0.000000 0.322830
689.000000 48.809000 -3.000000 9.000000 1.000000 67.031485 48.455389 -239.622444 1628.816538 20.499308 0.000000 0.321642
690.000000 57.685000 -2.000000 9.000000 1.000000 78.774115 50.302903 -321.536399 1275.441411 17.341810 0.000000 0.297357
693.000000 46.411000 -3.000000 10.000000 1.000000 70.555328 48.232554 -230.147013 1511.427141 21.557699 0.000000 0.295523
694.000000 53.560000 -2.000000 10.000000 1.000000 81.284988 49.912159 -303.691184 1197.202937 18.676688 0.000000 0.278076
695.000000 60.148000 -1.000000 10.000000 1.000000 92.357096 51.966704 -400.944969 869.093851 16.627888 0.000000 0.301927
697.000000 49.896000 -2.000000 11.000000 1.000000 83.355494 49.578398 -288.675916 1134.364372 20.047492 0.000000 0.263034
698.000000 55.272000 -1.000000 11.000000 1.000000 93.479895 51.433902 -374.887965 836.014256 18.094383 0.000000 0.286395
700.000000 46.646000 -2.000000 12.000000 1.000000 85.090916 49.290023 -275.866878 1082.733455 21.443881 0.000000 0.251010
701.000000 51.110000 -1.000000 12.000000 1.000000 94.414106 50.980197 -353.173868 809.036292 19.567597 0.000000 0.273793
704.000000 47.519000 -1.000000 13.000000 1.000000 95.203310 50.589239 -334.800454 786.618363 21.045879 0.000000 0.263372
#UB matrix in q= (UB) B0 G* 
#[[-0.601266478 -0.790203582  0.111916684]
# [-0.424548147  0.435507466  0.793968982]
# [-0.676932414  0.430303578 -0.597983737]]
#B0 matrix in q= UB (B0) G*
#[[ 0.19670273 -0.          0.03056101]
# [ 0.          0.19187965 -0.        ]
# [ 0.          0.          0.18806537]]
#UBB0 matrix in q= (UB B0) G* i.e. recip. basis vectors are columns in LT frame: astar = UBB0[:,0], bstar = UBB0[:,1], cstar = UBB0[:,2]. (abcstar as columns on xyzlab1, xlab1 = ui, ui = unit vector along incident beam)
#[[-0.11827076 -0.15162399  0.00267234]
# [-0.08350978  0.08356502  0.13634345]
# [-0.13315446  0.0825665  -0.13314777]]
#Euler angles phi theta psi (deg)
#[237.591 126.695   8.041]
#deviatoric strain in direct crystal frame (10-3 unit)
#[[ 1.83  0.52 -0.31]
# [ 0.52  2.15  0.13]
# [-0.31  0.13 -3.98]]
#deviatoric strain in sample2 frame (10-3 unit)
#[[ 1.52  1.33 -1.54]
# [ 1.33 -1.67  2.36]
# [-1.54  2.37  0.14]]
#new lattice parameters
#[ 5.1505     5.2132389  5.3156538 90.0016252 99.2514496 89.9399196]
#CCDLabel
#sCMOS
#DetectorParameters
#[79.0, 975.0, 941.0, 0.0, 0.0]
#pixelsize
#0.0734
#Frame dimensions
#[2018, 2016]
#
