#Strain and Orientation Refinement from experimental file: /home/micha/LaueProjects/DepthEffects/testZrO2_178.cor
#File created at Wed Jun 28 14:28:52 2023 with indexingSpotsSet.py
#Number of indexed spots: 506
#Element
#ZrO2
#grainIndex
#G_0
#Mean Deviation(pixel): 0.117
##spot_index intensity h k l 2theta Chi Xexp Yexp Energy GrainIndex PixDev
4.000000 45.697000 10.000000 -5.000000 -7.000000 85.354566 -48.996426 2212.978943 1074.294951 21.897306 0.000000 0.254254
7.000000 46.263000 9.000000 -4.000000 -7.000000 77.311156 -46.993075 2128.904667 1296.282083 21.632422 0.000000 0.247194
13.000000 48.331000 11.000000 -6.000000 -6.000000 99.819422 -49.980438 2256.788552 651.311333 20.698419 0.000000 0.259803
14.000000 46.472000 4.000000 -2.000000 -2.000000 102.587679 -46.461052 2107.634561 592.102340 7.175268 0.000000 0.180630
17.000000 52.431000 9.000000 -5.000000 -6.000000 89.742124 -51.677169 2336.708971 948.812081 19.083033 0.000000 0.310312
18.000000 50.779000 10.000000 -5.000000 -6.000000 93.733056 -47.867779 2164.812684 836.319300 19.703024 0.000000 0.210537
19.000000 48.863000 11.000000 -5.000000 -6.000000 97.013194 -44.291213 2024.989391 756.026625 20.474670 0.000000 0.140376
20.000000 46.832000 12.000000 -5.000000 -6.000000 99.706618 -40.952066 1909.028630 697.239239 21.361710 0.000000 0.091513
23.000000 53.979000 4.000000 -2.000000 -3.000000 81.361899 -49.480783 2234.323180 1192.663252 9.269263 0.000000 0.279789
24.000000 52.671000 9.000000 -4.000000 -6.000000 86.213136 -45.594161 2073.851488 1042.809145 18.997834 0.000000 0.186853
25.000000 50.878000 5.000000 -2.000000 -3.000000 90.191999 -41.972694 1943.171327 936.148799 9.833073 0.000000 0.126477
26.000000 48.840000 11.000000 -4.000000 -6.000000 93.456059 -38.616148 1834.691191 857.809434 20.486021 0.000000 0.091215
27.000000 46.710000 6.000000 -2.000000 -3.000000 96.139089 -35.517062 1743.196940 798.772024 10.709651 0.000000 0.077015
30.000000 53.696000 7.000000 -3.000000 -6.000000 70.803457 -47.098949 2133.187967 1491.482762 18.639638 0.000000 0.284203
31.000000 53.297000 8.000000 -3.000000 -6.000000 76.832091 -43.148490 1983.888266 1286.137389 18.777716 0.000000 0.191286
32.000000 52.004000 3.000000 -1.000000 -2.000000 81.771281 -39.498082 1862.168012 1142.707941 6.414491 0.000000 0.136746
33.000000 50.207000 10.000000 -3.000000 -6.000000 85.820386 -36.141132 1761.031418 1038.395191 19.931038 0.000000 0.110156
34.000000 48.163000 11.000000 -3.000000 -6.000000 89.150020 -33.064005 1675.664299 960.053429 20.775717 0.000000 0.102756
35.000000 46.034000 4.000000 -1.000000 -2.000000 91.900645 -30.248765 1602.645174 899.654125 7.245248 0.000000 0.105580
38.000000 51.433000 7.000000 -2.000000 -6.000000 65.062274 -40.520449 1894.906684 1599.350223 19.462302 0.000000 0.219978
39.000000 51.355000 4.000000 -1.000000 -3.000000 71.314020 -36.861264 1781.967338 1395.963589 9.745145 0.000000 0.157388
40.000000 50.290000 9.000000 -2.000000 -6.000000 76.439829 -33.524293 1688.040088 1252.390405 19.901716 0.000000 0.128528
41.000000 48.668000 5.000000 -1.000000 -3.000000 80.655676 -30.488583 1608.696921 1146.522546 10.281835 0.000000 0.120698
42.000000 46.767000 11.000000 -2.000000 -6.000000 84.141454 -27.729985 1540.785837 1065.766640 21.398303 0.000000 0.123153
43.000000 47.541000 7.000000 -1.000000 -6.000000 58.328770 -34.058054 1702.557434 1742.460636 21.058473 0.000000 0.192776
44.000000 48.070000 8.000000 -1.000000 -6.000000 64.902401 -30.764952 1615.708142 1527.679790 20.824920 0.000000 0.141439
45.000000 47.477000 9.000000 -1.000000 -6.000000 70.314589 -27.792591 1542.287737 1376.272455 21.083699 0.000000 0.123578
46.000000 46.230000 10.000000 -1.000000 -6.000000 74.791760 -25.110129 1479.405116 1264.126358 21.650743 0.000000 0.123598
50.000000 46.578000 13.000000 -7.000000 -5.000000 114.334883 -47.300613 2141.393993 223.233596 21.472506 0.000000 0.241324
53.000000 52.194000 11.000000 -6.000000 -5.000000 108.011450 -48.880185 2207.918310 408.871101 19.164158 0.000000 0.250651
54.000000 49.733000 12.000000 -6.000000 -5.000000 110.266599 -44.995444 2051.123120 379.007636 20.111877 0.000000 0.170745
55.000000 47.325000 13.000000 -6.000000 -5.000000 112.044807 -41.381803 1923.273687 360.141293 21.134581 0.000000 0.111803
58.000000 58.427000 9.000000 -5.000000 -5.000000 99.198267 -50.709110 2290.401321 665.775244 17.121942 0.000000 0.278817
59.000000 53.017000 11.000000 -5.000000 -5.000000 105.267465 -42.517200 1961.836561 542.418857 18.867795 0.000000 0.111913
60.000000 50.304000 12.000000 -5.000000 -5.000000 107.381839 -38.879387 1842.820876 508.207493 19.884614 0.000000 0.063357
61.000000 47.700000 13.000000 -5.000000 -5.000000 109.048198 -35.539335 1743.828637 484.316627 20.969915 0.000000 0.032233
64.000000 61.886000 8.000000 -4.000000 -5.000000 91.591123 -48.172575 2177.610658 896.169871 16.167393 0.000000 0.220395
65.000000 59.170000 9.000000 -4.000000 -5.000000 95.758757 -43.839655 2008.560009 790.513151 16.908476 0.000000 0.135283
66.000000 56.218000 10.000000 -4.000000 -5.000000 99.048043 -39.856003 1873.518306 717.731806 17.795344 0.000000 0.082037
67.000000 53.242000 11.000000 -4.000000 -5.000000 101.647130 -36.214990 1763.160824 666.021463 18.789465 0.000000 0.056469
68.000000 50.359000 12.000000 -4.000000 -5.000000 103.706360 -32.900011 1671.286299 628.359869 19.864787 0.000000 0.055849
69.000000 47.628000 13.000000 -4.000000 -5.000000 105.343649 -29.888537 1593.610166 600.373145 21.003062 0.000000 0.066972
72.000000 65.175000 6.000000 -3.000000 -5.000000 75.012171 -50.193585 2266.514456 1391.092299 15.355491 0.000000 0.326703
73.000000 64.075000 7.000000 -3.000000 -5.000000 81.737967 -45.397712 2066.340926 1163.572151 15.617720 0.000000 0.200679
74.000000 61.770000 8.000000 -3.000000 -5.000000 87.038319 -41.001958 1910.672914 1014.784780 16.199470 0.000000 0.128434
75.000000 58.889000 9.000000 -3.000000 -5.000000 91.216340 -37.003625 1786.152686 912.384539 16.990811 0.000000 0.094296
76.000000 55.811000 10.000000 -3.000000 -5.000000 94.522150 -33.385028 1684.281872 839.053041 17.927055 0.000000 0.087285
77.000000 52.747000 11.000000 -3.000000 -5.000000 97.153176 -30.119520 1599.395971 784.841490 18.967649 0.000000 0.093611
78.000000 49.809000 12.000000 -3.000000 -5.000000 99.261784 -27.176155 1527.574014 743.707276 20.085882 0.000000 0.103471
79.000000 47.050000 13.000000 -3.000000 -5.000000 100.964355 -24.522922 1466.015675 711.810413 21.263444 0.000000 0.113028
82.000000 63.102000 6.000000 -2.000000 -5.000000 68.815662 -42.364269 1956.561565 1505.545032 15.862108 0.000000 0.221521
83.000000 62.285000 7.000000 -2.000000 -5.000000 75.772317 -37.935775 1813.952056 1287.009344 16.068782 0.000000 0.148475
84.000000 60.146000 8.000000 -2.000000 -5.000000 81.253129 -33.954413 1699.724371 1140.639439 16.639074 0.000000 0.119468
85.000000 57.386000 9.000000 -2.000000 -5.000000 85.592532 -30.388692 1606.172587 1037.169884 17.438131 0.000000 0.115469
86.000000 54.412000 10.000000 -2.000000 -5.000000 89.055334 -27.200370 1528.148901 960.953658 18.390446 0.000000 0.121354
87.000000 51.444000 11.000000 -2.000000 -5.000000 91.844365 -24.349416 1462.083459 902.957947 19.450448 0.000000 0.129421
88.000000 48.598000 12.000000 -2.000000 -5.000000 94.112828 -21.797053 1405.422783 857.648863 20.589005 0.000000 0.136964
89.000000 45.925000 13.000000 -2.000000 -5.000000 95.976031 -19.507393 1356.292087 821.470958 21.786622 0.000000 0.143287
91.000000 55.549000 5.000000 -1.000000 -5.000000 51.831571 -39.053874 1848.242831 2030.428832 18.023711 0.000000 0.298505
92.000000 58.370000 6.000000 -1.000000 -5.000000 61.151250 -34.632126 1718.376715 1661.561508 17.150946 0.000000 0.182515
93.000000 58.381000 7.000000 -1.000000 -5.000000 68.512654 -30.706359 1614.218358 1433.778792 17.145927 0.000000 0.133702
94.000000 56.853000 8.000000 -1.000000 -5.000000 74.345833 -27.228697 1528.821758 1280.190494 17.605585 0.000000 0.123392
95.000000 54.563000 9.000000 -1.000000 -5.000000 79.004953 -24.148190 1457.536494 1170.168278 18.343017 0.000000 0.128759
96.000000 51.963000 10.000000 -1.000000 -5.000000 82.764489 -21.415534 1397.131767 1087.779475 19.259705 0.000000 0.137664
97.000000 49.301000 11.000000 -1.000000 -5.000000 85.831727 -18.985496 1345.293104 1023.951409 20.298793 0.000000 0.146014
98.000000 46.707000 12.000000 -1.000000 -5.000000 88.361900 -16.817884 1300.319006 973.155194 21.425172 0.000000 0.152855
99.000000 45.746000 8.000000 1.000000 -5.000000 58.180071 -15.269179 1268.818584 1633.287410 21.886551 0.000000 0.077231
105.000000 46.432000 14.000000 -7.000000 -4.000000 122.692561 -41.880841 1940.054180 13.210862 21.537458 0.000000 0.184958
108.000000 52.677000 6.000000 -3.000000 -2.000000 118.140892 -43.156561 1984.173107 151.849792 9.492701 0.000000 0.176205
109.000000 49.795000 13.000000 -6.000000 -4.000000 119.350004 -39.186748 1852.389741 160.157256 20.084228 0.000000 0.116567
110.000000 47.101000 7.000000 -3.000000 -2.000000 120.213353 -35.565176 1744.561998 170.515431 10.616251 0.000000 0.072290
112.000000 64.141000 9.000000 -5.000000 -4.000000 109.191475 -49.455099 2233.180782 364.691468 15.594147 0.000000 0.270378
113.000000 60.421000 10.000000 -5.000000 -4.000000 111.828549 -44.661579 2038.654388 334.888964 16.553717 0.000000 0.170648
114.000000 56.829000 11.000000 -5.000000 -4.000000 113.784624 -40.279058 1887.087827 319.221998 17.599629 0.000000 0.101717
115.000000 53.448000 12.000000 -5.000000 -4.000000 115.221383 -36.301674 1765.665174 311.952422 18.712573 0.000000 0.052272
116.000000 50.313000 13.000000 -5.000000 -4.000000 116.264421 -32.708990 1666.207150 309.801992 19.878600 0.000000 0.015753
117.000000 47.428000 14.000000 -5.000000 -4.000000 117.009881 -29.472175 1583.248194 310.817992 21.087380 0.000000 0.012028
118.000000 73.821000 7.000000 -4.000000 -4.000000 98.220437 -51.817196 2343.571063 689.471068 13.551761 0.000000 0.309755
119.000000 65.415000 9.000000 -4.000000 -4.000000 105.844044 -41.579233 1929.881392 532.659650 15.291729 0.000000 0.098118
120.000000 61.232000 5.000000 -2.000000 -2.000000 108.264645 -37.172960 1791.151516 495.208201 8.167863 0.000000 0.045408
121.000000 57.300000 11.000000 -4.000000 -4.000000 110.061237 -33.220801 1679.865443 471.171491 17.456355 0.000000 0.025422
122.000000 53.673000 6.000000 -2.000000 -2.000000 111.393051 -29.688160 1588.612674 455.644761 9.317818 0.000000 0.040647
123.000000 50.362000 13.000000 -4.000000 -4.000000 112.378380 -26.534520 1512.430421 445.684705 19.860803 0.000000 0.059287
124.000000 47.353000 7.000000 -2.000000 -2.000000 113.104658 -23.718294 1447.870080 439.454752 10.561274 0.000000 0.074611
127.000000 78.980000 6.000000 -3.000000 -4.000000 88.090495 -48.645905 2197.789778 995.309850 12.668878 0.000000 0.238482
128.000000 74.914000 7.000000 -3.000000 -4.000000 93.778481 -43.151026 1983.977749 843.568661 13.355446 0.000000 0.129811
129.000000 70.254000 8.000000 -3.000000 -4.000000 98.008523 -38.219220 1822.544866 748.259351 14.240435 0.000000 0.074322
130.000000 65.563000 9.000000 -3.000000 -4.000000 101.164516 -33.830415 1696.343899 685.285318 15.258819 0.000000 0.062269
131.000000 61.106000 10.000000 -3.000000 -4.000000 103.533637 -29.943155 1594.975833 642.030027 16.371186 0.000000 0.073740
132.000000 56.993000 11.000000 -3.000000 -4.000000 105.325406 -26.506268 1511.767556 611.400494 17.552261 0.000000 0.088711
133.000000 53.251000 12.000000 -3.000000 -4.000000 106.691198 -23.466605 1442.240336 589.178097 18.785083 0.000000 0.101611
134.000000 49.872000 13.000000 -3.000000 -4.000000 107.740251 -20.773501 1383.276341 572.736495 20.057852 0.000000 0.111880
135.000000 46.826000 14.000000 -3.000000 -4.000000 108.551704 -18.380959 1332.638233 560.377626 21.362100 0.000000 0.119902
137.000000 80.459000 5.000000 -2.000000 -4.000000 73.967335 -45.086162 2054.536251 1379.056548 12.439108 0.000000 0.232047
138.000000 73.806000 7.000000 -2.000000 -4.000000 87.565673 -34.568639 1716.616539 996.566503 13.557833 0.000000 0.104644
139.000000 64.322000 9.000000 -2.000000 -4.000000 95.182147 -26.472767 1510.981941 831.953789 15.555237 0.000000 0.115937
140.000000 59.873000 5.000000 -1.000000 -2.000000 97.699818 -23.171242 1435.660993 782.714347 8.355226 0.000000 0.126452
141.000000 55.798000 11.000000 -2.000000 -4.000000 99.658242 -20.278283 1372.669631 745.730127 17.930346 0.000000 0.135059
142.000000 52.112000 6.000000 -1.000000 -2.000000 101.202184 -17.734786 1319.209474 717.210131 9.599042 0.000000 0.141681
143.000000 48.796000 13.000000 -2.000000 -4.000000 102.434885 -15.489451 1273.269426 694.729657 20.502203 0.000000 0.146662
144.000000 45.818000 7.000000 -1.000000 -2.000000 103.430775 -13.498571 1233.367003 676.677843 10.917317 0.000000 0.150367
146.000000 71.681000 4.000000 -1.000000 -4.000000 54.010395 -41.094980 1913.745301 1978.225968 13.966849 0.000000 0.307365
147.000000 74.927000 5.000000 -1.000000 -4.000000 65.168006 -35.480626 1742.164273 1552.617409 13.360017 0.000000 0.171038
148.000000 73.529000 6.000000 -1.000000 -4.000000 73.467673 -30.621696 1612.068880 1312.243789 13.612535 0.000000 0.127152
149.000000 70.052000 7.000000 -1.000000 -4.000000 79.684022 -26.432402 1510.035998 1159.776780 14.286923 0.000000 0.125880
150.000000 65.841000 8.000000 -1.000000 -4.000000 84.405645 -22.819777 1427.869663 1055.376865 15.199573 0.000000 0.135676
151.000000 61.544000 9.000000 -1.000000 -4.000000 88.051875 -19.695906 1360.282388 979.884349 16.259925 0.000000 0.145558
152.000000 57.449000 10.000000 -1.000000 -4.000000 90.915587 -16.983152 1303.710143 923.015027 17.418152 0.000000 0.153334
153.000000 53.668000 11.000000 -1.000000 -4.000000 93.201354 -14.615423 1255.663060 878.787162 18.644575 0.000000 0.159022
154.000000 50.229000 12.000000 -1.000000 -4.000000 95.053396 -12.537564 1214.349114 843.500682 19.920411 0.000000 0.163044
155.000000 47.122000 13.000000 -1.000000 -4.000000 96.574751 -10.703995 1178.445645 814.752405 21.233197 0.000000 0.165817
157.000000 64.553000 5.000000 0.000000 -4.000000 54.461285 -26.382826 1508.875070 1799.196526 15.510145 0.000000 0.154425
158.000000 65.449000 3.000000 0.000000 -2.000000 63.557935 -22.394584 1418.497477 1519.923609 7.648135 0.000000 0.107324
159.000000 63.629000 7.000000 0.000000 -4.000000 70.477535 -19.001302 1345.625191 1344.602622 15.732080 0.000000 0.114614
160.000000 60.640000 4.000000 0.000000 -2.000000 75.825909 -16.098278 1285.621347 1223.920556 8.253170 0.000000 0.131442
161.000000 57.260000 9.000000 0.000000 -4.000000 80.033281 -13.598535 1235.353854 1135.590111 17.479240 0.000000 0.145446
162.000000 53.869000 5.000000 0.000000 -2.000000 83.400648 -11.431292 1192.630783 1068.039221 9.289328 0.000000 0.155589
163.000000 50.636000 11.000000 0.000000 -4.000000 86.139370 -9.539473 1155.872233 1014.649883 19.763608 0.000000 0.162666
164.000000 47.632000 6.000000 0.000000 -2.000000 88.399621 -7.877148 1123.910653 971.357197 10.504547 0.000000 0.167515
165.000000 50.644000 5.000000 1.000000 -4.000000 42.691944 -18.158848 1328.011151 2168.849709 19.773184 0.000000 0.218158
166.000000 54.570000 6.000000 1.000000 -4.000000 52.702431 -15.041853 1264.235005 1789.931732 18.349138 0.000000 0.095757
167.000000 55.054000 7.000000 1.000000 -4.000000 60.463769 -12.401474 1211.667671 1565.406204 18.185799 0.000000 0.068793
168.000000 53.790000 8.000000 1.000000 -4.000000 66.568631 -10.145176 1167.592882 1414.862937 18.611589 0.000000 0.092666
169.000000 51.706000 9.000000 1.000000 -4.000000 71.448590 -8.200524 1130.106429 1305.928618 19.360001 0.000000 0.116951
170.000000 49.298000 10.000000 1.000000 -4.000000 75.411873 -6.510802 1097.833797 1222.933836 20.304213 0.000000 0.134806
171.000000 46.823000 11.000000 1.000000 -4.000000 78.678787 -5.031401 1069.757964 1157.312750 21.376173 0.000000 0.147411
172.000000 45.893000 4.000000 1.000000 -2.000000 57.067579 -4.942956 1068.083881 1640.752631 10.908695 0.000000 0.030847
177.000000 45.527000 15.000000 -7.000000 -3.000000 129.793216 -35.595519 1745.423712 -161.530660 21.963522 0.000000 0.146808
180.000000 55.185000 4.000000 -2.000000 -1.000000 126.115445 -40.786748 1903.597960 -96.173295 6.040170 0.000000 0.193160
181.000000 51.882000 13.000000 -6.000000 -3.000000 126.687531 -36.404844 1768.653055 -55.318679 19.274287 0.000000 0.131611
182.000000 48.852000 14.000000 -6.000000 -3.000000 126.965424 -32.483664 1660.243752 -19.267011 20.469540 0.000000 0.087101
183.000000 46.084000 5.000000 -2.000000 -1.000000 127.031190 -28.985505 1571.243756 12.766770 7.233050 0.000000 0.054844
186.000000 64.487000 10.000000 -5.000000 -3.000000 121.324784 -42.283837 1953.797584 55.603266 15.507832 0.000000 0.182009
187.000000 60.114000 11.000000 -5.000000 -3.000000 122.437317 -37.377733 1797.226529 80.218126 16.635819 0.000000 0.111850
188.000000 56.129000 12.000000 -5.000000 -3.000000 123.103767 -33.024242 1674.601285 104.054959 17.816883 0.000000 0.063292
189.000000 52.522000 13.000000 -5.000000 -3.000000 123.454027 -29.177337 1575.961970 126.511194 19.040304 0.000000 0.030522
190.000000 49.268000 14.000000 -5.000000 -3.000000 123.582218 -25.782607 1494.897958 147.389981 20.298063 0.000000 0.018939
191.000000 46.333000 15.000000 -5.000000 -3.000000 123.555899 -22.784786 1427.096206 166.682215 21.584047 0.000000 0.030498
194.000000 76.879000 8.000000 -4.000000 -3.000000 114.184740 -44.130841 2019.125722 267.561853 13.009601 0.000000 0.171661
195.000000 70.995000 9.000000 -4.000000 -3.000000 116.295694 -38.568565 1833.228048 260.781896 14.087320 0.000000 0.088709
196.000000 65.627000 10.000000 -4.000000 -3.000000 117.671848 -33.679411 1692.240396 262.768473 15.239524 0.000000 0.033873
197.000000 60.805000 11.000000 -4.000000 -3.000000 118.537968 -29.407341 1581.642363 269.125670 16.447927 0.000000 0.006367
198.000000 56.504000 12.000000 -4.000000 -3.000000 119.051730 -25.681791 1492.564236 277.594776 17.699773 0.000000 0.032290
199.000000 52.677000 13.000000 -4.000000 -3.000000 119.322696 -22.430275 1419.281963 286.970159 18.985898 0.000000 0.052440
200.000000 49.268000 14.000000 -4.000000 -3.000000 119.426765 -19.585119 1357.936204 296.594385 20.299544 0.000000 0.067735
201.000000 46.226000 15.000000 -4.000000 -3.000000 119.416552 -17.086325 1305.830188 306.107491 21.635621 0.000000 0.079551
202.000000 85.332000 7.000000 -3.000000 -3.000000 106.732105 -40.058328 1879.986880 518.259471 11.722358 0.000000 0.077635
203.000000 78.105000 8.000000 -3.000000 -3.000000 109.520929 -34.489685 1714.431312 478.047728 12.806652 0.000000 0.026990
204.000000 65.768000 10.000000 -3.000000 -3.000000 112.645663 -25.560308 1489.757351 443.262447 15.208278 0.000000 0.064782
205.000000 60.673000 11.000000 -3.000000 -3.000000 113.477566 -22.008493 1410.036712 436.770918 16.485392 0.000000 0.083031
206.000000 56.200000 4.000000 -1.000000 -1.000000 114.021645 -18.942276 1344.385356 433.851569 5.932403 0.000000 0.096440
207.000000 52.268000 13.000000 -3.000000 -3.000000 114.367214 -16.282851 1289.380818 433.143171 19.136070 0.000000 0.106396
208.000000 48.799000 14.000000 -3.000000 -3.000000 114.574834 -13.963765 1242.627426 433.817733 20.496412 0.000000 0.113893
209.000000 45.726000 5.000000 -1.000000 -1.000000 114.685999 -11.929933 1202.398106 435.357231 7.291367 0.000000 0.119614
210.000000 85.041000 7.000000 -2.000000 -3.000000 100.183010 -30.038704 1597.368560 717.678718 11.764147 0.000000 0.084937
211.000000 77.373000 8.000000 -2.000000 -3.000000 102.977397 -25.411079 1486.317168 666.397960 12.929488 0.000000 0.102762
212.000000 70.605000 9.000000 -2.000000 -3.000000 104.943421 -21.498348 1398.927747 632.267564 14.168554 0.000000 0.117190
213.000000 64.709000 10.000000 -2.000000 -3.000000 106.351307 -18.175894 1328.365848 608.639374 15.459133 0.000000 0.127604
214.000000 59.589000 11.000000 -2.000000 -3.000000 107.376087 -15.337492 1270.197921 591.764907 16.787124 0.000000 0.134973
215.000000 55.135000 12.000000 -2.000000 -3.000000 108.132917 -12.895845 1221.422153 579.407987 18.143139 0.000000 0.140181
216.000000 51.244000 13.000000 -2.000000 -3.000000 108.698933 -10.780459 1179.933699 570.172125 19.520692 0.000000 0.143867
217.000000 47.827000 14.000000 -2.000000 -3.000000 109.126769 -8.934797 1144.212943 563.151527 20.915153 0.000000 0.146471
219.000000 89.520000 6.000000 -1.000000 -3.000000 87.042281 -25.223376 1482.002103 1002.470834 11.178499 0.000000 0.129230
220.000000 81.587000 7.000000 -1.000000 -3.000000 91.525465 -20.868937 1385.328352 910.325227 12.264464 0.000000 0.141987
221.000000 74.324000 8.000000 -1.000000 -3.000000 94.763689 -17.246952 1309.135471 847.085107 13.462226 0.000000 0.151530
222.000000 67.918000 9.000000 -1.000000 -3.000000 97.167148 -14.209708 1247.538376 801.387735 14.731509 0.000000 0.157875
223.000000 62.339000 10.000000 -1.000000 -3.000000 98.995573 -11.639744 1196.709633 767.039576 16.049310 0.000000 0.161901
224.000000 57.494000 11.000000 -1.000000 -3.000000 100.417381 -9.445233 1154.052454 740.406052 17.401534 0.000000 0.164347
225.000000 53.275000 12.000000 -1.000000 -3.000000 101.544605 -7.554730 1117.742883 719.227696 18.779065 0.000000 0.165727
226.000000 49.586000 13.000000 -1.000000 -3.000000 102.453657 -5.912536 1086.462202 702.033249 20.175744 0.000000 0.166388
227.000000 46.343000 14.000000 -1.000000 -3.000000 103.197891 -4.474981 1059.233319 687.827457 21.587261 0.000000 0.166560
228.000000 63.765000 4.000000 1.000000 -3.000000 42.433418 -14.642817 1256.212702 2157.835033 15.704611 0.000000 0.206347
229.000000 68.958000 5.000000 1.000000 -3.000000 54.577318 -11.151834 1187.171904 1721.256705 14.520344 0.000000 0.065017
230.000000 68.320000 6.000000 1.000000 -3.000000 63.408026 -8.330140 1132.592623 1485.524351 14.654205 0.000000 0.072760
231.000000 65.320000 7.000000 1.000000 -3.000000 70.001727 -6.012573 1088.361881 1334.869046 15.325636 0.000000 0.109345
232.000000 61.527000 8.000000 1.000000 -3.000000 75.058395 -4.081018 1051.791330 1228.946918 16.268781 0.000000 0.133748
233.000000 57.628000 9.000000 1.000000 -3.000000 79.031924 -2.449924 1021.049587 1149.778968 17.368281 0.000000 0.149172
234.000000 53.907000 10.000000 1.000000 -3.000000 82.221883 -1.056367 994.845971 1088.040214 18.565983 0.000000 0.158967
235.000000 50.470000 11.000000 1.000000 -3.000000 84.830827 0.146678 972.244669 1038.366926 19.829392 0.000000 0.165205
236.000000 47.341000 12.000000 1.000000 -3.000000 86.999213 1.194904 952.550622 997.433281 21.138925 0.000000 0.169142
237.000000 49.971000 5.000000 2.000000 -3.000000 40.708661 -3.763985 1045.807898 2194.629171 20.040341 0.000000 0.204685
238.000000 53.857000 6.000000 2.000000 -3.000000 50.792991 -1.861888 1009.987655 1819.487255 18.592864 0.000000 0.061850
239.000000 54.203000 7.000000 2.000000 -3.000000 58.535076 -0.284385 980.342190 1599.656099 18.472434 0.000000 0.024682
240.000000 52.841000 8.000000 2.000000 -3.000000 64.602073 1.043194 955.401563 1452.099083 18.946613 0.000000 0.073201
241.000000 50.718000 9.000000 2.000000 -3.000000 69.452065 2.174742 934.128105 1344.727381 19.738212 0.000000 0.104787
242.000000 48.313000 10.000000 2.000000 -3.000000 73.400361 3.149976 915.768397 1262.335380 20.719162 0.000000 0.125592
243.000000 45.868000 11.000000 2.000000 -3.000000 76.667104 3.998728 899.762179 1196.700224 21.822122 0.000000 0.139628
251.000000 50.216000 7.000000 -3.000000 -1.000000 133.586677 -28.562977 1560.912790 -225.427496 9.955921 0.000000 0.102389
252.000000 47.235000 15.000000 -6.000000 -2.000000 133.086925 -24.889654 1474.362964 -168.795544 21.168618 0.000000 0.069470
255.000000 62.705000 11.000000 -5.000000 -2.000000 131.056845 -33.491503 1687.154115 -183.125953 15.946506 0.000000 0.131729
256.000000 58.229000 12.000000 -5.000000 -2.000000 130.870973 -28.750850 1565.496022 -121.325201 17.172332 0.000000 0.082429
257.000000 54.246000 13.000000 -5.000000 -2.000000 130.471964 -24.686859 1469.741008 -69.706214 18.433452 0.000000 0.049596
258.000000 50.699000 14.000000 -5.000000 -2.000000 129.946599 -21.197464 1392.412235 -25.825659 19.723364 0.000000 0.031590
259.000000 47.533000 15.000000 -5.000000 -2.000000 129.351990 -18.189925 1328.657856 12.006609 21.037072 0.000000 0.029966
260.000000 75.500000 9.000000 -4.000000 -2.000000 126.857568 -34.388831 1711.645929 -36.745733 13.244810 0.000000 0.107602
261.000000 63.569000 11.000000 -4.000000 -2.000000 126.861304 -24.437736 1464.083731 54.622124 15.730740 0.000000 0.027348
262.000000 58.723000 6.000000 -2.000000 -1.000000 126.490802 -20.602672 1379.609707 90.453165 8.514602 0.000000 0.030154
263.000000 54.483000 13.000000 -4.000000 -2.000000 126.009185 -17.352340 1311.307234 121.464702 18.354567 0.000000 0.044400
264.000000 50.758000 7.000000 -2.000000 -1.000000 125.472027 -14.579287 1254.938202 148.563006 9.850837 0.000000 0.057524
265.000000 47.470000 15.000000 -4.000000 -2.000000 124.913556 -12.196104 1207.626446 172.441923 21.066610 0.000000 0.068280
266.000000 84.592000 8.000000 -3.000000 -2.000000 121.205421 -29.286890 1578.664391 193.487738 11.822256 0.000000 0.016428
267.000000 76.423000 9.000000 -3.000000 -2.000000 121.566726 -24.124379 1456.999390 216.437614 13.086038 0.000000 0.031049
268.000000 69.489000 10.000000 -3.000000 -2.000000 121.565140 -19.869142 1363.957591 237.907523 14.391872 0.000000 0.055345
269.000000 63.581000 11.000000 -3.000000 -2.000000 121.358764 -16.337789 1290.501176 257.489779 15.729264 0.000000 0.072766
270.000000 58.516000 12.000000 -3.000000 -2.000000 121.040907 -13.381131 1231.034934 275.175137 17.090947 0.000000 0.085394
271.000000 54.142000 13.000000 -3.000000 -2.000000 120.666790 -10.881931 1181.909616 291.100423 18.471722 0.000000 0.094762
272.000000 50.338000 14.000000 -3.000000 -2.000000 120.269131 -8.749277 1140.643629 305.446369 19.867778 0.000000 0.101860
273.000000 47.006000 15.000000 -3.000000 -2.000000 119.867234 -6.912837 1105.490603 318.396015 21.276253 0.000000 0.107336
274.000000 75.720000 9.000000 -2.000000 -2.000000 114.485314 -15.084458 1265.093288 433.345441 13.209228 0.000000 0.110403
275.000000 62.600000 11.000000 -2.000000 -2.000000 114.732306 -9.317244 1151.582578 438.596315 15.977667 0.000000 0.125858
276.000000 57.520000 6.000000 -1.000000 -1.000000 114.687686 -7.126360 1109.562426 442.388367 8.694419 0.000000 0.130180
277.000000 53.167000 13.000000 -2.000000 -2.000000 114.590018 -5.267867 1074.236019 446.371674 18.812612 0.000000 0.133219
278.000000 49.402000 7.000000 -1.000000 -1.000000 114.462317 -3.674610 1044.121897 450.350358 10.123180 0.000000 0.135376
279.000000 46.118000 15.000000 -2.000000 -2.000000 114.318760 -2.295604 1018.145737 454.219535 21.688138 0.000000 0.136916
280.000000 81.456000 8.000000 -1.000000 -2.000000 104.915214 -10.138688 1167.467119 649.766441 12.281272 0.000000 0.155093
281.000000 73.152000 9.000000 -1.000000 -2.000000 105.943089 -7.426036 1115.283574 630.933554 13.675266 0.000000 0.157528
282.000000 66.293000 10.000000 -1.000000 -2.000000 106.678449 -5.199325 1072.937666 617.205201 15.090067 0.000000 0.158624
283.000000 60.554000 11.000000 -1.000000 -2.000000 107.219236 -3.343951 1037.887140 606.866339 16.519876 0.000000 0.158924
284.000000 55.696000 12.000000 -1.000000 -2.000000 107.626347 -1.777255 1008.396237 598.869964 17.960864 0.000000 0.158749
285.000000 51.536000 13.000000 -1.000000 -2.000000 107.939016 -0.438609 983.239375 592.546669 19.410404 0.000000 0.158289
286.000000 47.939000 14.000000 -1.000000 -2.000000 108.183327 0.717213 961.526546 587.451769 20.866631 0.000000 0.157663
287.000000 84.720000 7.000000 0.000000 -2.000000 91.889090 -5.099961 1071.055969 905.359720 11.811212 0.000000 0.172907
288.000000 75.971000 8.000000 0.000000 -2.000000 94.437689 -2.879733 1029.141036 857.365842 13.170852 0.000000 0.174958
289.000000 68.701000 9.000000 0.000000 -2.000000 96.368212 -1.069244 995.087952 820.857938 14.563923 0.000000 0.175266
290.000000 62.614000 10.000000 0.000000 -2.000000 97.874521 0.432550 966.874441 792.135385 15.979441 0.000000 0.174651
291.000000 57.465000 11.000000 0.000000 -2.000000 99.078837 1.696771 943.117032 768.937859 17.410758 0.000000 0.173554
292.000000 53.066000 12.000000 0.000000 -2.000000 100.061471 2.774675 922.837283 749.805285 18.853618 0.000000 0.172214
293.000000 49.272000 13.000000 0.000000 -2.000000 100.877090 3.704002 905.323671 733.751761 20.305165 0.000000 0.170769
294.000000 45.970000 14.000000 0.000000 -2.000000 101.564054 4.513090 890.046382 720.087147 21.763414 0.000000 0.169300
295.000000 84.744000 3.000000 1.000000 -2.000000 41.653002 -8.633157 1138.411356 2164.869904 11.817138 0.000000 0.198908
296.000000 88.020000 5.000000 1.000000 -2.000000 67.210994 -2.180679 1015.983573 1393.517177 11.373761 0.000000 0.091924
297.000000 81.403000 6.000000 1.000000 -2.000000 74.245788 -0.044573 975.837297 1244.631899 12.296768 0.000000 0.130110
298.000000 74.538000 7.000000 1.000000 -2.000000 79.355885 1.652238 943.954313 1143.364980 13.427955 0.000000 0.150106
299.000000 68.217000 8.000000 1.000000 -2.000000 83.212389 3.030385 918.021436 1069.283680 14.671246 0.000000 0.160898
300.000000 62.619000 9.000000 1.000000 -2.000000 86.214889 4.170703 896.515184 1012.395537 15.981802 0.000000 0.166747
301.000000 57.725000 10.000000 1.000000 -2.000000 88.612938 5.129153 878.391274 967.165667 17.335884 0.000000 0.169799
302.000000 53.456000 11.000000 1.000000 -2.000000 90.569145 5.945602 862.909956 930.250511 18.719749 0.000000 0.171207
303.000000 49.722000 12.000000 1.000000 -2.000000 92.193444 6.649162 849.532538 899.497124 20.124886 0.000000 0.171624
304.000000 46.441000 13.000000 1.000000 -2.000000 93.562555 7.261558 837.857431 873.449660 21.545748 0.000000 0.171433
305.000000 59.332000 2.000000 1.000000 -1.000000 38.791356 3.479691 909.553934 2282.527010 8.439431 0.000000 0.231936
306.000000 65.163000 5.000000 2.000000 -2.000000 51.084386 4.949667 881.789113 1813.196922 15.366868 0.000000 0.058417
307.000000 64.976000 3.000000 1.000000 -1.000000 59.997978 6.114197 859.707585 1566.004729 7.704606 0.000000 0.040112
308.000000 62.381000 7.000000 2.000000 -2.000000 66.675385 7.058799 841.726359 1408.618089 16.048372 0.000000 0.087674
309.000000 58.956000 4.000000 1.000000 -1.000000 71.828209 7.840003 826.800389 1297.613793 8.489662 0.000000 0.116624
310.000000 55.379000 9.000000 2.000000 -2.000000 75.907734 8.496604 814.211956 1214.190356 18.074648 0.000000 0.134523
311.000000 51.936000 5.000000 1.000000 -1.000000 79.208698 9.056073 803.451818 1148.734244 9.635842 0.000000 0.145886
312.000000 48.736000 11.000000 2.000000 -2.000000 81.929627 9.538392 794.148638 1095.751054 20.536029 0.000000 0.153220
313.000000 45.809000 6.000000 1.000000 -1.000000 84.208199 9.958434 786.025265 1051.840368 10.923613 0.000000 0.157980
314.000000 48.580000 6.000000 3.000000 -2.000000 46.596917 10.979398 766.191194 1977.890140 20.612977 0.000000 0.126294
315.000000 49.765000 7.000000 3.000000 -2.000000 54.511907 11.413287 757.721244 1723.856563 20.120393 0.000000 0.051810
316.000000 49.111000 8.000000 3.000000 -2.000000 60.765254 11.778484 750.572186 1556.333803 20.386752 0.000000 0.057346
317.000000 47.566000 9.000000 3.000000 -2.000000 65.802110 12.090081 744.457380 1435.629311 21.047132 0.000000 0.084791
318.000000 45.631000 10.000000 3.000000 -2.000000 69.930797 12.359056 739.167529 1343.540607 21.938248 0.000000 0.106332
324.000000 48.031000 15.000000 -6.000000 -1.000000 138.850480 -19.707992 1360.538531 -367.262252 20.816297 0.000000 0.076266
327.000000 59.668000 12.000000 -5.000000 -1.000000 138.315574 -23.024290 1432.398413 -372.284944 16.756681 0.000000 0.094439
328.000000 55.428000 13.000000 -5.000000 -1.000000 137.131936 -18.871034 1342.890103 -284.392074 18.038854 0.000000 0.060601
329.000000 51.682000 14.000000 -5.000000 -1.000000 135.939242 -15.431803 1272.103667 -212.768550 19.346554 0.000000 0.038529
330.000000 48.361000 15.000000 -5.000000 -1.000000 134.776998 -12.556444 1214.721344 -153.117350 20.675457 0.000000 0.027801
333.000000 71.518000 10.000000 -4.000000 -1.000000 136.014485 -22.455419 1419.834874 -265.586370 13.980655 0.000000 0.074273
334.000000 65.456000 11.000000 -4.000000 -1.000000 134.743894 -17.814310 1320.856835 -179.436761 15.275795 0.000000 0.041883
335.000000 60.237000 12.000000 -4.000000 -1.000000 133.464392 -14.075375 1244.854721 -110.669294 16.599387 0.000000 0.028758
336.000000 55.719000 13.000000 -4.000000 -1.000000 132.230351 -11.023079 1184.660357 -54.326995 17.945773 0.000000 0.032698
337.000000 51.782000 14.000000 -4.000000 -1.000000 131.066579 -8.497566 1135.806512 -7.215711 19.310703 0.000000 0.042290
338.000000 48.328000 15.000000 -4.000000 -1.000000 129.982157 -6.380996 1095.364283 32.826625 20.690921 0.000000 0.051755
339.000000 89.077000 8.000000 -3.000000 -1.000000 132.500033 -21.689380 1403.078434 -120.388282 11.225321 0.000000 0.046451
340.000000 79.753000 9.000000 -3.000000 -1.000000 131.209395 -16.439289 1292.572767 -41.709216 12.537973 0.000000 0.029659
341.000000 72.030000 10.000000 -3.000000 -1.000000 129.899034 -12.361634 1210.883221 19.750748 13.882553 0.000000 0.040815
342.000000 65.566000 11.000000 -3.000000 -1.000000 128.648916 -9.133426 1148.038488 69.247444 15.251370 0.000000 0.054800
343.000000 60.099000 12.000000 -3.000000 -1.000000 127.489624 -6.529626 1098.192018 110.049777 16.639023 0.000000 0.066285
344.000000 55.428000 13.000000 -3.000000 -1.000000 126.428766 -4.393266 1057.689095 144.312155 18.041602 0.000000 0.075345
345.000000 51.399000 14.000000 -3.000000 -1.000000 125.463618 -2.613466 1024.127718 173.519179 19.456211 0.000000 0.082524
346.000000 47.893000 15.000000 -3.000000 -1.000000 124.587162 -1.110554 995.864232 198.730768 20.880657 0.000000 0.088288
347.000000 89.105000 8.000000 -2.000000 -1.000000 124.354603 -10.132716 1167.351340 193.641193 11.223171 0.000000 0.076983
348.000000 79.241000 9.000000 -2.000000 -1.000000 123.279632 -6.752988 1102.444742 229.619049 12.620584 0.000000 0.089875
349.000000 71.250000 10.000000 -2.000000 -1.000000 122.294006 -4.114250 1052.418803 258.995039 14.036125 0.000000 0.098722
350.000000 64.667000 11.000000 -2.000000 -1.000000 121.407492 -2.005179 1012.682435 283.431323 15.465197 0.000000 0.105014
351.000000 59.162000 12.000000 -2.000000 -1.000000 120.615672 -0.285177 980.357067 304.076010 16.904636 0.000000 0.109629
352.000000 54.496000 13.000000 -2.000000 -1.000000 119.909321 1.141923 953.546271 321.747352 18.352191 0.000000 0.113104
353.000000 50.496000 14.000000 -2.000000 -1.000000 119.278234 2.343673 930.949810 337.044143 19.806220 0.000000 0.115776
354.000000 47.031000 15.000000 -2.000000 -1.000000 118.712736 3.368697 911.646424 350.414610 21.265497 0.000000 0.117869
355.000000 86.463000 8.000000 -1.000000 -1.000000 114.168150 -1.091676 995.509476 457.925456 11.568239 0.000000 0.138013
356.000000 76.797000 9.000000 -1.000000 -1.000000 113.865575 0.906312 957.973620 464.765909 13.024280 0.000000 0.139333
357.000000 69.038000 10.000000 -1.000000 -1.000000 113.577550 2.494274 928.115750 470.835269 14.488071 0.000000 0.139934
358.000000 62.681000 11.000000 -1.000000 -1.000000 113.311908 3.784840 903.798645 476.195488 15.957536 0.000000 0.140131
359.000000 57.382000 12.000000 -1.000000 -1.000000 113.070208 4.853391 883.610947 480.933301 17.431280 0.000000 0.140094
360.000000 52.900000 13.000000 -1.000000 -1.000000 112.851449 5.752094 866.583125 485.134526 18.908329 0.000000 0.139922
361.000000 49.061000 14.000000 -1.000000 -1.000000 112.653681 6.518110 852.027129 488.875827 20.387985 0.000000 0.139673
362.000000 45.737000 15.000000 -1.000000 -1.000000 112.474713 7.178582 839.441151 492.222974 21.869733 0.000000 0.139382
363.000000 81.483000 7.000000 1.000000 -1.000000 87.803849 10.654291 772.521253 982.998684 12.281405 0.000000 0.162970
364.000000 73.154000 8.000000 1.000000 -1.000000 90.508152 11.207101 761.749369 931.268606 13.678926 0.000000 0.164712
365.000000 66.262000 9.000000 1.000000 -1.000000 92.613290 11.656785 752.956639 890.841084 15.101157 0.000000 0.164877
366.000000 60.496000 10.000000 1.000000 -1.000000 94.297186 12.029695 745.643502 858.310295 16.539800 0.000000 0.164257
367.000000 55.618000 11.000000 1.000000 -1.000000 95.674058 12.343921 739.465474 831.533034 17.989901 0.000000 0.163253
368.000000 51.446000 12.000000 1.000000 -1.000000 96.820453 12.612290 734.177309 809.086918 19.448314 0.000000 0.162073
369.000000 47.842000 13.000000 1.000000 -1.000000 97.789528 12.844148 729.599664 789.987846 20.912952 0.000000 0.160829
371.000000 79.017000 4.000000 2.000000 -1.000000 50.358782 15.034096 685.921240 1864.295907 12.672418 0.000000 0.099820
372.000000 78.387000 5.000000 2.000000 -1.000000 60.988777 15.158377 683.416754 1559.391144 12.772393 0.000000 0.067906
373.000000 74.039000 6.000000 2.000000 -1.000000 68.511800 15.254752 681.472603 1380.181912 13.520827 0.000000 0.100016
374.000000 68.791000 7.000000 2.000000 -1.000000 74.072242 15.331670 679.919659 1259.488884 14.550965 0.000000 0.122820
375.000000 63.635000 8.000000 2.000000 -1.000000 78.330987 15.394484 678.650636 1171.554944 15.728754 0.000000 0.136625
376.000000 58.895000 9.000000 2.000000 -1.000000 81.688648 15.446747 677.594193 1104.124451 16.993550 0.000000 0.144978
377.000000 54.646000 10.000000 2.000000 -1.000000 84.399526 15.490911 676.701043 1050.519089 18.313922 0.000000 0.150060
378.000000 50.871000 11.000000 2.000000 -1.000000 86.631755 15.528723 675.936042 1006.745003 19.671950 0.000000 0.153130
379.000000 47.524000 12.000000 2.000000 -1.000000 88.500493 15.561462 675.273456 970.246583 21.056671 0.000000 0.154927
381.000000 54.263000 5.000000 3.000000 -1.000000 44.639117 19.611024 591.515494 2098.056171 18.454037 0.000000 0.183193
382.000000 56.298000 6.000000 3.000000 -1.000000 53.930033 19.257990 598.972799 1771.453101 17.785163 0.000000 0.095836
383.000000 55.490000 7.000000 3.000000 -1.000000 61.031474 18.968049 605.073386 1571.038078 18.042516 0.000000 0.080826
384.000000 53.430000 8.000000 3.000000 -1.000000 66.595931 18.725685 610.156628 1432.881937 18.736343 0.000000 0.094927
385.000000 50.889000 9.000000 3.000000 -1.000000 71.053958 18.520083 614.457421 1330.643137 19.670437 0.000000 0.110497
386.000000 48.237000 10.000000 3.000000 -1.000000 74.695337 18.343473 618.143514 1251.302360 20.750865 0.000000 0.122542
387.000000 45.647000 11.000000 3.000000 -1.000000 77.719857 18.190129 621.337904 1187.603177 21.927015 0.000000 0.131292
396.000000 52.202000 14.000000 -5.000000 0.000000 141.354100 -8.136567 1128.880246 -418.725194 19.152597 0.000000 0.033241
397.000000 48.806000 6.000000 -2.000000 0.000000 139.659024 -5.641246 1081.313881 -332.451674 8.194358 0.000000 0.019070
398.000000 45.789000 16.000000 -5.000000 0.000000 138.102214 -3.594617 1042.613185 -261.007633 21.836138 0.000000 0.012887
400.000000 66.397000 11.000000 -4.000000 0.000000 141.799957 -8.847068 1142.524629 -443.192534 15.057818 0.000000 0.037740
401.000000 56.359000 13.000000 -4.000000 0.000000 137.733706 -3.139776 1034.039419 -245.011076 17.740831 0.000000 0.013066
402.000000 52.321000 7.000000 -2.000000 0.000000 136.007247 -1.140566 996.428218 -174.038427 9.555154 0.000000 0.020038
403.000000 48.789000 15.000000 -4.000000 0.000000 134.458289 0.490162 965.792149 -115.170990 20.494176 0.000000 0.029145
404.000000 45.679000 4.000000 -1.000000 0.000000 133.065479 1.843638 940.355520 -65.483740 5.472526 0.000000 0.037490
405.000000 73.268000 10.000000 -3.000000 0.000000 137.137146 -2.425272 1020.585669 -219.777239 13.646667 0.000000 0.014618
406.000000 66.555000 11.000000 -3.000000 0.000000 134.956231 -0.018778 975.352752 -133.651192 15.023582 0.000000 0.026154
407.000000 56.097000 13.000000 -3.000000 0.000000 131.417782 3.324855 912.472793 -10.075759 17.825211 0.000000 0.047044
408.000000 51.962000 14.000000 -3.000000 0.000000 129.973083 4.529547 889.735297 35.916365 19.243910 0.000000 0.055027
409.000000 48.374000 5.000000 -1.000000 0.000000 128.698382 5.527716 870.839154 74.747273 6.890570 0.000000 0.061744
410.000000 80.931000 9.000000 -2.000000 0.000000 130.672276 3.956768 900.554207 13.936842 12.355542 0.000000 0.051213
411.000000 65.711000 11.000000 -2.000000 0.000000 127.047630 6.739745 847.807509 122.896899 15.218148 0.000000 0.069982
412.000000 60.011000 6.000000 -1.000000 0.000000 125.649311 7.702452 829.432397 162.018660 8.331993 0.000000 0.076560
413.000000 55.200000 13.000000 -2.000000 0.000000 124.451085 8.485183 814.431285 194.464002 18.116796 0.000000 0.081908
414.000000 51.088000 7.000000 -1.000000 0.000000 123.413718 9.133867 801.953024 221.825874 9.787604 0.000000 0.086328
415.000000 47.536000 15.000000 -2.000000 0.000000 122.507373 9.680091 791.410551 245.223701 21.038188 0.000000 0.090031
416.000000 88.877000 8.000000 -1.000000 0.000000 121.709031 10.146274 782.385833 265.468244 11.252471 0.000000 0.093173
417.000000 78.602000 9.000000 -1.000000 0.000000 120.368084 10.899731 767.743626 298.761287 12.723711 0.000000 0.098199
418.000000 70.434000 10.000000 -1.000000 0.000000 119.286545 11.482138 756.374850 325.016329 14.199525 0.000000 0.102028
419.000000 63.790000 11.000000 -1.000000 0.000000 118.396212 11.945717 747.292153 346.262245 15.678734 0.000000 0.105030
420.000000 58.282000 12.000000 -1.000000 0.000000 117.650736 12.323421 739.868988 363.813545 17.160531 0.000000 0.107443
421.000000 53.644000 13.000000 -1.000000 0.000000 117.017559 12.637063 733.688600 378.560277 18.644346 0.000000 0.109419
422.000000 49.686000 14.000000 -1.000000 0.000000 116.473166 12.901654 728.463001 391.127019 20.129766 0.000000 0.111065
423.000000 46.269000 15.000000 -1.000000 0.000000 116.000157 13.127856 723.986801 401.965225 21.616483 0.000000 0.112456
424.000000 167.213000 4.000000 0.000000 0.000000 109.281165 16.016727 666.037503 549.278086 5.982216 0.000000 0.128365
426.000000 184.950000 2.000000 1.000000 0.000000 60.237491 28.054762 401.403985 1638.411569 5.413076 0.000000 0.123791
427.000000 159.235000 3.000000 1.000000 0.000000 75.537065 25.280652 466.682613 1248.009165 6.285741 0.000000 0.118153
428.000000 132.937000 4.000000 1.000000 0.000000 83.726056 23.539637 506.128308 1070.069210 7.528144 0.000000 0.130785
429.000000 112.607000 5.000000 1.000000 0.000000 88.765382 22.347241 532.542520 966.079284 8.886422 0.000000 0.136608
430.000000 97.186000 6.000000 1.000000 0.000000 92.162908 21.480131 551.467490 897.316679 10.295834 0.000000 0.139039
431.000000 85.283000 7.000000 1.000000 0.000000 94.603089 20.821456 565.692884 848.290400 11.732294 0.000000 0.139933
432.000000 75.886000 8.000000 1.000000 0.000000 96.438379 20.304250 576.775902 811.497294 13.184792 0.000000 0.140109
433.000000 68.305000 9.000000 1.000000 0.000000 97.867886 19.887418 585.654202 782.834092 14.647579 0.000000 0.139939
434.000000 62.075000 10.000000 1.000000 0.000000 99.012286 19.544361 592.926137 759.858248 16.117361 0.000000 0.139606
435.000000 56.870000 11.000000 1.000000 0.000000 99.948870 19.257103 598.991504 741.021283 17.592113 0.000000 0.139201
436.000000 52.461000 12.000000 1.000000 0.000000 100.729377 19.013066 604.127590 725.292414 19.070525 0.000000 0.138771
437.000000 48.679000 13.000000 1.000000 0.000000 101.389728 18.803186 608.532765 711.958147 20.551709 0.000000 0.138341
438.000000 90.794000 3.000000 2.000000 0.000000 46.676686 30.159715 349.594449 2115.002348 11.028232 0.000000 0.229008
439.000000 86.802000 5.000000 2.000000 0.000000 69.226102 26.489090 438.635331 1397.174372 11.532212 0.000000 0.111089
440.000000 72.683000 7.000000 2.000000 0.000000 80.180219 24.320495 488.570947 1145.433218 13.769772 0.000000 0.125514
441.000000 61.031000 9.000000 2.000000 0.000000 86.516077 22.892369 520.524406 1012.128090 16.396827 0.000000 0.134304
442.000000 52.189000 11.000000 2.000000 0.000000 90.615468 21.881922 542.726901 928.540399 19.173410 0.000000 0.138097
444.000000 61.927000 5.000000 3.000000 0.000000 51.881306 29.382182 368.980250 1910.155659 16.168207 0.000000 0.176318
445.000000 59.346000 7.000000 3.000000 0.000000 66.596591 26.964256 427.446176 1463.647385 16.868009 0.000000 0.110999
446.000000 56.296000 8.000000 3.000000 0.000000 71.564895 26.053051 448.822029 1340.346509 17.780602 0.000000 0.112894
447.000000 49.950000 10.000000 3.000000 0.000000 78.776498 24.617814 481.829179 1175.923853 20.037181 0.000000 0.123282
448.000000 47.016000 11.000000 3.000000 0.000000 81.463797 24.042914 494.836659 1117.895988 21.286440 0.000000 0.127499
449.000000 46.622000 7.000000 4.000000 0.000000 54.201970 29.024078 377.808919 1828.668760 21.475230 0.000000 0.157582
457.000000 45.859000 16.000000 -5.000000 1.000000 141.873332 4.143873 897.021840 -433.928404 21.801776 0.000000 0.013953
461.000000 56.412000 13.000000 -4.000000 1.000000 142.226301 6.523458 851.925367 -456.917112 17.723093 0.000000 0.022931
462.000000 52.386000 14.000000 -4.000000 1.000000 140.069601 7.611982 831.162585 -356.278364 19.085844 0.000000 0.021078
463.000000 48.860000 15.000000 -4.000000 1.000000 138.167626 8.477855 814.571996 -274.685552 20.463387 0.000000 0.020036
464.000000 45.753000 16.000000 -4.000000 1.000000 136.479818 9.182753 801.010838 -207.091260 21.853380 0.000000 0.021329
468.000000 66.560000 11.000000 -3.000000 1.000000 139.838991 11.210391 761.685144 -359.189522 15.021441 0.000000 0.033450
469.000000 60.946000 12.000000 -3.000000 1.000000 137.445821 11.820963 749.739408 -256.742685 16.405643 0.000000 0.028011
470.000000 56.159000 13.000000 -3.000000 1.000000 135.392874 12.294086 740.446263 -175.766809 17.804376 0.000000 0.026169
471.000000 52.038000 14.000000 -3.000000 1.000000 133.613848 12.671431 733.010476 -110.036321 19.214969 0.000000 0.028178
472.000000 48.457000 15.000000 -3.000000 1.000000 132.058254 12.979382 726.925809 -55.543737 20.635370 0.000000 0.032512
475.000000 91.046000 8.000000 -2.000000 1.000000 139.095022 17.348443 638.773131 -360.496309 10.981584 0.000000 0.057442
476.000000 80.800000 9.000000 -2.000000 1.000000 135.963259 17.130001 643.271645 -223.776780 12.374671 0.000000 0.040886
477.000000 72.534000 10.000000 -2.000000 1.000000 133.417871 16.973117 646.495928 -123.818556 13.785281 0.000000 0.031727
478.000000 65.745000 11.000000 -2.000000 1.000000 131.310258 16.854986 648.920215 -47.346824 15.209272 0.000000 0.030688
479.000000 60.080000 12.000000 -2.000000 1.000000 129.537570 16.762827 650.809384 13.158560 16.643714 0.000000 0.034954
480.000000 55.289000 13.000000 -2.000000 1.000000 128.026539 16.688925 652.323000 62.290648 18.086473 0.000000 0.041076
481.000000 51.188000 14.000000 -2.000000 1.000000 126.723647 16.628343 653.562925 103.020390 19.535959 0.000000 0.047358
482.000000 47.641000 15.000000 -2.000000 1.000000 125.588942 16.577777 654.597237 137.358416 20.990963 0.000000 0.053222
485.000000 118.871000 6.000000 -1.000000 1.000000 132.097920 26.597416 436.092673 -146.523298 8.411747 0.000000 0.068550
486.000000 101.658000 7.000000 -1.000000 1.000000 129.101497 24.652056 481.050675 -21.447161 9.836489 0.000000 0.037916
487.000000 88.677000 8.000000 -1.000000 1.000000 126.785611 23.307668 511.303685 64.742107 11.276855 0.000000 0.027634
488.000000 78.568000 9.000000 -1.000000 1.000000 124.946654 22.324023 533.052278 127.923411 12.728186 0.000000 0.032885
489.000000 70.488000 10.000000 -1.000000 1.000000 123.453139 21.573506 549.440550 176.312663 14.187511 0.000000 0.042122
490.000000 63.891000 11.000000 -1.000000 1.000000 122.217131 20.982206 562.232795 214.605834 15.652842 0.000000 0.050846
491.000000 58.407000 12.000000 -1.000000 1.000000 121.177885 20.504412 572.495594 245.689444 17.122799 0.000000 0.058353
492.000000 53.779000 13.000000 -1.000000 1.000000 120.292204 20.110353 580.911679 271.439138 18.596396 0.000000 0.064705
493.000000 49.824000 14.000000 -1.000000 1.000000 119.528591 19.779821 587.938359 293.128394 20.072908 0.000000 0.070093
494.000000 46.406000 15.000000 -1.000000 1.000000 118.863558 19.498616 593.893462 311.653171 21.551790 0.000000 0.074694
496.000000 158.625000 3.000000 1.000000 1.000000 83.366362 45.731979 -129.151978 1120.325300 6.308470 0.000000 0.182106
497.000000 132.972000 4.000000 1.000000 1.000000 90.337467 40.394770 59.171166 932.676254 7.524764 0.000000 0.099928
498.000000 112.960000 5.000000 1.000000 1.000000 94.540063 36.610268 175.374023 834.531402 8.857325 0.000000 0.074851
499.000000 97.646000 6.000000 1.000000 1.000000 97.299017 33.809421 254.227469 775.084878 10.246054 0.000000 0.073073
500.000000 85.757000 7.000000 1.000000 1.000000 99.228663 31.662288 311.245337 735.545220 11.666184 0.000000 0.077975
501.000000 76.336000 8.000000 1.000000 1.000000 100.644773 29.968320 354.394417 707.485924 13.105645 0.000000 0.083729
502.000000 68.720000 9.000000 1.000000 1.000000 101.723651 28.599967 388.186120 686.606536 14.557849 0.000000 0.088891
503.000000 62.451000 10.000000 1.000000 1.000000 102.570465 27.472773 415.366565 670.497685 16.018896 0.000000 0.093248
504.000000 57.210000 11.000000 1.000000 1.000000 103.251413 26.528831 437.703080 657.710707 17.486331 0.000000 0.096875
505.000000 52.767000 12.000000 1.000000 1.000000 103.810042 25.727222 456.384603 647.324991 18.958531 0.000000 0.099902
506.000000 48.956000 13.000000 1.000000 1.000000 104.276073 25.038263 472.240403 638.728822 20.434378 0.000000 0.102447
507.000000 45.652000 14.000000 1.000000 1.000000 104.670431 24.439931 485.866521 631.500549 21.913081 0.000000 0.104606
510.000000 96.519000 4.000000 2.000000 1.000000 66.985541 41.366997 27.220227 1550.174357 10.370705 0.000000 0.200604
511.000000 89.176000 5.000000 2.000000 1.000000 74.932891 38.168377 129.001379 1309.537838 11.223384 0.000000 0.139179
512.000000 81.202000 6.000000 2.000000 1.000000 80.523498 35.657756 202.806768 1162.111577 12.324607 0.000000 0.113880
513.000000 73.834000 7.000000 2.000000 1.000000 84.629175 33.641890 258.776973 1062.543360 13.553587 0.000000 0.105088
514.000000 67.353000 8.000000 2.000000 1.000000 87.753102 31.991453 302.679927 990.791294 14.856893 0.000000 0.103314
515.000000 61.739000 9.000000 2.000000 1.000000 90.200145 30.617465 338.038443 936.631211 16.207243 0.000000 0.104242
516.000000 56.886000 10.000000 2.000000 1.000000 92.163549 29.457087 367.125706 894.301721 17.589251 0.000000 0.106070
517.000000 52.679000 11.000000 2.000000 1.000000 93.770781 28.464863 391.474234 860.309148 18.993582 0.000000 0.108076
518.000000 49.012000 12.000000 2.000000 1.000000 95.108880 27.607196 412.154814 832.411908 20.414242 0.000000 0.109993
519.000000 45.796000 13.000000 2.000000 1.000000 96.239082 26.858771 429.938221 809.105784 21.847207 0.000000 0.111727
522.000000 65.708000 5.000000 3.000000 1.000000 57.510618 39.239386 95.963128 1825.939965 15.235990 0.000000 0.231724
523.000000 64.138000 6.000000 3.000000 1.000000 65.124258 36.984956 164.397059 1565.748980 15.607399 0.000000 0.166940
524.000000 61.091000 7.000000 3.000000 1.000000 70.932505 35.114462 218.161790 1395.785507 16.384455 0.000000 0.134790
525.000000 57.584000 8.000000 3.000000 1.000000 75.474107 33.540662 261.517377 1275.576669 17.381152 0.000000 0.119982
526.000000 54.069000 9.000000 3.000000 1.000000 79.104174 32.200053 297.219921 1185.838209 18.510128 0.000000 0.114059
527.000000 50.736000 10.000000 3.000000 1.000000 82.061831 31.045573 327.131434 1116.171006 19.724928 0.000000 0.112414
528.000000 47.657000 11.000000 3.000000 1.000000 84.512061 30.041745 352.555196 1060.454036 20.998572 0.000000 0.112702
530.000000 48.421000 6.000000 4.000000 1.000000 51.438191 37.983206 134.614680 2029.594336 20.676854 0.000000 0.263490
531.000000 48.783000 7.000000 4.000000 1.000000 58.430149 36.251301 185.790797 1761.107439 20.522192 0.000000 0.193866
532.000000 47.838000 8.000000 4.000000 1.000000 64.047439 34.763364 227.976184 1578.653343 20.925804 0.000000 0.154176
533.000000 46.245000 9.000000 4.000000 1.000000 68.629916 33.472879 263.348794 1445.883409 21.645380 0.000000 0.132573
542.000000 55.661000 13.000000 -3.000000 2.000000 138.148215 22.306826 533.429756 -357.776808 17.962925 0.000000 0.080527
543.000000 51.659000 14.000000 -3.000000 2.000000 136.231865 21.645209 547.882271 -267.839993 19.355131 0.000000 0.064368
544.000000 48.167000 15.000000 -3.000000 2.000000 134.548562 21.109197 559.494111 -194.674717 20.758974 0.000000 0.051374
546.000000 64.865000 11.000000 -2.000000 2.000000 133.946264 27.935168 404.285405 -233.240898 15.414931 0.000000 0.092257
547.000000 54.811000 13.000000 -2.000000 2.000000 130.497934 25.527172 461.007282 -77.610792 18.243556 0.000000 0.050697
548.000000 47.370000 15.000000 -2.000000 2.000000 127.873355 23.923481 497.524235 25.257953 21.110122 0.000000 0.030206
551.000000 86.242000 8.000000 -1.000000 2.000000 129.010452 37.306186 154.899817 -155.155701 11.594723 0.000000 0.153185
552.000000 76.922000 9.000000 -1.000000 2.000000 127.326819 34.465060 236.249397 -54.441334 12.999842 0.000000 0.104161
553.000000 69.345000 10.000000 -1.000000 2.000000 125.876240 32.274697 295.260087 20.326774 14.420689 0.000000 0.069927
554.000000 63.079000 11.000000 -1.000000 2.000000 124.623128 30.539177 340.022535 78.184868 15.853490 0.000000 0.045314
555.000000 57.820000 12.000000 -1.000000 2.000000 123.534721 29.132546 375.141255 124.371027 17.295588 0.000000 0.028259
556.000000 53.350000 13.000000 -1.000000 2.000000 122.583316 27.970713 403.429682 162.142248 18.745059 0.000000 0.019573
557.000000 49.507000 14.000000 -1.000000 2.000000 121.746195 26.995639 426.703864 193.635734 20.200477 0.000000 0.020600
558.000000 46.170000 15.000000 -1.000000 2.000000 121.004926 26.166094 446.188457 220.315023 21.660760 0.000000 0.026741
560.000000 105.662000 6.000000 0.000000 2.000000 116.327635 46.087199 -142.935206 173.104371 9.465345 0.000000 0.211443
561.000000 92.170000 7.000000 0.000000 2.000000 116.263177 41.919375 8.639216 227.268535 10.850955 0.000000 0.130967
562.000000 81.569000 8.000000 0.000000 2.000000 116.027585 38.711313 112.376724 267.437617 12.261358 0.000000 0.079826
563.000000 73.062000 9.000000 0.000000 2.000000 115.725927 36.180403 187.836832 298.520233 13.689018 0.000000 0.044748
564.000000 66.108000 10.000000 0.000000 2.000000 115.406974 34.140105 245.194766 323.333470 15.129171 0.000000 0.019364
565.000000 60.329000 11.000000 0.000000 2.000000 115.093394 32.464324 290.266714 343.623762 16.578660 0.000000 0.001758
566.000000 55.457000 12.000000 0.000000 2.000000 114.795325 31.065621 326.618266 360.536968 18.035308 0.000000 0.014968
567.000000 51.298000 13.000000 0.000000 2.000000 114.516749 29.881848 356.556987 374.858518 19.497566 0.000000 0.026876
568.000000 47.709000 14.000000 0.000000 2.000000 114.258614 28.867813 381.642276 387.145937 20.964303 0.000000 0.036617
570.000000 106.778000 5.000000 1.000000 2.000000 96.453683 50.205325 -317.052661 750.781727 9.369335 0.000000 0.245726
571.000000 93.904000 6.000000 1.000000 2.000000 99.498781 45.875415 -134.696334 682.337329 10.653521 0.000000 0.151731
572.000000 83.392000 7.000000 1.000000 2.000000 101.563927 42.446834 -9.406256 642.552743 11.996110 0.000000 0.095870
573.000000 74.789000 8.000000 1.000000 2.000000 103.023660 39.683063 81.980586 617.514971 13.375835 0.000000 0.061811
574.000000 67.680000 9.000000 1.000000 2.000000 104.091963 37.417649 151.585420 600.812904 14.780636 0.000000 0.043355
575.000000 61.737000 10.000000 1.000000 2.000000 104.897010 35.532453 206.366585 589.163700 16.203166 0.000000 0.037848
576.000000 56.712000 11.000000 1.000000 2.000000 105.518897 33.942390 250.603826 580.747663 17.638691 0.000000 0.040705
577.000000 52.417000 12.000000 1.000000 2.000000 106.009569 32.585151 287.074043 574.491691 19.084026 0.000000 0.046677
578.000000 48.708000 13.000000 1.000000 2.000000 106.403833 31.414327 317.657712 569.730644 20.536948 0.000000 0.053102
579.000000 45.478000 14.000000 1.000000 2.000000 106.725682 30.394784 343.673601 566.035024 21.995859 0.000000 0.059100
581.000000 86.403000 5.000000 2.000000 2.000000 77.978059 49.274773 -275.193710 1292.307392 11.582474 0.000000 0.268713
582.000000 72.557000 7.000000 2.000000 2.000000 87.331111 42.819576 -22.342690 1009.399724 13.790970 0.000000 0.130594
583.000000 61.146000 9.000000 2.000000 2.000000 92.677420 38.351431 123.424183 876.819446 16.363153 0.000000 0.082873
584.000000 52.401000 11.000000 2.000000 2.000000 96.051671 35.111475 218.245648 801.513795 19.093308 0.000000 0.072421
585.000000 45.670000 13.000000 2.000000 2.000000 98.343292 32.668871 284.856823 753.492025 21.906256 0.000000 0.075220
589.000000 63.956000 6.000000 3.000000 2.000000 68.468053 45.628404 -125.166057 1548.252241 15.650306 0.000000 0.250600
590.000000 60.875000 7.000000 3.000000 2.000000 73.951512 43.096945 -32.070738 1365.005681 16.441193 0.000000 0.186726
591.000000 57.404000 8.000000 3.000000 2.000000 78.256106 40.938343 41.423202 1237.194587 17.434079 0.000000 0.146716
592.000000 53.940000 9.000000 3.000000 2.000000 81.701093 39.080842 100.916770 1143.244008 18.552997 0.000000 0.121811
593.000000 50.653000 10.000000 3.000000 2.000000 84.506603 37.468751 150.062599 1071.417154 19.755827 0.000000 0.106872
594.000000 47.611000 11.000000 3.000000 2.000000 86.827057 36.058563 191.344375 1014.804049 21.017337 0.000000 0.098512
596.000000 49.435000 7.000000 4.000000 2.000000 61.677284 43.311385 -39.652295 1738.204827 20.249474 0.000000 0.257119
597.000000 46.540000 9.000000 4.000000 2.000000 71.330259 39.666183 82.515860 1413.438578 21.506578 0.000000 0.163487
606.000000 53.839000 13.000000 -2.000000 3.000000 131.813895 34.625430 231.809069 -229.016233 18.572354 0.000000 0.142089
607.000000 50.066000 14.000000 -2.000000 3.000000 130.502392 32.926263 278.013988 -154.248820 19.972399 0.000000 0.112305
608.000000 46.763000 15.000000 -2.000000 3.000000 129.321697 31.504430 315.331537 -93.034400 21.383319 0.000000 0.088653
611.000000 61.508000 11.000000 -1.000000 3.000000 125.612254 40.114015 68.226030 -67.022627 16.257852 0.000000 0.166874
612.000000 56.628000 12.000000 -1.000000 3.000000 124.706942 37.839285 138.957961 -2.930356 17.659208 0.000000 0.126223
613.000000 52.431000 13.000000 -1.000000 3.000000 123.871459 35.940843 194.723007 48.657055 19.073179 0.000000 0.095197
614.000000 48.789000 14.000000 -1.000000 3.000000 123.105009 34.335757 239.817146 91.148927 20.497390 0.000000 0.070858
615.000000 45.602000 15.000000 -1.000000 3.000000 122.403531 32.962935 277.035810 126.802537 21.930028 0.000000 0.051424
618.000000 71.744000 8.000000 1.000000 3.000000 103.738495 48.916355 -259.490481 540.582383 13.942867 0.000000 0.222564
619.000000 65.492000 9.000000 1.000000 3.000000 105.063454 45.936333 -137.059756 524.482493 15.273834 0.000000 0.159746
620.000000 60.130000 10.000000 1.000000 3.000000 106.041137 43.412215 -43.235659 514.999340 16.635645 0.000000 0.115238
621.000000 55.509000 11.000000 1.000000 3.000000 106.776517 41.254697 30.959155 509.399474 18.020371 0.000000 0.082634
622.000000 51.501000 12.000000 1.000000 3.000000 107.339049 39.394294 91.101397 506.172613 19.422588 0.000000 0.058406
623.000000 48.002000 13.000000 1.000000 3.000000 107.775778 37.776811 140.838051 504.439859 20.838458 0.000000 0.040778
626.000000 69.494000 7.000000 2.000000 3.000000 88.467783 51.418539 -374.145646 987.164448 14.397979 0.000000 0.284887
627.000000 64.257000 8.000000 2.000000 3.000000 91.588251 48.406169 -237.522362 896.045654 15.570661 0.000000 0.207647
628.000000 59.501000 9.000000 2.000000 3.000000 94.012902 45.821839 -132.622089 832.654080 16.814760 0.000000 0.154601
629.000000 55.247000 10.000000 2.000000 3.000000 95.932867 43.588946 -49.545320 786.578540 18.108939 0.000000 0.117112
630.000000 51.465000 11.000000 2.000000 3.000000 97.479309 41.645950 17.876543 751.908637 19.439593 0.000000 0.090438
631.000000 48.103000 12.000000 2.000000 3.000000 98.744016 39.943548 73.687473 725.078057 20.797634 0.000000 0.071900
634.000000 59.119000 7.000000 3.000000 3.000000 75.745993 50.627227 -336.572320 1372.021279 16.928395 0.000000 0.310075
635.000000 56.032000 8.000000 3.000000 3.000000 79.971395 48.013123 -220.896631 1225.521802 17.859836 0.000000 0.234520
636.000000 49.827000 10.000000 3.000000 3.000000 86.134526 43.730010 -54.608232 1041.639783 20.082358 0.000000 0.144954
637.000000 46.967000 11.000000 3.000000 3.000000 88.422580 41.963020 7.157412 980.860239 21.304352 0.000000 0.118499
641.000000 47.674000 8.000000 4.000000 3.000000 69.074601 47.701056 -207.875755 1552.507102 20.994930 0.000000 0.283665
642.000000 46.028000 9.000000 4.000000 3.000000 73.273444 45.659576 -126.364092 1403.781936 21.744317 0.000000 0.225124
650.000000 47.733000 14.000000 -1.000000 4.000000 123.641214 41.564078 20.627266 -16.218808 20.950164 0.000000 0.175261
653.000000 49.246000 13.000000 0.000000 4.000000 116.327031 43.860532 -59.314096 202.375016 20.308840 0.000000 0.166220
657.000000 53.759000 11.000000 1.000000 4.000000 107.125870 48.241637 -230.531631 443.029894 18.606686 0.000000 0.216073
658.000000 50.131000 12.000000 1.000000 4.000000 107.867592 45.970035 -138.369489 441.799721 19.953031 0.000000 0.168306
659.000000 46.915000 13.000000 1.000000 4.000000 108.439200 43.973086 -63.388679 442.361078 21.320529 0.000000 0.131495
662.000000 50.010000 11.000000 2.000000 4.000000 98.131777 47.909451 -216.553558 711.569202 20.004438 0.000000 0.192255
666.000000 51.108000 9.000000 3.000000 4.000000 84.209283 51.998469 -402.517979 1118.282618 19.578814 0.000000 0.311294
667.000000 48.419000 10.000000 3.000000 4.000000 87.024563 49.694610 -293.880632 1027.484534 20.665390 0.000000 0.245561
668.000000 45.840000 11.000000 3.000000 4.000000 89.355802 47.638744 -205.294499 958.960282 21.827384 0.000000 0.196570
676.000000 45.534000 13.000000 1.000000 5.000000 108.475670 49.873247 -301.929957 383.008307 21.966978 0.000000 0.262210
680.000000 45.473000 12.000000 2.000000 5.000000 99.649920 51.496207 -377.903487 647.045403 21.999748 0.000000 0.282906
#UB matrix in q= (UB) B0 G* 
#[[-0.815323423  0.527103674 -0.23796628 ]
# [ 0.159748291  0.600956991  0.783827173]
# [ 0.556532299  0.60153238  -0.57460556 ]]
#B0 matrix in q= UB (B0) G*
#[[ 0.19670273 -0.          0.03056101]
# [ 0.          0.19187965 -0.        ]
# [ 0.          0.          0.18806537]]
#UBB0 matrix in q= (UB B0) G* i.e. recip. basis vectors are columns in LT frame: astar = UBB0[:,0], bstar = UBB0[:,1], cstar = UBB0[:,2]. (abcstar as columns on xyzlab1, xlab1 = ui, ui = unit vector along incident beam)
#[[-0.16037634  0.10114047 -0.06967032]
# [ 0.03142293  0.11531142  0.15229282]
# [ 0.10947142  0.11542182 -0.09105522]]
#Euler angles phi theta psi (deg)
#[137.187 125.025  16.915]
#deviatoric strain in direct crystal frame (10-3 unit)
#[[-3.68 -0.5   0.67]
# [-0.5  -3.99 -0.13]
# [ 0.67 -0.13  7.67]]
#deviatoric strain in sample2 frame (10-3 unit)
#[[ 0.1  -5.27  1.14]
# [-5.27  3.13 -2.39]
# [ 1.14 -2.39 -3.22]]
#new lattice parameters
#[ 5.1505     5.209975   5.3146957 89.9982959 99.1938304 90.0576046]
#CCDLabel
#sCMOS
#DetectorParameters
#[79.0, 975.0, 941.0, 0.0, 0.0]
#pixelsize
#0.0734
#Frame dimensions
#[2018, 2016]
#
