#Strain and Orientation Refinement from experimental file: /home/micha/LaueProjects/DepthEffects/testZrO2_69.cor
#File created at Wed Jun 28 14:22:39 2023 with indexingSpotsSet.py
#Number of indexed spots: 530
#Element
#ZrO2
#grainIndex
#G_0
#Mean Deviation(pixel): 0.111
##spot_index intensity h k l 2theta Chi Xexp Yexp Energy GrainIndex PixDev
14.000000 47.769000 13.000000 6.000000 -8.000000 124.565515 -42.186498 1950.462000 -59.765393 20.936583 0.000000 0.195427
15.000000 45.944000 7.000000 3.000000 -4.000000 127.136156 -38.068057 1817.953980 -94.291495 10.883900 0.000000 0.149185
18.000000 47.701000 11.000000 7.000000 -8.000000 110.819674 -48.858417 2206.973221 318.937174 20.970717 0.000000 0.251925
19.000000 46.461000 12.000000 7.000000 -8.000000 114.678263 -45.206749 2059.089951 239.069681 21.529460 0.000000 0.187507
33.000000 51.391000 13.000000 5.000000 -7.000000 130.768845 -34.500022 1714.717161 -185.055390 19.459662 0.000000 0.130883
34.000000 48.963000 14.000000 5.000000 -7.000000 132.650138 -29.819072 1591.875401 -201.742026 20.423936 0.000000 0.096013
35.000000 46.641000 15.000000 5.000000 -7.000000 134.080263 -25.340629 1484.696028 -212.249537 21.440688 0.000000 0.069536
38.000000 54.482000 10.000000 6.000000 -7.000000 113.503614 -47.476048 2148.583738 248.489366 18.359828 0.000000 0.231405
39.000000 52.672000 11.000000 6.000000 -7.000000 117.559962 -43.226691 1986.651550 170.100398 18.989896 0.000000 0.165575
40.000000 50.692000 12.000000 6.000000 -7.000000 120.924082 -39.000201 1846.572158 111.342159 19.730738 0.000000 0.117484
41.000000 48.644000 13.000000 6.000000 -7.000000 123.687756 -34.841531 1724.201614 66.824378 20.560570 0.000000 0.082349
42.000000 46.597000 14.000000 6.000000 -7.000000 125.936619 -30.791408 1616.381435 32.824632 21.462966 0.000000 0.057020
46.000000 51.036000 9.000000 7.000000 -7.000000 101.122286 -49.904869 2253.361017 612.465724 19.603663 0.000000 0.247676
47.000000 50.134000 10.000000 7.000000 -7.000000 106.073015 -46.183499 2096.702439 493.095241 19.954835 0.000000 0.171661
48.000000 48.873000 11.000000 7.000000 -7.000000 110.312688 -42.454833 1959.682238 401.017490 20.468419 0.000000 0.115200
49.000000 47.385000 12.000000 7.000000 -7.000000 113.917032 -38.750259 1838.825484 328.944586 21.109999 0.000000 0.073127
50.000000 45.769000 13.000000 7.000000 -7.000000 116.961368 -35.099969 1731.431415 271.824995 21.854240 0.000000 0.042117
51.000000 46.179000 8.000000 8.000000 -7.000000 88.461036 -51.793116 2342.387963 987.751928 21.670112 0.000000 0.300567
52.000000 46.298000 9.000000 8.000000 -7.000000 94.165898 -48.493201 2191.238517 822.706604 21.612636 0.000000 0.210068
53.000000 45.896000 10.000000 8.000000 -7.000000 99.177622 -45.172096 2057.779381 694.340030 21.800132 0.000000 0.141939
66.000000 57.994000 6.000000 2.000000 -3.000000 134.947787 -29.423545 1582.043505 -292.432423 8.621594 0.000000 0.108895
67.000000 54.705000 13.000000 4.000000 -6.000000 136.412792 -23.958367 1453.260300 -296.333431 18.279347 0.000000 0.074600
68.000000 51.642000 7.000000 2.000000 -3.000000 137.390360 -18.871652 1342.903057 -295.535407 9.681651 0.000000 0.048964
69.000000 48.811000 15.000000 4.000000 -6.000000 137.992061 -14.196846 1247.281281 -291.659696 20.486642 0.000000 0.029344
70.000000 46.203000 8.000000 2.000000 -3.000000 138.308410 -9.940545 1163.628347 -285.780415 10.821409 0.000000 0.013963
73.000000 63.329000 9.000000 5.000000 -6.000000 116.897532 -45.552328 2072.247759 161.319784 15.794185 0.000000 0.207791
74.000000 60.590000 10.000000 5.000000 -6.000000 121.098582 -40.485979 1893.786745 87.389863 16.507411 0.000000 0.141414
75.000000 57.712000 11.000000 5.000000 -6.000000 124.430430 -35.494088 1742.545693 34.814463 17.329757 0.000000 0.095303
76.000000 54.837000 12.000000 5.000000 -6.000000 127.035867 -30.648077 1612.738256 -2.960218 18.237751 0.000000 0.063406
77.000000 52.049000 13.000000 5.000000 -6.000000 129.042887 -26.007131 1500.109624 -30.249908 19.214202 0.000000 0.042002
78.000000 49.395000 14.000000 5.000000 -6.000000 130.562959 -21.615011 1401.461264 -49.974818 20.246232 0.000000 0.028955
79.000000 46.898000 15.000000 5.000000 -6.000000 131.690963 -17.499419 1314.342290 -64.157436 21.324001 0.000000 0.022883
81.000000 59.249000 4.000000 3.000000 -3.000000 102.856085 -48.667163 2198.704912 569.067408 8.442882 0.000000 0.219753
82.000000 57.796000 3.000000 2.000000 -2.000000 108.277041 -44.318106 2025.975805 444.164456 5.769638 0.000000 0.141357
83.000000 55.883000 5.000000 3.000000 -3.000000 112.781476 -39.980535 1877.495218 351.093955 8.950128 0.000000 0.085792
84.000000 53.718000 11.000000 6.000000 -6.000000 116.489766 -35.703369 1748.491877 280.472897 18.620522 0.000000 0.046604
85.000000 51.447000 4.000000 2.000000 -2.000000 119.517374 -31.531540 1635.369224 226.073993 6.480594 0.000000 0.021049
86.000000 49.165000 13.000000 6.000000 -6.000000 121.970131 -27.503414 1535.364851 183.642570 20.343633 0.000000 0.015492
87.000000 46.932000 7.000000 3.000000 -3.000000 123.942129 -23.649177 1446.321922 150.198484 10.655410 0.000000 0.025032
91.000000 52.990000 7.000000 7.000000 -6.000000 88.364617 -50.991858 2303.726625 989.819999 18.884722 0.000000 0.278782
92.000000 53.056000 8.000000 7.000000 -6.000000 94.808538 -47.200587 2137.315963 807.741274 18.859427 0.000000 0.182077
93.000000 52.375000 9.000000 7.000000 -6.000000 100.349607 -43.392788 1992.544297 670.504452 19.102924 0.000000 0.112258
94.000000 51.183000 10.000000 7.000000 -6.000000 105.071944 -39.601913 1865.448592 564.823241 19.546590 0.000000 0.061645
95.000000 49.664000 11.000000 7.000000 -6.000000 109.067626 -35.860535 1752.977872 481.969200 20.143331 0.000000 0.026151
96.000000 47.955000 12.000000 7.000000 -6.000000 112.428550 -32.198721 1652.745115 416.016088 20.859750 0.000000 0.014495
97.000000 46.157000 13.000000 7.000000 -6.000000 115.241573 -28.642712 1562.855961 362.826720 21.671508 0.000000 0.029124
98.000000 46.672000 7.000000 8.000000 -6.000000 81.143993 -49.437060 2232.379123 1198.882523 21.444014 0.000000 0.262087
99.000000 47.309000 4.000000 4.000000 -3.000000 87.518473 -46.057924 2091.792604 1008.217594 10.576714 0.000000 0.174854
100.000000 47.236000 9.000000 8.000000 -6.000000 93.107494 -42.673648 1967.259643 861.526254 21.183907 0.000000 0.111983
101.000000 46.641000 5.000000 4.000000 -3.000000 97.968946 -39.307725 1856.179027 746.276213 10.726396 0.000000 0.068735
102.000000 45.678000 11.000000 8.000000 -6.000000 102.171182 -35.982894 1756.482721 654.125761 21.903561 0.000000 0.045108
118.000000 61.498000 12.000000 3.000000 -5.000000 140.344190 -15.458261 1272.638627 -406.173244 16.259630 0.000000 0.044783
119.000000 57.420000 13.000000 3.000000 -5.000000 140.610167 -9.837937 1161.642286 -389.338912 17.414246 0.000000 0.020499
120.000000 53.753000 14.000000 3.000000 -5.000000 140.553997 -4.905444 1067.373989 -371.968437 18.602539 0.000000 0.007435
121.000000 50.455000 15.000000 3.000000 -5.000000 140.282888 -0.602438 986.317148 -354.686806 19.818472 0.000000 0.016831
122.000000 47.487000 16.000000 3.000000 -5.000000 139.873075 3.144249 915.876309 -337.847328 21.057371 0.000000 0.028347
125.000000 75.245000 8.000000 4.000000 -5.000000 121.296101 -42.700376 1968.188839 50.691358 13.292211 0.000000 0.180649
126.000000 70.915000 9.000000 4.000000 -5.000000 125.493049 -36.466334 1770.437602 -13.377410 14.103060 0.000000 0.115117
127.000000 66.590000 10.000000 4.000000 -5.000000 128.588340 -30.435907 1607.365120 -55.102418 15.018518 0.000000 0.072466
128.000000 62.450000 11.000000 4.000000 -5.000000 130.814519 -24.723921 1470.584582 -82.311599 16.013755 0.000000 0.044944
129.000000 58.580000 12.000000 4.000000 -5.000000 132.367972 -19.408940 1354.211818 -99.839044 17.071220 0.000000 0.028193
130.000000 55.012000 13.000000 4.000000 -5.000000 133.409054 -14.532328 1253.996609 -110.773333 18.178162 0.000000 0.019968
131.000000 51.747000 14.000000 4.000000 -5.000000 134.065182 -10.103877 1166.792351 -117.144613 19.325089 0.000000 0.018179
132.000000 48.770000 15.000000 4.000000 -5.000000 134.435432 -6.110369 1090.219680 -120.319568 20.504791 0.000000 0.019562
133.000000 46.059000 16.000000 4.000000 -5.000000 134.595576 -2.524124 1022.446065 -121.237023 21.711694 0.000000 0.021809
134.000000 71.870000 6.000000 5.000000 -5.000000 97.780632 -52.121222 2358.617847 701.480375 13.921513 0.000000 0.305743
135.000000 70.487000 7.000000 5.000000 -5.000000 105.142133 -46.929364 2126.335306 514.501299 14.193074 0.000000 0.185095
136.000000 68.026000 8.000000 5.000000 -5.000000 111.081942 -41.710998 1934.313866 385.190373 14.705297 0.000000 0.105765
137.000000 64.996000 9.000000 5.000000 -5.000000 115.806139 -36.551733 1772.920768 293.134139 15.389686 0.000000 0.053333
138.000000 58.455000 11.000000 5.000000 -5.000000 122.400197 -26.717843 1516.739665 176.313151 17.110217 0.000000 0.017010
139.000000 55.274000 12.000000 5.000000 -5.000000 124.615050 -22.161262 1413.378917 138.837914 18.094404 0.000000 0.028939
140.000000 52.258000 13.000000 5.000000 -5.000000 126.297127 -17.894397 1322.517347 110.279786 19.138479 0.000000 0.038298
141.000000 49.435000 14.000000 5.000000 -5.000000 127.557816 -13.933156 1242.016980 88.315208 20.230882 0.000000 0.044240
142.000000 46.815000 6.000000 2.000000 -2.000000 128.487358 -10.279660 1170.201139 71.304598 8.545138 0.000000 0.047523
145.000000 62.138000 6.000000 6.000000 -5.000000 88.216890 -49.913520 2253.752839 993.033037 16.104537 0.000000 0.251763
146.000000 62.069000 7.000000 6.000000 -5.000000 95.614756 -45.463768 2068.860491 790.133942 16.120779 0.000000 0.148717
147.000000 60.879000 8.000000 6.000000 -5.000000 101.791293 -41.012276 1911.013293 643.242077 16.434251 0.000000 0.078811
148.000000 58.989000 9.000000 6.000000 -5.000000 106.890540 -36.612176 1774.681618 533.858021 16.959565 0.000000 0.033295
149.000000 56.706000 10.000000 6.000000 -5.000000 111.064091 -32.313010 1655.747104 450.510407 17.641182 0.000000 0.020668
150.000000 54.243000 11.000000 6.000000 -5.000000 114.456714 -28.157623 1551.079424 385.776960 18.441416 0.000000 0.036645
151.000000 51.737000 12.000000 6.000000 -5.000000 117.199129 -24.180108 1458.256760 334.683806 19.333798 0.000000 0.051270
152.000000 49.275000 13.000000 6.000000 -5.000000 119.405275 -20.404949 1375.376079 293.798070 20.299185 0.000000 0.061524
153.000000 46.907000 14.000000 6.000000 -5.000000 121.172127 -16.847257 1300.921286 260.690078 21.323396 0.000000 0.068144
156.000000 53.482000 6.000000 7.000000 -5.000000 79.800489 -48.259883 2181.304619 1231.868273 18.714134 0.000000 0.242308
157.000000 54.336000 7.000000 7.000000 -5.000000 87.128357 -44.371933 2027.952874 1016.528140 18.417960 0.000000 0.150252
158.000000 54.122000 8.000000 7.000000 -5.000000 93.414036 -40.492676 1894.004239 856.569758 18.488986 0.000000 0.089727
159.000000 53.163000 9.000000 7.000000 -5.000000 98.752833 -36.657209 1775.995301 734.433651 18.820727 0.000000 0.057117
160.000000 51.721000 10.000000 7.000000 -5.000000 103.254400 -32.898298 1671.240637 639.058564 19.344243 0.000000 0.051841
161.000000 49.990000 11.000000 7.000000 -5.000000 107.029778 -29.244822 1577.625984 563.174471 20.012929 0.000000 0.061131
162.000000 48.109000 12.000000 7.000000 -5.000000 110.183808 -25.720683 1493.464051 501.833710 20.794152 0.000000 0.072206
163.000000 46.175000 13.000000 7.000000 -5.000000 112.811302 -22.344255 1417.391918 451.569481 21.664376 0.000000 0.081188
164.000000 45.985000 6.000000 8.000000 -5.000000 72.430723 -46.976956 2128.254042 1440.471392 21.767566 0.000000 0.252998
165.000000 47.440000 7.000000 8.000000 -5.000000 79.608096 -43.527617 1997.351537 1213.231998 21.097753 0.000000 0.167059
166.000000 47.931000 8.000000 8.000000 -5.000000 85.900623 -40.091205 1881.041599 1041.831282 20.879833 0.000000 0.111336
167.000000 47.695000 9.000000 8.000000 -5.000000 91.367197 -36.692057 1777.012961 908.965034 20.981509 0.000000 0.081814
168.000000 46.939000 10.000000 8.000000 -5.000000 96.084153 -33.352953 1683.417974 803.658146 21.317536 0.000000 0.074360
169.000000 45.833000 11.000000 8.000000 -5.000000 100.134413 -30.094260 1598.761918 718.642310 21.830509 0.000000 0.079352
181.000000 55.063000 7.000000 1.000000 -2.000000 141.250834 11.255733 760.799795 -426.375315 9.079805 0.000000 0.066513
182.000000 51.405000 15.000000 2.000000 -4.000000 140.294028 14.426848 698.116957 -397.330004 19.452263 0.000000 0.077888
183.000000 48.168000 8.000000 1.000000 -2.000000 139.363367 17.092509 644.042667 -371.062295 10.379742 0.000000 0.087392
184.000000 84.680000 8.000000 3.000000 -4.000000 130.945824 -30.089648 1598.646188 -138.262300 11.809707 0.000000 0.086204
185.000000 77.937000 9.000000 3.000000 -4.000000 133.379284 -22.670404 1424.570548 -161.224874 12.831114 0.000000 0.048061
186.000000 71.825000 10.000000 3.000000 -4.000000 134.831340 -15.971424 1283.041574 -171.936768 13.922808 0.000000 0.024895
187.000000 66.367000 11.000000 3.000000 -4.000000 135.602933 -10.048116 1165.711819 -175.310544 15.067687 0.000000 0.012892
188.000000 61.524000 12.000000 3.000000 -4.000000 135.913714 -4.878470 1066.863575 -174.221688 16.253783 0.000000 0.012814
189.000000 57.233000 13.000000 3.000000 -4.000000 135.918927 -0.396531 982.448906 -170.410537 17.472467 0.000000 0.018316
190.000000 53.426000 14.000000 3.000000 -4.000000 135.725891 3.481407 909.521580 -164.958255 18.717361 0.000000 0.024211
191.000000 50.041000 15.000000 3.000000 -4.000000 135.407731 6.840598 845.886143 -158.549984 19.983650 0.000000 0.029804
192.000000 47.020000 16.000000 3.000000 -4.000000 135.013811 9.759603 789.873091 -151.626121 21.267632 0.000000 0.035142
193.000000 89.576000 5.000000 4.000000 -4.000000 99.764987 -50.830406 2296.097949 647.735635 11.169419 0.000000 0.270567
194.000000 82.232000 7.000000 4.000000 -4.000000 114.727736 -37.831466 1810.806541 313.423454 12.164154 0.000000 0.064430
195.000000 72.059000 9.000000 4.000000 -4.000000 123.010825 -25.553015 1489.589018 165.946532 13.879905 0.000000 0.019876
196.000000 67.178000 5.000000 2.000000 -2.000000 125.515194 -19.990258 1366.531855 123.608844 7.443902 0.000000 0.034081
197.000000 62.652000 11.000000 4.000000 -4.000000 127.276881 -14.894495 1261.269032 93.287099 15.963015 0.000000 0.043034
198.000000 54.774000 13.000000 4.000000 -4.000000 129.292126 -6.132396 1090.638220 55.241728 18.258617 0.000000 0.048961
199.000000 51.392000 7.000000 2.000000 -2.000000 129.800069 -2.422293 1020.529606 43.461223 9.729973 0.000000 0.048409
200.000000 48.341000 15.000000 4.000000 -4.000000 130.091847 0.889759 958.284650 34.828505 20.688167 0.000000 0.046627
201.000000 45.585000 4.000000 1.000000 -1.000000 130.226860 3.845686 902.650580 28.541015 5.484650 0.000000 0.044175
204.000000 75.057000 5.000000 5.000000 -4.000000 87.972110 -48.385710 2186.650622 998.384218 13.332888 0.000000 0.217735
205.000000 74.645000 6.000000 5.000000 -4.000000 96.644428 -43.011990 1979.081809 769.534680 13.404702 0.000000 0.109461
206.000000 72.457000 7.000000 5.000000 -4.000000 103.581196 -37.678463 1806.208692 612.478907 13.807879 0.000000 0.045487
207.000000 69.310000 8.000000 5.000000 -4.000000 109.051059 -32.474545 1660.003023 500.438402 14.433594 0.000000 0.029388
208.000000 65.742000 9.000000 5.000000 -4.000000 113.320255 -27.477073 1534.736068 418.029962 15.215973 0.000000 0.046990
209.000000 62.080000 10.000000 5.000000 -4.000000 116.627028 -22.744688 1426.210321 355.897354 16.112807 0.000000 0.062370
210.000000 58.508000 11.000000 5.000000 -4.000000 119.172860 -18.315817 1331.279943 308.084036 17.095800 0.000000 0.072095
211.000000 55.123000 12.000000 5.000000 -4.000000 121.122410 -14.209830 1247.540817 270.653059 18.145272 0.000000 0.077364
212.000000 51.966000 13.000000 5.000000 -4.000000 122.607311 -10.430235 1173.124112 240.919483 19.247115 0.000000 0.079409
213.000000 49.050000 14.000000 5.000000 -4.000000 123.731297 -6.968680 1106.555157 217.002798 20.390947 0.000000 0.079165
214.000000 46.371000 15.000000 5.000000 -4.000000 124.575351 -3.808869 1046.654732 197.555366 21.568960 0.000000 0.077316
217.000000 62.499000 5.000000 6.000000 -4.000000 77.900691 -46.666837 2115.812082 1277.214876 16.014729 0.000000 0.220657
218.000000 63.717000 3.000000 3.000000 -2.000000 86.519280 -42.098852 1947.467344 1029.229653 7.853278 0.000000 0.125461
219.000000 63.220000 7.000000 6.000000 -4.000000 93.692871 -37.571402 1803.002710 853.355708 15.828336 0.000000 0.075122
220.000000 61.621000 4.000000 3.000000 -2.000000 99.590509 -33.139064 1677.673526 723.816039 8.118669 0.000000 0.064038
221.000000 59.384000 9.000000 6.000000 -4.000000 104.399090 -28.849694 1567.913993 625.517869 16.847712 0.000000 0.073436
222.000000 56.827000 5.000000 3.000000 -2.000000 108.298641 -24.741834 1470.992462 549.102983 8.802362 0.000000 0.085163
223.000000 54.157000 11.000000 6.000000 -4.000000 111.450409 -20.843492 1384.780987 488.498591 18.471826 0.000000 0.094040
224.000000 51.501000 6.000000 3.000000 -2.000000 113.992763 -17.172235 1307.597288 439.614829 9.711843 0.000000 0.099612
225.000000 48.933000 13.000000 6.000000 -4.000000 116.041321 -13.736254 1238.093878 399.610780 20.442188 0.000000 0.102394
226.000000 46.494000 7.000000 3.000000 -2.000000 117.691051 -10.535990 1175.178731 366.460706 10.757018 0.000000 0.103000
228.000000 52.028000 5.000000 7.000000 -4.000000 69.347305 -45.394431 2066.215901 1518.712424 19.240538 0.000000 0.242923
229.000000 54.212000 6.000000 7.000000 -4.000000 77.762790 -41.424843 1924.710772 1252.319374 18.463282 0.000000 0.152001
230.000000 54.871000 7.000000 7.000000 -4.000000 84.984914 -37.492293 1800.639660 1060.038227 18.239441 0.000000 0.102702
231.000000 54.437000 8.000000 7.000000 -4.000000 91.111782 -33.632466 1690.967611 915.913383 18.383289 0.000000 0.087011
232.000000 53.271000 9.000000 7.000000 -4.000000 96.268720 -29.877144 1593.325476 804.649068 18.783846 0.000000 0.090750
233.000000 51.654000 10.000000 7.000000 -4.000000 100.587286 -26.252879 1505.836828 716.686355 19.370711 0.000000 0.099888
234.000000 49.784000 11.000000 7.000000 -4.000000 104.192923 -22.780261 1426.996200 645.768025 20.097070 0.000000 0.108297
235.000000 47.799000 12.000000 7.000000 -4.000000 107.198830 -19.473787 1355.581729 587.641142 20.930581 0.000000 0.114408
236.000000 45.790000 13.000000 7.000000 -4.000000 109.703724 -16.342211 1290.591382 539.323506 21.848182 0.000000 0.118156
237.000000 46.144000 3.000000 4.000000 -2.000000 70.201683 -40.907038 1907.546769 1453.659287 10.847189 0.000000 0.179706
238.000000 47.538000 7.000000 8.000000 -4.000000 77.341916 -37.431453 1798.825727 1245.409921 21.055804 0.000000 0.125760
239.000000 47.928000 2.000000 2.000000 -1.000000 83.550455 -34.013254 1701.331975 1087.781317 5.220700 0.000000 0.103074
240.000000 47.580000 9.000000 8.000000 -4.000000 88.906903 -30.674608 1613.411790 964.877105 21.033445 0.000000 0.101141
241.000000 46.722000 5.000000 4.000000 -2.000000 93.503975 -27.434525 1533.721027 866.745236 10.709091 0.000000 0.107807
242.000000 45.530000 11.000000 8.000000 -4.000000 97.436418 -24.308420 1461.155919 786.851725 21.977702 0.000000 0.115885
251.000000 83.212000 9.000000 2.000000 -3.000000 138.356485 -2.619442 1024.240212 -270.672627 12.017010 0.000000 0.008587
252.000000 75.451000 10.000000 2.000000 -3.000000 137.936135 3.309629 912.759772 -253.662280 13.253254 0.000000 0.024607
253.000000 68.869000 11.000000 2.000000 -3.000000 137.281224 8.113162 821.568376 -236.386448 14.520000 0.000000 0.037043
254.000000 63.249000 12.000000 2.000000 -3.000000 136.523816 12.032460 745.589205 -219.621342 15.810220 0.000000 0.047377
255.000000 58.415000 13.000000 2.000000 -3.000000 135.736883 15.262866 681.308832 -203.717252 17.118893 0.000000 0.056374
256.000000 54.223000 14.000000 2.000000 -3.000000 134.959764 17.955321 626.218443 -188.808542 18.442333 0.000000 0.064445
257.000000 50.562000 15.000000 2.000000 -3.000000 134.212786 20.224476 578.478718 -174.919387 19.777775 0.000000 0.071811
258.000000 47.343000 16.000000 2.000000 -3.000000 133.505563 22.157180 536.710480 -162.018706 21.123104 0.000000 0.078608
259.000000 85.491000 8.000000 3.000000 -3.000000 126.759315 -16.539669 1294.623625 102.318090 11.698635 0.000000 0.040624
260.000000 71.477000 10.000000 3.000000 -3.000000 129.489931 -4.848941 1066.304854 50.903461 13.991798 0.000000 0.048955
261.000000 65.764000 11.000000 3.000000 -3.000000 130.014568 -0.172609 978.242453 37.411317 15.207064 0.000000 0.047320
262.000000 56.420000 13.000000 3.000000 -3.000000 130.236659 7.303565 837.055460 22.830212 17.725640 0.000000 0.040590
263.000000 52.588000 14.000000 3.000000 -3.000000 130.116668 10.290061 779.597035 19.316494 19.017151 0.000000 0.037353
264.000000 49.205000 5.000000 1.000000 -1.000000 129.915037 12.882090 728.849756 17.350852 6.774916 0.000000 0.035070
265.000000 46.203000 16.000000 3.000000 -3.000000 129.663732 15.144194 683.702706 16.486492 21.645580 0.000000 0.034145
268.000000 88.944000 6.000000 4.000000 -3.000000 105.785869 -32.720249 1666.505920 579.337420 11.248124 0.000000 0.042520
269.000000 83.369000 7.000000 4.000000 -3.000000 111.529435 -26.453506 1510.530483 466.740781 11.999291 0.000000 0.061971
270.000000 77.531000 8.000000 4.000000 -3.000000 115.703013 -20.621115 1380.005167 387.480746 12.901914 0.000000 0.077641
271.000000 71.911000 9.000000 4.000000 -3.000000 118.713568 -15.286631 1269.170874 329.789522 13.909754 0.000000 0.085643
272.000000 66.710000 10.000000 4.000000 -3.000000 120.872777 -10.469370 1173.884259 286.652049 14.993657 0.000000 0.088132
273.000000 61.992000 11.000000 4.000000 -3.000000 122.412304 -6.156078 1091.088236 253.675150 16.134329 0.000000 0.086986
274.000000 57.752000 12.000000 4.000000 -3.000000 123.501500 -2.313258 1018.477889 227.994795 17.318491 0.000000 0.083512
275.000000 53.956000 13.000000 4.000000 -3.000000 124.263133 1.102743 954.282552 207.680356 18.536707 0.000000 0.078588
276.000000 50.559000 14.000000 4.000000 -3.000000 124.785932 4.138702 897.119490 191.393057 19.782087 0.000000 0.072815
277.000000 47.515000 15.000000 4.000000 -3.000000 125.134064 6.840228 845.893183 178.181723 21.049483 0.000000 0.066606
280.000000 74.860000 4.000000 5.000000 -3.000000 75.022868 -44.394775 2028.792972 1343.963065 13.371089 0.000000 0.198591
281.000000 76.774000 5.000000 5.000000 -3.000000 85.490269 -38.880313 1842.849562 1050.048948 13.035703 0.000000 0.106085
282.000000 75.683000 6.000000 5.000000 -3.000000 93.832331 -33.482754 1686.917836 854.557637 13.221944 0.000000 0.080355
283.000000 72.889000 7.000000 5.000000 -3.000000 100.379258 -28.289669 1554.274445 717.127020 13.727339 0.000000 0.089156
284.000000 69.275000 8.000000 5.000000 -3.000000 105.473756 -23.369083 1440.064754 616.422547 14.442198 0.000000 0.101786
285.000000 65.379000 9.000000 5.000000 -3.000000 109.422099 -18.766376 1340.695777 540.203201 15.301933 0.000000 0.110254
286.000000 61.501000 10.000000 5.000000 -3.000000 112.478515 -14.505124 1253.451325 480.994522 16.266031 0.000000 0.114302
287.000000 57.797000 11.000000 5.000000 -3.000000 114.845718 -10.590584 1176.239929 434.003279 17.307800 0.000000 0.114915
288.000000 54.338000 12.000000 5.000000 -3.000000 116.681750 -7.014300 1107.425000 396.031143 18.408933 0.000000 0.113053
289.000000 51.148000 13.000000 5.000000 -3.000000 118.108305 -3.758666 1045.707539 364.872634 19.556459 0.000000 0.109465
290.000000 48.226000 14.000000 5.000000 -3.000000 119.218515 -0.800771 990.043361 338.964135 20.740928 0.000000 0.104702
291.000000 45.558000 15.000000 5.000000 -3.000000 120.083505 1.884691 939.583533 317.170460 21.955294 0.000000 0.099165
293.000000 59.351000 4.000000 6.000000 -3.000000 64.897339 -43.243906 1987.260801 1633.207143 16.867834 0.000000 0.236583
294.000000 62.932000 5.000000 6.000000 -3.000000 75.068627 -38.584778 1833.726366 1308.168969 15.905809 0.000000 0.139905
295.000000 63.122000 7.000000 6.000000 -3.000000 90.518918 -29.582791 1585.992718 929.790714 15.854317 0.000000 0.102887
296.000000 61.274000 8.000000 6.000000 -3.000000 96.193743 -25.336994 1484.612437 811.764297 16.330940 0.000000 0.113261
297.000000 58.846000 3.000000 2.000000 -1.000000 100.794368 -21.307949 1394.801642 720.738640 5.667794 0.000000 0.122704
298.000000 56.157000 10.000000 6.000000 -3.000000 104.518498 -17.516098 1314.686778 648.728703 17.816381 0.000000 0.128805
299.000000 53.405000 11.000000 6.000000 -3.000000 107.534595 -13.971319 1242.778109 590.564067 18.733685 0.000000 0.131693
300.000000 50.704000 4.000000 2.000000 -1.000000 109.981657 -10.674725 1177.876218 542.759387 6.576841 0.000000 0.132004
301.000000 48.120000 13.000000 6.000000 -3.000000 111.972229 -7.620724 1119.004571 502.886010 20.789386 0.000000 0.130365
302.000000 45.684000 14.000000 6.000000 -3.000000 113.596459 -4.799000 1065.360045 469.203845 21.897559 0.000000 0.127291
303.000000 47.425000 4.000000 7.000000 -3.000000 56.655816 -42.400841 1957.820716 1900.017275 21.112383 0.000000 0.280326
304.000000 51.694000 5.000000 7.000000 -3.000000 66.369901 -38.368253 1827.089764 1541.602510 19.366434 0.000000 0.173105
305.000000 53.848000 6.000000 7.000000 -3.000000 74.748761 -34.403595 1712.053257 1296.671206 18.589524 0.000000 0.121193
306.000000 54.410000 7.000000 7.000000 -3.000000 81.872203 -30.541845 1610.045023 1119.473914 18.395754 0.000000 0.109275
307.000000 53.865000 8.000000 7.000000 -3.000000 87.871894 -26.812513 1518.970428 985.812525 18.580114 0.000000 0.115818
308.000000 52.604000 9.000000 7.000000 -3.000000 92.897595 -23.238697 1437.161025 881.712527 19.023613 0.000000 0.125803
309.000000 50.918000 10.000000 7.000000 -3.000000 97.096525 -19.836826 1363.271400 798.554432 19.652445 0.000000 0.134003
310.000000 49.004000 11.000000 7.000000 -3.000000 100.602786 -16.616980 1296.204606 730.742001 20.418403 0.000000 0.139391
311.000000 46.999000 12.000000 7.000000 -3.000000 103.533243 -13.583622 1235.057338 674.489263 21.288663 0.000000 0.142167
312.000000 46.848000 7.000000 8.000000 -3.000000 74.316084 -31.281096 1628.910895 1294.611077 21.367997 0.000000 0.115153
313.000000 47.209000 8.000000 8.000000 -3.000000 80.456758 -27.958492 1546.276053 1145.854069 21.202250 0.000000 0.114057
314.000000 46.829000 9.000000 8.000000 -3.000000 85.733239 -24.752027 1471.224624 1029.422614 21.372536 0.000000 0.122714
315.000000 45.945000 10.000000 8.000000 -3.000000 90.250868 -21.674673 1402.758509 935.928893 21.782254 0.000000 0.132329
323.000000 85.436000 9.000000 1.000000 -2.000000 137.632433 21.294808 555.482757 -325.505132 11.704314 0.000000 0.102570
324.000000 76.647000 10.000000 1.000000 -2.000000 136.099878 24.433776 486.006024 -287.450509 13.046624 0.000000 0.114391
325.000000 69.434000 11.000000 1.000000 -2.000000 134.757965 26.854279 430.044240 -255.244324 14.402128 0.000000 0.124041
326.000000 63.422000 12.000000 1.000000 -2.000000 133.584638 28.771325 384.003470 -227.665549 15.767714 0.000000 0.132173
327.000000 58.341000 13.000000 1.000000 -2.000000 132.555875 30.323967 345.460302 -203.801296 17.141175 0.000000 0.139177
328.000000 53.995000 14.000000 1.000000 -2.000000 131.649750 31.605335 312.721189 -182.958950 18.520907 0.000000 0.145307
329.000000 50.239000 15.000000 1.000000 -2.000000 130.847459 32.679806 284.566916 -164.605227 19.905711 0.000000 0.150737
330.000000 46.963000 16.000000 1.000000 -2.000000 130.133282 33.593144 260.097403 -148.323727 21.294678 0.000000 0.155589
331.000000 81.665000 9.000000 2.000000 -2.000000 130.189417 8.850631 807.406812 20.845056 12.246117 0.000000 0.038886
332.000000 67.239000 11.000000 2.000000 -2.000000 129.526405 16.168589 662.947350 16.365549 14.873497 0.000000 0.034245
333.000000 61.687000 6.000000 1.000000 -1.000000 129.090011 18.882481 606.869744 16.899851 8.106185 0.000000 0.036633
334.000000 56.943000 13.000000 2.000000 -2.000000 128.641865 21.151891 558.572307 18.356049 17.563098 0.000000 0.041368
335.000000 52.850000 7.000000 1.000000 -1.000000 128.201213 23.072098 516.540948 20.363559 9.461624 0.000000 0.047390
336.000000 49.288000 15.000000 2.000000 -2.000000 127.777975 24.714473 479.630518 22.688084 20.291012 0.000000 0.053952
337.000000 46.162000 8.000000 1.000000 -1.000000 127.376828 26.133047 446.958885 25.179441 10.832507 0.000000 0.060626
339.000000 84.124000 8.000000 3.000000 -2.000000 120.087739 -4.816475 1065.690625 315.191833 11.890100 0.000000 0.099700
340.000000 76.449000 9.000000 3.000000 -2.000000 121.636904 0.071791 973.651405 277.902824 13.083383 0.000000 0.092734
341.000000 69.848000 10.000000 3.000000 -2.000000 122.631182 4.240459 895.197729 249.963794 14.319696 0.000000 0.083909
342.000000 64.165000 11.000000 3.000000 -2.000000 123.258978 7.801967 827.528374 228.514016 15.587832 0.000000 0.074294
343.000000 59.252000 12.000000 3.000000 -2.000000 123.642396 10.857681 768.562708 211.707567 16.880165 0.000000 0.064547
344.000000 54.981000 13.000000 3.000000 -2.000000 123.861397 13.494042 716.722982 198.309807 18.191325 0.000000 0.055099
345.000000 51.245000 14.000000 3.000000 -2.000000 123.968995 15.782667 670.791057 187.469588 19.517422 0.000000 0.046275
346.000000 47.957000 15.000000 3.000000 -2.000000 124.000777 17.782057 629.811474 178.584770 20.855568 0.000000 0.038395
348.000000 82.170000 7.000000 4.000000 -2.000000 106.105699 -15.712573 1277.787543 618.164013 12.175835 0.000000 0.130613
349.000000 70.323000 9.000000 4.000000 -2.000000 112.825265 -6.181608 1091.573416 485.359705 14.225309 0.000000 0.128980
350.000000 65.110000 5.000000 2.000000 -1.000000 114.926138 -2.196227 1016.276069 440.436213 7.681859 0.000000 0.123183
351.000000 60.437000 11.000000 4.000000 -2.000000 116.489883 1.330341 950.005212 404.472119 16.551370 0.000000 0.115723
352.000000 56.271000 6.000000 2.000000 -1.000000 117.662162 4.450491 891.229515 375.133022 8.888184 0.000000 0.107331
353.000000 52.562000 13.000000 4.000000 -2.000000 118.546546 7.215034 838.745492 350.814050 19.030364 0.000000 0.098480
354.000000 49.256000 7.000000 2.000000 -1.000000 119.217176 9.670589 791.594226 330.378938 10.153664 0.000000 0.089484
355.000000 46.302000 15.000000 4.000000 -2.000000 119.727588 11.858553 749.002241 313.002779 21.602788 0.000000 0.080548
357.000000 67.507000 3.000000 5.000000 -2.000000 57.986289 -40.163883 1883.376836 1821.527431 14.831703 0.000000 0.240101
358.000000 74.180000 4.000000 5.000000 -2.000000 70.836136 -34.562478 1716.445865 1395.208508 13.495232 0.000000 0.131072
359.000000 75.861000 5.000000 5.000000 -2.000000 81.133728 -29.161097 1575.561844 1133.262856 13.194294 0.000000 0.111943
360.000000 74.477000 6.000000 5.000000 -2.000000 89.225461 -24.038754 1455.069643 956.932318 13.437569 0.000000 0.124826
361.000000 71.467000 7.000000 5.000000 -2.000000 95.528303 -19.249143 1350.840725 830.659319 14.002111 0.000000 0.137508
362.000000 67.736000 8.000000 5.000000 -2.000000 100.428949 -14.820965 1259.790577 736.083249 14.772119 0.000000 0.144516
363.000000 63.803000 9.000000 5.000000 -2.000000 104.248716 -10.761688 1179.568326 662.788669 15.681478 0.000000 0.146562
364.000000 59.946000 10.000000 5.000000 -2.000000 107.240681 -7.062847 1108.350858 604.439807 16.689691 0.000000 0.145024
365.000000 56.297000 11.000000 5.000000 -2.000000 109.598943 -3.705395 1044.702590 556.968407 17.770566 0.000000 0.141038
366.000000 52.913000 12.000000 5.000000 -2.000000 111.470550 -0.664212 987.477699 517.646884 18.906414 0.000000 0.135430
367.000000 49.807000 13.000000 5.000000 -2.000000 112.966445 2.088493 935.750522 484.580705 20.084856 0.000000 0.128780
368.000000 46.971000 14.000000 5.000000 -2.000000 114.170393 4.580869 888.765109 456.414558 21.296972 0.000000 0.121493
370.000000 57.772000 2.000000 3.000000 -1.000000 60.744359 -34.939471 1726.936119 1676.452784 8.665455 0.000000 0.169949
371.000000 61.453000 5.000000 6.000000 -2.000000 70.889927 -30.360410 1605.458813 1373.180050 16.290437 0.000000 0.116533
372.000000 62.404000 3.000000 3.000000 -1.000000 79.266085 -25.968525 1499.212093 1167.940977 8.020158 0.000000 0.116832
373.000000 61.583000 7.000000 6.000000 -2.000000 86.104374 -21.800622 1405.500560 1019.937281 16.252384 0.000000 0.131046
374.000000 59.718000 4.000000 3.000000 -1.000000 91.659744 -17.880514 1322.229401 908.230369 8.379033 0.000000 0.143062
375.000000 57.307000 9.000000 6.000000 -2.000000 96.169831 -14.220092 1247.745940 820.972671 17.461881 0.000000 0.150364
376.000000 54.662000 5.000000 3.000000 -1.000000 99.838917 -10.821301 1180.728836 750.959360 9.152848 0.000000 0.153537
377.000000 51.972000 11.000000 6.000000 -2.000000 102.835162 -7.678476 1120.109008 693.558547 19.252099 0.000000 0.153580
378.000000 49.345000 6.000000 3.000000 -1.000000 105.293757 -4.780611 1065.012186 645.657781 10.137956 0.000000 0.151351
379.000000 46.840000 13.000000 6.000000 -2.000000 107.322047 -2.113319 1014.716462 605.088807 21.359578 0.000000 0.147513
381.000000 49.981000 5.000000 7.000000 -2.000000 62.405710 -31.241283 1627.887378 1598.944499 20.032463 0.000000 0.136574
382.000000 52.229000 6.000000 7.000000 -2.000000 70.753027 -27.401649 1532.937255 1364.286868 19.167796 0.000000 0.110978
383.000000 52.840000 7.000000 7.000000 -2.000000 77.813192 -23.721277 1447.936942 1194.894376 18.944101 0.000000 0.118499
384.000000 52.336000 8.000000 7.000000 -2.000000 83.743216 -20.218807 1371.400344 1066.751198 19.124783 0.000000 0.132737
385.000000 51.123000 9.000000 7.000000 -2.000000 88.708844 -16.905852 1302.123280 966.354013 19.576933 0.000000 0.144463
386.000000 49.493000 10.000000 7.000000 -2.000000 92.865729 -13.787771 1239.119660 885.524176 20.220136 0.000000 0.152211
387.000000 47.645000 11.000000 7.000000 -2.000000 96.351152 -10.864713 1181.574250 819.016761 21.002883 0.000000 0.156415
388.000000 45.711000 12.000000 7.000000 -2.000000 99.281898 -8.132757 1128.807206 763.312181 21.890655 0.000000 0.157820
389.000000 45.738000 4.000000 4.000000 -1.000000 76.662094 -22.058332 1411.126258 1216.330812 10.943088 0.000000 0.118532
391.000000 81.884000 9.000000 1.000000 -1.000000 126.646116 28.455073 391.712168 30.308728 12.213855 0.000000 0.073504
392.000000 73.524000 10.000000 1.000000 -1.000000 126.007495 30.271417 346.784455 35.319130 13.602623 0.000000 0.085271
393.000000 66.689000 11.000000 1.000000 -1.000000 125.450625 31.728334 309.531602 40.037499 14.996843 0.000000 0.095817
394.000000 61.002000 12.000000 1.000000 -1.000000 124.963766 32.921470 278.141757 44.406151 16.395185 0.000000 0.105220
395.000000 56.198000 13.000000 1.000000 -1.000000 124.536128 33.915711 251.331776 48.419518 17.796720 0.000000 0.113608
396.000000 52.089000 14.000000 1.000000 -1.000000 124.158462 34.756490 228.167487 52.094940 19.200780 0.000000 0.121110
397.000000 48.535000 15.000000 1.000000 -1.000000 123.823059 35.476500 207.952604 55.458829 20.606868 0.000000 0.127846
398.000000 87.306000 8.000000 2.000000 -1.000000 120.116804 13.814961 710.338746 298.073621 11.456684 0.000000 0.071809
399.000000 78.234000 9.000000 2.000000 -1.000000 120.639178 17.152600 642.806744 273.812890 12.785017 0.000000 0.055281
400.000000 70.781000 10.000000 2.000000 -1.000000 120.937275 19.880919 585.792255 255.016111 14.131225 0.000000 0.040453
401.000000 64.569000 11.000000 2.000000 -1.000000 121.098459 22.143238 537.015771 240.080568 15.490526 0.000000 0.028016
402.000000 59.325000 12.000000 2.000000 -1.000000 121.174345 24.044003 494.812131 227.963347 16.859701 0.000000 0.019691
403.000000 54.846000 13.000000 2.000000 -1.000000 121.196354 25.660132 457.936621 217.959316 18.236509 0.000000 0.018590
404.000000 50.981000 14.000000 2.000000 -1.000000 121.184107 27.049025 425.440151 209.576202 19.619339 0.000000 0.024010
405.000000 47.613000 15.000000 2.000000 -1.000000 121.150125 28.254123 396.586413 202.460856 21.007002 0.000000 0.031856
407.000000 88.966000 7.000000 3.000000 -1.000000 109.004784 0.339605 968.620490 570.295132 11.245237 0.000000 0.142553
408.000000 80.486000 8.000000 3.000000 -1.000000 111.586809 4.669682 887.085853 513.733287 12.429511 0.000000 0.130601
409.000000 73.204000 9.000000 3.000000 -1.000000 113.423398 8.339951 817.219124 469.740320 13.665431 0.000000 0.117343
410.000000 66.967000 10.000000 3.000000 -1.000000 114.756769 11.466385 756.682964 434.559556 14.937676 0.000000 0.103769
411.000000 61.609000 11.000000 3.000000 -1.000000 115.742817 14.146476 703.725249 405.792933 16.236440 0.000000 0.090410
412.000000 56.980000 12.000000 3.000000 -1.000000 116.484038 16.459881 657.006706 381.838442 17.555155 0.000000 0.077545
413.000000 52.955000 13.000000 3.000000 -1.000000 117.049284 18.470834 615.486078 361.585521 18.889255 0.000000 0.065317
414.000000 49.432000 14.000000 3.000000 -1.000000 117.485770 20.230902 578.341598 344.240263 20.235471 0.000000 0.053796
415.000000 46.327000 15.000000 3.000000 -1.000000 117.826511 21.781501 544.916052 329.220210 21.591397 0.000000 0.043022
417.000000 87.652000 3.000000 4.000000 -1.000000 63.481731 -28.506718 1559.543533 1552.143420 11.422764 0.000000 0.118965
418.000000 89.198000 5.000000 4.000000 -1.000000 86.388548 -16.176838 1287.220634 1011.731183 11.220867 0.000000 0.143900
419.000000 84.250000 6.000000 4.000000 -1.000000 93.528473 -10.897739 1182.217561 873.415327 11.878309 0.000000 0.157019
420.000000 78.463000 7.000000 4.000000 -1.000000 98.802265 -6.209211 1092.098051 773.353797 12.753047 0.000000 0.160035
421.000000 72.696000 8.000000 4.000000 -1.000000 102.743307 -2.070288 1013.907050 697.432640 13.763745 0.000000 0.156837
422.000000 67.306000 9.000000 4.000000 -1.000000 105.729476 1.574103 945.423225 637.755349 14.865158 0.000000 0.150015
423.000000 62.412000 10.000000 4.000000 -1.000000 108.024862 4.782898 884.944553 589.550558 16.030112 0.000000 0.141156
424.000000 58.025000 11.000000 4.000000 -1.000000 109.814188 7.612905 831.144939 549.760639 17.241302 0.000000 0.131228
425.000000 54.113000 12.000000 4.000000 -1.000000 111.227680 10.115836 782.975864 516.333065 18.487181 0.000000 0.120822
426.000000 50.627000 13.000000 4.000000 -1.000000 112.358187 12.337221 739.597363 487.837223 19.759756 0.000000 0.110304
427.000000 47.516000 14.000000 4.000000 -1.000000 113.272752 14.316364 700.328633 463.244490 21.053310 0.000000 0.099899
429.000000 62.660000 3.000000 5.000000 -1.000000 51.891198 -30.097536 1598.844121 1916.746528 15.981193 0.000000 0.182097
430.000000 69.889000 4.000000 5.000000 -1.000000 64.749190 -24.758606 1471.374495 1500.016586 14.326044 0.000000 0.102847
431.000000 71.909000 5.000000 5.000000 -1.000000 74.967577 -19.767623 1361.802884 1248.144465 13.921522 0.000000 0.116691
432.000000 70.820000 6.000000 5.000000 -1.000000 82.980554 -15.159554 1266.606981 1078.301022 14.133556 0.000000 0.140475
433.000000 68.108000 7.000000 5.000000 -1.000000 89.247483 -10.944662 1183.131827 955.398644 14.694740 0.000000 0.154950
434.000000 64.677000 8.000000 5.000000 -1.000000 94.166885 -7.114614 1109.338322 861.978844 15.472773 0.000000 0.161233
435.000000 61.036000 9.000000 5.000000 -1.000000 98.056184 -3.648766 1043.634438 788.350866 16.394699 0.000000 0.161909
436.000000 57.450000 10.000000 5.000000 -1.000000 101.158457 -0.519503 984.759061 728.690128 17.416990 0.000000 0.158923
437.000000 54.049000 11.000000 5.000000 -1.000000 103.656737 2.303789 931.700261 679.277028 18.512066 0.000000 0.153591
438.000000 50.887000 12.000000 5.000000 -1.000000 105.688164 4.852033 883.636642 637.620031 19.661604 0.000000 0.146788
439.000000 47.978000 13.000000 5.000000 -1.000000 107.355658 7.154823 839.894514 601.984529 20.852955 0.000000 0.139094
441.000000 53.863000 4.000000 6.000000 -1.000000 55.311589 -26.639698 1514.901076 1774.411251 18.590776 0.000000 0.135187
442.000000 57.897000 5.000000 6.000000 -1.000000 65.445597 -22.324082 1416.949017 1472.571509 17.293310 0.000000 0.096333
443.000000 59.133000 6.000000 6.000000 -1.000000 73.787667 -18.267351 1330.270034 1270.551639 16.929644 0.000000 0.114201
444.000000 58.575000 7.000000 6.000000 -1.000000 80.602353 -14.483797 1253.023930 1124.981158 17.088976 0.000000 0.136280
445.000000 56.964000 8.000000 6.000000 -1.000000 86.160471 -10.976399 1183.750361 1014.579324 17.570651 0.000000 0.151193
446.000000 54.794000 9.000000 6.000000 -1.000000 90.704058 -7.739463 1121.275632 927.652098 18.265021 0.000000 0.159413
447.000000 52.375000 10.000000 6.000000 -1.000000 94.435481 -4.761234 1064.645656 857.224099 19.107104 0.000000 0.162683
448.000000 49.894000 11.000000 6.000000 -1.000000 97.518173 -2.026152 1013.076887 798.866998 20.055941 0.000000 0.162468
449.000000 47.458000 12.000000 6.000000 -1.000000 100.081824 0.483364 965.919843 749.628220 21.084436 0.000000 0.159837
450.000000 46.840000 5.000000 7.000000 -1.000000 57.535419 -24.229885 1459.380764 1691.888737 21.377915 0.000000 0.110656
451.000000 49.336000 6.000000 7.000000 -1.000000 65.873947 -20.621215 1380.007309 1456.035906 20.294294 0.000000 0.093184
452.000000 50.168000 7.000000 7.000000 -1.000000 72.921961 -17.209924 1308.373032 1287.158340 19.955498 0.000000 0.111798
453.000000 49.871000 8.000000 7.000000 -1.000000 78.850545 -14.002423 1243.398657 1159.621702 20.072148 0.000000 0.132248
454.000000 48.856000 9.000000 7.000000 -1.000000 83.832172 -10.999295 1184.196674 1059.488209 20.487583 0.000000 0.147083
455.000000 47.412000 10.000000 7.000000 -1.000000 88.024255 -8.196568 1130.030562 978.512037 21.109600 0.000000 0.156402
456.000000 45.739000 11.000000 7.000000 -1.000000 91.562951 -5.586945 1080.283989 911.492690 21.880396 0.000000 0.161394
461.000000 176.146000 4.000000 0.000000 0.000000 118.436942 44.680658 -89.363063 121.285449 5.678362 0.000000 0.245690
462.000000 162.190000 4.000000 1.000000 0.000000 109.021267 20.958504 562.743443 543.667632 6.168265 0.000000 0.085384
463.000000 133.092000 5.000000 1.000000 0.000000 111.523980 25.077775 471.335937 472.336601 7.516403 0.000000 0.049811
464.000000 112.540000 6.000000 1.000000 0.000000 113.054236 28.013299 402.403682 422.147880 8.888753 0.000000 0.020490
465.000000 97.357000 7.000000 1.000000 0.000000 114.068449 30.200672 348.564883 384.762698 10.274791 0.000000 0.007830
466.000000 85.721000 8.000000 1.000000 0.000000 114.781794 31.889041 305.351402 355.770023 11.669322 0.000000 0.026630
467.000000 76.537000 9.000000 1.000000 0.000000 115.306781 33.229527 269.900316 332.597406 13.069482 0.000000 0.043971
468.000000 69.111000 10.000000 1.000000 0.000000 115.707128 34.318500 240.292467 313.635735 14.473567 0.000000 0.058931
469.000000 62.988000 11.000000 1.000000 0.000000 116.021266 35.220069 215.193178 297.823642 15.880496 0.000000 0.071889
470.000000 57.854000 12.000000 1.000000 0.000000 116.273589 35.978425 193.645493 284.431210 17.289553 0.000000 0.083202
471.000000 53.490000 13.000000 1.000000 0.000000 116.480244 36.624968 174.945384 272.939225 18.700243 0.000000 0.093154
472.000000 49.734000 14.000000 1.000000 0.000000 116.652299 37.182596 158.563365 262.967876 20.112213 0.000000 0.101972
473.000000 46.469000 15.000000 1.000000 0.000000 116.797572 37.668383 144.093564 254.232704 21.525206 0.000000 0.109835
475.000000 162.847000 2.000000 2.000000 0.000000 67.387248 -11.140783 1186.956254 1397.909428 6.148348 0.000000 0.086507
476.000000 154.285000 3.000000 2.000000 0.000000 84.627168 -1.934387 1011.351034 1042.282600 6.487560 0.000000 0.152804
477.000000 135.331000 4.000000 2.000000 0.000000 94.505039 5.138013 878.223494 855.856450 7.394721 0.000000 0.159182
478.000000 117.509000 5.000000 2.000000 0.000000 100.527286 10.587295 773.824020 737.526515 8.515194 0.000000 0.145587
479.000000 102.737000 6.000000 2.000000 0.000000 104.434645 14.843360 689.759233 654.396774 9.738731 0.000000 0.125995
480.000000 90.788000 7.000000 2.000000 0.000000 107.108711 18.224842 620.615268 592.213168 11.019893 0.000000 0.105322
481.000000 73.147000 9.000000 2.000000 0.000000 110.439767 23.204705 513.595060 504.573591 13.676552 0.000000 0.066821
482.000000 60.994000 11.000000 2.000000 0.000000 112.373807 26.660386 434.612417 445.251990 16.400783 0.000000 0.034360
483.000000 52.207000 13.000000 2.000000 0.000000 113.609007 29.181909 373.925375 402.189102 19.160924 0.000000 0.008878
484.000000 45.588000 15.000000 2.000000 0.000000 114.454143 31.096136 325.836770 369.407663 21.942421 0.000000 0.017065
485.000000 95.690000 2.000000 3.000000 0.000000 48.856333 -18.678703 1338.859684 1933.639751 10.465828 0.000000 0.132349
486.000000 106.311000 4.000000 3.000000 0.000000 79.946859 -4.740788 1064.258912 1132.464215 9.416003 0.000000 0.140481
487.000000 98.796000 5.000000 3.000000 0.000000 88.514655 0.634351 963.083312 968.909983 10.130485 0.000000 0.158802
488.000000 82.086000 7.000000 3.000000 0.000000 98.816830 8.922318 806.027264 772.012270 12.190254 0.000000 0.151191
489.000000 74.827000 8.000000 3.000000 0.000000 102.009314 12.120648 743.856774 706.823355 13.371840 0.000000 0.139379
490.000000 62.994000 10.000000 3.000000 0.000000 106.319733 17.179263 642.258078 611.151004 15.882128 0.000000 0.112186
491.000000 58.222000 11.000000 3.000000 0.000000 107.814654 19.198981 600.216143 574.766972 17.183350 0.000000 0.098548
492.000000 50.419000 13.000000 3.000000 0.000000 110.010407 22.502310 529.133475 516.737939 19.841685 0.000000 0.072839
493.000000 47.209000 14.000000 3.000000 0.000000 110.832455 23.865897 498.818251 493.164142 21.190644 0.000000 0.060976
494.000000 75.866000 3.000000 4.000000 0.000000 54.166086 -16.684771 1297.591950 1752.376691 13.199781 0.000000 0.082518
495.000000 80.722000 5.000000 4.000000 0.000000 77.250076 -6.239151 1092.667157 1185.990124 12.401502 0.000000 0.131109
496.000000 72.498000 7.000000 4.000000 0.000000 90.211380 1.835804 940.502843 937.027194 13.804745 0.000000 0.160080
497.000000 63.033000 9.000000 4.000000 0.000000 97.861311 8.035997 823.047078 790.918794 15.875170 0.000000 0.153672
498.000000 54.869000 11.000000 4.000000 0.000000 102.677027 12.842101 729.640117 692.688849 18.235445 0.000000 0.136122
499.000000 48.222000 13.000000 4.000000 0.000000 105.889908 16.627412 653.581957 621.244120 20.747646 0.000000 0.115639
500.000000 53.948000 3.000000 5.000000 0.000000 44.252679 -20.325835 1373.685145 2119.101164 18.564409 0.000000 0.188415
501.000000 62.165000 4.000000 5.000000 0.000000 57.123499 -15.523413 1273.956515 1662.997617 16.108581 0.000000 0.066006
502.000000 64.939000 6.000000 5.000000 0.000000 75.502146 -7.169930 1110.393753 1221.499034 15.416035 0.000000 0.124237
503.000000 63.021000 7.000000 5.000000 0.000000 81.925686 -3.588453 1042.496926 1093.987067 15.883369 0.000000 0.146330
504.000000 60.279000 8.000000 5.000000 0.000000 87.043977 -0.365893 981.873347 996.578981 16.604259 0.000000 0.157018
505.000000 57.224000 9.000000 5.000000 0.000000 91.160204 2.531573 927.413740 919.181440 17.489331 0.000000 0.160410
506.000000 51.147000 11.000000 5.000000 0.000000 97.251958 7.485873 833.573126 802.863355 19.564589 0.000000 0.155030
507.000000 48.335000 12.000000 5.000000 0.000000 99.531265 9.604998 792.861866 757.716930 20.701763 0.000000 0.149039
508.000000 45.722000 13.000000 5.000000 0.000000 101.441258 11.522234 755.590467 718.694279 21.884083 0.000000 0.141918
509.000000 52.469000 5.000000 6.000000 0.000000 59.003719 -14.763810 1258.642062 1609.684685 19.084996 0.000000 0.061572
510.000000 54.269000 7.000000 6.000000 0.000000 74.278761 -7.803964 1122.509846 1246.795355 18.447348 0.000000 0.119086
511.000000 47.255000 11.000000 6.000000 0.000000 91.765934 2.985286 918.870959 907.771544 21.178584 0.000000 0.160470
512.000000 46.588000 8.000000 7.000000 0.000000 73.375144 -8.263549 1131.315113 1265.737350 21.489234 0.000000 0.115117
513.000000 45.903000 9.000000 7.000000 0.000000 78.437750 -5.588984 1080.322663 1162.244342 21.807883 0.000000 0.135428
522.000000 161.897000 2.000000 1.000000 1.000000 60.489954 23.388090 509.511471 1604.720306 6.184899 0.000000 0.116955
523.000000 148.768000 3.000000 1.000000 1.000000 77.170090 27.352878 418.224572 1216.974729 6.728704 0.000000 0.114536
524.000000 128.749000 4.000000 1.000000 1.000000 86.732126 30.100300 351.086510 1012.032017 7.773477 0.000000 0.102071
525.000000 111.376000 5.000000 1.000000 1.000000 92.813751 32.107931 299.634259 878.549615 8.984971 0.000000 0.084110
526.000000 97.411000 6.000000 1.000000 1.000000 96.986610 33.635666 258.945676 782.579724 10.272186 0.000000 0.068943
527.000000 86.254000 7.000000 1.000000 1.000000 100.013909 34.835628 225.963005 709.457017 11.600154 0.000000 0.059871
528.000000 77.245000 8.000000 1.000000 1.000000 102.304570 35.802297 198.686503 651.544569 12.952567 0.000000 0.057624
529.000000 69.862000 9.000000 1.000000 1.000000 104.095469 36.597257 175.753270 604.377596 14.320793 0.000000 0.060763
530.000000 63.724000 10.000000 1.000000 1.000000 105.532588 37.262289 156.202431 565.132887 15.699837 0.000000 0.066983
531.000000 58.551000 11.000000 1.000000 1.000000 106.710506 37.826696 139.337081 531.921097 17.086607 0.000000 0.074506
532.000000 54.138000 12.000000 1.000000 1.000000 107.693059 38.311622 124.639464 503.422253 18.479087 0.000000 0.082337
533.000000 50.332000 13.000000 1.000000 1.000000 108.524829 38.732694 111.716884 478.682384 19.875905 0.000000 0.089991
534.000000 47.019000 14.000000 1.000000 1.000000 109.237859 39.101708 100.266094 456.992823 21.276098 0.000000 0.097259
535.000000 105.187000 2.000000 2.000000 1.000000 46.220203 5.926220 863.277991 1977.942606 9.521512 0.000000 0.132245
536.000000 115.133000 3.000000 2.000000 1.000000 65.066175 11.618380 753.708672 1451.838408 8.696780 0.000000 0.076469
537.000000 108.896000 4.000000 2.000000 1.000000 77.010838 15.981975 666.743982 1199.249442 9.192775 0.000000 0.120008
538.000000 99.013000 5.000000 2.000000 1.000000 84.969507 19.396878 596.042864 1041.441769 10.108718 0.000000 0.127258
539.000000 89.266000 6.000000 2.000000 1.000000 90.545480 22.124172 537.433180 929.938456 11.211244 0.000000 0.119751
540.000000 80.618000 7.000000 2.000000 1.000000 94.624081 24.343191 488.057429 845.453328 12.412875 0.000000 0.106721
541.000000 73.181000 8.000000 2.000000 1.000000 97.715517 26.178773 445.892757 778.515081 13.673424 0.000000 0.092068
542.000000 66.831000 9.000000 2.000000 1.000000 100.128344 27.719440 409.466955 723.807490 14.971847 0.000000 0.077558
543.000000 61.398000 10.000000 2.000000 1.000000 102.057742 29.029202 377.683035 678.060196 16.296054 0.000000 0.064072
544.000000 56.723000 11.000000 2.000000 1.000000 103.632166 30.155242 349.706845 639.123636 17.638606 0.000000 0.052172
545.000000 52.672000 12.000000 2.000000 1.000000 104.939126 31.132969 324.892805 605.512767 18.994676 0.000000 0.042394
546.000000 49.136000 13.000000 2.000000 1.000000 106.040043 31.989402 302.733466 576.161168 20.360992 0.000000 0.035420
547.000000 46.028000 14.000000 2.000000 1.000000 106.979166 32.745474 282.824444 550.279023 21.735260 0.000000 0.031974
549.000000 83.398000 3.000000 3.000000 1.000000 53.265262 0.960289 956.959403 1744.373406 12.008354 0.000000 0.039701
550.000000 86.946000 4.000000 3.000000 1.000000 66.492146 5.650981 868.501453 1411.447806 11.516052 0.000000 0.077340
551.000000 84.035000 5.000000 3.000000 1.000000 75.939474 9.554661 793.834381 1214.350271 11.912824 0.000000 0.121691
552.000000 78.843000 6.000000 3.000000 1.000000 82.845930 12.825591 729.966342 1079.547842 12.695502 0.000000 0.136976
553.000000 73.160000 7.000000 3.000000 1.000000 88.030072 15.589169 674.712547 979.433269 13.680347 0.000000 0.138239
554.000000 67.691000 8.000000 3.000000 1.000000 92.021022 17.944632 626.440321 901.077555 14.784286 0.000000 0.132543
555.000000 62.684000 9.000000 3.000000 1.000000 95.164180 19.969715 583.905067 837.505157 15.964277 0.000000 0.123408
556.000000 58.191000 10.000000 3.000000 1.000000 97.689796 21.725229 546.141421 784.562687 17.195791 0.000000 0.112687
557.000000 54.192000 11.000000 3.000000 1.000000 99.755102 23.258914 512.389110 739.591653 18.463821 0.000000 0.101388
558.000000 50.639000 12.000000 3.000000 1.000000 101.470066 24.608484 482.041227 700.794146 19.758674 0.000000 0.090078
559.000000 47.478000 13.000000 3.000000 1.000000 102.913361 25.803952 454.607420 666.900762 21.073808 0.000000 0.079085
560.000000 59.467000 3.000000 4.000000 1.000000 43.479331 -6.271737 1093.286638 2082.831136 16.842258 0.000000 0.159215
561.000000 67.545000 4.000000 4.000000 1.000000 56.848034 -1.787293 1008.584970 1644.361436 14.826073 0.000000 0.001680
562.000000 69.317000 5.000000 4.000000 1.000000 67.060225 2.117487 935.205139 1396.836507 14.444760 0.000000 0.079740
563.000000 67.846000 6.000000 4.000000 1.000000 74.896008 5.518214 871.019317 1232.839418 14.755688 0.000000 0.119734
564.000000 64.899000 7.000000 4.000000 1.000000 80.982585 8.486737 814.401449 1113.694633 15.424069 0.000000 0.138134
565.000000 61.401000 8.000000 4.000000 1.000000 85.782673 11.087281 764.087577 1021.874855 16.301029 0.000000 0.144547
566.000000 57.817000 9.000000 4.000000 1.000000 89.627828 13.375322 719.080366 948.186229 17.310288 0.000000 0.144094
567.000000 54.363000 10.000000 4.000000 1.000000 92.754549 15.397864 678.582325 887.288261 18.408720 0.000000 0.139647
568.000000 51.134000 11.000000 4.000000 1.000000 95.332673 17.194322 641.948134 835.836112 19.570104 0.000000 0.132882
569.000000 48.160000 12.000000 4.000000 1.000000 97.485605 18.797593 608.650005 791.610229 20.777584 0.000000 0.124814
570.000000 52.119000 4.000000 5.000000 1.000000 48.621137 -7.229175 1111.524418 1896.773273 19.216021 0.000000 0.094625
571.000000 56.396000 5.000000 5.000000 1.000000 58.997111 -3.524083 1041.283073 1589.002059 17.756516 0.000000 0.021336
572.000000 57.461000 6.000000 5.000000 1.000000 67.322614 -0.202538 978.804665 1390.727397 17.424883 0.000000 0.081379
573.000000 56.667000 7.000000 5.000000 1.000000 74.019093 2.772955 922.869667 1249.595649 17.666917 0.000000 0.116889
574.000000 54.880000 8.000000 5.000000 1.000000 79.443746 5.440042 872.501285 1142.480060 18.240407 0.000000 0.136205
575.000000 52.618000 9.000000 5.000000 1.000000 83.879404 7.834385 826.907928 1057.501408 19.022672 0.000000 0.145525
576.000000 50.182000 10.000000 5.000000 1.000000 87.543463 9.988588 785.441304 987.884716 19.944927 0.000000 0.148552
577.000000 47.735000 11.000000 5.000000 1.000000 90.601241 11.931793 747.565394 929.455923 20.965612 0.000000 0.147554
578.000000 45.719000 5.000000 6.000000 1.000000 51.956460 -7.872292 1123.817700 1791.223856 21.905156 0.000000 0.060282
579.000000 48.285000 6.000000 6.000000 1.000000 60.424262 -4.719180 1063.850233 1553.895332 20.738753 0.000000 0.034458
580.000000 49.001000 7.000000 6.000000 1.000000 67.455121 -1.837652 1009.531907 1388.033614 20.433255 0.000000 0.082452
581.000000 48.552000 8.000000 6.000000 1.000000 73.301046 0.793120 960.100377 1263.913270 20.620105 0.000000 0.114061
582.000000 47.410000 9.000000 6.000000 1.000000 78.183301 3.194759 914.924564 1166.527489 21.114848 0.000000 0.133279
583.000000 45.885000 10.000000 6.000000 1.000000 82.285705 5.388533 873.477567 1087.441292 21.814938 0.000000 0.144186
594.000000 101.006000 4.000000 0.000000 2.000000 71.010958 49.494636 -284.939812 1511.218076 9.910498 0.000000 0.366151
595.000000 92.618000 5.000000 0.000000 2.000000 79.200640 48.928843 -260.033807 1253.485475 10.806595 0.000000 0.309500
596.000000 84.068000 6.000000 0.000000 2.000000 85.051511 48.481885 -240.754629 1081.586312 11.904492 0.000000 0.277038
597.000000 76.353000 7.000000 0.000000 2.000000 89.418613 48.119922 -225.388974 957.360216 13.106357 0.000000 0.257235
598.000000 69.641000 8.000000 0.000000 2.000000 92.793452 47.820836 -212.855020 862.786901 14.368801 0.000000 0.244727
599.000000 63.856000 9.000000 0.000000 2.000000 95.475205 47.569567 -202.436039 788.093352 15.669628 0.000000 0.236668
600.000000 58.870000 10.000000 0.000000 2.000000 97.655163 47.355503 -193.638362 727.458520 16.996307 0.000000 0.231426
601.000000 54.551000 11.000000 0.000000 2.000000 99.460827 47.170955 -186.110869 677.172344 18.341224 0.000000 0.228017
602.000000 50.789000 12.000000 0.000000 2.000000 100.980224 47.010217 -179.597004 634.745818 19.699490 0.000000 0.225825
603.000000 47.489000 13.000000 0.000000 2.000000 102.275973 46.868960 -173.904942 598.440579 21.067819 0.000000 0.224457
605.000000 94.592000 3.000000 1.000000 2.000000 54.139977 34.195527 243.673997 1881.563706 10.585963 0.000000 0.238906
606.000000 93.887000 4.000000 1.000000 2.000000 66.908242 35.523697 206.614920 1504.840004 10.663389 0.000000 0.176225
607.000000 87.830000 5.000000 1.000000 2.000000 75.675562 36.555225 176.977564 1283.137036 11.397051 0.000000 0.149235
608.000000 80.715000 6.000000 1.000000 2.000000 81.994228 37.379014 152.735365 1131.494352 12.400207 0.000000 0.131982
609.000000 73.914000 7.000000 1.000000 2.000000 86.735197 38.051820 132.538032 1018.967000 13.540112 0.000000 0.119655
610.000000 67.805000 8.000000 1.000000 2.000000 90.410789 38.611521 115.451173 931.124396 14.758907 0.000000 0.111176
611.000000 62.435000 9.000000 1.000000 2.000000 93.337495 39.084343 100.807625 860.139497 16.027340 0.000000 0.105992
612.000000 57.743000 10.000000 1.000000 2.000000 95.719686 39.489005 88.118288 801.314324 17.329028 0.000000 0.103544
613.000000 53.639000 11.000000 1.000000 2.000000 97.694521 39.839223 77.016442 751.618200 18.654086 0.000000 0.103233
614.000000 50.037000 12.000000 1.000000 2.000000 99.357156 40.145269 67.221722 708.988294 19.996191 0.000000 0.104486
615.000000 46.861000 13.000000 1.000000 2.000000 100.775524 40.414990 58.516112 671.961303 21.351114 0.000000 0.106813
616.000000 76.191000 3.000000 2.000000 2.000000 46.999395 20.682187 568.684637 2013.821060 13.144454 0.000000 0.189005
617.000000 78.866000 5.000000 2.000000 2.000000 70.098400 25.566389 460.102282 1372.940128 12.694258 0.000000 0.114286
618.000000 69.317000 7.000000 2.000000 2.000000 82.540281 28.841842 382.278250 1101.884038 14.439636 0.000000 0.109852
619.000000 59.810000 9.000000 2.000000 2.000000 90.082186 31.176955 323.764541 939.195524 16.732412 0.000000 0.093085
620.000000 51.999000 11.000000 2.000000 2.000000 95.079468 32.920514 278.167258 827.031610 19.243909 0.000000 0.075902
621.000000 45.763000 13.000000 2.000000 2.000000 98.612454 34.269731 241.634721 743.741632 21.864700 0.000000 0.063543
622.000000 57.578000 3.000000 3.000000 2.000000 39.511557 10.243526 780.499886 2267.252323 17.395110 0.000000 0.237282
623.000000 66.206000 4.000000 3.000000 2.000000 53.232562 13.587101 714.873478 1768.372307 15.126312 0.000000 0.091991
624.000000 67.878000 5.000000 3.000000 2.000000 63.497634 16.388960 658.454711 1500.405597 14.751428 0.000000 0.083631
625.000000 66.259000 6.000000 3.000000 2.000000 71.298826 18.760239 609.432814 1325.771992 15.109732 0.000000 0.105179
626.000000 63.244000 7.000000 3.000000 2.000000 77.347108 20.786580 566.442610 1199.446267 15.828101 0.000000 0.116423
627.000000 59.758000 8.000000 3.000000 2.000000 82.131749 22.534021 528.435400 1102.035019 16.749869 0.000000 0.118860
628.000000 56.235000 9.000000 3.000000 2.000000 85.988337 24.053763 494.592275 1023.659902 17.797749 0.000000 0.115973
629.000000 52.871000 10.000000 3.000000 2.000000 89.149736 25.385813 464.264448 958.680480 18.929206 0.000000 0.110079
630.000000 49.742000 11.000000 3.000000 2.000000 91.780343 26.561712 436.931256 903.598053 20.118901 0.000000 0.102596
631.000000 46.869000 12.000000 3.000000 2.000000 93.998427 27.606560 412.170023 856.102300 21.350799 0.000000 0.094392
632.000000 56.811000 5.000000 4.000000 2.000000 56.758023 8.967862 805.150526 1655.163974 17.627252 0.000000 0.050080
633.000000 56.466000 7.000000 4.000000 2.000000 71.679728 13.939239 707.861720 1308.185800 17.730239 0.000000 0.104705
634.000000 52.034000 9.000000 4.000000 2.000000 81.365699 17.789387 629.659603 1112.640147 19.236899 0.000000 0.126434
635.000000 47.015000 11.000000 4.000000 2.000000 87.988289 20.833722 565.429118 981.450054 21.287599 0.000000 0.124586
636.000000 46.828000 5.000000 5.000000 2.000000 50.419022 3.029182 918.044109 1832.031358 21.386625 0.000000 0.074751
637.000000 49.212000 6.000000 5.000000 2.000000 58.962078 5.759491 866.442768 1591.958887 20.348301 0.000000 0.035679
638.000000 49.636000 7.000000 5.000000 2.000000 65.954787 8.201749 819.870089 1426.177583 20.172481 0.000000 0.076175
639.000000 48.902000 8.000000 5.000000 2.000000 71.713621 10.391651 777.625146 1302.597472 20.472940 0.000000 0.104849
640.000000 47.525000 9.000000 5.000000 2.000000 76.495495 12.360887 739.131492 1205.619131 21.064102 0.000000 0.121599
641.000000 45.821000 10.000000 5.000000 2.000000 80.502307 14.137192 703.910707 1126.689178 21.845718 0.000000 0.130334
652.000000 66.463000 5.000000 1.000000 3.000000 60.854504 39.588425 84.978131 1719.802082 15.064440 0.000000 0.254468
653.000000 64.728000 6.000000 1.000000 3.000000 68.603735 40.029628 70.933025 1491.747820 15.466352 0.000000 0.213841
654.000000 61.690000 7.000000 1.000000 3.000000 74.610195 40.400605 58.982180 1330.025027 16.226309 0.000000 0.188655
655.000000 58.248000 8.000000 1.000000 3.000000 79.377577 40.716861 48.689683 1207.324968 17.183625 0.000000 0.171347
656.000000 54.807000 9.000000 1.000000 3.000000 83.240704 40.989656 39.732751 1109.998622 18.261253 0.000000 0.158890
657.000000 51.540000 10.000000 1.000000 3.000000 86.427611 41.227363 31.867266 1030.341807 19.417632 0.000000 0.149855
658.000000 48.513000 11.000000 1.000000 3.000000 89.097570 41.436336 24.905188 963.613888 20.628368 0.000000 0.143420
659.000000 45.740000 12.000000 1.000000 3.000000 91.364532 41.621483 18.699324 906.704705 21.878198 0.000000 0.139026
661.000000 56.983000 4.000000 2.000000 3.000000 46.269904 28.606530 388.026172 2113.773676 17.574862 0.000000 0.256304
662.000000 60.290000 5.000000 2.000000 3.000000 56.835737 30.032509 352.786714 1753.423558 16.608574 0.000000 0.180275
663.000000 60.015000 6.000000 2.000000 3.000000 64.951842 31.230403 322.392165 1529.226372 16.682595 0.000000 0.151181
664.000000 58.074000 7.000000 2.000000 3.000000 71.314977 32.250048 295.907634 1371.389246 17.238306 0.000000 0.137502
665.000000 55.438000 8.000000 2.000000 3.000000 76.404150 33.127949 272.624229 1251.824266 18.056321 0.000000 0.128014
666.000000 52.589000 9.000000 2.000000 3.000000 80.549212 33.891403 251.994656 1156.830103 19.032919 0.000000 0.119680
667.000000 49.763000 10.000000 2.000000 3.000000 83.980489 34.561195 233.589655 1078.815176 20.112696 0.000000 0.111933
668.000000 47.067000 11.000000 2.000000 3.000000 86.861784 35.153412 217.067806 1013.173521 21.263365 0.000000 0.104835
669.000000 47.725000 4.000000 3.000000 3.000000 41.304988 19.630834 591.096076 2241.493879 20.985547 0.000000 0.251896
670.000000 52.666000 5.000000 3.000000 3.000000 52.038926 21.653481 547.702401 1844.472102 19.014911 0.000000 0.148991
671.000000 53.314000 7.000000 3.000000 3.000000 67.231095 24.889501 475.640522 1438.998851 18.779402 0.000000 0.113571
672.000000 51.677000 8.000000 3.000000 3.000000 72.687977 26.200075 445.395805 1314.890435 19.372382 0.000000 0.114905
673.000000 47.343000 10.000000 3.000000 3.000000 80.902210 28.373996 393.680982 1136.884546 21.142580 0.000000 0.111869
674.000000 47.401000 6.000000 4.000000 3.000000 55.665310 16.597998 654.183700 1708.117258 21.126453 0.000000 0.094725
675.000000 47.959000 7.000000 4.000000 3.000000 62.714428 18.414620 616.659499 1526.135321 20.878378 0.000000 0.090122
676.000000 47.333000 8.000000 4.000000 3.000000 68.510604 20.024447 582.740772 1391.997866 21.152153 0.000000 0.101229
677.000000 46.058000 9.000000 4.000000 3.000000 73.326702 21.458730 551.931697 1287.366789 21.735970 0.000000 0.110348
687.000000 48.481000 9.000000 0.000000 4.000000 75.473665 49.194114 -271.639966 1367.743939 20.646126 0.000000 0.333623
689.000000 50.729000 6.000000 1.000000 4.000000 56.952481 41.997301 5.992071 1883.203636 19.737586 0.000000 0.318935
690.000000 50.485000 7.000000 1.000000 4.000000 63.784225 42.185674 -0.433803 1656.236474 19.830878 0.000000 0.271428
691.000000 49.201000 8.000000 1.000000 4.000000 69.336732 42.349348 -6.048290 1490.230407 20.346643 0.000000 0.240128
692.000000 47.417000 9.000000 1.000000 4.000000 73.918383 42.492879 -10.995945 1361.800948 21.110754 0.000000 0.218009
693.000000 47.700000 7.000000 2.000000 4.000000 61.161933 34.904080 224.052771 1663.620769 20.990297 0.000000 0.199335
694.000000 45.576000 9.000000 2.000000 4.000000 71.673639 36.070013 191.015214 1382.049797 21.964921 0.000000 0.160810
#UB matrix in q= (UB) B0 G* 
#[[-0.858952066  0.086075536  0.504220877]
# [ 0.360072961 -0.599501757  0.715733035]
# [ 0.364072534  0.796842275  0.484277944]]
#B0 matrix in q= UB (B0) G*
#[[ 0.19670273 -0.          0.03056101]
# [ 0.          0.19187965 -0.        ]
# [ 0.          0.          0.18806537]]
#UBB0 matrix in q= (UB B0) G* i.e. recip. basis vectors are columns in LT frame: astar = UBB0[:,0], bstar = UBB0[:,1], cstar = UBB0[:,2]. (abcstar as columns on xyzlab1, xlab1 = ui, ui = unit vector along incident beam)
#[[-0.16895822  0.01651614  0.06857605]
# [ 0.07082734 -0.11503219  0.14560879]
# [ 0.07161406  0.15289782  0.10220233]]
#Euler angles phi theta psi (deg)
#[155.422  61.084  35.213]
#deviatoric strain in direct crystal frame (10-3 unit)
#[[ 4.62 -0.14 -0.67]
# [-0.14  3.6  -0.24]
# [-0.67 -0.24 -8.22]]
#deviatoric strain in sample2 frame (10-3 unit)
#[[-1.69 -6.07 -1.25]
# [-6.08 -2.39 -0.55]
# [-1.26 -0.55  4.09]]
#new lattice parameters
#[ 5.1505     5.2063008  5.3138354 90.0120566 99.2770027 90.0155282]
#CCDLabel
#sCMOS
#DetectorParameters
#[79.0, 975.0, 941.0, 0.0, 0.0]
#pixelsize
#0.0734
#Frame dimensions
#[2018, 2016]
#
