#Strain and Orientation Refinement from experimental file: /home/micha/LaueProjects/DepthEffects/testZrO2_54.cor
#File created at Wed Jun 28 14:21:33 2023 with indexingSpotsSet.py
#Number of indexed spots: 512
#Element
#ZrO2
#grainIndex
#G_0
#Mean Deviation(pixel): 0.111
##spot_index intensity h k l 2theta Chi Xexp Yexp Energy GrainIndex PixDev
7.000000 45.614000 -9.000000 0.000000 -4.000000 70.316827 -44.763889 2042.459992 1483.259989 21.937551 0.000000 0.239931
8.000000 48.682000 -4.000000 0.000000 -2.000000 68.089546 -47.131433 2134.505598 1577.312849 10.277731 0.000000 0.292344
13.000000 46.892000 -10.000000 1.000000 -4.000000 80.760433 -45.767601 2080.526255 1191.991859 21.335968 0.000000 0.201445
14.000000 50.498000 -9.000000 1.000000 -4.000000 79.631970 -48.166086 2177.336624 1236.238443 19.812463 0.000000 0.246496
15.000000 54.525000 -8.000000 1.000000 -4.000000 78.156280 -50.978978 2303.116088 1299.489307 18.349557 0.000000 0.313452
18.000000 46.592000 -11.000000 2.000000 -4.000000 89.469509 -46.732991 2118.454158 955.539686 21.470056 0.000000 0.184140
19.000000 50.227000 -5.000000 1.000000 -2.000000 89.113539 -49.156614 2219.991751 966.464157 9.958028 0.000000 0.230971
20.000000 54.349000 -9.000000 2.000000 -4.000000 88.564778 -51.984810 2351.841291 984.785373 18.405646 0.000000 0.299957
23.000000 48.803000 -11.000000 3.000000 -4.000000 96.934275 -50.105224 2262.472061 736.909884 20.494385 0.000000 0.240550
26.000000 46.808000 -3.000000 1.000000 -1.000000 103.433773 -51.014035 2304.778626 532.372243 5.341389 0.000000 0.269510
30.000000 46.933000 -8.000000 -1.000000 -3.000000 61.936064 -38.228195 1822.818038 1671.463360 21.324430 0.000000 0.210961
31.000000 49.838000 -7.000000 -1.000000 -3.000000 58.630527 -40.235048 1885.668311 1800.556024 20.082545 0.000000 0.257113
36.000000 47.036000 -11.000000 1.000000 -3.000000 85.711912 -38.834904 1841.442861 1044.602697 21.269468 0.000000 0.116584
37.000000 51.015000 -10.000000 1.000000 -3.000000 85.335283 -40.646798 1899.021749 1056.744937 19.610476 0.000000 0.128013
38.000000 55.648000 -9.000000 1.000000 -3.000000 84.811680 -42.793358 1971.427702 1074.180818 17.977957 0.000000 0.148084
39.000000 61.073000 -8.000000 1.000000 -3.000000 84.070932 -45.368650 2065.234238 1100.102250 16.380907 0.000000 0.181937
40.000000 67.447000 -7.000000 1.000000 -3.000000 83.000748 -48.501054 2191.574490 1140.421681 14.832914 0.000000 0.238290
43.000000 46.265000 -12.000000 2.000000 -3.000000 93.763392 -39.919935 1875.558152 848.689623 21.620792 0.000000 0.094318
44.000000 50.084000 -11.000000 2.000000 -3.000000 94.032301 -41.788155 1936.917833 839.242778 19.972049 0.000000 0.107048
45.000000 54.519000 -10.000000 2.000000 -3.000000 94.269999 -43.991205 2014.046068 829.302676 18.346994 0.000000 0.130704
46.000000 59.709000 -9.000000 2.000000 -3.000000 94.442157 -46.619299 2113.917483 819.264745 16.752173 0.000000 0.170463
47.000000 65.819000 -8.000000 2.000000 -3.000000 94.489516 -49.793546 2248.331315 810.090145 15.196795 0.000000 0.234861
50.000000 48.306000 -4.000000 1.000000 -1.000000 101.231727 -42.886381 1974.677723 649.297995 6.901419 0.000000 0.104416
51.000000 52.332000 -11.000000 3.000000 -3.000000 101.966079 -45.138005 2056.491627 617.627438 19.111203 0.000000 0.138754
52.000000 56.991000 -10.000000 3.000000 -3.000000 102.712105 -47.809296 2162.374293 579.486897 17.548607 0.000000 0.190803
54.000000 46.140000 -13.000000 4.000000 -3.000000 107.239108 -43.943114 2012.302151 477.166085 21.674033 0.000000 0.124168
55.000000 49.703000 -12.000000 4.000000 -3.000000 108.290136 -46.236091 2098.765428 426.686387 20.119786 0.000000 0.169544
56.000000 53.771000 -11.000000 4.000000 -3.000000 109.387975 -48.941993 2210.606244 364.331263 18.597073 0.000000 0.233481
59.000000 46.967000 -13.000000 5.000000 -3.000000 113.543705 -47.287745 2140.868512 249.637828 21.290013 0.000000 0.213016
63.000000 48.082000 -9.000000 -1.000000 -2.000000 68.133665 -30.674694 1613.413982 1443.202446 20.814075 0.000000 0.128996
64.000000 51.991000 -8.000000 -1.000000 -2.000000 65.929537 -31.894779 1644.798118 1507.281198 19.249444 0.000000 0.140961
65.000000 56.349000 -7.000000 -1.000000 -2.000000 63.132791 -33.382391 1684.210801 1593.993833 17.761557 0.000000 0.161623
66.000000 61.037000 -6.000000 -1.000000 -2.000000 59.482198 -35.233489 1735.184619 1717.726518 16.397886 0.000000 0.197210
67.000000 65.613000 -5.000000 -1.000000 -2.000000 54.549145 -37.594073 1803.680829 1908.146532 15.255220 0.000000 0.259671
70.000000 46.203000 -11.000000 0.000000 -2.000000 80.515323 -30.894423 1619.006568 1150.545372 21.655761 0.000000 0.116805
71.000000 50.202000 -10.000000 0.000000 -2.000000 79.865131 -32.006670 1647.717540 1167.882270 19.930849 0.000000 0.117564
72.000000 54.915000 -9.000000 0.000000 -2.000000 79.052439 -33.334774 1682.928660 1190.185871 18.220409 0.000000 0.119966
73.000000 60.532000 -8.000000 0.000000 -2.000000 78.012199 -34.946376 1727.129151 1219.805810 16.529955 0.000000 0.125475
74.000000 67.298000 -7.000000 0.000000 -2.000000 76.641826 -36.939490 1784.265214 1260.765683 14.868214 0.000000 0.136859
75.000000 75.519000 -6.000000 0.000000 -2.000000 74.771693 -39.460681 1860.988732 1320.495653 13.249855 0.000000 0.159394
76.000000 85.514000 -5.000000 0.000000 -2.000000 72.105237 -42.736784 1969.455895 1414.158416 11.701591 0.000000 0.203512
77.000000 46.174000 -12.000000 1.000000 -2.000000 89.424845 -32.097409 1650.090300 953.754084 21.665678 0.000000 0.104252
78.000000 50.184000 -11.000000 1.000000 -2.000000 89.569818 -33.296942 1681.910974 950.668234 19.934343 0.000000 0.101253
79.000000 54.925000 -10.000000 1.000000 -2.000000 89.709178 -34.723794 1720.922961 947.646851 18.213614 0.000000 0.098703
80.000000 60.604000 -9.000000 1.000000 -2.000000 89.829783 -36.446946 1769.874618 944.975002 16.506708 0.000000 0.097839
81.000000 67.508000 -8.000000 1.000000 -2.000000 89.906827 -38.565024 1833.119240 943.238447 14.818288 0.000000 0.101548
82.000000 76.041000 -7.000000 1.000000 -2.000000 89.892684 -41.222970 1917.986861 943.680198 13.155378 0.000000 0.115888
83.000000 86.766000 -6.000000 1.000000 -2.000000 89.693088 -44.639994 2037.853208 949.102708 11.529080 0.000000 0.152049
84.000000 48.940000 -6.000000 1.000000 -1.000000 97.611714 -34.546191 1715.994814 766.376166 10.219020 0.000000 0.075985
85.000000 53.348000 -11.000000 2.000000 -2.000000 98.381011 -36.062951 1758.781750 744.841434 18.748972 0.000000 0.070083
86.000000 58.571000 -5.000000 1.000000 -1.000000 99.238400 -37.885943 1812.448243 719.187700 8.538348 0.000000 0.067973
87.000000 64.837000 -9.000000 2.000000 -2.000000 100.189650 -40.113214 1881.748262 688.042264 15.425825 0.000000 0.076386
88.000000 81.862000 -7.000000 2.000000 -2.000000 102.339351 -46.414824 2105.806020 599.494954 12.217114 0.000000 0.162145
89.000000 47.061000 -13.000000 3.000000 -2.000000 104.313653 -35.755209 1749.969586 602.601885 21.251565 0.000000 0.048095
90.000000 51.008000 -12.000000 3.000000 -2.000000 105.488412 -37.353496 1796.505750 565.801025 19.606329 0.000000 0.046509
91.000000 55.615000 -11.000000 3.000000 -2.000000 106.798475 -39.265376 1854.851061 521.326046 17.981737 0.000000 0.058735
92.000000 61.042000 -10.000000 3.000000 -2.000000 108.257711 -41.587347 1930.153829 466.273392 16.382577 0.000000 0.088998
93.000000 67.498000 -9.000000 3.000000 -2.000000 109.873780 -44.456430 2031.063794 395.938048 14.815241 0.000000 0.140224
94.000000 75.250000 -8.000000 3.000000 -2.000000 111.637268 -48.070758 2173.318650 302.063751 13.288456 0.000000 0.221942
96.000000 48.377000 -13.000000 4.000000 -2.000000 111.369038 -38.596789 1834.095680 402.171541 20.670517 0.000000 0.055366
97.000000 52.369000 -6.000000 2.000000 -1.000000 112.946286 -40.587364 1897.084099 340.972887 9.547244 0.000000 0.087388
98.000000 56.985000 -11.000000 4.000000 -2.000000 114.686074 -42.990797 1978.337480 264.652744 17.546945 0.000000 0.133703
99.000000 62.360000 -5.000000 2.000000 -1.000000 116.594275 -45.938593 2087.147527 166.178160 8.017005 0.000000 0.200290
101.000000 45.709000 -14.000000 5.000000 -2.000000 116.284492 -39.794270 1871.552253 249.157692 21.875443 0.000000 0.090754
102.000000 49.146000 -13.000000 5.000000 -2.000000 118.008986 -41.854100 1939.148373 172.395309 20.344880 0.000000 0.132435
103.000000 53.057000 -12.000000 5.000000 -2.000000 119.889327 -44.326959 2026.300737 76.223653 18.844768 0.000000 0.188516
106.000000 46.093000 -7.000000 3.000000 -1.000000 122.229308 -43.067814 1981.044893 12.177163 10.845588 0.000000 0.181231
110.000000 46.254000 -8.000000 -2.000000 -1.000000 56.845822 -22.564989 1422.246628 1702.364916 21.641031 0.000000 0.119915
111.000000 48.918000 -7.000000 -2.000000 -1.000000 52.977229 -23.000841 1431.878456 1822.822427 20.463531 0.000000 0.151784
112.000000 51.076000 -6.000000 -2.000000 -1.000000 47.970925 -23.543286 1443.953250 1999.172972 19.600316 0.000000 0.210058
115.000000 47.475000 -10.000000 -1.000000 -1.000000 72.760328 -23.617744 1445.618403 1305.518051 21.078978 0.000000 0.110996
116.000000 51.648000 -9.000000 -1.000000 -1.000000 71.312977 -24.107667 1456.622561 1339.819008 19.376346 0.000000 0.109219
117.000000 56.545000 -8.000000 -1.000000 -1.000000 69.514022 -24.702600 1470.099240 1383.613671 17.698728 0.000000 0.108165
118.000000 62.322000 -7.000000 -1.000000 -1.000000 67.219851 -25.440175 1486.987235 1441.527756 16.058814 0.000000 0.109207
119.000000 69.122000 -6.000000 -1.000000 -1.000000 64.198112 -26.378315 1508.769477 1521.819707 14.479622 0.000000 0.115679
120.000000 76.948000 -5.000000 -1.000000 -1.000000 60.048896 -27.610912 1537.934075 1640.880368 13.007694 0.000000 0.135412
121.000000 85.166000 -4.000000 -1.000000 -1.000000 54.028133 -29.300469 1578.999768 1836.765991 11.753459 0.000000 0.186338
124.000000 48.433000 -12.000000 1.000000 -1.000000 92.495650 -26.337529 1507.815226 888.656375 20.654525 0.000000 0.119657
125.000000 52.944000 -11.000000 1.000000 -1.000000 93.021424 -27.069554 1525.046125 877.201414 18.894426 0.000000 0.116303
126.000000 58.364000 -10.000000 1.000000 -1.000000 93.636699 -27.952631 1546.134926 863.558476 17.139623 0.000000 0.111994
127.000000 64.990000 -9.000000 1.000000 -1.000000 94.365231 -29.038303 1572.540601 847.027917 15.391710 0.000000 0.106347
128.000000 73.265000 -8.000000 1.000000 -1.000000 95.239135 -30.404190 1606.563902 826.571716 13.652995 0.000000 0.098805
129.000000 83.866000 -7.000000 1.000000 -1.000000 96.301976 -32.172475 1652.056796 800.576241 11.926944 0.000000 0.088684
130.000000 47.120000 -13.000000 2.000000 -1.000000 100.004556 -27.646214 1538.778916 726.660850 21.226661 0.000000 0.101203
131.000000 51.275000 -12.000000 2.000000 -1.000000 101.066789 -28.488268 1559.094801 701.485622 19.506404 0.000000 0.094032
132.000000 56.199000 -11.000000 2.000000 -1.000000 102.297165 -29.500535 1583.951262 671.437151 17.796756 0.000000 0.084814
133.000000 62.119000 -10.000000 2.000000 -1.000000 103.736697 -30.739549 1615.062028 634.888545 16.100373 0.000000 0.072782
134.000000 69.351000 -9.000000 2.000000 -1.000000 105.439455 -32.289438 1655.127346 589.364886 14.420881 0.000000 0.057036
135.000000 78.354000 -8.000000 2.000000 -1.000000 107.476838 -34.280560 1708.663183 530.882233 12.763356 0.000000 0.038302
136.000000 89.807000 -7.000000 2.000000 -1.000000 109.941597 -36.924885 1783.835813 452.526783 11.135138 0.000000 0.036336
137.000000 49.024000 -13.000000 3.000000 -1.000000 107.726996 -29.865534 1593.035428 544.263874 20.399606 0.000000 0.062922
138.000000 53.359000 -12.000000 3.000000 -1.000000 109.336426 -30.997315 1621.634207 500.396849 18.741687 0.000000 0.048270
139.000000 58.471000 -11.000000 3.000000 -1.000000 111.187614 -32.376371 1657.414636 447.009167 17.102507 0.000000 0.030071
140.000000 64.570000 -10.000000 3.000000 -1.000000 113.333091 -34.091395 1703.470298 380.394183 15.486389 0.000000 0.015881
141.000000 71.941000 -9.000000 3.000000 -1.000000 115.837561 -36.277613 1764.969471 294.512923 13.899099 0.000000 0.042104
142.000000 80.970000 -8.000000 3.000000 -1.000000 118.777076 -39.150109 1851.244703 178.728838 12.348497 0.000000 0.095401
143.000000 46.555000 -14.000000 4.000000 -1.000000 113.287148 -31.201618 1626.868522 399.421028 21.479388 0.000000 0.027289
144.000000 50.319000 -13.000000 4.000000 -1.000000 115.118927 -32.443521 1659.184466 343.068571 19.871870 0.000000 0.009361
145.000000 54.678000 -12.000000 4.000000 -1.000000 117.192599 -33.949836 1699.599429 274.397823 18.287017 0.000000 0.022273
146.000000 59.767000 -11.000000 4.000000 -1.000000 119.551302 -35.812127 1751.594257 188.526538 16.729355 0.000000 0.056544
147.000000 65.757000 -10.000000 4.000000 -1.000000 122.243955 -38.167700 1820.978039 77.444017 15.204701 0.000000 0.104202
148.000000 72.866000 -9.000000 4.000000 -1.000000 125.320853 -41.230159 1918.225601 -73.066542 13.720658 0.000000 0.172682
150.000000 47.323000 -14.000000 5.000000 -1.000000 119.922098 -33.839922 1696.602739 195.211836 21.128304 0.000000 0.036689
151.000000 51.030000 -13.000000 5.000000 -1.000000 122.099772 -35.461317 1741.617401 112.091445 19.592600 0.000000 0.069006
152.000000 55.277000 -12.000000 5.000000 -1.000000 124.536458 -37.454104 1799.500706 7.909358 18.086629 0.000000 0.111072
153.000000 60.167000 -11.000000 5.000000 -1.000000 127.265295 -39.955396 1876.691243 -127.283196 16.615948 0.000000 0.167743
155.000000 47.647000 -14.000000 6.000000 -1.000000 126.162975 -36.912422 1783.469541 -42.873908 20.982660 0.000000 0.116261
161.000000 45.866000 -9.000000 -2.000000 0.000000 61.994446 -15.543124 1274.355385 1535.137835 21.823160 0.000000 0.068965
162.000000 49.118000 -4.000000 -1.000000 0.000000 59.095050 -15.233806 1268.104713 1608.738385 10.189619 0.000000 0.069656
163.000000 52.481000 -7.000000 -2.000000 0.000000 55.418508 -14.854270 1260.460106 1708.625967 19.074614 0.000000 0.086798
164.000000 55.571000 -3.000000 -1.000000 0.000000 50.616539 -14.377592 1250.896763 1853.125342 9.007461 0.000000 0.132903
165.000000 57.379000 -5.000000 -2.000000 0.000000 44.108740 -13.761105 1238.588638 2084.122779 17.448727 0.000000 0.226036
167.000000 45.754000 -11.000000 -1.000000 0.000000 76.058322 -17.199122 1308.150656 1220.694037 21.871129 0.000000 0.119216
168.000000 49.732000 -10.000000 -1.000000 0.000000 75.070861 -17.072928 1305.554761 1241.195021 20.121931 0.000000 0.115949
169.000000 54.439000 -9.000000 -1.000000 0.000000 73.865922 -16.921230 1302.438866 1266.439635 18.382738 0.000000 0.111717
170.000000 60.078000 -8.000000 -1.000000 0.000000 72.363187 -16.735429 1298.629331 1298.316195 16.657852 0.000000 0.106096
171.000000 66.923000 -7.000000 -1.000000 0.000000 70.437539 -16.502576 1293.865526 1339.888181 14.954453 0.000000 0.098446
172.000000 75.334000 -6.000000 -1.000000 0.000000 67.883103 -16.202217 1287.737553 1396.498656 13.285488 0.000000 0.087927
173.000000 85.717000 -5.000000 -1.000000 0.000000 64.336583 -15.800047 1279.561525 1478.445206 11.676927 0.000000 0.074570
174.000000 46.602000 -3.000000 0.000000 0.000000 85.976051 -18.573763 1336.664452 1020.874210 5.367328 0.000000 0.140398
175.000000 46.139000 -13.000000 1.000000 0.000000 94.344839 -19.923065 1365.103213 854.020276 21.680802 0.000000 0.140612
176.000000 50.239000 -12.000000 1.000000 0.000000 95.037802 -20.044445 1367.684845 840.003198 19.911274 0.000000 0.139882
177.000000 55.129000 -11.000000 1.000000 0.000000 95.855520 -20.189815 1370.781987 823.393829 18.145003 0.000000 0.138873
178.000000 61.057000 -10.000000 1.000000 0.000000 96.834883 -20.367066 1374.566177 803.392086 16.382877 0.000000 0.137451
179.000000 68.389000 -9.000000 1.000000 0.000000 98.028843 -20.587971 1379.294548 778.826688 14.626136 0.000000 0.135399
180.000000 77.679000 -8.000000 1.000000 0.000000 99.516161 -20.870912 1385.370838 747.908384 12.876570 0.000000 0.132354
181.000000 89.810000 -7.000000 1.000000 0.000000 101.419181 -21.246267 1393.467234 707.752533 11.136862 0.000000 0.127656
182.000000 106.272000 -6.000000 1.000000 0.000000 103.938419 -21.768097 1404.791981 653.367720 9.411225 0.000000 0.120031
183.000000 129.769000 -5.000000 1.000000 0.000000 107.425663 -22.542750 1421.756809 575.233480 7.706669 0.000000 0.106773
184.000000 165.677000 -4.000000 1.000000 0.000000 112.555049 -23.812027 1449.972232 452.378367 6.035786 0.000000 0.081384
185.000000 48.685000 -13.000000 2.000000 0.000000 102.584621 -21.483995 1398.616322 682.782026 20.543868 0.000000 0.124330
186.000000 58.448000 -11.000000 2.000000 0.000000 105.529631 -22.113591 1412.335205 618.170091 17.111412 0.000000 0.114377
187.000000 72.827000 -9.000000 2.000000 0.000000 109.721516 -23.090081 1433.858196 521.574360 13.731750 0.000000 0.096287
188.000000 95.780000 -7.000000 2.000000 0.000000 116.133037 -24.807615 1472.491375 359.278889 10.439906 0.000000 0.059479
189.000000 113.011000 -6.000000 2.000000 0.000000 120.777156 -26.267647 1506.181780 226.164940 8.847387 0.000000 0.027301
190.000000 136.752000 -5.000000 2.000000 0.000000 127.006063 -28.611632 1562.098189 16.933898 7.310686 0.000000 0.040013
192.000000 46.655000 -14.000000 3.000000 0.000000 108.904404 -22.891632 1429.459266 540.898579 21.435269 0.000000 0.100181
193.000000 50.600000 -13.000000 3.000000 0.000000 110.597823 -23.307606 1438.694942 500.550888 19.763523 0.000000 0.091911
194.000000 60.713000 -11.000000 3.000000 0.000000 114.840865 -24.436346 1464.052226 393.726390 16.470096 0.000000 0.067778
195.000000 67.306000 -10.000000 3.000000 0.000000 117.542110 -25.228861 1482.128002 320.525330 14.856077 0.000000 0.049977
196.000000 85.285000 -8.000000 3.000000 0.000000 124.709821 -27.687459 1539.766655 99.059438 11.722974 0.000000 0.020881
197.000000 97.793000 -7.000000 3.000000 0.000000 129.568779 -29.741746 1589.947183 -83.336139 10.222754 0.000000 0.067030
198.000000 51.873000 -13.000000 4.000000 0.000000 118.295335 -25.461473 1487.477948 299.258898 19.275789 0.000000 0.044734
199.000000 61.941000 -11.000000 4.000000 0.000000 123.650068 -27.285908 1530.181716 134.855636 16.141343 0.000000 0.016373
200.000000 76.066000 -9.000000 4.000000 0.000000 130.963047 -30.406482 1606.621796 -142.405842 13.142527 0.000000 0.083270
202.000000 48.625000 -14.000000 5.000000 0.000000 123.040121 -27.061404 1524.853040 154.913129 20.561953 0.000000 0.016214
203.000000 52.534000 -13.000000 5.000000 0.000000 125.598793 -28.036120 1548.146443 68.043054 19.031127 0.000000 0.027348
204.000000 57.028000 -12.000000 5.000000 0.000000 128.509146 -29.260820 1578.020786 -40.659809 17.530492 0.000000 0.055378
205.000000 62.225000 -11.000000 5.000000 0.000000 131.839040 -30.844111 1617.723749 -181.382245 16.065671 0.000000 0.093991
207.000000 52.641000 -13.000000 6.000000 0.000000 132.440279 -31.154005 1625.646646 -209.038948 18.990587 0.000000 0.101585
209.000000 45.613000 -15.000000 7.000000 0.000000 132.878445 -31.384954 1631.584959 -229.685949 21.916550 0.000000 0.107242
212.000000 47.325000 -9.000000 -2.000000 1.000000 63.407249 -8.530046 1136.430319 1485.824449 21.150201 0.000000 0.050395
213.000000 50.806000 -8.000000 -2.000000 1.000000 60.560892 -7.490188 1116.509314 1553.656602 19.702268 0.000000 0.033463
214.000000 54.434000 -7.000000 -2.000000 1.000000 56.927908 -6.213868 1092.186562 1646.022777 18.390258 0.000000 0.037396
215.000000 57.816000 -6.000000 -2.000000 1.000000 52.150264 -4.611920 1061.821946 1780.073638 17.315604 0.000000 0.086517
216.000000 59.901000 -5.000000 -2.000000 1.000000 45.633235 -2.545318 1022.844973 1994.802577 16.714080 0.000000 0.183133
218.000000 47.004000 -11.000000 -1.000000 1.000000 77.572444 -10.866215 1181.603503 1182.511663 21.289541 0.000000 0.127742
219.000000 51.187000 -10.000000 -1.000000 1.000000 76.675507 -10.145165 1167.592668 1199.959981 19.549938 0.000000 0.124462
220.000000 56.149000 -9.000000 -1.000000 1.000000 75.568234 -9.276587 1150.798377 1221.652014 17.822647 0.000000 0.119958
221.000000 62.109000 -8.000000 -1.000000 1.000000 74.168549 -8.210603 1130.299687 1249.359542 16.112913 0.000000 0.113564
222.000000 69.357000 -7.000000 -1.000000 1.000000 72.346473 -6.872354 1104.719025 1286.006462 14.429454 0.000000 0.104098
223.000000 78.264000 -6.000000 -1.000000 1.000000 69.884439 -5.144488 1071.899117 1336.793627 12.787902 0.000000 0.089298
224.000000 89.212000 -5.000000 -1.000000 1.000000 66.392194 -2.832972 1028.260441 1411.971634 11.219360 0.000000 0.064416
225.000000 102.185000 -4.000000 -1.000000 1.000000 61.106015 0.404689 967.397844 1535.013752 9.795830 0.000000 0.019018
226.000000 114.670000 -3.000000 -1.000000 1.000000 52.359746 5.223371 876.606876 1774.524793 8.730348 0.000000 0.087513
228.000000 47.212000 -13.000000 1.000000 1.000000 96.072311 -13.756450 1238.495958 823.122074 21.188007 0.000000 0.155869
229.000000 51.477000 -12.000000 1.000000 1.000000 96.897852 -13.311386 1229.651024 807.200246 19.431994 0.000000 0.156479
230.000000 56.573000 -11.000000 1.000000 1.000000 97.868950 -12.776021 1219.054415 788.469950 17.681458 0.000000 0.157050
231.000000 62.760000 -10.000000 1.000000 1.000000 99.027248 -12.119903 1206.128585 766.108738 15.937880 0.000000 0.157519
232.000000 70.423000 -9.000000 1.000000 1.000000 100.431604 -11.297231 1190.010733 738.934089 14.203332 0.000000 0.157761
233.000000 80.140000 -8.000000 1.000000 1.000000 102.167700 -10.235885 1169.351898 705.178757 12.480793 0.000000 0.157548
234.000000 92.825000 -7.000000 1.000000 1.000000 104.364507 -8.815556 1141.918383 662.070117 10.774720 0.000000 0.156407
235.000000 109.998000 -6.000000 1.000000 1.000000 107.223290 -6.820147 1103.724175 604.973998 9.092083 0.000000 0.153337
236.000000 134.334000 -5.000000 1.000000 1.000000 111.068686 -3.821516 1046.893364 525.444291 7.444437 0.000000 0.145979
237.000000 170.860000 -4.000000 1.000000 1.000000 116.426423 1.150571 953.383763 405.996208 5.852419 0.000000 0.127993
238.000000 45.867000 -14.000000 2.000000 1.000000 103.211472 -15.170654 1266.830815 679.206769 21.805872 0.000000 0.144858
239.000000 49.786000 -13.000000 2.000000 1.000000 104.519904 -14.858631 1260.547788 652.609079 20.089206 0.000000 0.143196
240.000000 54.406000 -12.000000 2.000000 1.000000 106.040463 -14.483721 1253.022398 621.397461 18.382809 0.000000 0.140905
241.000000 59.925000 -11.000000 2.000000 1.000000 107.828330 -14.024828 1243.845735 584.217176 16.689032 0.000000 0.137715
242.000000 66.621000 -10.000000 2.000000 1.000000 109.959158 -13.450257 1232.407319 539.106498 15.011002 0.000000 0.133212
243.000000 74.890000 -9.000000 2.000000 1.000000 112.539177 -12.710135 1217.753448 483.101360 13.352973 0.000000 0.126740
244.000000 85.314000 -8.000000 2.000000 1.000000 115.721563 -11.721269 1198.306539 411.473620 11.720879 0.000000 0.117223
245.000000 98.771000 -7.000000 2.000000 1.000000 119.733528 -10.333977 1171.255232 316.121324 10.123264 0.000000 0.102845
246.000000 116.624000 -6.000000 2.000000 1.000000 124.921192 -8.249995 1131.055142 181.717230 8.572886 0.000000 0.080491
247.000000 141.008000 -5.000000 2.000000 1.000000 131.817843 -4.782160 1065.041482 -25.285220 7.089681 0.000000 0.045210
248.000000 175.161000 -4.000000 2.000000 1.000000 141.188982 2.043694 936.593167 -397.964763 5.706643 0.000000 0.009929
249.000000 47.624000 -14.000000 3.000000 1.000000 110.889764 -16.379723 1291.356777 512.846379 20.998445 0.000000 0.121237
250.000000 51.704000 -13.000000 3.000000 1.000000 112.757097 -16.160325 1286.884356 470.942009 19.340746 0.000000 0.115428
251.000000 56.494000 -12.000000 3.000000 1.000000 114.920168 -15.892209 1281.432265 421.067706 17.700418 0.000000 0.107989
252.000000 62.180000 -11.000000 3.000000 1.000000 117.453103 -15.557138 1274.639020 360.570970 16.081149 0.000000 0.098348
253.000000 69.015000 -10.000000 3.000000 1.000000 120.456032 -15.126489 1265.940360 285.411455 14.487751 0.000000 0.085729
254.000000 77.345000 -9.000000 3.000000 1.000000 124.066885 -14.552640 1254.403850 189.077040 12.926622 0.000000 0.069155
255.000000 87.647000 -8.000000 3.000000 1.000000 128.479555 -13.750128 1238.370077 60.263196 11.406461 0.000000 0.047941
256.000000 100.576000 -7.000000 3.000000 1.000000 133.971788 -12.548901 1214.572626 -122.753714 9.939400 0.000000 0.026356
257.000000 117.007000 -6.000000 3.000000 1.000000 140.945672 -10.556191 1175.571362 -408.376164 8.542886 0.000000 0.031678
259.000000 48.848000 -14.000000 4.000000 1.000000 118.326308 -17.803885 1320.640785 331.655278 20.469525 0.000000 0.085733
260.000000 52.959000 -13.000000 4.000000 1.000000 120.698030 -17.719301 1318.888850 270.168363 18.880005 0.000000 0.074616
261.000000 57.742000 -12.000000 4.000000 1.000000 123.431557 -17.613839 1316.706796 195.513662 17.315198 0.000000 0.061123
262.000000 63.357000 -11.000000 4.000000 1.000000 126.612516 -17.478682 1313.914058 102.598460 15.780000 0.000000 0.045340
263.000000 70.005000 -10.000000 4.000000 1.000000 130.354120 -17.299234 1310.212560 -16.841318 14.280685 0.000000 0.030358
264.000000 77.943000 -9.000000 4.000000 1.000000 134.808194 -17.049467 1305.072546 -177.257411 12.825439 0.000000 0.031654
265.000000 87.490000 -8.000000 4.000000 1.000000 140.181038 -16.677992 1297.453187 -406.630594 11.425142 0.000000 0.055066
267.000000 46.037000 -15.000000 5.000000 1.000000 122.987354 -19.412745 1354.292178 200.272746 21.717777 0.000000 0.055533
268.000000 49.557000 -14.000000 5.000000 1.000000 125.459683 -19.503802 1356.216165 127.764891 20.174580 0.000000 0.042797
269.000000 53.581000 -13.000000 5.000000 1.000000 128.269743 -19.617027 1358.611598 39.596997 18.658445 0.000000 0.030824
270.000000 58.210000 -12.000000 5.000000 1.000000 131.487576 -19.761638 1361.675952 -70.371079 17.174099 0.000000 0.028385
271.000000 63.561000 -11.000000 5.000000 1.000000 135.202422 -19.952782 1365.734891 -212.144690 15.727440 0.000000 0.044016
272.000000 69.775000 -10.000000 5.000000 1.000000 139.528933 -20.217217 1371.366429 -403.290833 14.325918 0.000000 0.070524
274.000000 46.388000 -15.000000 6.000000 1.000000 129.427575 -21.243846 1393.414877 -8.465121 21.551235 0.000000 0.026438
275.000000 49.790000 -14.000000 6.000000 1.000000 132.238231 -21.564064 1400.354373 -109.780574 20.078090 0.000000 0.035480
276.000000 53.635000 -13.000000 6.000000 1.000000 135.412293 -21.971453 1409.227444 -236.411513 18.637865 0.000000 0.055300
280.000000 46.380000 -15.000000 7.000000 1.000000 135.533569 -23.452974 1441.936058 -254.274546 21.553276 0.000000 0.064692
287.000000 47.747000 -9.000000 -2.000000 2.000000 64.046051 -1.360531 1000.562222 1465.021098 20.963585 0.000000 0.045206
288.000000 54.452000 -7.000000 -2.000000 2.000000 57.334032 2.555039 926.972069 1631.752918 18.383848 0.000000 0.025320
289.000000 58.552000 -5.000000 -2.000000 2.000000 45.589856 8.605361 812.122781 2007.363306 17.099100 0.000000 0.193922
290.000000 47.543000 -11.000000 -1.000000 2.000000 78.396790 -4.345462 1056.785847 1162.631450 21.047709 0.000000 0.133258
291.000000 51.703000 -10.000000 -1.000000 2.000000 77.454677 -3.014811 1031.685179 1180.834024 19.354878 0.000000 0.129504
292.000000 56.583000 -9.000000 -1.000000 2.000000 76.266930 -1.417802 1001.638685 1204.111032 17.685801 0.000000 0.124249
293.000000 62.350000 -8.000000 -1.000000 2.000000 74.731230 0.531006 965.024827 1234.822959 16.050507 0.000000 0.116728
294.000000 69.184000 -7.000000 -1.000000 2.000000 72.684187 2.955805 919.426245 1277.001239 14.465594 0.000000 0.105722
295.000000 77.221000 -6.000000 -1.000000 2.000000 69.852367 6.042312 861.073250 1338.088752 12.960664 0.000000 0.089546
296.000000 86.328000 -5.000000 -1.000000 2.000000 65.753501 10.076179 783.744429 1433.350106 11.594151 0.000000 0.068777
297.000000 95.334000 -4.000000 -1.000000 2.000000 59.490038 15.506463 676.386426 1599.196009 10.499746 0.000000 0.075393
298.000000 99.462000 -3.000000 -1.000000 2.000000 49.327046 23.038217 517.292681 1946.032950 10.065053 0.000000 0.199333
300.000000 48.342000 -12.000000 0.000000 2.000000 88.559090 -5.848004 1085.237114 968.214655 20.695612 0.000000 0.161203
301.000000 52.775000 -11.000000 0.000000 2.000000 88.652261 -4.659415 1062.720000 966.405738 18.957556 0.000000 0.162020
302.000000 58.067000 -10.000000 0.000000 2.000000 88.731446 -3.231778 1035.773024 964.871491 17.229580 0.000000 0.162733
303.000000 64.484000 -9.000000 0.000000 2.000000 88.779845 -1.487368 1002.946314 963.931653 15.515000 0.000000 0.163207
304.000000 72.400000 -8.000000 0.000000 2.000000 88.765801 0.687764 962.079809 964.189544 13.818758 0.000000 0.163186
305.000000 82.354000 -7.000000 0.000000 2.000000 88.627661 3.466231 909.807725 966.831414 12.148572 0.000000 0.162172
306.000000 95.128000 -6.000000 0.000000 2.000000 88.239797 7.118850 840.580851 974.332561 10.517200 0.000000 0.159170
307.000000 111.820000 -5.000000 0.000000 2.000000 87.331040 12.085199 744.553306 992.309532 8.947348 0.000000 0.152126
308.000000 133.692000 -4.000000 0.000000 2.000000 85.275499 19.094006 602.425775 1035.129585 7.483723 0.000000 0.137227
309.000000 160.651000 -3.000000 0.000000 2.000000 80.535175 29.320063 370.516151 1146.793257 6.228207 0.000000 0.118247
310.000000 182.801000 -2.000000 0.000000 2.000000 69.318135 44.305800 -75.524323 1508.769645 5.474180 0.000000 0.250481
311.000000 47.777000 -13.000000 1.000000 2.000000 97.129355 -7.338652 1113.614530 805.268597 20.937067 0.000000 0.165695
312.000000 52.064000 -12.000000 1.000000 2.000000 97.955623 -6.291746 1093.667061 789.675218 19.212829 0.000000 0.166469
313.000000 57.161000 -11.000000 1.000000 2.000000 98.906141 -5.033694 1069.801356 771.685619 17.499270 0.000000 0.167055
314.000000 63.310000 -10.000000 1.000000 2.000000 100.007772 -3.495133 1040.737208 750.715812 15.799262 0.000000 0.167275
315.000000 70.854000 -9.000000 1.000000 2.000000 101.293335 -1.573664 1004.568531 725.984277 14.116812 0.000000 0.166798
316.000000 80.288000 -8.000000 1.000000 2.000000 102.800678 0.887471 958.327631 696.429216 12.457675 0.000000 0.165006
317.000000 92.348000 -7.000000 1.000000 2.000000 104.566241 4.138328 897.126554 660.592317 10.830433 0.000000 0.160663
318.000000 108.139000 -6.000000 1.000000 2.000000 106.600923 8.595918 812.304224 616.478530 9.248468 0.000000 0.151119
319.000000 129.311000 -5.000000 1.000000 2.000000 108.808929 14.984734 686.915151 561.507638 7.733868 0.000000 0.130098
320.000000 158.085000 -4.000000 1.000000 2.000000 110.721011 24.578993 482.711259 493.282949 6.325874 0.000000 0.080669
321.000000 196.017000 -3.000000 1.000000 2.000000 110.655090 39.387200 91.324518 416.033177 5.101550 0.000000 0.071518
322.000000 50.360000 -13.000000 2.000000 2.000000 105.694554 -7.909326 1124.526732 635.673156 19.859785 0.000000 0.155212
323.000000 60.516000 -11.000000 2.000000 2.000000 108.995529 -5.487490 1078.398181 568.790308 16.525780 0.000000 0.150441
324.000000 75.306000 -9.000000 2.000000 2.000000 113.515742 -1.683550 1006.634383 472.460023 13.279214 0.000000 0.139036
325.000000 98.247000 -7.000000 2.000000 2.000000 119.899806 5.063045 879.642975 319.683931 10.177285 0.000000 0.109820
326.000000 114.740000 -6.000000 2.000000 2.000000 124.004868 10.744402 770.768084 201.940559 8.713746 0.000000 0.078492
327.000000 136.186000 -5.000000 2.000000 2.000000 128.627778 19.503183 593.796921 28.600079 7.340997 0.000000 0.029117
328.000000 163.795000 -4.000000 2.000000 2.000000 132.936985 33.752592 255.772722 -263.469880 6.103168 0.000000 0.140695
329.000000 48.170000 -14.000000 3.000000 2.000000 112.163110 -9.509812 1155.299383 496.471600 20.760243 0.000000 0.135241
330.000000 52.277000 -13.000000 3.000000 2.000000 114.062937 -8.587913 1137.541972 454.935788 19.128744 0.000000 0.130244
331.000000 57.081000 -12.000000 3.000000 2.000000 116.245109 -7.459865 1115.929904 405.814826 17.517993 0.000000 0.123622
332.000000 62.759000 -11.000000 3.000000 2.000000 118.772011 -6.049077 1089.055255 346.677513 15.932373 0.000000 0.114724
333.000000 69.543000 -10.000000 3.000000 2.000000 121.722442 -4.236600 1054.729382 273.861631 14.377599 0.000000 0.102575
334.000000 77.737000 -9.000000 3.000000 2.000000 125.194036 -1.828227 1009.354679 181.539084 12.861259 0.000000 0.085691
335.000000 87.745000 -8.000000 3.000000 2.000000 129.300490 1.512923 946.573310 59.740774 11.393656 0.000000 0.061904
336.000000 100.076000 -7.000000 3.000000 2.000000 134.148621 6.414852 853.991737 -110.356794 9.989130 0.000000 0.030570
337.000000 115.317000 -6.000000 3.000000 2.000000 139.742692 14.143259 703.789511 -369.773784 8.668265 0.000000 0.047898
339.000000 45.796000 -15.000000 4.000000 2.000000 117.605687 -11.091021 1185.985383 367.479158 21.834178 0.000000 0.110797
340.000000 53.518000 -13.000000 4.000000 2.000000 122.152395 -9.407962 1153.333039 255.245789 18.682284 0.000000 0.092930
341.000000 63.913000 -11.000000 4.000000 2.000000 128.113109 -6.761875 1102.614017 90.765589 15.642463 0.000000 0.064830
342.000000 78.307000 -9.000000 4.000000 2.000000 136.140627 -2.027324 1013.098932 -179.725196 12.765598 0.000000 0.021308
344.000000 46.534000 -15.000000 5.000000 2.000000 124.476766 -12.055558 1204.864440 185.258380 21.485606 0.000000 0.074438
345.000000 50.078000 -14.000000 5.000000 2.000000 127.018326 -11.327816 1190.608248 113.289941 19.964396 0.000000 0.062342
346.000000 54.119000 -13.000000 5.000000 2.000000 129.895822 -10.418384 1172.893957 26.128627 18.472565 0.000000 0.048264
347.000000 58.752000 -12.000000 5.000000 2.000000 133.173292 -9.250208 1150.289665 -82.068068 17.015225 0.000000 0.032630
348.000000 64.084000 -11.000000 5.000000 2.000000 136.928286 -7.696112 1120.446331 -220.756631 15.598749 0.000000 0.018262
349.000000 70.239000 -10.000000 5.000000 2.000000 141.251969 -5.531020 1079.223501 -406.402572 14.231182 0.000000 0.014783
352.000000 46.867000 -15.000000 6.000000 2.000000 131.069069 -13.215825 1227.756184 -22.403580 21.330712 0.000000 0.036240
353.000000 54.145000 -13.000000 6.000000 2.000000 137.242218 -11.693255 1197.757692 -247.680464 18.461901 0.000000 0.024378
355.000000 46.836000 -15.000000 7.000000 2.000000 137.350596 -14.636805 1256.092066 -266.628660 21.342848 0.000000 0.033222
356.000000 50.076000 -14.000000 7.000000 2.000000 140.559404 -14.083625 1245.019451 -407.958449 19.961425 0.000000 0.044706
362.000000 47.102000 -9.000000 -2.000000 3.000000 63.882042 5.745649 866.705418 1471.353919 21.250243 0.000000 0.049422
363.000000 49.975000 -8.000000 -2.000000 3.000000 60.713720 8.157955 820.709748 1550.820330 20.029722 0.000000 0.040631
364.000000 52.603000 -7.000000 -2.000000 3.000000 56.648682 11.054139 764.733962 1662.765263 19.030092 0.000000 0.065441
365.000000 54.375000 -6.000000 -2.000000 3.000000 51.316999 14.575659 695.134559 1831.406856 18.411103 0.000000 0.131561
366.000000 54.013000 -5.000000 -2.000000 3.000000 44.167336 18.912071 606.248763 2112.269393 18.535482 0.000000 0.250897
368.000000 47.337000 -11.000000 -1.000000 3.000000 78.489210 2.199493 933.662474 1160.347233 21.139218 0.000000 0.133829
369.000000 51.242000 -10.000000 -1.000000 3.000000 77.365543 4.103365 897.786734 1182.880023 19.528856 0.000000 0.128787
370.000000 55.713000 -9.000000 -1.000000 3.000000 75.924344 6.367132 854.899406 1212.535242 17.962250 0.000000 0.121929
371.000000 60.808000 -8.000000 -1.000000 3.000000 74.032221 9.093940 802.722343 1252.887751 16.457709 0.000000 0.112685
372.000000 66.518000 -7.000000 -1.000000 3.000000 71.481022 12.424918 737.870597 1310.165798 15.045408 0.000000 0.100961
373.000000 72.636000 -6.000000 -1.000000 3.000000 67.936847 16.553808 655.087342 1396.094190 13.778872 0.000000 0.090262
374.000000 78.423000 -5.000000 -1.000000 3.000000 62.852866 21.743560 545.742357 1535.159053 12.762965 0.000000 0.100377
375.000000 81.814000 -4.000000 -1.000000 3.000000 55.334016 28.335737 394.608994 1786.639849 12.234865 0.000000 0.177392
378.000000 47.805000 -13.000000 1.000000 3.000000 97.461441 -0.821023 990.423881 800.025510 20.924713 0.000000 0.169311
379.000000 51.963000 -12.000000 1.000000 3.000000 98.148422 0.815088 959.687630 786.876901 19.249999 0.000000 0.169011
380.000000 56.853000 -11.000000 1.000000 3.000000 98.896539 2.768011 922.962764 772.326623 17.594016 0.000000 0.168007
381.000000 62.666000 -10.000000 1.000000 3.000000 99.701034 5.133437 878.310151 756.264681 15.961777 0.000000 0.165854
382.000000 69.653000 -9.000000 1.000000 3.000000 100.543746 8.046170 822.852167 738.678803 14.360253 0.000000 0.161788
383.000000 78.145000 -8.000000 1.000000 3.000000 101.378062 11.699152 752.126792 719.814887 12.799448 0.000000 0.154451
384.000000 88.558000 -7.000000 1.000000 3.000000 102.097188 16.370908 658.823098 700.570043 11.294231 0.000000 0.141328
385.000000 101.359000 -6.000000 1.000000 3.000000 102.466643 22.459486 530.075686 683.518633 9.867720 0.000000 0.117695
386.000000 116.870000 -5.000000 1.000000 3.000000 101.983024 30.502426 340.952826 675.867578 8.557913 0.000000 0.077554
387.000000 134.578000 -4.000000 1.000000 3.000000 99.603279 41.103358 35.977559 699.329271 7.431958 0.000000 0.093491
389.000000 46.515000 -14.000000 2.000000 3.000000 104.820624 -2.324795 1018.694972 655.981691 21.501924 0.000000 0.161685
390.000000 50.378000 -13.000000 2.000000 3.000000 106.040500 -0.825498 990.507945 631.521944 19.852768 0.000000 0.159725
391.000000 54.881000 -12.000000 2.000000 3.000000 107.406893 0.966780 956.837437 603.519576 18.223274 0.000000 0.156663
392.000000 60.181000 -11.000000 2.000000 3.000000 108.938648 3.142413 915.910903 571.134671 16.617898 0.000000 0.151934
393.000000 66.481000 -10.000000 2.000000 3.000000 110.651518 5.830266 865.099572 533.233418 15.042554 0.000000 0.144609
394.000000 74.046000 -9.000000 2.000000 3.000000 112.549712 9.218048 800.330433 488.242885 13.505260 0.000000 0.133099
395.000000 83.212000 -8.000000 2.000000 3.000000 114.606315 13.583932 714.936488 433.905498 12.017168 0.000000 0.114511
396.000000 94.384000 -7.000000 2.000000 3.000000 116.718629 19.342023 597.200661 366.834970 10.594260 0.000000 0.083173
397.000000 107.976000 -6.000000 2.000000 3.000000 118.608687 27.090518 424.457129 281.633283 9.260279 0.000000 0.026823
398.000000 124.173000 -5.000000 2.000000 3.000000 119.616401 37.591213 146.404753 168.863721 8.052095 0.000000 0.086803
400.000000 48.267000 -14.000000 3.000000 3.000000 112.653301 -2.460147 1021.241990 491.392350 20.718452 0.000000 0.141706
401.000000 52.287000 -13.000000 3.000000 3.000000 114.429593 -0.830827 990.608081 452.049409 19.125029 0.000000 0.135920
402.000000 62.414000 -11.000000 3.000000 3.000000 118.673743 3.605268 907.185960 351.219799 16.020531 0.000000 0.116954
403.000000 68.852000 -10.000000 3.000000 3.000000 121.197229 6.712565 848.325177 284.745556 14.521879 0.000000 0.101270
404.000000 85.601000 -8.000000 3.000000 3.000000 127.055014 16.120574 663.924897 95.070299 11.679377 0.000000 0.045673
405.000000 96.444000 -7.000000 3.000000 3.000000 130.182487 23.485092 507.346878 -50.072055 10.365709 0.000000 0.036643
406.000000 45.943000 -15.000000 4.000000 3.000000 118.226726 -4.086250 1051.890127 361.777095 21.764331 0.000000 0.119157
407.000000 49.477000 -14.000000 4.000000 3.000000 120.265972 -2.621299 1024.275175 312.263691 20.208857 0.000000 0.110772
408.000000 53.524000 -13.000000 4.000000 3.000000 122.548807 -0.837283 990.729382 253.961916 18.680425 0.000000 0.100013
409.000000 58.182000 -12.000000 4.000000 3.000000 125.109545 1.377851 949.112250 184.080951 17.184017 0.000000 0.086054
410.000000 63.574000 -11.000000 4.000000 3.000000 127.981346 4.192032 896.112379 98.416710 15.725921 0.000000 0.067813
411.000000 69.840000 -10.000000 4.000000 3.000000 131.186549 7.865099 826.320001 -9.721633 14.314186 0.000000 0.044582
412.000000 77.138000 -9.000000 4.000000 3.000000 134.713115 12.811135 730.251973 -151.772856 12.959285 0.000000 0.027571
413.000000 85.619000 -8.000000 4.000000 3.000000 138.458681 19.700095 589.628833 -349.283332 11.675103 0.000000 0.068154
415.000000 46.675000 -15.000000 5.000000 3.000000 125.155711 -4.401210 1057.839195 180.761363 21.420359 0.000000 0.084334
416.000000 50.165000 -14.000000 5.000000 3.000000 127.603663 -2.816401 1027.948408 111.029706 19.929639 0.000000 0.071596
417.000000 54.122000 -13.000000 5.000000 3.000000 130.333929 -0.845265 990.879353 27.040330 18.471527 0.000000 0.056054
418.000000 58.626000 -12.000000 5.000000 3.000000 133.380946 1.666116 943.693383 -76.553303 17.051676 0.000000 0.037449
419.000000 63.764000 -11.000000 5.000000 3.000000 136.772473 4.959959 881.594337 -208.337960 15.677129 0.000000 0.019505
420.000000 69.625000 -10.000000 5.000000 3.000000 140.512344 9.432910 796.185424 -383.127252 14.356765 0.000000 0.032460
423.000000 50.371000 -14.000000 6.000000 3.000000 134.624124 -3.057438 1032.488175 -122.778761 19.846045 0.000000 0.029707
424.000000 54.148000 -13.000000 6.000000 3.000000 137.738072 -0.855386 991.069521 -243.544070 18.460939 0.000000 0.012754
427.000000 46.966000 -15.000000 7.000000 3.000000 138.185102 -5.252220 1073.939614 -267.212734 21.283953 0.000000 0.012726
428.000000 50.154000 -14.000000 7.000000 3.000000 141.298006 -3.362783 1038.242112 -404.656072 19.929978 0.000000 0.008122
434.000000 45.502000 -9.000000 -2.000000 4.000000 62.974143 12.579928 734.815575 1503.515541 21.997573 0.000000 0.063230
435.000000 49.300000 -7.000000 -2.000000 4.000000 55.054966 18.952853 605.392530 1736.202616 20.304943 0.000000 0.117809
437.000000 46.419000 -11.000000 -1.000000 4.000000 77.868904 8.601388 812.199120 1174.980176 21.557812 0.000000 0.129484
438.000000 49.875000 -10.000000 -1.000000 4.000000 76.451991 10.996741 765.853113 1205.200657 20.064197 0.000000 0.122879
439.000000 53.681000 -9.000000 -1.000000 4.000000 74.627718 13.805757 710.522100 1245.703518 18.642356 0.000000 0.114788
440.000000 57.774000 -8.000000 -1.000000 4.000000 72.235341 17.128002 643.312765 1301.831289 17.322051 0.000000 0.106187
441.000000 61.961000 -7.000000 -1.000000 4.000000 69.036851 21.088529 559.940151 1382.956380 16.152147 0.000000 0.101925
442.000000 65.764000 -6.000000 -1.000000 4.000000 64.678861 25.839789 453.776616 1506.820733 15.218845 0.000000 0.117250
443.000000 68.137000 -5.000000 -1.000000 4.000000 58.645555 31.556032 313.997348 1710.600577 14.689787 0.000000 0.179638
446.000000 51.452000 -11.000000 0.000000 4.000000 87.877356 9.400860 796.804045 981.434907 19.445069 0.000000 0.156346
447.000000 61.021000 -9.000000 0.000000 4.000000 86.510726 15.272989 681.104513 1009.029422 16.395907 0.000000 0.145948
448.000000 73.362000 -7.000000 0.000000 4.000000 83.402103 23.711346 502.285620 1076.969604 13.638393 0.000000 0.126187
449.000000 86.969000 -5.000000 0.000000 4.000000 76.116960 36.128867 189.321799 1270.355150 11.505456 0.000000 0.139734
451.000000 47.301000 -13.000000 1.000000 4.000000 97.064385 5.630502 868.889903 806.973175 21.147738 0.000000 0.166680
452.000000 51.193000 -12.000000 1.000000 4.000000 97.484833 7.794633 827.668734 798.274303 19.539796 0.000000 0.164207
453.000000 55.691000 -11.000000 1.000000 4.000000 97.873042 10.347591 778.480522 789.707342 17.961365 0.000000 0.160249
454.000000 60.917000 -10.000000 1.000000 4.000000 98.185820 13.391038 718.768427 781.848529 16.420295 0.000000 0.154041
455.000000 67.008000 -9.000000 1.000000 4.000000 98.348706 17.058079 644.750470 775.782876 14.927490 0.000000 0.144375
456.000000 74.101000 -8.000000 1.000000 4.000000 98.233372 21.520759 550.585874 773.592831 13.498559 0.000000 0.129418
457.000000 82.281000 -7.000000 1.000000 4.000000 97.618900 26.993544 426.753422 779.428306 12.156647 0.000000 0.107128
458.000000 91.452000 -6.000000 1.000000 4.000000 96.128604 33.721751 256.610465 802.055510 10.937625 0.000000 0.082995
459.000000 101.037000 -5.000000 1.000000 4.000000 93.139463 41.932216 8.203451 861.647020 9.900217 0.000000 0.118463
460.000000 109.356000 -4.000000 1.000000 4.000000 87.694888 51.715810 -388.598368 1010.927767 9.147650 0.000000 0.308598
461.000000 49.844000 -13.000000 2.000000 4.000000 105.551744 6.180505 858.447541 639.719007 20.065362 0.000000 0.156804
462.000000 58.962000 -11.000000 2.000000 4.000000 107.698315 11.485702 756.305153 590.527136 16.961696 0.000000 0.142705
463.000000 71.300000 -9.000000 2.000000 4.000000 109.861862 19.271941 598.678724 529.116161 14.026015 0.000000 0.110833
464.000000 87.977000 -7.000000 2.000000 4.000000 111.134528 31.187167 323.502451 454.661771 11.366694 0.000000 0.034768
465.000000 108.568000 -5.000000 2.000000 4.000000 108.539472 49.358645 -278.901281 386.823031 9.210880 0.000000 0.252217
466.000000 47.915000 -14.000000 3.000000 4.000000 112.342574 4.560995 889.140822 497.239710 20.870894 0.000000 0.140722
467.000000 51.740000 -13.000000 3.000000 4.000000 113.847929 6.833317 846.024885 461.817899 19.327148 0.000000 0.132686
468.000000 56.129000 -12.000000 3.000000 4.000000 115.473872 9.560824 793.715335 421.013614 17.815430 0.000000 0.121544
469.000000 61.186000 -11.000000 3.000000 4.000000 117.207298 12.878500 728.920722 373.408741 16.342448 0.000000 0.105802
470.000000 67.031000 -10.000000 3.000000 4.000000 119.009788 16.969729 646.565502 316.989990 14.916925 0.000000 0.083020
471.000000 73.788000 -9.000000 3.000000 4.000000 120.794723 22.080368 538.391740 248.763847 13.550418 0.000000 0.049153
472.000000 81.561000 -8.000000 3.000000 4.000000 122.386529 28.525428 390.001252 163.993262 12.258562 0.000000 0.014753
473.000000 90.372000 -7.000000 3.000000 4.000000 123.453345 36.662664 173.845450 54.494054 11.063056 0.000000 0.100603
475.000000 45.724000 -15.000000 4.000000 4.000000 118.086868 2.938673 919.748934 365.873046 21.868601 0.000000 0.120077
476.000000 52.980000 -13.000000 4.000000 4.000000 121.872912 7.620506 830.999613 265.808396 18.872259 0.000000 0.096362
477.000000 62.378000 -11.000000 4.000000 4.000000 126.275570 14.619880 694.247530 124.657770 16.027607 0.000000 0.054819
478.000000 74.589000 -9.000000 4.000000 4.000000 130.933600 25.739070 456.110326 -95.234764 13.402851 0.000000 0.053558
480.000000 46.458000 -15.000000 5.000000 4.000000 124.989076 3.288449 913.158962 186.433941 21.520464 0.000000 0.085571
481.000000 49.818000 -14.000000 5.000000 4.000000 127.182839 5.669054 868.158619 120.543368 20.068570 0.000000 0.070705
482.000000 53.595000 -13.000000 5.000000 4.000000 129.561086 8.587908 812.458126 41.760155 18.653399 0.000000 0.052458
483.000000 57.848000 -12.000000 5.000000 4.000000 132.114440 12.229027 741.726118 -54.590575 17.281294 0.000000 0.033041
484.000000 62.634000 -11.000000 5.000000 4.000000 134.804302 16.854565 648.928839 -175.946724 15.960149 0.000000 0.035527
485.000000 68.002000 -10.000000 5.000000 4.000000 137.535067 22.833219 521.833089 -335.003051 14.699914 0.000000 0.081061
487.000000 46.792000 -15.000000 6.000000 4.000000 131.627076 3.710930 905.192985 -17.498397 21.364804 0.000000 0.046772
488.000000 53.648000 -13.000000 6.000000 4.000000 136.862414 9.804607 789.002567 -224.667392 18.633244 0.000000 0.024443
490.000000 46.765000 -15.000000 7.000000 4.000000 137.972859 4.231349 895.369793 -256.471806 21.375290 0.000000 0.015380
491.000000 49.841000 -14.000000 7.000000 4.000000 140.766099 7.354744 836.078163 -388.008434 20.055617 0.000000 0.025960
497.000000 47.759000 -10.000000 -1.000000 5.000000 74.831267 17.490525 635.841383 1246.936540 20.953438 0.000000 0.115007
498.000000 50.756000 -9.000000 -1.000000 5.000000 72.559135 20.693110 568.450194 1302.451928 19.716774 0.000000 0.109290
499.000000 53.715000 -8.000000 -1.000000 5.000000 69.621884 24.402288 486.719429 1380.021408 18.631504 0.000000 0.110084
500.000000 56.322000 -7.000000 -1.000000 5.000000 65.781354 28.708956 385.527402 1492.981371 17.769741 0.000000 0.129388
501.000000 57.995000 -6.000000 -1.000000 5.000000 60.716788 33.708004 256.983693 1666.556606 17.258043 0.000000 0.185021
502.000000 57.722000 -5.000000 -1.000000 5.000000 54.019923 39.484326 88.265856 1953.442830 17.340746 0.000000 0.300633
504.000000 46.305000 -13.000000 1.000000 5.000000 95.984715 11.859718 748.979402 825.706099 21.602989 0.000000 0.158261
505.000000 49.820000 -12.000000 1.000000 5.000000 96.041978 14.454271 697.567652 823.355814 20.078584 0.000000 0.152829
506.000000 53.789000 -11.000000 1.000000 5.000000 95.961741 17.468393 636.298362 823.169464 18.597074 0.000000 0.145113
507.000000 58.260000 -10.000000 1.000000 5.000000 95.667270 20.991347 562.035830 826.600276 17.169805 0.000000 0.134261
508.000000 63.261000 -9.000000 1.000000 5.000000 95.041632 25.129254 470.156649 836.121858 15.812510 0.000000 0.119446
509.000000 68.761000 -8.000000 1.000000 5.000000 93.907207 30.002097 353.548678 856.115723 14.547661 0.000000 0.101629
510.000000 74.604000 -7.000000 1.000000 5.000000 91.997628 35.732567 200.676079 894.753831 13.408503 0.000000 0.093188
511.000000 80.374000 -6.000000 1.000000 5.000000 88.925424 42.420361 -8.493355 968.347215 12.446394 0.000000 0.137193
512.000000 85.177000 -5.000000 1.000000 5.000000 84.160943 50.096544 -312.075733 1112.579092 11.745085 0.000000 0.279966
514.000000 48.801000 -13.000000 2.000000 5.000000 104.285309 12.909752 728.302903 659.843157 20.494822 0.000000 0.146959
515.000000 52.634000 -12.000000 2.000000 5.000000 104.901539 15.818284 670.068422 643.316321 19.002019 0.000000 0.137535
516.000000 56.976000 -11.000000 2.000000 5.000000 105.434584 19.232739 599.504955 626.274752 17.553559 0.000000 0.124162
517.000000 61.888000 -10.000000 2.000000 5.000000 105.806131 23.265898 512.233666 609.345417 16.160204 0.000000 0.105045
518.000000 67.408000 -9.000000 2.000000 5.000000 105.890820 28.049801 401.523645 593.815355 14.836498 0.000000 0.078067
519.000000 73.522000 -8.000000 2.000000 5.000000 105.491373 33.727010 256.467674 582.323778 13.602605 0.000000 0.048086
520.000000 80.089000 -7.000000 2.000000 5.000000 104.305939 40.426333 58.148473 580.453185 12.487297 0.000000 0.079708
521.000000 86.717000 -6.000000 2.000000 5.000000 101.894788 48.214146 -229.367927 600.774781 11.533108 0.000000 0.209873
523.000000 47.137000 -14.000000 3.000000 5.000000 111.270206 11.350251 758.953368 513.657226 21.215425 0.000000 0.132660
524.000000 50.678000 -13.000000 3.000000 5.000000 112.387532 14.145917 703.736422 483.793370 19.732690 0.000000 0.121110
525.000000 54.675000 -12.000000 3.000000 5.000000 113.507138 17.441724 636.848872 450.292908 18.289780 0.000000 0.105146
526.000000 59.187000 -11.000000 3.000000 5.000000 114.575927 21.356213 554.153463 412.490474 16.895001 0.000000 0.082628
527.000000 64.267000 -10.000000 3.000000 5.000000 115.503637 26.032712 449.295333 369.575434 15.559139 0.000000 0.050040
528.000000 69.942000 -9.000000 3.000000 5.000000 116.141527 31.633704 311.986289 320.578032 14.296464 0.000000 0.006068
529.000000 76.176000 -8.000000 3.000000 5.000000 116.252882 38.319321 124.404542 264.401723 13.126260 0.000000 0.077665
530.000000 82.806000 -7.000000 3.000000 5.000000 115.479154 46.197370 -147.246162 200.024847 12.075237 0.000000 0.209770
532.000000 48.347000 -14.000000 4.000000 5.000000 118.681970 12.453741 737.302823 337.997859 20.681753 0.000000 0.100415
533.000000 51.926000 -13.000000 4.000000 5.000000 120.209963 15.620988 674.068208 290.296829 19.255649 0.000000 0.082540
534.000000 55.939000 -12.000000 4.000000 5.000000 121.757410 19.402843 595.916918 234.660660 17.873793 0.000000 0.058471
535.000000 60.431000 -11.000000 4.000000 5.000000 123.257320 23.952795 496.865031 168.638332 16.544801 0.000000 0.027171
536.000000 65.433000 -10.000000 4.000000 5.000000 124.594178 29.452719 367.233923 88.500117 15.279678 0.000000 0.034485
537.000000 70.942000 -9.000000 4.000000 5.000000 125.577662 36.095639 190.278191 -11.826001 14.092716 0.000000 0.109231
539.000000 49.058000 -14.000000 5.000000 5.000000 125.812331 13.773548 711.163585 141.407064 20.379472 0.000000 0.060051
540.000000 52.574000 -13.000000 5.000000 5.000000 127.683180 17.408963 637.524905 69.740523 19.016274 0.000000 0.038289
541.000000 56.475000 -12.000000 5.000000 5.000000 129.566344 21.812802 544.234017 -16.907132 17.701948 0.000000 0.028840
542.000000 60.789000 -11.000000 5.000000 5.000000 131.369802 27.185146 422.212555 -124.583156 16.445418 0.000000 0.066654
544.000000 46.248000 -15.000000 6.000000 5.000000 130.529378 11.902732 748.135622 0.583238 21.616584 0.000000 0.040582
545.000000 49.309000 -14.000000 6.000000 5.000000 132.614276 15.378270 678.978291 -85.967868 20.273895 0.000000 0.029017
546.000000 52.677000 -13.000000 6.000000 5.000000 134.750074 19.616311 591.403559 -191.684145 18.977106 0.000000 0.045483
547.000000 56.369000 -12.000000 6.000000 5.000000 136.862306 24.833247 476.924145 -324.668959 17.733680 0.000000 0.090054
550.000000 46.246000 -15.000000 7.000000 5.000000 136.752252 13.314967 720.277935 -234.832478 21.615578 0.000000 0.032186
551.000000 49.152000 -14.000000 7.000000 5.000000 139.050159 17.367755 638.374914 -358.575913 20.336938 0.000000 0.059305
557.000000 47.258000 -9.000000 -1.000000 6.000000 69.943586 26.914217 428.628907 1381.670770 21.176451 0.000000 0.116894
558.000000 49.121000 -8.000000 -1.000000 6.000000 66.501383 30.820870 332.868360 1485.911169 20.374457 0.000000 0.138976
559.000000 50.337000 -7.000000 -1.000000 6.000000 62.126280 35.243657 214.529051 1637.991284 19.882771 0.000000 0.190329
560.000000 50.360000 -6.000000 -1.000000 6.000000 56.563008 40.228021 64.558177 1871.846273 19.875004 0.000000 0.286592
562.000000 47.414000 -11.000000 0.000000 6.000000 84.116001 22.072276 538.568748 1060.692612 21.101911 0.000000 0.129999
563.000000 50.437000 -10.000000 0.000000 6.000000 82.579468 25.460419 462.546352 1096.256570 19.837367 0.000000 0.122564
564.000000 56.583000 -8.000000 0.000000 6.000000 77.807195 33.713772 256.827111 1220.581392 17.683679 0.000000 0.126137
565.000000 59.222000 -7.000000 0.000000 6.000000 74.164528 38.697150 112.813577 1332.153688 16.896213 0.000000 0.163132
568.000000 47.949000 -12.000000 1.000000 6.000000 93.947528 20.651510 569.342895 861.628419 20.862796 0.000000 0.136576
569.000000 51.308000 -11.000000 1.000000 6.000000 93.348506 23.975166 496.361792 872.080767 19.496989 0.000000 0.125632
570.000000 54.948000 -10.000000 1.000000 6.000000 92.415197 27.778985 408.038816 889.690632 18.205407 0.000000 0.112551
571.000000 58.812000 -9.000000 1.000000 6.000000 91.010668 32.133368 298.968078 918.577983 17.009448 0.000000 0.100810
572.000000 62.761000 -8.000000 1.000000 6.000000 88.946103 37.104711 160.865908 965.825972 15.939609 0.000000 0.104487
573.000000 66.513000 -7.000000 1.000000 6.000000 85.968668 42.742015 -19.638068 1044.283671 15.040902 0.000000 0.151321
574.000000 69.560000 -6.000000 1.000000 6.000000 81.757341 49.056726 -265.613486 1178.924185 14.382648 0.000000 0.266873
576.000000 47.316000 -13.000000 2.000000 6.000000 102.348383 19.207692 600.032645 691.487851 21.138448 0.000000 0.131243
577.000000 54.387000 -11.000000 2.000000 6.000000 102.379735 26.198310 445.436980 677.713322 18.389939 0.000000 0.099719
578.000000 62.778000 -9.000000 2.000000 6.000000 101.127034 35.449525 208.716450 681.141166 15.931842 0.000000 0.061769
579.000000 71.704000 -7.000000 2.000000 6.000000 97.132358 47.491933 -199.237128 741.683660 13.948976 0.000000 0.194163
580.000000 45.980000 -14.000000 3.000000 6.000000 109.523910 17.742136 630.638343 540.300435 21.749929 0.000000 0.118210
581.000000 49.168000 -13.000000 3.000000 6.000000 110.179201 20.914619 563.688491 517.544306 20.339279 0.000000 0.102270
582.000000 56.577000 -11.000000 3.000000 6.000000 111.068714 28.821253 382.782223 467.744540 17.675126 0.000000 0.051553
583.000000 60.809000 -10.000000 3.000000 6.000000 111.103590 33.730736 256.366470 441.533035 16.444990 0.000000 0.024028
584.000000 70.039000 -8.000000 3.000000 6.000000 109.487095 45.837790 -133.239240 394.326672 14.277631 0.000000 0.175481
586.000000 50.428000 -13.000000 4.000000 6.000000 117.720302 22.922277 519.862269 326.957863 19.828490 0.000000 0.059352
587.000000 57.880000 -11.000000 4.000000 6.000000 119.287817 31.947882 303.817228 229.549096 17.274827 0.000000 0.019736
588.000000 66.544000 -9.000000 4.000000 6.000000 119.394145 44.089425 -67.616596 96.848546 15.025369 0.000000 0.190449
589.000000 47.928000 -14.000000 5.000000 6.000000 123.621919 21.229717 556.890621 173.213129 20.860649 0.000000 0.040103
590.000000 51.118000 -13.000000 5.000000 6.000000 124.899146 25.311296 465.978398 110.457014 19.558273 0.000000 0.019735
591.000000 54.598000 -12.000000 5.000000 6.000000 126.040056 30.100959 351.069969 35.804263 18.311543 0.000000 0.049993
592.000000 58.360000 -11.000000 5.000000 6.000000 126.925554 35.713476 201.220186 -55.193394 17.130580 0.000000 0.114924
595.000000 51.290000 -13.000000 6.000000 6.000000 131.652850 28.190495 398.125931 -145.198448 19.490836 0.000000 0.076511
597.000000 48.123000 -14.000000 7.000000 6.000000 136.356011 26.217621 444.986341 -316.893033 20.772552 0.000000 0.096688
601.000000 45.702000 -12.000000 1.000000 7.000000 91.354242 26.304624 442.954163 912.616939 21.888932 0.000000 0.119018
602.000000 48.428000 -11.000000 1.000000 7.000000 90.238645 29.799295 358.618031 935.833960 20.657041 0.000000 0.108725
603.000000 51.244000 -10.000000 1.000000 7.000000 88.701682 33.718219 256.706385 970.326253 19.522312 0.000000 0.103282
604.000000 54.040000 -9.000000 1.000000 7.000000 86.607055 38.099716 131.086096 1022.087275 18.512582 0.000000 0.115302
605.000000 56.627000 -8.000000 1.000000 7.000000 83.782429 42.969933 -27.605204 1101.250251 17.667450 0.000000 0.162306
606.000000 58.696000 -7.000000 1.000000 7.000000 80.019699 48.332969 -234.406618 1225.894729 17.045216 0.000000 0.260028
609.000000 45.478000 -13.000000 2.000000 7.000000 99.877172 24.978972 473.596563 734.260614 21.993586 0.000000 0.111844
610.000000 48.333000 -12.000000 2.000000 7.000000 99.481582 28.431975 392.273370 736.590505 20.694175 0.000000 0.095877
611.000000 51.379000 -11.000000 2.000000 7.000000 98.783563 32.321468 294.030430 744.206046 19.467354 0.000000 0.079366
612.000000 54.566000 -10.000000 2.000000 7.000000 97.670008 36.692494 172.974285 760.235095 18.330557 0.000000 0.074451
613.000000 57.793000 -9.000000 2.000000 7.000000 95.992824 41.579344 20.114880 789.955674 17.307284 0.000000 0.106792
614.000000 60.880000 -8.000000 2.000000 7.000000 93.564601 46.994837 -178.975800 842.699699 16.429996 0.000000 0.189437
617.000000 47.297000 -13.000000 3.000000 7.000000 107.386424 27.032621 425.828584 562.654877 21.144578 0.000000 0.078755
618.000000 50.315000 -12.000000 3.000000 7.000000 107.338593 30.885075 331.231903 549.454532 19.876310 0.000000 0.054588
619.000000 53.537000 -11.000000 3.000000 7.000000 106.985793 35.237268 214.708971 538.482200 18.679812 0.000000 0.039545
620.000000 56.916000 -10.000000 3.000000 7.000000 106.202763 40.132344 67.637166 531.941689 17.571017 0.000000 0.075760
621.000000 60.351000 -9.000000 3.000000 7.000000 104.826390 45.593064 -123.809402 533.855041 16.570952 0.000000 0.159410
624.000000 45.717000 -14.000000 4.000000 7.000000 114.151859 25.601821 459.284119 405.837876 21.873009 0.000000 0.059395
625.000000 48.568000 -13.000000 4.000000 7.000000 114.599995 29.409209 368.311406 375.340337 20.588706 0.000000 0.029585
626.000000 51.635000 -12.000000 4.000000 7.000000 114.826241 33.733515 256.290996 342.276508 19.365458 0.000000 0.018142
627.000000 54.896000 -11.000000 4.000000 7.000000 114.724248 38.627389 114.962880 306.619590 18.215055 0.000000 0.074746
628.000000 58.296000 -10.000000 4.000000 7.000000 114.152732 44.124802 -68.905537 268.636994 17.152532 0.000000 0.161046
630.000000 46.482000 -14.000000 5.000000 7.000000 120.782106 27.894261 405.269539 215.569371 21.510431 0.000000 0.012163
631.000000 49.307000 -13.000000 5.000000 7.000000 121.444915 32.180942 297.721196 163.407223 20.277542 0.000000 0.036021
632.000000 52.325000 -12.000000 5.000000 7.000000 121.856212 37.063130 162.093242 102.883426 19.108010 0.000000 0.094519
633.000000 55.504000 -11.000000 5.000000 7.000000 121.892714 42.587277 -14.262335 31.327081 18.013317 0.000000 0.179655
635.000000 46.828000 -14.000000 6.000000 7.000000 127.059756 30.579524 339.000402 -3.110421 21.349321 0.000000 0.061678
636.000000 49.559000 -13.000000 6.000000 7.000000 127.856567 35.438465 209.029457 -85.786454 20.172769 0.000000 0.118918
643.000000 47.379000 -10.000000 1.000000 8.000000 84.760174 38.853865 107.969973 1067.747999 21.115834 0.000000 0.125128
644.000000 49.245000 -9.000000 1.000000 8.000000 82.101439 43.139873 -33.584183 1145.636654 20.316329 0.000000 0.171086
645.000000 50.725000 -8.000000 1.000000 8.000000 78.706111 47.800337 -212.001252 1260.994409 19.724418 0.000000 0.256106
648.000000 48.131000 -11.000000 2.000000 8.000000 94.872720 37.630894 145.216935 825.142252 20.782390 0.000000 0.085881
649.000000 52.764000 -9.000000 2.000000 8.000000 90.797626 46.631845 -164.417183 919.178782 18.958170 0.000000 0.189287
651.000000 47.663000 -12.000000 3.000000 8.000000 103.572604 36.370495 182.342625 618.299395 20.983246 0.000000 0.053008
652.000000 50.242000 -11.000000 3.000000 8.000000 102.588865 40.681681 49.839410 624.044830 19.906099 0.000000 0.084161
653.000000 52.823000 -10.000000 3.000000 8.000000 101.109279 45.415747 -117.028225 639.925348 18.933823 0.000000 0.153376
654.000000 55.284000 -9.000000 3.000000 8.000000 98.993323 50.563909 -333.620622 672.840195 18.091430 0.000000 0.264477
656.000000 46.437000 -13.000000 4.000000 8.000000 111.044790 35.072199 219.347632 435.010465 21.534253 0.000000 0.027815
657.000000 51.645000 -11.000000 4.000000 8.000000 109.862209 44.150237 -69.833180 399.116007 19.362897 0.000000 0.144190
659.000000 47.226000 -13.000000 5.000000 8.000000 117.546702 38.047807 132.659594 228.109682 21.172252 0.000000 0.080774
660.000000 49.772000 -12.000000 5.000000 8.000000 117.293047 42.833554 -22.830861 183.700950 20.089315 0.000000 0.154120
663.000000 47.561000 -13.000000 6.000000 8.000000 123.620687 41.464008 23.979912 -13.997874 21.021259 0.000000 0.172797
666.000000 46.481000 -10.000000 2.000000 9.000000 88.591666 46.355161 -153.450688 979.338531 21.521573 0.000000 0.191024
667.000000 47.911000 -9.000000 2.000000 9.000000 85.742759 50.807290 -345.010047 1067.784890 20.879948 0.000000 0.291260
670.000000 46.845000 -11.000000 3.000000 9.000000 98.081554 45.281361 -111.917195 723.802418 21.351082 0.000000 0.152600
671.000000 48.719000 -10.000000 3.000000 9.000000 96.039384 49.780859 -297.759566 764.650488 20.530074 0.000000 0.245295
673.000000 46.212000 -12.000000 4.000000 9.000000 106.294680 44.169404 -70.532763 502.369674 21.640526 0.000000 0.135777
674.000000 48.275000 -11.000000 4.000000 9.000000 104.920899 48.713453 -250.700377 506.339188 20.715808 0.000000 0.226085
677.000000 47.049000 -12.000000 5.000000 9.000000 112.565840 47.603357 -203.831319 277.656535 21.253449 0.000000 0.226257
#UB matrix in q= (UB) B0 G* 
#[[ 0.681546009 -0.714012934 -0.156387678]
# [ 0.233054131  0.009405356  0.972710396]
# [-0.693671976 -0.700115783  0.172965804]]
#B0 matrix in q= UB (B0) G*
#[[ 0.19670273 -0.          0.03056101]
# [ 0.          0.19187965 -0.        ]
# [ 0.          0.          0.18806537]]
#UBB0 matrix in q= (UB B0) G* i.e. recip. basis vectors are columns in LT frame: astar = UBB0[:,0], bstar = UBB0[:,1], cstar = UBB0[:,2]. (abcstar as columns on xyzlab1, xlab1 = ui, ui = unit vector along incident beam)
#[[ 0.13406196 -0.13700455 -0.00858238]
# [ 0.04584238  0.0018047   0.19005551]
# [-0.13644717 -0.13433797  0.01132956]]
#Euler angles phi theta psi (deg)
#[315.23   80.049   9.15 ]
#deviatoric strain in direct crystal frame (10-3 unit)
#[[ 0.32 -0.62 -0.03]
# [-0.62  0.27  0.08]
# [-0.03  0.08 -0.59]]
#deviatoric strain in sample2 frame (10-3 unit)
#[[ 0.37  0.07 -0.62]
# [ 0.07 -0.55 -0.16]
# [-0.62 -0.16  0.19]]
#new lattice parameters
#[ 5.1505     5.2113617  5.3157915 89.983691  99.234667  90.0710438]
#CCDLabel
#sCMOS
#DetectorParameters
#[79.0, 975.0, 941.0, 0.0, 0.0]
#pixelsize
#0.0734
#Frame dimensions
#[2018, 2016]
#
