#Strain and Orientation Refinement from experimental file: /home/micha/LaueProjects/DepthEffects/testZrO2_195.cor
#File created at Wed Jun 28 14:29:58 2023 with indexingSpotsSet.py
#Number of indexed spots: 531
#Element
#ZrO2
#grainIndex
#G_0
#Mean Deviation(pixel): 0.115
##spot_index intensity h k l 2theta Chi Xexp Yexp Energy GrainIndex PixDev
0.000000 45.510000 0.000000 8.000000 -5.000000 61.279826 38.049296 132.614482 1689.902820 21.983107 0.000000 0.210835
5.000000 52.498000 1.000000 5.000000 -4.000000 46.839677 29.259554 372.010470 2097.910960 19.061233 0.000000 0.233674
6.000000 48.682000 2.000000 5.000000 -4.000000 44.281348 19.546277 592.885615 2112.128567 20.556681 0.000000 0.200302
9.000000 56.622000 0.000000 3.000000 -2.000000 57.970765 38.382674 122.469451 1799.940245 8.834787 0.000000 0.234169
10.000000 55.646000 1.000000 6.000000 -4.000000 56.726438 29.085212 376.306083 1749.198113 17.980623 0.000000 0.158812
11.000000 52.509000 1.000000 3.000000 -2.000000 54.288309 20.085482 581.441447 1764.833424 9.528330 0.000000 0.112824
12.000000 47.762000 3.000000 6.000000 -4.000000 50.943904 11.773776 750.664481 1833.080644 20.951870 0.000000 0.094553
15.000000 55.652000 -1.000000 7.000000 -4.000000 65.686305 46.114838 -144.015117 1642.478048 17.974830 0.000000 0.290677
16.000000 56.678000 0.000000 7.000000 -4.000000 65.715217 37.583729 146.628627 1553.800204 17.650276 0.000000 0.184346
17.000000 55.899000 1.000000 7.000000 -4.000000 64.557645 28.935256 379.989255 1526.074011 17.897343 0.000000 0.131688
18.000000 53.369000 2.000000 7.000000 -4.000000 62.276926 20.551709 571.482551 1545.065464 18.747326 0.000000 0.096461
19.000000 49.452000 3.000000 7.000000 -4.000000 59.102269 12.750573 731.448150 1601.375737 20.233845 0.000000 0.060977
22.000000 54.494000 -1.000000 8.000000 -4.000000 71.945665 44.895409 -97.371974 1436.256605 18.354985 0.000000 0.235160
23.000000 55.293000 0.000000 4.000000 -2.000000 71.944711 36.888035 167.246815 1379.676440 9.045273 0.000000 0.154761
24.000000 54.657000 1.000000 8.000000 -4.000000 70.859210 28.804904 383.182246 1367.307613 18.302241 0.000000 0.123932
25.000000 52.621000 1.000000 4.000000 -2.000000 68.742280 20.958785 562.737400 1389.380687 9.505818 0.000000 0.106780
26.000000 49.427000 3.000000 8.000000 -4.000000 65.775974 13.611323 714.391858 1439.241785 20.241616 0.000000 0.084443
28.000000 50.971000 -2.000000 9.000000 -4.000000 76.201111 51.062447 -357.078671 1361.608530 19.621753 0.000000 0.332614
29.000000 52.611000 -1.000000 9.000000 -4.000000 77.075990 43.817556 -57.762369 1283.290452 19.010535 0.000000 0.195671
30.000000 53.224000 0.000000 9.000000 -4.000000 77.034090 36.276961 185.049357 1248.390306 18.792401 0.000000 0.135548
31.000000 52.694000 1.000000 9.000000 -4.000000 76.010355 28.690550 385.976805 1246.672548 18.982337 0.000000 0.121749
32.000000 51.047000 2.000000 9.000000 -4.000000 74.049904 21.317260 554.996850 1271.199847 19.596104 0.000000 0.118284
33.000000 48.445000 3.000000 9.000000 -4.000000 71.298032 14.375217 699.150784 1317.122875 20.650280 0.000000 0.108226
35.000000 49.105000 -1.000000 5.000000 -2.000000 80.583072 49.744679 -296.130742 1217.241891 10.182998 0.000000 0.281565
36.000000 50.411000 -1.000000 10.000000 -4.000000 81.337260 42.858624 -23.706912 1164.700204 19.838863 0.000000 0.166303
37.000000 50.878000 0.000000 5.000000 -2.000000 81.253232 35.736072 200.576151 1145.006551 9.828651 0.000000 0.121921
38.000000 50.430000 1.000000 10.000000 -4.000000 80.283592 28.589419 388.443130 1150.882247 19.832813 0.000000 0.120385
39.000000 49.086000 1.000000 5.000000 -2.000000 78.467023 21.635323 548.097199 1177.264741 10.188709 0.000000 0.126091
40.000000 46.955000 3.000000 10.000000 -4.000000 75.920474 15.057502 685.449790 1220.535287 21.303678 0.000000 0.124463
41.000000 47.075000 -2.000000 11.000000 -4.000000 84.279845 48.556853 -243.964497 1103.886630 21.243046 0.000000 0.242249
42.000000 48.119000 -1.000000 11.000000 -4.000000 84.920908 42.000417 5.886079 1069.725193 20.782703 0.000000 0.143679
43.000000 48.475000 0.000000 11.000000 -4.000000 84.797878 35.254013 214.237355 1060.998183 20.630680 0.000000 0.111506
44.000000 48.091000 1.000000 11.000000 -4.000000 83.876345 28.499344 390.635842 1072.394139 20.796085 0.000000 0.118602
45.000000 46.982000 2.000000 11.000000 -4.000000 82.189717 21.919428 541.908478 1100.134660 21.288386 0.000000 0.130449
46.000000 45.855000 -1.000000 12.000000 -4.000000 87.969095 41.228191 31.839782 991.746923 21.807577 0.000000 0.125752
47.000000 46.126000 0.000000 3.000000 -1.000000 87.811780 34.821741 226.350147 991.095999 5.419969 0.000000 0.103086
48.000000 45.794000 1.000000 12.000000 -4.000000 86.933503 28.418606 392.598080 1006.559103 21.837890 0.000000 0.116241
53.000000 73.526000 0.000000 4.000000 -3.000000 51.717285 38.984428 103.918295 2033.834635 13.608186 0.000000 0.287931
54.000000 70.722000 1.000000 4.000000 -3.000000 49.683725 25.982281 450.468177 1956.974632 14.149208 0.000000 0.183033
55.000000 62.669000 2.000000 4.000000 -3.000000 45.678937 13.836649 709.906665 2023.496755 15.969023 0.000000 0.160042
56.000000 52.074000 3.000000 4.000000 -3.000000 40.610384 3.381133 911.411995 2198.462435 19.219290 0.000000 0.214040
59.000000 75.828000 0.000000 5.000000 -3.000000 63.324314 37.837504 139.011619 1625.703996 13.193206 0.000000 0.197989
60.000000 73.762000 1.000000 5.000000 -3.000000 61.480071 26.073360 448.349275 1592.129005 13.563925 0.000000 0.122942
61.000000 67.533000 2.000000 5.000000 -3.000000 57.726340 15.009830 686.409901 1644.722702 14.816671 0.000000 0.072422
62.000000 58.784000 3.000000 5.000000 -3.000000 52.763728 5.293213 875.283783 1762.529579 17.023469 0.000000 0.054897
63.000000 49.385000 4.000000 5.000000 -3.000000 47.368663 -2.860965 1028.787593 1933.026765 20.264405 0.000000 0.117051
65.000000 71.912000 -1.000000 6.000000 -3.000000 71.716703 47.494760 -199.353444 1467.305375 13.909043 0.000000 0.279303
66.000000 72.167000 1.000000 6.000000 -3.000000 70.261436 26.148650 446.595183 1371.217834 13.861728 0.000000 0.118041
67.000000 67.466000 2.000000 6.000000 -3.000000 66.844067 15.992584 666.528348 1419.853690 14.829233 0.000000 0.092925
68.000000 60.595000 1.000000 2.000000 -1.000000 62.216820 6.930121 844.179937 1512.235288 5.504123 0.000000 0.052221
69.000000 52.786000 4.000000 6.000000 -3.000000 57.003377 -0.834309 990.673496 1639.937602 18.956642 0.000000 0.005261
71.000000 68.654000 -1.000000 7.000000 -3.000000 78.397618 45.900696 -135.676526 1258.541072 14.567574 0.000000 0.218795
72.000000 69.945000 0.000000 7.000000 -3.000000 78.526219 36.089482 190.455308 1211.340579 14.299421 0.000000 0.130535
73.000000 68.742000 1.000000 7.000000 -3.000000 76.979932 26.211930 445.119155 1218.405851 14.550689 0.000000 0.121511
74.000000 65.181000 2.000000 7.000000 -3.000000 73.896773 16.827334 649.487254 1265.621865 15.347082 0.000000 0.117807
75.000000 59.849000 3.000000 7.000000 -3.000000 69.668786 8.345091 817.120486 1344.067782 16.716028 0.000000 0.097770
76.000000 53.542000 4.000000 7.000000 -3.000000 64.784790 0.952452 957.106650 1447.884706 18.686826 0.000000 0.063190
77.000000 46.997000 5.000000 7.000000 -3.000000 59.682892 -5.348526 1075.764278 1573.118952 21.290811 0.000000 0.031394
80.000000 64.781000 -1.000000 8.000000 -3.000000 83.649845 44.528801 -83.735442 1109.015223 15.437242 0.000000 0.177211
81.000000 65.698000 0.000000 8.000000 -3.000000 83.681522 35.408762 209.869729 1087.220373 15.222371 0.000000 0.114711
82.000000 64.747000 1.000000 8.000000 -3.000000 82.252533 26.265862 443.859927 1104.288233 15.447036 0.000000 0.123047
83.000000 62.013000 2.000000 8.000000 -3.000000 79.472295 17.544886 634.718483 1150.776288 16.129533 0.000000 0.132045
84.000000 57.858000 3.000000 8.000000 -3.000000 75.637253 9.578971 793.364755 1220.496577 17.289188 0.000000 0.125009
85.000000 52.802000 4.000000 8.000000 -3.000000 71.128831 2.536602 927.319092 1309.253764 18.946433 0.000000 0.103676
86.000000 47.366000 5.000000 8.000000 -3.000000 66.310805 -3.558385 1041.929909 1414.130248 21.122881 0.000000 0.073914
88.000000 58.903000 -2.000000 9.000000 -3.000000 86.718748 51.497267 -377.954899 1040.116861 16.976543 0.000000 0.303634
89.000000 60.847000 -1.000000 9.000000 -3.000000 87.864134 43.336945 -40.559522 996.188917 16.434265 0.000000 0.147094
90.000000 60.734000 1.000000 9.000000 -3.000000 86.484030 26.312373 442.773003 1014.773748 16.466527 0.000000 0.122125
91.000000 58.598000 2.000000 9.000000 -3.000000 83.969016 18.168119 621.795943 1060.678043 17.067815 0.000000 0.138892
92.000000 55.328000 1.000000 3.000000 -1.000000 80.494270 10.663480 772.342519 1124.387467 6.026040 0.000000 0.140461
93.000000 51.266000 4.000000 9.000000 -3.000000 76.358811 3.948696 900.706573 1202.823694 19.512494 0.000000 0.128499
94.000000 46.777000 5.000000 9.000000 -3.000000 71.861357 -1.939887 1011.454464 1293.793012 21.386742 0.000000 0.106924
96.000000 55.604000 -2.000000 10.000000 -3.000000 90.363619 50.000204 -307.686835 930.373393 17.982584 0.000000 0.257740
97.000000 57.092000 -1.000000 10.000000 -3.000000 91.307555 42.292726 -4.102697 907.789263 17.514010 0.000000 0.124397
98.000000 57.563000 0.000000 10.000000 -3.000000 91.185927 34.310421 240.514937 914.025688 17.371453 0.000000 0.093865
99.000000 56.931000 1.000000 10.000000 -3.000000 89.946282 26.352897 441.825281 942.126121 17.565106 0.000000 0.119548
100.000000 55.236000 2.000000 10.000000 -3.000000 87.660617 18.714360 610.393806 987.423893 18.105591 0.000000 0.141232
101.000000 52.629000 3.000000 10.000000 -3.000000 84.506337 11.623540 753.607646 1046.682485 19.003983 0.000000 0.148744
102.000000 49.341000 4.000000 10.000000 -3.000000 80.719906 5.213854 876.787141 1117.596685 20.271833 0.000000 0.143651
103.000000 45.632000 5.000000 10.000000 -3.000000 76.546046 -0.471720 983.861409 1198.489482 21.921196 0.000000 0.129005
105.000000 52.458000 -2.000000 11.000000 -3.000000 93.393911 48.666800 -248.689311 844.353553 19.060154 0.000000 0.222487
106.000000 53.611000 -1.000000 11.000000 -3.000000 94.166321 41.370893 27.090253 836.526157 18.650520 0.000000 0.106752
107.000000 53.951000 0.000000 11.000000 -3.000000 93.989014 33.861113 252.820109 850.615481 18.533575 0.000000 0.086201
108.000000 53.423000 1.000000 11.000000 -3.000000 92.826658 26.388521 440.991629 881.677044 18.717493 0.000000 0.116018
109.000000 52.055000 2.000000 11.000000 -3.000000 90.738806 19.196962 600.258656 926.303639 19.210760 0.000000 0.140865
110.000000 49.949000 3.000000 11.000000 -3.000000 87.865895 12.478953 736.806075 982.077902 20.022179 0.000000 0.152589
111.000000 47.265000 4.000000 11.000000 -3.000000 84.396856 6.352815 855.171689 1047.243609 21.160894 0.000000 0.152638
113.000000 49.523000 -2.000000 12.000000 -3.000000 95.945417 47.472845 -198.452061 775.176694 20.189100 0.000000 0.194723
114.000000 50.426000 -1.000000 12.000000 -3.000000 96.573051 40.551526 54.082616 777.779428 19.827669 0.000000 0.092688
115.000000 50.673000 0.000000 4.000000 -1.000000 96.351648 33.463228 263.609313 797.388890 6.577261 0.000000 0.079644
116.000000 50.226000 1.000000 12.000000 -3.000000 95.257595 26.420081 440.252621 830.407879 19.908145 0.000000 0.112006
117.000000 49.105000 2.000000 12.000000 -3.000000 93.340704 19.626378 591.190429 874.298942 20.363688 0.000000 0.138882
118.000000 47.382000 1.000000 4.000000 -1.000000 90.713732 13.245617 721.653236 927.225493 7.035193 0.000000 0.153638
120.000000 46.815000 -2.000000 13.000000 -3.000000 98.118352 46.398441 -155.158773 718.374757 21.356189 0.000000 0.172399
121.000000 47.530000 -1.000000 13.000000 -3.000000 98.624164 39.818724 77.669370 728.470375 21.034909 0.000000 0.081248
122.000000 47.709000 0.000000 13.000000 -3.000000 98.368191 33.108448 273.146440 751.989031 20.956641 0.000000 0.073932
123.000000 47.326000 1.000000 13.000000 -3.000000 97.334911 26.448237 439.593007 786.261531 21.126980 0.000000 0.107803
124.000000 46.396000 2.000000 13.000000 -3.000000 95.566403 20.010897 583.029078 829.365946 21.551695 0.000000 0.135952
127.000000 84.362000 2.000000 3.000000 -2.000000 47.075668 4.375495 892.646708 1944.932444 11.862837 0.000000 0.120468
128.000000 62.207000 3.000000 3.000000 -2.000000 39.087737 -7.544707 1117.551281 2277.529822 16.088476 0.000000 0.247443
129.000000 73.294000 3.000000 4.000000 -2.000000 54.344428 -4.234516 1054.690019 1715.244655 13.652993 0.000000 0.038568
130.000000 57.011000 2.000000 2.000000 -1.000000 46.685037 -12.726800 1218.082449 1981.338692 8.776916 0.000000 0.151255
131.000000 88.432000 2.000000 5.000000 -2.000000 72.812293 8.982502 804.868661 1278.049250 11.312368 0.000000 0.113254
132.000000 75.491000 3.000000 5.000000 -2.000000 65.642610 -1.454689 1002.332028 1428.421033 13.253451 0.000000 0.068984
133.000000 62.263000 4.000000 5.000000 -2.000000 58.211510 -9.696571 1158.908059 1617.699052 16.070958 0.000000 0.046049
134.000000 50.464000 5.000000 5.000000 -2.000000 51.267022 -16.122028 1286.104695 1839.632911 19.829707 0.000000 0.117518
135.000000 90.032000 -1.000000 6.000000 -2.000000 87.430344 47.481538 -198.809516 1012.472460 11.106804 0.000000 0.211202
136.000000 89.739000 1.000000 6.000000 -2.000000 85.363297 22.174725 536.326192 1035.262467 11.144638 0.000000 0.132271
137.000000 73.579000 3.000000 6.000000 -2.000000 74.138198 0.902362 958.047839 1246.852792 13.595744 0.000000 0.118625
138.000000 63.275000 2.000000 3.000000 -1.000000 67.252462 -7.043386 1107.979694 1395.704650 7.905820 0.000000 0.081371
139.000000 53.397000 5.000000 6.000000 -2.000000 60.514876 -13.407925 1231.566796 1566.621212 18.738546 0.000000 0.064249
141.000000 82.150000 -1.000000 7.000000 -2.000000 92.492396 45.612342 -124.549245 874.026056 12.171412 0.000000 0.165658
142.000000 83.572000 0.000000 7.000000 -2.000000 92.649668 34.078739 246.876311 880.863434 11.964833 0.000000 0.089872
143.000000 81.736000 1.000000 7.000000 -2.000000 90.473185 22.614778 526.656194 931.370694 12.234643 0.000000 0.131225
144.000000 76.918000 2.000000 7.000000 -2.000000 86.257879 12.063254 744.984396 1012.985030 13.002351 0.000000 0.151100
145.000000 69.992000 3.000000 7.000000 -2.000000 80.661806 2.919841 920.103619 1118.216812 14.290779 0.000000 0.143891
146.000000 62.041000 4.000000 7.000000 -2.000000 74.407509 -4.710495 1063.685987 1242.372647 16.124165 0.000000 0.118934
147.000000 53.996000 5.000000 7.000000 -2.000000 68.068837 -10.965959 1183.546880 1382.407599 18.528277 0.000000 0.088503
148.000000 46.471000 6.000000 7.000000 -2.000000 62.010136 -16.073459 1285.116340 1536.303504 21.530531 0.000000 0.076926
149.000000 75.078000 -1.000000 8.000000 -2.000000 96.361093 44.045587 -66.021503 774.071873 13.317068 0.000000 0.134192
150.000000 74.619000 1.000000 8.000000 -2.000000 94.396202 22.980574 518.570781 851.122520 13.400385 0.000000 0.126925
151.000000 65.880000 3.000000 8.000000 -2.000000 85.779896 4.662121 887.228820 1020.681449 15.181075 0.000000 0.156193
152.000000 59.717000 2.000000 4.000000 -1.000000 80.142174 -2.649696 1024.809734 1128.227339 8.374936 0.000000 0.141668
153.000000 53.224000 5.000000 8.000000 -2.000000 74.272393 -8.764811 1140.942358 1247.673609 18.795126 0.000000 0.117350
154.000000 46.890000 3.000000 4.000000 -1.000000 68.505907 -13.845996 1240.279559 1377.519591 10.668092 0.000000 0.093016
155.000000 66.702000 -2.000000 9.000000 -2.000000 97.972601 52.055278 -405.336755 695.857306 14.988559 0.000000 0.308546
156.000000 68.885000 -1.000000 9.000000 -2.000000 99.400838 42.715230 -18.705600 698.469435 14.513640 0.000000 0.111384
157.000000 69.505000 0.000000 9.000000 -2.000000 99.269186 32.945099 277.511664 731.684823 14.384652 0.000000 0.071337
158.000000 68.423000 1.000000 9.000000 -2.000000 97.495769 23.289424 511.709957 786.821464 14.613081 0.000000 0.121310
159.000000 65.739000 2.000000 9.000000 -2.000000 94.247429 14.256761 701.520871 858.526033 15.210933 0.000000 0.152083
160.000000 61.767000 3.000000 9.000000 -2.000000 89.876412 6.179264 858.471129 943.335162 16.190751 0.000000 0.161315
161.000000 56.938000 4.000000 9.000000 -2.000000 84.801899 -0.820515 990.414321 1038.924535 17.565659 0.000000 0.154691
162.000000 51.695000 5.000000 9.000000 -2.000000 79.407628 -6.776155 1102.886056 1143.690553 19.349383 0.000000 0.137533
163.000000 46.407000 6.000000 9.000000 -2.000000 73.989581 -11.802591 1199.900385 1256.504602 21.556298 0.000000 0.115397
165.000000 61.882000 -1.000000 5.000000 -1.000000 100.714864 50.323520 -322.486089 622.014162 8.077757 0.000000 0.263048
166.000000 63.498000 -1.000000 10.000000 -2.000000 101.845135 41.572681 20.338543 639.261993 15.744287 0.000000 0.094235
167.000000 63.917000 0.000000 5.000000 -1.000000 101.624358 32.503003 289.245622 678.469756 7.820857 0.000000 0.064411
168.000000 63.053000 1.000000 10.000000 -2.000000 100.002920 23.553650 505.815099 733.910312 15.856896 0.000000 0.115305
169.000000 60.972000 1.000000 5.000000 -1.000000 97.110782 15.130853 683.971653 801.912937 8.199645 0.000000 0.148453
170.000000 57.874000 3.000000 10.000000 -2.000000 93.214638 7.510489 833.102708 880.026873 17.278735 0.000000 0.162328
171.000000 54.042000 2.000000 5.000000 -1.000000 88.639564 0.810850 959.767273 966.562985 9.252734 0.000000 0.161634
172.000000 49.784000 5.000000 10.000000 -2.000000 83.697128 -4.974800 1068.686564 1060.328112 20.090144 0.000000 0.150595
174.000000 57.590000 -2.000000 11.000000 -2.000000 102.956923 48.804138 -254.620208 565.025604 17.358727 0.000000 0.228345
175.000000 58.810000 -1.000000 11.000000 -2.000000 103.849209 40.581537 53.105667 591.625086 16.998855 0.000000 0.080964
176.000000 59.094000 0.000000 11.000000 -2.000000 103.563617 32.121391 299.281802 634.408360 16.917616 0.000000 0.058538
177.000000 58.390000 1.000000 11.000000 -2.000000 102.070714 23.782262 500.695621 689.479909 17.122394 0.000000 0.109353
178.000000 56.742000 2.000000 11.000000 -2.000000 99.473670 15.893654 668.538395 754.259763 17.620833 0.000000 0.143812
179.000000 54.282000 3.000000 11.000000 -2.000000 95.978451 8.686793 810.557731 826.978197 18.420856 0.000000 0.160950
180.000000 51.202000 4.000000 11.000000 -2.000000 91.840515 2.272577 932.287515 906.387028 19.530672 0.000000 0.164733
181.000000 47.718000 5.000000 11.000000 -2.000000 87.313606 -3.338578 1037.785858 991.586443 20.958789 0.000000 0.158653
183.000000 53.779000 -1.000000 6.000000 -1.000000 104.818446 47.462113 -198.010926 519.835409 9.294224 0.000000 0.201147
184.000000 54.714000 -1.000000 12.000000 -2.000000 105.519659 39.714065 80.996857 552.461330 18.270863 0.000000 0.070450
185.000000 54.907000 0.000000 6.000000 -1.000000 105.187124 31.788673 307.963820 597.277590 9.103605 0.000000 0.053497
186.000000 54.323000 1.000000 12.000000 -2.000000 103.804204 23.982001 496.207978 651.567214 18.403603 0.000000 0.103660
187.000000 52.994000 1.000000 6.000000 -1.000000 101.454154 16.564919 654.860166 713.479459 9.433175 0.000000 0.138740
188.000000 51.009000 3.000000 12.000000 -2.000000 98.298871 9.732891 790.389681 781.714648 19.601965 0.000000 0.158177
189.000000 48.501000 2.000000 6.000000 -1.000000 94.541710 3.588182 907.508175 855.337464 10.308588 0.000000 0.165366
190.000000 45.625000 5.000000 12.000000 -2.000000 90.390450 -1.848112 1009.728611 933.661517 21.918936 0.000000 0.163261
192.000000 50.390000 -2.000000 13.000000 -2.000000 106.384981 46.269351 -150.072100 483.198373 19.838137 0.000000 0.179349
193.000000 51.117000 -1.000000 13.000000 -2.000000 106.931811 38.948810 105.025095 519.690104 19.555974 0.000000 0.061961
194.000000 51.247000 0.000000 13.000000 -2.000000 106.565537 31.496037 315.548427 565.532234 19.507069 0.000000 0.049130
195.000000 50.756000 1.000000 13.000000 -2.000000 105.277715 24.158008 492.242000 618.790066 19.696563 0.000000 0.098313
196.000000 49.667000 2.000000 13.000000 -2.000000 103.136491 17.160038 642.653706 678.113204 20.129749 0.000000 0.133558
197.000000 48.041000 3.000000 13.000000 -2.000000 100.271134 10.668674 772.241482 742.533619 20.812081 0.000000 0.154609
198.000000 45.975000 4.000000 13.000000 -2.000000 96.845506 4.777332 885.049844 811.342172 21.749171 0.000000 0.164405
200.000000 47.368000 -1.000000 7.000000 -1.000000 107.718980 45.203141 -108.953435 452.943639 10.551620 0.000000 0.161551
201.000000 47.941000 -1.000000 14.000000 -2.000000 108.140245 38.268941 125.940936 491.861485 20.851182 0.000000 0.054999
202.000000 48.026000 0.000000 7.000000 -1.000000 107.750051 31.236664 322.231323 538.061483 10.407410 0.000000 0.045317
203.000000 47.608000 1.000000 14.000000 -2.000000 106.545222 24.314271 488.711721 590.142020 20.998538 0.000000 0.093339
204.000000 46.702000 1.000000 7.000000 -1.000000 104.582242 17.691162 631.693599 647.103688 10.703421 0.000000 0.128444
206.000000 89.271000 3.000000 3.000000 -1.000000 54.289646 -18.503302 1335.191991 1756.866806 11.209140 0.000000 0.108109
207.000000 62.117000 4.000000 3.000000 -1.000000 43.806164 -25.968524 1499.212061 2189.124878 16.110289 0.000000 0.258258
208.000000 71.500000 4.000000 4.000000 -1.000000 57.993222 -21.607603 1401.300273 1664.567145 13.994233 0.000000 0.108799
209.000000 54.260000 5.000000 4.000000 -1.000000 49.211481 -27.118052 1526.195575 1984.352552 18.442038 0.000000 0.206830
210.000000 90.753000 3.000000 5.000000 -1.000000 78.642988 -9.925938 1163.345545 1160.463824 11.021930 0.000000 0.133108
211.000000 73.818000 4.000000 5.000000 -1.000000 68.881692 -17.762719 1319.787939 1377.511920 13.552566 0.000000 0.098714
212.000000 59.225000 5.000000 5.000000 -1.000000 60.158674 -23.534928 1443.766443 1614.450648 16.893888 0.000000 0.113308
213.000000 47.424000 6.000000 5.000000 -1.000000 52.671300 -27.882023 1544.436188 1869.563546 21.099478 0.000000 0.182811
214.000000 85.065000 3.000000 6.000000 -1.000000 86.031056 -6.610094 1099.723659 1016.175346 11.757214 0.000000 0.154353
215.000000 72.441000 4.000000 6.000000 -1.000000 77.254422 -14.376419 1250.873275 1192.323300 13.808282 0.000000 0.125531
216.000000 60.657000 5.000000 6.000000 -1.000000 68.991035 -20.286598 1372.847160 1381.679193 16.493045 0.000000 0.102602
217.000000 50.417000 6.000000 6.000000 -1.000000 61.572897 -24.845234 1473.349276 1583.030772 19.844954 0.000000 0.117144
218.000000 87.265000 2.000000 7.000000 -1.000000 98.829365 5.856532 864.601008 772.938771 11.457927 0.000000 0.162413
219.000000 78.803000 3.000000 7.000000 -1.000000 91.557966 -3.786563 1046.233869 911.662543 12.690226 0.000000 0.163371
220.000000 69.356000 4.000000 7.000000 -1.000000 83.762290 -11.391116 1191.845327 1061.003622 14.420715 0.000000 0.145170
221.000000 60.002000 5.000000 7.000000 -1.000000 76.121767 -17.346379 1311.184315 1219.592456 16.670970 0.000000 0.120273
222.000000 51.398000 6.000000 7.000000 -1.000000 69.005862 -22.042172 1410.772908 1386.593724 19.463829 0.000000 0.105681
224.000000 84.470000 -1.000000 8.000000 -1.000000 109.863933 43.379732 -42.079939 406.000661 11.833741 0.000000 0.134371
225.000000 85.264000 0.000000 8.000000 -1.000000 109.679963 30.797368 333.466852 492.860326 11.723838 0.000000 0.039003
226.000000 83.340000 1.000000 8.000000 -1.000000 106.936670 18.598438 612.819628 595.184753 11.995505 0.000000 0.118763
227.000000 78.959000 2.000000 8.000000 -1.000000 102.061454 7.738563 828.741603 708.906030 12.662417 0.000000 0.156702
228.000000 72.781000 3.000000 8.000000 -1.000000 95.798716 -1.364367 1000.634311 831.667381 13.738908 0.000000 0.165748
229.000000 65.621000 4.000000 8.000000 -1.000000 88.893424 -8.753192 1140.718925 962.034471 15.240014 0.000000 0.156464
230.000000 58.213000 5.000000 8.000000 -1.000000 81.912368 -14.685863 1257.076694 1099.107655 17.181519 0.000000 0.137182
231.000000 51.088000 6.000000 8.000000 -1.000000 75.213134 -19.458802 1355.265076 1242.316077 19.579994 0.000000 0.116956
233.000000 76.117000 -1.000000 9.000000 -1.000000 111.507502 41.879818 9.980489 371.356254 13.131941 0.000000 0.114730
234.000000 76.607000 0.000000 9.000000 -1.000000 111.184568 30.439501 342.544060 457.178718 13.048429 0.000000 0.034024
235.000000 75.154000 1.000000 9.000000 -1.000000 108.770102 19.344598 597.146333 553.340186 13.301631 0.000000 0.110018
236.000000 71.914000 2.000000 9.000000 -1.000000 104.572813 9.322020 798.325292 657.446894 13.902162 0.000000 0.149971
237.000000 67.281000 3.000000 9.000000 -1.000000 99.128243 0.729320 961.299079 768.047373 14.861088 0.000000 0.164527
238.000000 61.766000 4.000000 9.000000 -1.000000 93.000682 -6.414788 1096.007034 884.225505 16.189951 0.000000 0.162095
239.000000 55.870000 5.000000 9.000000 -1.000000 86.654516 -12.276916 1209.215900 1005.388510 17.900793 0.000000 0.148950
240.000000 49.995000 6.000000 9.000000 -1.000000 80.414416 -17.079610 1305.692131 1131.149043 20.006185 0.000000 0.130901
242.000000 69.215000 -1.000000 10.000000 -1.000000 112.803290 40.625932 51.658924 344.795672 14.441184 0.000000 0.099971
243.000000 69.518000 0.000000 10.000000 -1.000000 112.389987 30.142364 350.030361 428.272765 14.378604 0.000000 0.030034
244.000000 68.387000 1.000000 10.000000 -1.000000 110.236813 19.968862 583.923190 518.834182 14.617320 0.000000 0.102231
245.000000 65.919000 2.000000 10.000000 -1.000000 106.573591 10.670797 772.200188 615.046220 15.165811 0.000000 0.143023
246.000000 62.360000 3.000000 10.000000 -1.000000 101.795940 2.552477 927.020283 716.006784 16.032876 0.000000 0.161360
247.000000 58.042000 4.000000 10.000000 -1.000000 96.337009 -4.334234 1056.573728 821.129461 17.227654 0.000000 0.164113
248.000000 53.308000 5.000000 10.000000 -1.000000 90.575166 -10.092877 1166.579161 930.025387 18.759633 0.000000 0.156298
249.000000 48.459000 6.000000 10.000000 -1.000000 84.795830 -14.888604 1261.150539 1042.434891 20.638673 0.000000 0.142162
251.000000 63.429000 -1.000000 11.000000 -1.000000 113.848945 39.563084 85.779378 323.817023 15.758338 0.000000 0.088535
252.000000 63.615000 0.000000 11.000000 -1.000000 113.377108 29.891720 356.310299 404.367462 15.712765 0.000000 0.026799
253.000000 62.712000 1.000000 11.000000 -1.000000 111.436035 20.498727 572.617315 489.857469 15.939813 0.000000 0.095323
254.000000 60.784000 2.000000 11.000000 -1.000000 108.201199 11.832254 749.518009 579.424779 16.446410 0.000000 0.136234
255.000000 57.992000 3.000000 11.000000 -1.000000 103.971676 4.151288 896.881816 672.510357 17.239722 0.000000 0.157170
256.000000 54.557000 4.000000 11.000000 -1.000000 99.084564 -2.475788 1021.536344 768.742182 18.327159 0.000000 0.163847
257.000000 50.718000 5.000000 11.000000 -1.000000 93.848356 -8.109186 1128.355424 867.868953 19.716393 0.000000 0.160411
258.000000 46.699000 6.000000 11.000000 -1.000000 88.509836 -12.870003 1220.911317 969.720370 21.415363 0.000000 0.150215
260.000000 57.588000 -2.000000 12.000000 -1.000000 113.960415 47.448530 -197.452834 233.710148 17.356169 0.000000 0.237202
261.000000 58.515000 -1.000000 12.000000 -1.000000 114.709209 38.651296 114.226793 306.846346 17.081353 0.000000 0.079457
262.000000 58.625000 0.000000 12.000000 -1.000000 114.200148 29.677456 361.653727 384.261416 17.049872 0.000000 0.024153
263.000000 57.889000 1.000000 12.000000 -1.000000 112.434364 20.954026 562.839908 465.159707 17.267322 0.000000 0.089193
264.000000 56.352000 2.000000 12.000000 -1.000000 109.548735 12.842095 729.640234 549.028969 17.739468 0.000000 0.129775
265.000000 54.121000 3.000000 12.000000 -1.000000 105.773957 5.562675 870.176273 635.529199 18.472258 0.000000 0.152484
266.000000 51.347000 4.000000 12.000000 -1.000000 101.375916 -0.809034 990.198621 724.430186 19.471826 0.000000 0.162141
267.000000 48.202000 5.000000 12.000000 -1.000000 96.607124 -6.303643 1093.893267 815.574559 20.744499 0.000000 0.162250
269.000000 53.585000 -2.000000 13.000000 -1.000000 114.866395 46.108122 -143.752599 221.495718 18.652733 0.000000 0.211811
270.000000 54.295000 -1.000000 13.000000 -1.000000 115.428552 37.860878 138.307420 292.846289 18.408832 0.000000 0.072102
271.000000 54.354000 0.000000 13.000000 -1.000000 114.896784 29.492192 366.255597 367.111366 18.389218 0.000000 0.021977
272.000000 53.745000 1.000000 13.000000 -1.000000 113.278098 21.349417 554.300638 443.846210 18.598631 0.000000 0.083739
273.000000 52.497000 2.000000 13.000000 -1.000000 110.681244 13.727668 712.077044 522.757633 19.041949 0.000000 0.123712
274.000000 50.684000 3.000000 13.000000 -1.000000 107.287350 6.816321 846.348717 603.647829 19.724184 0.000000 0.147608
275.000000 48.415000 4.000000 13.000000 -1.000000 103.308806 0.691801 962.003965 686.381583 20.650496 0.000000 0.159537
276.000000 45.811000 5.000000 13.000000 -1.000000 98.953460 -4.656425 1062.663468 770.866248 21.826194 0.000000 0.162502
278.000000 50.082000 -2.000000 14.000000 -1.000000 115.623654 44.926723 -98.544794 211.886192 19.957276 0.000000 0.191212
279.000000 50.634000 -1.000000 14.000000 -1.000000 116.038448 37.169357 158.955064 281.106597 19.739788 0.000000 0.066044
280.000000 50.659000 0.000000 14.000000 -1.000000 115.493999 29.330418 370.260263 352.307438 19.730304 0.000000 0.020181
281.000000 50.147000 1.000000 14.000000 -1.000000 114.000386 21.695963 546.778327 425.258380 19.932892 0.000000 0.078870
282.000000 49.117000 2.000000 14.000000 -1.000000 111.645394 14.510227 696.446411 499.805439 20.351730 0.000000 0.118063
283.000000 47.624000 3.000000 14.000000 -1.000000 108.573476 7.936250 824.957706 575.844197 20.991101 0.000000 0.142724
284.000000 45.744000 4.000000 14.000000 -1.000000 104.956299 2.048536 936.502098 653.303627 21.855406 0.000000 0.156387
286.000000 46.994000 -2.000000 15.000000 -1.000000 116.264466 43.878472 -59.962488 204.181293 21.268166 0.000000 0.174201
287.000000 47.429000 -1.000000 15.000000 -1.000000 116.561757 36.559435 176.854999 271.125261 21.073505 0.000000 0.060985
288.000000 47.432000 0.000000 15.000000 -1.000000 116.011621 29.187933 373.776892 339.397338 21.072770 0.000000 0.018700
289.000000 46.995000 1.000000 15.000000 -1.000000 114.625571 22.002168 540.101518 408.899834 21.269489 0.000000 0.074505
290.000000 46.134000 2.000000 15.000000 -1.000000 112.475460 15.206510 682.445998 479.568034 21.667281 0.000000 0.112817
293.000000 164.560000 2.000000 2.000000 0.000000 68.193511 -31.663606 1638.788832 1446.940290 6.079095 0.000000 0.138167
295.000000 158.266000 2.000000 3.000000 0.000000 86.314640 -22.859622 1428.750926 1016.233567 6.319007 0.000000 0.126922
296.000000 75.937000 4.000000 3.000000 0.000000 54.630633 -36.819591 1780.745109 1895.392892 13.176009 0.000000 0.252392
298.000000 184.926000 0.000000 4.000000 0.000000 123.243632 26.941975 427.972939 149.630995 5.404344 0.000000 0.020136
299.000000 169.733000 1.000000 4.000000 0.000000 112.947596 0.590317 963.910571 485.277316 5.889271 0.000000 0.135139
300.000000 140.044000 2.000000 4.000000 0.000000 96.955184 -15.861601 1280.810784 804.505061 7.139892 0.000000 0.144142
301.000000 108.597000 3.000000 4.000000 0.000000 81.341201 -25.578184 1490.170022 1122.712550 9.209915 0.000000 0.119747
302.000000 62.340000 5.000000 4.000000 0.000000 57.642147 -35.747580 1749.751986 1781.226914 16.049342 0.000000 0.218508
304.000000 139.489000 1.000000 5.000000 0.000000 115.733054 5.047406 879.939062 420.230173 7.165831 0.000000 0.122407
305.000000 122.214000 2.000000 5.000000 0.000000 103.541866 -10.319602 1170.976223 677.510415 8.180540 0.000000 0.148656
306.000000 101.700000 3.000000 5.000000 0.000000 90.478424 -20.342744 1374.046411 931.414816 9.832999 0.000000 0.134233
307.000000 82.260000 4.000000 5.000000 0.000000 78.494415 -27.016766 1523.796095 1186.920167 12.159162 0.000000 0.117767
308.000000 52.684000 6.000000 5.000000 0.000000 59.563196 -35.044186 1729.867010 1713.420257 18.990460 0.000000 0.199387
310.000000 118.040000 1.000000 6.000000 0.000000 117.433324 8.261888 818.716740 376.448463 8.467600 0.000000 0.110839
311.000000 107.174000 2.000000 6.000000 0.000000 107.854291 -5.898960 1086.204457 592.468812 9.327772 0.000000 0.146441
312.000000 66.075000 5.000000 6.000000 0.000000 76.656405 -27.906027 1545.013449 1229.882298 15.138036 0.000000 0.117826
313.000000 45.549000 7.000000 6.000000 0.000000 60.894006 -34.547312 1716.025869 1668.492536 21.964920 0.000000 0.187288
315.000000 102.160000 1.000000 7.000000 0.000000 118.556441 10.675855 772.101811 344.928933 9.783638 0.000000 0.100844
316.000000 94.890000 2.000000 7.000000 0.000000 110.820623 -2.330138 1018.795505 531.372102 10.534740 0.000000 0.141333
317.000000 85.254000 3.000000 7.000000 0.000000 101.663470 -12.026989 1204.303352 713.839451 11.727449 0.000000 0.148176
318.000000 74.742000 4.000000 7.000000 0.000000 92.305357 -19.155923 1348.877182 895.130944 13.379175 0.000000 0.137353
319.000000 64.491000 5.000000 7.000000 0.000000 83.438804 -24.465778 1464.719410 1077.004921 15.508254 0.000000 0.122369
320.000000 55.160000 6.000000 7.000000 0.000000 75.373247 -28.509894 1559.620777 1260.653213 18.134012 0.000000 0.118644
321.000000 91.964000 -1.000000 8.000000 0.000000 123.827658 42.403903 -7.926196 -35.787209 10.867005 0.000000 0.199103
322.000000 89.974000 1.000000 8.000000 0.000000 119.343210 12.549093 735.423584 321.135610 11.108534 0.000000 0.092307
323.000000 77.915000 3.000000 8.000000 0.000000 105.174137 -8.736228 1140.392717 645.672568 12.831254 0.000000 0.148418
324.000000 61.969000 5.000000 8.000000 0.000000 88.899643 -21.326100 1395.194513 963.192216 16.137856 0.000000 0.131449
325.000000 47.315000 7.000000 8.000000 0.000000 74.427186 -28.946668 1570.290687 1283.779598 21.140752 0.000000 0.119708
326.000000 81.925000 -1.000000 9.000000 0.000000 123.934112 40.698306 49.296248 -14.176132 12.198600 0.000000 0.170355
327.000000 80.348000 1.000000 9.000000 0.000000 119.919798 14.042035 705.810836 302.529584 12.439308 0.000000 0.085010
328.000000 76.615000 2.000000 9.000000 0.000000 114.526501 3.012623 918.356041 449.223449 13.046657 0.000000 0.128701
329.000000 65.414000 4.000000 9.000000 0.000000 100.616742 -12.930825 1222.113794 734.002205 15.284545 0.000000 0.147600
330.000000 59.044000 5.000000 9.000000 0.000000 93.329582 -18.465779 1334.408360 874.984773 16.935969 0.000000 0.139016
331.000000 46.827000 7.000000 9.000000 0.000000 79.746485 -26.393619 1509.127715 1158.350199 21.359253 0.000000 0.118367
332.000000 73.841000 -1.000000 10.000000 0.000000 123.988980 39.326289 93.238364 2.897780 13.534059 0.000000 0.149026
333.000000 72.561000 1.000000 10.000000 0.000000 120.357659 15.258282 681.401352 287.576954 13.774180 0.000000 0.078740
334.000000 65.805000 3.000000 10.000000 0.000000 109.944340 -3.438893 1039.676872 549.740052 15.191226 0.000000 0.143219
335.000000 45.837000 7.000000 10.000000 0.000000 84.292307 -23.999310 1454.181560 1058.754219 21.819032 0.000000 0.123631
337.000000 67.197000 -1.000000 11.000000 0.000000 124.013616 38.199910 128.042649 16.733810 14.872337 0.000000 0.132607
338.000000 66.137000 1.000000 11.000000 0.000000 120.699850 16.267385 660.934485 275.295503 15.112023 0.000000 0.073317
339.000000 63.954000 2.000000 11.000000 0.000000 116.677890 6.776676 847.104020 396.395859 15.628875 0.000000 0.116431
340.000000 60.882000 3.000000 11.000000 0.000000 111.605313 -1.292986 999.292709 514.640926 16.419015 0.000000 0.139334
341.000000 57.163000 4.000000 11.000000 0.000000 105.910928 -7.987616 1126.026083 631.181745 17.489172 0.000000 0.148085
342.000000 53.052000 5.000000 11.000000 0.000000 99.950213 -13.490054 1233.197795 746.827310 18.846294 0.000000 0.147130
343.000000 48.784000 6.000000 11.000000 0.000000 93.984426 -18.014600 1325.012447 862.167619 20.497566 0.000000 0.140038
344.000000 61.641000 -1.000000 12.000000 0.000000 124.020116 37.259302 156.290989 28.176527 16.212735 0.000000 0.119599
345.000000 60.749000 1.000000 12.000000 0.000000 120.973651 17.117615 643.526398 265.026759 16.452090 0.000000 0.068597
346.000000 50.231000 5.000000 12.000000 0.000000 102.447328 -11.328420 1190.620053 698.708671 19.904179 0.000000 0.148467
348.000000 56.929000 -1.000000 13.000000 0.000000 124.015609 36.462411 179.676315 37.799346 17.554766 0.000000 0.109053
349.000000 56.168000 1.000000 13.000000 0.000000 121.197083 17.843454 628.539063 256.312577 17.793864 0.000000 0.064458
350.000000 54.772000 2.000000 13.000000 0.000000 118.048196 9.549669 793.930821 359.504078 18.248505 0.000000 0.105647
351.000000 52.797000 3.000000 13.000000 0.000000 114.048561 2.253028 932.655322 460.337891 18.932671 0.000000 0.130844
352.000000 50.358000 4.000000 13.000000 0.000000 109.467306 -4.022206 1050.681018 559.615865 19.851119 0.000000 0.144104
353.000000 47.588000 5.000000 13.000000 0.000000 104.547985 -9.355412 1152.318931 657.924283 21.008740 0.000000 0.148588
355.000000 52.883000 -1.000000 14.000000 0.000000 124.004421 35.778886 199.354869 46.005561 18.898082 0.000000 0.100341
356.000000 52.226000 1.000000 14.000000 0.000000 121.382472 18.470150 615.500366 248.824250 19.136976 0.000000 0.060808
357.000000 49.459000 3.000000 14.000000 0.000000 114.963582 3.729392 904.844723 438.885068 20.210082 0.000000 0.126576
359.000000 49.371000 -1.000000 15.000000 0.000000 123.989245 35.186300 216.143264 53.087227 20.242428 0.000000 0.093031
360.000000 48.798000 1.000000 15.000000 0.000000 121.538502 19.016593 604.053465 242.319756 20.481158 0.000000 0.057570
361.000000 47.844000 2.000000 15.000000 0.000000 118.982241 11.668338 752.730366 332.256504 20.890405 0.000000 0.096406
362.000000 46.294000 -1.000000 16.000000 0.000000 123.971788 34.667742 230.634652 59.261121 21.587613 0.000000 0.086815
363.000000 45.791000 1.000000 16.000000 0.000000 121.671450 19.497189 593.923634 236.616924 21.826207 0.000000 0.054684
368.000000 166.164000 2.000000 3.000000 1.000000 99.180128 -42.391794 1957.509082 705.487007 6.016805 0.000000 0.114567
369.000000 117.589000 3.000000 3.000000 1.000000 78.405689 -46.057954 2091.793753 1259.216508 8.505271 0.000000 0.231715
373.000000 178.111000 1.000000 4.000000 1.000000 130.418907 -20.544922 1378.372042 -37.869541 5.610526 0.000000 0.032647
374.000000 146.778000 2.000000 4.000000 1.000000 109.357846 -32.919114 1671.795441 490.540342 6.810446 0.000000 0.027139
375.000000 114.547000 3.000000 4.000000 1.000000 91.036500 -38.942560 1844.780794 915.963691 8.729463 0.000000 0.103049
376.000000 87.636000 4.000000 4.000000 1.000000 76.281425 -42.430807 1958.853482 1296.974206 11.412904 0.000000 0.190380
377.000000 67.093000 5.000000 4.000000 1.000000 64.642824 -44.690527 2039.729814 1658.492377 14.909985 0.000000 0.287263
380.000000 146.562000 1.000000 5.000000 1.000000 131.540513 -11.152447 1187.183861 -30.936326 6.818195 0.000000 0.034360
381.000000 127.931000 2.000000 5.000000 1.000000 115.357344 -24.962300 1476.022353 378.360947 7.813092 0.000000 0.050154
382.000000 106.552000 3.000000 5.000000 1.000000 99.790091 -32.536161 1661.630431 720.709223 9.383204 0.000000 0.068428
383.000000 86.525000 4.000000 5.000000 1.000000 86.230689 -37.166469 1790.959495 1029.982102 11.557761 0.000000 0.111404
384.000000 69.614000 5.000000 5.000000 1.000000 74.865535 -40.252676 1886.236654 1322.420701 14.368007 0.000000 0.173655
385.000000 56.051000 6.000000 5.000000 1.000000 65.460666 -42.445088 1959.346014 1606.905778 17.847377 0.000000 0.247926
387.000000 123.820000 1.000000 6.000000 1.000000 131.623336 -4.517366 1060.034446 -18.343173 8.070531 0.000000 0.042201
388.000000 111.977000 2.000000 6.000000 1.000000 118.981383 -18.422086 1333.496305 312.657558 8.925755 0.000000 0.070243
389.000000 97.435000 3.000000 6.000000 1.000000 105.893947 -26.873574 1520.411232 597.428843 10.260207 0.000000 0.077363
390.000000 82.676000 4.000000 6.000000 1.000000 93.769715 -32.332213 1656.252243 857.071900 12.094284 0.000000 0.088272
391.000000 69.213000 5.000000 6.000000 1.000000 83.079506 -36.085730 1759.436766 1102.651561 14.449559 0.000000 0.117714
392.000000 57.655000 6.000000 6.000000 1.000000 73.863564 -38.803699 1840.477236 1340.588073 17.348864 0.000000 0.165046
393.000000 48.056000 7.000000 6.000000 1.000000 65.987524 -40.854224 1905.811258 1574.914522 20.816386 0.000000 0.224188
394.000000 111.122000 0.000000 7.000000 1.000000 138.289695 19.818258 587.122753 -342.592485 8.991838 0.000000 0.070921
395.000000 106.882000 1.000000 7.000000 1.000000 131.321895 0.300000 969.364492 -5.289577 9.349478 0.000000 0.045960
396.000000 98.922000 2.000000 7.000000 1.000000 121.230970 -13.081458 1225.094385 270.990368 10.103435 0.000000 0.080129
397.000000 88.714000 3.000000 7.000000 1.000000 110.213657 -21.924510 1408.202435 513.813975 11.268048 0.000000 0.089934
398.000000 77.756000 4.000000 7.000000 1.000000 99.501161 -27.937760 1545.776973 737.105189 12.858355 0.000000 0.091460
399.000000 67.158000 5.000000 7.000000 1.000000 89.653510 -32.205540 1652.924029 948.692387 14.890138 0.000000 0.098988
400.000000 57.545000 6.000000 7.000000 1.000000 80.859384 -35.359319 1738.732962 1153.346765 17.379966 0.000000 0.121851
401.000000 49.164000 7.000000 7.000000 1.000000 73.119917 -37.771449 1809.000714 1354.170090 20.345252 0.000000 0.159870
403.000000 96.856000 0.000000 8.000000 1.000000 136.469547 20.948099 562.967566 -272.154781 10.316550 0.000000 0.066442
404.000000 93.870000 1.000000 8.000000 1.000000 130.891740 3.909599 901.444456 6.782153 10.645556 0.000000 0.047184
405.000000 88.267000 2.000000 8.000000 1.000000 122.662398 -8.709127 1139.871640 242.980073 11.322728 0.000000 0.084354
406.000000 80.878000 3.000000 8.000000 1.000000 113.325665 -17.623055 1316.897376 454.049710 12.359132 0.000000 0.098342
407.000000 72.623000 4.000000 8.000000 1.000000 103.895230 -23.970567 1453.534746 649.607863 13.766312 0.000000 0.100020
408.000000 64.276000 5.000000 8.000000 1.000000 94.924040 -28.615414 1562.190357 835.372097 15.556310 0.000000 0.099275
409.000000 56.367000 6.000000 8.000000 1.000000 86.668553 -32.119220 1650.661341 1014.973584 17.741697 0.000000 0.105506
410.000000 49.183000 7.000000 8.000000 1.000000 79.212708 -34.837677 1724.094135 1190.845627 20.335598 0.000000 0.124645
412.000000 85.795000 0.000000 9.000000 1.000000 135.038419 21.769451 545.178523 -219.501292 11.646809 0.000000 0.062266
413.000000 83.601000 1.000000 9.000000 1.000000 130.435601 6.694641 848.666529 17.551514 11.953312 0.000000 0.047085
414.000000 79.506000 2.000000 9.000000 1.000000 123.591733 -5.102903 1071.111669 223.291028 12.570259 0.000000 0.085483
415.000000 74.005000 3.000000 9.000000 1.000000 115.608815 -13.889794 1241.152457 409.583558 13.506451 0.000000 0.103023
416.000000 67.679000 4.000000 9.000000 1.000000 107.300441 -20.404002 1375.355830 583.320956 14.771027 0.000000 0.107277
417.000000 61.064000 5.000000 9.000000 1.000000 99.170759 -25.309104 1483.971232 748.792955 16.373477 0.000000 0.105349
418.000000 54.572000 6.000000 9.000000 1.000000 91.496692 -29.084640 1573.679846 908.820708 18.323659 0.000000 0.104039
419.000000 48.473000 7.000000 9.000000 1.000000 84.407672 -32.056619 1649.023094 1065.345835 20.631821 0.000000 0.109856
421.000000 76.978000 0.000000 10.000000 1.000000 133.884693 22.393246 531.531939 -178.616697 12.981031 0.000000 0.058573
422.000000 75.310000 1.000000 10.000000 1.000000 129.994672 8.899062 806.474873 27.050638 13.269383 0.000000 0.046321
423.000000 72.223000 2.000000 10.000000 1.000000 124.203845 -2.099918 1014.464376 208.953973 13.837831 0.000000 0.084898
424.000000 68.024000 3.000000 10.000000 1.000000 117.313329 -10.645222 1177.302376 375.432479 14.693542 0.000000 0.105114
425.000000 63.093000 4.000000 10.000000 1.000000 109.970120 -17.204039 1308.251875 531.577888 15.843929 0.000000 0.112218
426.000000 57.802000 5.000000 10.000000 1.000000 102.615843 -22.273752 1415.844563 680.683302 17.296663 0.000000 0.111656
427.000000 52.461000 6.000000 10.000000 1.000000 95.522033 -26.252065 1505.817823 824.980271 19.059681 0.000000 0.108324
428.000000 47.302000 7.000000 10.000000 1.000000 88.839115 -29.428740 1582.172142 966.041194 21.141205 0.000000 0.107221
430.000000 69.790000 0.000000 11.000000 1.000000 132.935363 22.883001 520.731762 -145.933799 14.318184 0.000000 0.055359
431.000000 68.486000 1.000000 11.000000 1.000000 129.584306 10.682389 771.974695 35.414436 14.591585 0.000000 0.045240
432.000000 66.097000 2.000000 11.000000 1.000000 124.610197 0.426494 966.988217 198.210985 15.120140 0.000000 0.083368
433.000000 62.823000 3.000000 11.000000 1.000000 118.606606 -7.816471 1122.749206 348.519446 15.909796 0.000000 0.105498
434.000000 58.916000 4.000000 11.000000 1.000000 112.087633 -14.334047 1250.025198 490.198814 16.966687 0.000000 0.115140
435.000000 54.638000 5.000000 11.000000 1.000000 105.432049 -19.492413 1355.975416 625.827443 18.297142 0.000000 0.116648
436.000000 50.224000 6.000000 11.000000 1.000000 98.893093 -23.614482 1445.545403 757.198483 19.907690 0.000000 0.113752
437.000000 45.859000 7.000000 11.000000 1.000000 92.626924 -26.951881 1522.261241 885.602039 21.805069 0.000000 0.110108
440.000000 63.820000 0.000000 12.000000 1.000000 132.140809 23.277674 511.971541 -119.199677 15.657565 0.000000 0.052572
441.000000 62.778000 1.000000 12.000000 1.000000 129.208745 12.152108 743.238469 42.795431 15.918438 0.000000 0.044025
442.000000 60.888000 2.000000 12.000000 1.000000 124.879979 2.573595 926.622787 189.968194 16.413601 0.000000 0.081333
443.000000 58.285000 3.000000 12.000000 1.000000 119.602450 -5.339869 1075.600222 326.853596 17.148069 0.000000 0.104777
444.000000 55.143000 4.000000 12.000000 1.000000 113.786183 -11.757857 1199.023509 456.440407 18.127001 0.000000 0.116524
445.000000 51.648000 5.000000 12.000000 1.000000 107.752536 -16.946046 1302.948256 580.782190 19.355707 0.000000 0.120138
446.000000 47.976000 6.000000 12.000000 1.000000 101.731014 -21.162498 1391.656798 701.339925 20.839651 0.000000 0.118606
449.000000 58.786000 0.000000 13.000000 1.000000 131.466191 23.602477 504.723183 -96.919882 16.998679 0.000000 0.050147
450.000000 57.936000 1.000000 13.000000 1.000000 128.867485 13.382743 718.933081 49.335416 17.248902 0.000000 0.042778
451.000000 56.413000 2.000000 13.000000 1.000000 125.057306 4.415971 891.881872 183.516503 17.715705 0.000000 0.079047
452.000000 54.309000 3.000000 13.000000 1.000000 120.379557 -3.161239 1034.443827 309.096415 18.403374 0.000000 0.103349
453.000000 51.747000 4.000000 13.000000 1.000000 115.163268 -9.441511 1153.980610 428.433441 19.316309 0.000000 0.116788
454.000000 48.861000 5.000000 13.000000 1.000000 109.679763 -14.614952 1255.653604 543.187817 20.459027 0.000000 0.122315
455.000000 45.784000 6.000000 13.000000 1.000000 104.133533 -18.885270 1343.188794 654.564600 21.836170 0.000000 0.122409
457.000000 54.611000 -1.000000 14.000000 1.000000 131.947166 33.967038 249.930893 -225.327159 18.297849 0.000000 0.141806
458.000000 54.483000 0.000000 14.000000 1.000000 130.886353 23.874437 498.626397 -78.063268 18.341167 0.000000 0.048028
459.000000 53.779000 1.000000 14.000000 1.000000 128.558109 14.427340 698.107095 55.157611 18.582226 0.000000 0.041554
460.000000 52.531000 2.000000 14.000000 1.000000 125.171004 6.011081 861.666462 178.380217 19.024644 0.000000 0.076664
461.000000 50.806000 3.000000 14.000000 1.000000 120.993285 -1.235154 998.205809 294.318575 19.672125 0.000000 0.101480
462.000000 48.690000 4.000000 14.000000 1.000000 116.290936 -7.354116 1113.909844 404.863811 20.528467 0.000000 0.116252
463.000000 46.284000 5.000000 14.000000 1.000000 111.292766 -12.479746 1213.209557 511.375980 21.597561 0.000000 0.123438
465.000000 50.888000 -1.000000 15.000000 1.000000 131.392583 33.429586 264.517014 -195.682154 19.636648 0.000000 0.131039
466.000000 50.765000 0.000000 15.000000 1.000000 130.382690 24.105472 493.426946 -61.894964 19.684764 0.000000 0.046166
467.000000 50.173000 1.000000 15.000000 1.000000 128.277574 15.324559 680.063283 60.366196 19.917854 0.000000 0.040378
468.000000 49.136000 2.000000 15.000000 1.000000 125.240315 7.403529 835.146361 174.230784 20.339079 0.000000 0.074274
469.000000 47.703000 3.000000 15.000000 1.000000 121.483212 0.476211 966.054226 281.856951 20.951677 0.000000 0.099346
470.000000 45.936000 4.000000 15.000000 1.000000 117.222985 -5.468121 1078.030988 384.782823 21.758954 0.000000 0.115152
472.000000 47.637000 -1.000000 16.000000 1.000000 130.903785 32.968243 276.894164 -170.407118 20.976927 0.000000 0.121926
473.000000 47.520000 0.000000 16.000000 1.000000 129.941154 24.304165 488.940304 -47.876880 21.029268 0.000000 0.044521
474.000000 47.016000 1.000000 16.000000 1.000000 128.022782 16.103173 664.279041 65.048317 21.255364 0.000000 0.039266
475.000000 46.144000 2.000000 16.000000 1.000000 125.278341 8.628261 811.682735 170.835518 21.658003 0.000000 0.071930
484.000000 125.454000 2.000000 5.000000 2.000000 122.299233 -42.327602 1955.300671 20.698937 7.966204 0.000000 0.191015
485.000000 105.488000 3.000000 5.000000 2.000000 105.712310 -45.690907 2077.569603 507.543018 9.476439 0.000000 0.174456
486.000000 86.683000 4.000000 5.000000 2.000000 91.625892 -47.655197 2155.975458 895.645473 11.534991 0.000000 0.214847
487.000000 70.590000 5.000000 5.000000 2.000000 79.892871 -48.940282 2210.531724 1233.086099 14.167619 0.000000 0.280034
491.000000 111.367000 2.000000 6.000000 2.000000 126.523691 -33.900836 1698.262537 -19.362406 8.973374 0.000000 0.100367
492.000000 97.298000 3.000000 6.000000 2.000000 112.072972 -39.185487 1852.350321 377.919241 10.273203 0.000000 0.081960
493.000000 70.060000 5.000000 6.000000 2.000000 87.991862 -44.531927 2033.850988 993.939002 14.272944 0.000000 0.170135
494.000000 49.354000 7.000000 6.000000 2.000000 70.225961 -47.199545 2137.273591 1510.490949 20.266792 0.000000 0.295963
497.000000 99.254000 2.000000 7.000000 2.000000 129.005444 -26.655691 1515.277156 -34.402391 10.068240 0.000000 0.053245
498.000000 89.138000 3.000000 7.000000 2.000000 116.550073 -33.272043 1681.241658 297.761793 11.212909 0.000000 0.027281
499.000000 78.379000 4.000000 7.000000 2.000000 104.948409 -37.468672 1799.935037 578.950401 12.754558 0.000000 0.054167
500.000000 67.986000 5.000000 7.000000 2.000000 94.512909 -40.339359 1889.035760 829.549543 14.706917 0.000000 0.101710
501.000000 58.535000 6.000000 7.000000 2.000000 85.296059 -42.417194 1958.384197 1060.961645 17.084356 0.000000 0.152674
502.000000 50.254000 7.000000 7.000000 2.000000 77.228014 -43.986991 2013.893135 1280.090431 19.901920 0.000000 0.205789
503.000000 94.851000 1.000000 8.000000 2.000000 140.627026 -8.658931 1138.906714 -385.684417 10.534069 0.000000 0.029462
504.000000 81.611000 3.000000 8.000000 2.000000 119.709726 -27.981671 1546.834255 245.550826 12.246581 0.000000 0.010581
505.000000 65.113000 5.000000 8.000000 2.000000 99.751632 -36.388474 1768.178413 711.223948 15.354641 0.000000 0.063475
506.000000 50.141000 7.000000 8.000000 2.000000 83.229300 -40.894217 1907.125212 1110.041981 19.945300 0.000000 0.145392
508.000000 84.779000 1.000000 9.000000 2.000000 139.657866 -3.713927 1044.863539 -328.899210 11.785772 0.000000 0.011341
509.000000 80.496000 2.000000 9.000000 2.000000 131.179471 -15.431004 1272.087525 -35.753904 12.414152 0.000000 0.030154
510.000000 74.890000 3.000000 9.000000 2.000000 121.949829 -23.297222 1438.463691 210.179366 13.345324 0.000000 0.030899
511.000000 68.523000 4.000000 9.000000 2.000000 112.743008 -28.752950 1565.547369 426.374486 14.587499 0.000000 0.035329
512.000000 61.905000 5.000000 9.000000 2.000000 103.965630 -32.693184 1665.787862 622.947982 16.149188 0.000000 0.051586
513.000000 55.427000 6.000000 9.000000 2.000000 95.812494 -35.646664 1746.877657 806.174057 18.039214 0.000000 0.076593
514.000000 49.341000 7.000000 9.000000 2.000000 88.356159 -37.931609 1813.826266 980.160722 20.266728 0.000000 0.107263
515.000000 76.533000 1.000000 10.000000 2.000000 138.676634 0.117437 972.793959 -283.115463 13.055659 0.000000 0.008100
516.000000 68.967000 3.000000 10.000000 2.000000 123.545621 -19.172796 1349.232427 185.476198 14.490989 0.000000 0.045081
517.000000 58.635000 5.000000 10.000000 2.000000 107.367076 -29.257222 1577.931976 555.170314 17.048929 0.000000 0.056562
518.000000 48.105000 7.000000 10.000000 2.000000 92.731961 -35.105934 1731.598816 878.221488 20.786047 0.000000 0.086945
521.000000 69.684000 1.000000 11.000000 2.000000 137.742611 3.148179 915.802245 -245.391035 14.339158 0.000000 0.013961
522.000000 67.155000 2.000000 11.000000 2.000000 131.656751 -7.557667 1117.799014 -24.877425 14.880388 0.000000 0.038825
523.000000 63.771000 3.000000 11.000000 2.000000 124.686751 -15.549360 1274.481583 167.807713 15.671601 0.000000 0.054490
524.000000 59.785000 4.000000 11.000000 2.000000 117.389996 -21.527490 1399.560220 341.521795 16.718414 0.000000 0.061833
525.000000 55.453000 5.000000 11.000000 2.000000 110.125637 -26.076378 1501.720997 501.888401 18.026615 0.000000 0.065984
526.000000 51.002000 6.000000 11.000000 2.000000 103.111203 -29.612628 1586.734065 652.654697 19.602164 0.000000 0.070997
527.000000 46.611000 7.000000 11.000000 2.000000 96.469422 -32.420693 1658.582512 796.418262 21.451208 0.000000 0.080017
529.000000 63.917000 1.000000 12.000000 2.000000 136.877751 5.592811 869.604770 -213.755357 15.633111 0.000000 0.018957
530.000000 59.209000 3.000000 12.000000 2.000000 125.504252 -12.365071 1210.950881 154.931817 16.878942 0.000000 0.060682
531.000000 52.434000 5.000000 12.000000 2.000000 112.374950 -23.140757 1434.983604 459.166647 19.063659 0.000000 0.074730
533.000000 59.958000 0.000000 13.000000 2.000000 139.397575 19.078092 602.760511 -387.601336 16.664608 0.000000 0.073080
534.000000 59.003000 1.000000 13.000000 2.000000 136.087059 7.599556 831.400178 -186.836043 16.935266 0.000000 0.022570
535.000000 57.382000 2.000000 13.000000 2.000000 131.499362 -1.926172 1011.196542 -11.741718 17.414797 0.000000 0.044502
536.000000 55.192000 3.000000 13.000000 2.000000 126.089246 -9.561123 1156.290455 145.410548 18.107182 0.000000 0.064683
537.000000 52.558000 4.000000 13.000000 2.000000 120.235795 -15.616680 1275.844544 289.635669 19.016504 0.000000 0.076124
538.000000 49.614000 5.000000 13.000000 2.000000 114.219558 -20.436771 1376.056708 424.332468 20.146951 0.000000 0.081726
539.000000 46.490000 6.000000 13.000000 2.000000 108.235172 -24.313441 1461.269489 551.888599 21.502818 0.000000 0.084073
541.000000 54.771000 1.000000 14.000000 2.000000 135.368069 9.272560 799.279288 -163.646551 18.243976 0.000000 0.025148
542.000000 51.641000 3.000000 14.000000 2.000000 126.505655 -7.084497 1108.763804 138.291314 19.352073 0.000000 0.067169
543.000000 47.000000 5.000000 14.000000 2.000000 115.741083 -17.948741 1323.644977 395.516452 21.266974 0.000000 0.087008
546.000000 51.754000 0.000000 15.000000 2.000000 137.321872 20.431626 574.053345 -304.625692 19.306741 0.000000 0.068669
547.000000 51.091000 1.000000 15.000000 2.000000 134.715294 10.686429 771.896113 -143.458801 19.558006 0.000000 0.026988
548.000000 49.986000 2.000000 15.000000 2.000000 131.114382 2.227707 933.131689 0.902295 19.991562 0.000000 0.046796
549.000000 48.488000 3.000000 15.000000 2.000000 126.798761 -4.888847 1067.059928 132.925450 20.610444 0.000000 0.068592
550.000000 46.664000 4.000000 15.000000 2.000000 122.025180 -10.787795 1180.076512 255.687376 21.417752 0.000000 0.082752
552.000000 47.865000 1.000000 16.000000 2.000000 134.122321 11.895656 748.274453 -125.723369 20.876413 0.000000 0.028302
553.000000 45.675000 3.000000 16.000000 2.000000 127.000969 -2.934396 1030.170518 128.860676 21.879881 0.000000 0.069265
556.000000 45.498000 0.000000 17.000000 2.000000 135.713481 21.388888 553.445666 -244.058042 21.962202 0.000000 0.064298
567.000000 76.952000 4.000000 7.000000 3.000000 108.486369 -47.280597 2140.576700 410.584575 12.989905 0.000000 0.216656
568.000000 67.205000 5.000000 7.000000 3.000000 97.928114 -48.558012 2194.014208 714.537950 14.876500 0.000000 0.228045
569.000000 58.272000 6.000000 7.000000 3.000000 88.624579 -49.475627 2234.093751 980.771031 17.159698 0.000000 0.261322
570.000000 50.375000 7.000000 7.000000 3.000000 80.473190 -50.166365 2265.267564 1222.983726 19.852636 0.000000 0.305562
573.000000 80.372000 3.000000 8.000000 3.000000 123.957123 -39.390958 1858.793676 3.154844 12.434331 0.000000 0.154005
574.000000 72.523000 4.000000 8.000000 3.000000 113.145630 -42.357682 1956.334951 318.373461 13.782279 0.000000 0.136556
575.000000 64.626000 5.000000 8.000000 3.000000 103.268696 -44.390082 2028.620330 585.827072 15.469030 0.000000 0.145789
576.000000 57.120000 6.000000 8.000000 3.000000 94.372522 -45.866077 2084.334548 822.814373 17.504451 0.000000 0.175716
577.000000 50.254000 7.000000 8.000000 3.000000 86.425762 -46.985279 2128.589930 1039.549127 19.898797 0.000000 0.215724
580.000000 68.064000 4.000000 9.000000 3.000000 116.736051 -37.734293 1807.884227 255.454888 14.684445 0.000000 0.082589
581.000000 61.661000 5.000000 9.000000 3.000000 107.587359 -40.417113 1891.552679 492.898988 16.211915 0.000000 0.088021
582.000000 49.480000 7.000000 9.000000 3.000000 91.535247 -43.902716 2010.839386 900.964466 20.208170 0.000000 0.150581
584.000000 72.999000 2.000000 10.000000 3.000000 137.269361 -22.328895 1417.054683 -318.562403 13.688006 0.000000 0.080485
585.000000 68.712000 3.000000 10.000000 3.000000 128.323731 -28.939680 1570.119264 -31.118928 14.543555 0.000000 0.065521
586.000000 63.794000 4.000000 10.000000 3.000000 119.500435 -33.438322 1685.718630 211.265123 15.666937 0.000000 0.045961
587.000000 58.577000 5.000000 10.000000 3.000000 111.078239 -36.661080 1776.108298 423.862843 17.064483 0.000000 0.046541
588.000000 53.339000 6.000000 10.000000 3.000000 103.195779 -39.069317 1848.724010 615.956111 18.742728 0.000000 0.070759
589.000000 48.282000 7.000000 10.000000 3.000000 95.910446 -40.931118 1908.338995 793.517733 20.708412 0.000000 0.103399
592.000000 67.167000 2.000000 11.000000 3.000000 137.440579 -17.447765 1313.275824 -287.655866 14.876363 0.000000 0.053736
593.000000 63.769000 3.000000 11.000000 3.000000 129.570547 -24.498451 1465.460420 -36.454337 15.670684 0.000000 0.043837
594.000000 59.810000 4.000000 11.000000 3.000000 121.629177 -29.479299 1583.424763 179.517104 16.709965 0.000000 0.023308
595.000000 55.532000 5.000000 11.000000 3.000000 113.903037 -33.134247 1677.544477 371.355028 17.999518 0.000000 0.016523
596.000000 51.147000 6.000000 11.000000 3.000000 106.550840 -35.909729 1754.385667 546.092763 19.544811 0.000000 0.041018
597.000000 46.825000 7.000000 11.000000 3.000000 99.653996 -38.079680 1818.306310 708.408815 21.351469 0.000000 0.070550
599.000000 62.105000 2.000000 12.000000 3.000000 137.364003 -13.288989 1229.206801 -260.149452 16.089095 0.000000 0.035967
600.000000 56.147000 4.000000 12.000000 3.000000 123.269344 -25.852523 1496.518735 156.297355 17.799748 0.000000 0.018525
601.000000 52.611000 5.000000 12.000000 3.000000 116.193429 -29.840529 1592.410989 330.623289 18.998120 0.000000 0.008410
604.000000 57.688000 2.000000 13.000000 3.000000 137.135598 -9.738542 1159.719592 -235.629983 17.321106 0.000000 0.024933
605.000000 55.457000 3.000000 13.000000 3.000000 130.980339 -17.034847 1304.772101 -36.862097 18.019141 0.000000 0.029682
606.000000 52.804000 4.000000 13.000000 3.000000 124.533624 -22.543408 1421.771293 139.077668 18.926392 0.000000 0.026508
607.000000 49.858000 5.000000 13.000000 3.000000 118.055252 -26.777200 1518.137895 298.493039 20.046754 0.000000 0.024419
608.000000 46.744000 6.000000 13.000000 3.000000 111.711298 -30.099262 1598.887445 445.650686 21.384216 0.000000 0.030565
611.000000 55.200000 1.000000 14.000000 3.000000 141.617163 2.603066 926.068044 -419.184880 18.100811 0.000000 0.009587
612.000000 53.812000 2.000000 14.000000 3.000000 136.817310 -6.694098 1101.323127 -213.703142 18.568630 0.000000 0.019580
613.000000 51.970000 3.000000 14.000000 3.000000 131.334998 -13.919875 1241.752153 -34.356303 19.228127 0.000000 0.031295
614.000000 49.763000 4.000000 14.000000 3.000000 125.508039 -19.531303 1356.797688 126.172903 20.082612 0.000000 0.035339
615.000000 47.288000 5.000000 14.000000 3.000000 119.572976 -23.936639 1452.771628 272.780628 21.135474 0.000000 0.037188
617.000000 51.549000 1.000000 15.000000 3.000000 140.697465 4.776436 885.066799 -378.438134 19.382714 0.000000 0.016033
618.000000 50.392000 2.000000 15.000000 3.000000 136.449010 -4.068680 1051.558382 -194.018512 19.828820 0.000000 0.018649
619.000000 47.000000 4.000000 15.000000 3.000000 126.258204 -16.792494 1299.798546 116.429537 21.262923 0.000000 0.042579
622.000000 48.334000 1.000000 16.000000 3.000000 139.846305 6.608731 850.302295 -343.245628 20.672551 0.000000 0.020799
623.000000 47.358000 2.000000 16.000000 3.000000 136.056282 -1.790392 1008.643254 -176.273969 21.099487 0.000000 0.020063
624.000000 46.060000 3.000000 16.000000 3.000000 131.638414 -8.688437 1139.473879 -26.978104 21.695482 0.000000 0.037439
627.000000 45.482000 1.000000 17.000000 3.000000 139.060996 8.171394 820.452095 -312.526978 21.969031 0.000000 0.024335
638.000000 60.506000 5.000000 9.000000 4.000000 110.015338 -48.214686 2179.390799 352.614790 16.520306 0.000000 0.244679
639.000000 54.587000 6.000000 9.000000 4.000000 101.592275 -49.138134 2219.180409 603.538105 18.314313 0.000000 0.244475
640.000000 48.985000 7.000000 9.000000 4.000000 93.940875 -49.842231 2250.528090 826.026445 20.411238 0.000000 0.260788
642.000000 57.747000 5.000000 10.000000 4.000000 113.699264 -44.262474 2023.936247 281.300696 17.308662 0.000000 0.174449
643.000000 47.902000 7.000000 10.000000 4.000000 98.358319 -46.787471 2120.634867 710.049423 20.871205 0.000000 0.189596
646.000000 59.090000 4.000000 11.000000 4.000000 124.684999 -37.969587 1814.973591 -3.829751 16.912470 0.000000 0.138354
647.000000 54.958000 5.000000 11.000000 4.000000 116.695737 -40.487251 1893.828035 229.384781 18.186346 0.000000 0.123217
648.000000 50.728000 6.000000 11.000000 4.000000 109.171304 -42.368566 1956.709449 434.518867 19.705338 0.000000 0.121957
649.000000 46.554000 7.000000 11.000000 4.000000 102.154789 -43.824829 2008.024815 619.687452 21.474617 0.000000 0.135246
651.000000 58.843000 3.000000 12.000000 4.000000 134.143302 -29.775717 1590.793936 -262.466677 16.981394 0.000000 0.117034
652.000000 52.235000 5.000000 12.000000 4.000000 119.129575 -36.907825 1783.334476 190.895455 19.133652 0.000000 0.085358
655.000000 55.152000 3.000000 13.000000 4.000000 134.868356 -25.557557 1489.693843 -246.559682 18.117733 0.000000 0.086701
656.000000 52.529000 4.000000 13.000000 4.000000 127.932785 -30.130378 1599.668612 -28.910911 19.024168 0.000000 0.072845
657.000000 49.633000 5.000000 13.000000 4.000000 121.104774 -33.535052 1688.330925 161.939257 20.136273 0.000000 0.057411
658.000000 46.581000 6.000000 13.000000 4.000000 114.507083 -36.151456 1761.328841 333.346360 21.457764 0.000000 0.051127
660.000000 51.824000 3.000000 14.000000 4.000000 135.318274 -21.766977 1404.767591 -230.873580 19.281300 0.000000 0.064487
661.000000 47.178000 5.000000 14.000000 4.000000 122.706917 -30.372878 1605.773446 139.899276 21.183572 0.000000 0.037548
664.000000 50.376000 2.000000 15.000000 4.000000 141.068346 -11.683570 1197.567974 -419.548590 19.834118 0.000000 0.043472
665.000000 48.821000 3.000000 15.000000 4.000000 135.566589 -18.370565 1332.421439 -215.744124 20.467225 0.000000 0.048273
666.000000 46.966000 4.000000 15.000000 4.000000 129.815000 -23.465942 1442.225546 -37.104280 21.277411 0.000000 0.040126
668.000000 46.107000 3.000000 16.000000 4.000000 135.667970 -15.330312 1270.052910 -201.333822 21.671735 0.000000 0.036763
681.000000 49.833000 6.000000 11.000000 5.000000 110.982689 -48.829102 2205.701776 313.971142 20.058192 0.000000 0.264333
682.000000 45.868000 7.000000 11.000000 5.000000 103.982887 -49.542265 2237.062676 527.971382 21.794334 0.000000 0.259039
685.000000 51.387000 5.000000 12.000000 5.000000 121.160000 -44.147061 2019.717321 34.029903 19.448492 0.000000 0.217611
686.000000 47.954000 6.000000 12.000000 5.000000 114.031490 -45.530354 2071.406302 255.939893 20.843385 0.000000 0.202005
690.000000 48.998000 5.000000 13.000000 5.000000 123.327861 -40.550838 1895.895012 9.550625 20.396332 0.000000 0.167824
691.000000 46.051000 6.000000 13.000000 5.000000 116.601463 -42.347244 1955.975937 211.707656 21.703926 0.000000 0.154087
694.000000 49.100000 4.000000 14.000000 5.000000 131.638624 -34.315410 1709.622443 -217.521506 20.351679 0.000000 0.145715
695.000000 46.712000 5.000000 14.000000 5.000000 125.092356 -37.132214 1789.946638 -7.539167 21.394240 0.000000 0.129748
699.000000 46.594000 4.000000 15.000000 5.000000 132.609198 -30.717167 1614.493033 -210.591387 21.446179 0.000000 0.114169
#UB matrix in q= (UB) B0 G* 
#[[ 0.074933864 -0.878992329 -0.468702504]
# [-0.817196199  0.215307528 -0.534419736]
# [ 0.571467661  0.423609463 -0.703183368]]
#B0 matrix in q= UB (B0) G*
#[[ 0.19670273 -0.          0.03056101]
# [ 0.          0.19187965 -0.        ]
# [ 0.          0.          0.18806537]]
#UBB0 matrix in q= (UB B0) G* i.e. recip. basis vectors are columns in LT frame: astar = UBB0[:,0], bstar = UBB0[:,1], cstar = UBB0[:,2]. (abcstar as columns on xyzlab1, xlab1 = ui, ui = unit vector along incident beam)
#[[ 0.0147397  -0.16866074 -0.08585666]
# [-0.16074473  0.04131313 -0.12548018]
# [ 0.11240925  0.08128204 -0.11477981]]
#Euler angles phi theta psi (deg)
#[126.56  134.646 138.698]
#deviatoric strain in direct crystal frame (10-3 unit)
#[[-1.39 -0.21  0.18]
# [-0.21 -0.56  0.85]
# [ 0.18  0.85  1.95]]
#deviatoric strain in sample2 frame (10-3 unit)
#[[ 1.44  1.4  -0.31]
# [ 1.4  -0.36  0.26]
# [-0.31  0.26 -1.08]]
#new lattice parameters
#[ 5.1505     5.2158821  5.3181452 89.9453043 99.2176001 90.0237222]
#CCDLabel
#sCMOS
#DetectorParameters
#[79.0, 975.0, 941.0, 0.0, 0.0]
#pixelsize
#0.0734
#Frame dimensions
#[2018, 2016]
#
