#Strain and Orientation Refinement from experimental file: /home/micha/LaueProjects/DepthEffects/testZrO2_11.cor
#File created at Wed Jun 28 14:18:18 2023 with indexingSpotsSet.py
#Number of indexed spots: 539
#Element
#ZrO2
#grainIndex
#G_0
#Mean Deviation(pixel): 0.115
##spot_index intensity h k l 2theta Chi Xexp Yexp Energy GrainIndex PixDev
23.000000 67.980000 5.000000 2.000000 -2.000000 53.465028 -40.232176 1885.575750 1985.535053 14.728019 0.000000 0.299455
24.000000 66.663000 3.000000 1.000000 -1.000000 61.724443 -42.478461 1960.497905 1725.960092 7.508625 0.000000 0.268220
25.000000 63.366000 7.000000 2.000000 -2.000000 67.870800 -44.294473 2025.108910 1552.485445 15.796979 0.000000 0.255871
26.000000 59.491000 4.000000 1.000000 -1.000000 72.584703 -45.790234 2081.400326 1425.170267 8.412318 0.000000 0.252470
27.000000 55.618000 9.000000 2.000000 -2.000000 76.295824 -47.041999 2130.881855 1326.135686 17.994962 0.000000 0.254561
28.000000 51.976000 5.000000 1.000000 -1.000000 79.283438 -48.104016 2174.718756 1246.025669 9.627448 0.000000 0.260372
29.000000 48.639000 11.000000 2.000000 -2.000000 81.734757 -49.015801 2213.824782 1179.388968 20.574786 0.000000 0.268697
30.000000 45.618000 6.000000 1.000000 -1.000000 83.779005 -49.806747 2248.926558 1122.790969 10.968382 0.000000 0.278639
32.000000 56.789000 5.000000 3.000000 -2.000000 47.780545 -30.836647 1617.533567 2078.378963 17.632623 0.000000 0.247025
33.000000 58.217000 6.000000 3.000000 -2.000000 56.586145 -33.780380 1694.982612 1795.283229 17.198018 0.000000 0.203585
34.000000 57.031000 7.000000 3.000000 -2.000000 63.314131 -36.230426 1763.606377 1611.661837 17.553830 0.000000 0.188702
35.000000 54.690000 8.000000 3.000000 -2.000000 68.561296 -38.294295 1824.832004 1479.498391 18.303225 0.000000 0.182552
36.000000 51.924000 9.000000 3.000000 -2.000000 72.736043 -40.052333 1879.794664 1377.975199 19.276930 0.000000 0.179849
37.000000 49.085000 10.000000 3.000000 -2.000000 76.118855 -41.565146 1929.408584 1296.492385 20.390570 0.000000 0.179565
38.000000 46.340000 11.000000 3.000000 -2.000000 78.905149 -42.878966 1974.418314 1229.021549 21.597373 0.000000 0.181552
39.000000 46.080000 5.000000 4.000000 -2.000000 42.100381 -23.215763 1436.650862 2237.091043 21.732464 0.000000 0.255943
40.000000 49.491000 3.000000 2.000000 -1.000000 51.187388 -26.490324 1511.393611 1908.311251 10.116243 0.000000 0.181360
41.000000 50.126000 7.000000 4.000000 -2.000000 58.355190 -29.295197 1578.869555 1701.570721 19.973842 0.000000 0.157511
42.000000 49.259000 4.000000 2.000000 -1.000000 64.072621 -31.713733 1640.089329 1556.099669 10.161845 0.000000 0.151773
43.000000 47.630000 9.000000 4.000000 -2.000000 68.693825 -33.813535 1695.884465 1446.219595 21.016879 0.000000 0.150082
44.000000 45.659000 5.000000 2.000000 -1.000000 72.479756 -35.649044 1746.945384 1359.128858 10.961385 0.000000 0.148788
45.000000 80.876000 7.000000 1.000000 -1.000000 86.987607 -51.110133 2309.348942 1031.215586 12.372564 0.000000 0.300916
46.000000 72.439000 8.000000 1.000000 -1.000000 89.385592 -52.138934 2359.500763 959.805779 13.813016 0.000000 0.323902
53.000000 83.008000 6.000000 2.000000 -1.000000 78.261117 -38.693902 1837.086250 1227.550362 12.057218 0.000000 0.146974
54.000000 75.247000 7.000000 2.000000 -1.000000 82.425719 -41.107198 1914.149485 1130.940626 13.299759 0.000000 0.149136
55.000000 68.421000 8.000000 2.000000 -1.000000 85.543652 -43.060530 1980.788559 1055.806184 14.625611 0.000000 0.156786
56.000000 62.528000 9.000000 2.000000 -1.000000 87.953077 -44.670470 2038.984561 995.091154 16.003306 0.000000 0.169109
57.000000 57.455000 10.000000 2.000000 -1.000000 89.864240 -46.018262 2090.246484 944.672415 17.415450 0.000000 0.184475
58.000000 53.077000 11.000000 2.000000 -1.000000 91.413468 -47.161927 2135.743946 901.941188 18.851649 0.000000 0.201416
59.000000 49.275000 12.000000 2.000000 -1.000000 92.692447 -48.143837 2176.397517 865.145996 20.305308 0.000000 0.218906
60.000000 45.955000 13.000000 2.000000 -1.000000 93.764834 -48.995571 2212.941659 833.056039 21.772041 0.000000 0.236301
61.000000 68.797000 3.000000 3.000000 -1.000000 41.171238 -15.529802 1274.085781 2218.320297 14.556908 0.000000 0.233317
62.000000 76.747000 4.000000 3.000000 -1.000000 54.889284 -21.170220 1391.823582 1752.499857 13.046908 0.000000 0.120891
63.000000 76.327000 5.000000 3.000000 -1.000000 64.578657 -25.728981 1493.656112 1508.851709 13.116423 0.000000 0.119426
64.000000 72.596000 6.000000 3.000000 -1.000000 71.566430 -29.446113 1582.602426 1352.952670 13.788729 0.000000 0.126376
65.000000 67.836000 7.000000 3.000000 -1.000000 76.743158 -32.510900 1660.962968 1241.690809 14.754780 0.000000 0.126487
66.000000 63.000000 8.000000 3.000000 -1.000000 80.681945 -35.067528 1730.521366 1156.764835 15.885956 0.000000 0.123330
67.000000 58.458000 9.000000 3.000000 -1.000000 83.752734 -37.224649 1792.681854 1088.966720 17.119163 0.000000 0.120580
68.000000 54.328000 10.000000 3.000000 -1.000000 86.198936 -39.064216 1848.565052 1033.096566 18.419822 0.000000 0.120450
69.000000 50.622000 11.000000 3.000000 -1.000000 88.184622 -40.648465 1899.076125 985.961303 19.767390 0.000000 0.123799
70.000000 47.313000 12.000000 3.000000 -1.000000 89.823165 -42.025111 1944.954191 945.471741 21.148900 0.000000 0.130486
72.000000 58.292000 4.000000 4.000000 -1.000000 46.558472 -13.463390 1232.668149 1989.082083 17.179590 0.000000 0.153689
73.000000 61.992000 5.000000 4.000000 -1.000000 56.809786 -18.070777 1326.179708 1681.574229 16.152059 0.000000 0.094474
74.000000 61.801000 6.000000 4.000000 -1.000000 64.607883 -21.995649 1409.756045 1491.985608 16.199701 0.000000 0.104919
75.000000 59.719000 7.000000 4.000000 -1.000000 70.604092 -25.349526 1484.900656 1360.310927 16.762594 0.000000 0.117547
76.000000 56.833000 8.000000 4.000000 -1.000000 75.285049 -28.229940 1552.828238 1261.820238 17.612096 0.000000 0.122089
77.000000 53.702000 9.000000 4.000000 -1.000000 78.999155 -30.718656 1614.530857 1184.375931 18.637415 0.000000 0.121017
78.000000 50.601000 10.000000 4.000000 -1.000000 81.993268 -32.882761 1670.826717 1121.275389 19.778343 0.000000 0.117238
79.000000 47.656000 11.000000 4.000000 -1.000000 84.443046 -34.776756 1722.396648 1068.486870 20.999347 0.000000 0.112922
80.000000 49.738000 5.000000 5.000000 -1.000000 49.784154 -12.175636 1207.224030 1871.991561 20.133678 0.000000 0.112328
81.000000 51.800000 6.000000 5.000000 -1.000000 57.967670 -16.052680 1284.693663 1641.710249 19.329783 0.000000 0.080665
82.000000 51.741000 7.000000 5.000000 -1.000000 64.502648 -19.464274 1355.380692 1485.418815 19.349768 0.000000 0.096365
83.000000 50.500000 8.000000 5.000000 -1.000000 69.753313 -22.469223 1420.138504 1370.609007 19.823062 0.000000 0.111715
84.000000 48.657000 9.000000 5.000000 -1.000000 74.011019 -25.122260 1479.683082 1281.619708 20.572356 0.000000 0.119534
85.000000 46.549000 10.000000 5.000000 -1.000000 77.499848 -27.472193 1534.619593 1209.938602 21.502145 0.000000 0.121471
86.000000 190.901000 3.000000 1.000000 0.000000 94.493576 -33.904568 1698.364315 839.086669 5.241329 0.000000 0.084271
87.000000 150.595000 4.000000 1.000000 0.000000 98.227986 -39.728870 1869.473221 738.636760 6.643551 0.000000 0.084696
88.000000 123.533000 5.000000 1.000000 0.000000 100.229199 -43.543192 1997.908247 673.053806 8.098533 0.000000 0.127692
89.000000 104.432000 6.000000 1.000000 0.000000 101.437834 -46.213110 2097.863465 626.309810 9.579489 0.000000 0.175460
90.000000 90.327000 7.000000 1.000000 0.000000 102.231738 -48.178627 2177.866295 591.084695 11.075141 0.000000 0.218837
91.000000 79.522000 8.000000 1.000000 0.000000 102.786311 -49.682759 2243.348731 563.487794 12.579915 0.000000 0.256835
92.000000 70.995000 9.000000 1.000000 0.000000 103.192229 -50.869388 2297.935020 541.233885 14.090739 0.000000 0.289946
99.000000 152.094000 2.000000 2.000000 0.000000 62.412375 -6.662442 1100.720317 1507.200680 6.583066 0.000000 0.053737
100.000000 143.707000 3.000000 2.000000 0.000000 77.662742 -16.788733 1299.721478 1186.883832 6.965245 0.000000 0.128090
101.000000 125.890000 4.000000 2.000000 0.000000 86.175773 -24.216394 1459.076031 1019.886290 7.949543 0.000000 0.126791
102.000000 109.228000 5.000000 2.000000 0.000000 91.254503 -29.726154 1589.558733 913.858924 9.161068 0.000000 0.105233
103.000000 84.319000 7.000000 2.000000 0.000000 96.680539 -37.150267 1790.480322 782.836502 11.865887 0.000000 0.076042
104.000000 67.904000 9.000000 2.000000 0.000000 99.365759 -41.819009 1937.960871 702.801500 14.733381 0.000000 0.104167
105.000000 56.606000 11.000000 2.000000 0.000000 100.901935 -44.987347 2050.819030 647.899227 17.673329 0.000000 0.151911
106.000000 48.441000 13.000000 2.000000 0.000000 101.872851 -47.265629 2139.965933 607.551654 20.651816 0.000000 0.197824
107.000000 89.769000 2.000000 3.000000 0.000000 45.655700 1.965721 938.059666 1993.556869 11.156009 0.000000 0.139949
108.000000 99.087000 4.000000 3.000000 0.000000 73.565074 -13.755028 1238.467639 1267.857549 10.102581 0.000000 0.116556
109.000000 91.975000 5.000000 3.000000 0.000000 81.036887 -19.522813 1356.618132 1121.113001 10.882119 0.000000 0.132061
110.000000 76.318000 7.000000 3.000000 0.000000 89.821993 -28.062101 1548.773050 944.789328 13.112041 0.000000 0.113097
111.000000 69.542000 8.000000 3.000000 0.000000 92.488733 -31.243853 1627.953434 886.284512 14.388800 0.000000 0.097485
112.000000 58.512000 10.000000 3.000000 0.000000 96.037999 -36.153444 1761.386128 800.005207 17.099583 0.000000 0.076861
113.000000 54.069000 11.000000 3.000000 0.000000 97.253427 -38.073667 1818.124021 766.985621 18.504287 0.000000 0.077210
114.000000 46.809000 13.000000 3.000000 0.000000 99.022312 -41.168105 1916.166611 713.978031 21.373575 0.000000 0.096966
115.000000 71.063000 3.000000 4.000000 0.000000 50.485734 -0.341862 981.421905 1828.694533 14.091900 0.000000 0.075761
116.000000 75.267000 5.000000 4.000000 0.000000 71.188276 -12.115767 1206.047312 1315.999154 13.300387 0.000000 0.106805
117.000000 67.478000 7.000000 4.000000 0.000000 82.500305 -20.787411 1383.575260 1092.556784 14.832303 0.000000 0.132053
118.000000 58.611000 9.000000 4.000000 0.000000 89.018171 -27.169358 1527.412691 961.733021 17.073536 0.000000 0.116900
119.000000 50.989000 11.000000 4.000000 0.000000 93.042586 -31.953100 1646.318920 873.575568 19.623970 0.000000 0.093810
120.000000 50.690000 3.000000 5.000000 0.000000 41.453052 3.883754 901.932204 2162.344652 19.757146 0.000000 0.203983
121.000000 58.186000 4.000000 5.000000 0.000000 53.166926 -1.678050 1006.530990 1747.486268 17.210168 0.000000 0.045632
122.000000 60.567000 6.000000 5.000000 0.000000 69.642118 -11.090766 1185.980421 1347.970616 16.528923 0.000000 0.099329
123.000000 58.722000 7.000000 5.000000 0.000000 75.301981 -15.006526 1263.523587 1233.288864 17.046409 0.000000 0.122290
124.000000 56.128000 8.000000 5.000000 0.000000 79.763774 -18.463087 1334.352148 1145.905439 17.832715 0.000000 0.131192
125.000000 53.254000 9.000000 5.000000 0.000000 83.316043 -21.515596 1399.302058 1076.577326 18.793474 0.000000 0.131556
126.000000 47.563000 11.000000 5.000000 0.000000 88.504270 -26.612812 1514.269074 972.433772 21.039838 0.000000 0.119094
127.000000 49.088000 5.000000 6.000000 0.000000 54.867844 -2.548683 1022.908310 1699.084966 20.399154 0.000000 0.030124
128.000000 50.626000 7.000000 6.000000 0.000000 68.557460 -10.389659 1172.336174 1370.763619 19.775205 0.000000 0.093571
129.000000 163.331000 4.000000 1.000000 1.000000 121.179318 -30.424871 1607.086274 185.693630 6.123205 0.000000 0.028016
130.000000 132.826000 5.000000 1.000000 1.000000 119.484699 -36.957258 1784.787799 179.429929 7.529603 0.000000 0.087768
131.000000 111.462000 6.000000 1.000000 1.000000 117.945758 -41.269349 1919.527954 181.345288 8.972942 0.000000 0.142617
132.000000 95.810000 7.000000 1.000000 1.000000 116.644544 -44.297125 2025.206168 186.502227 10.438988 0.000000 0.190175
133.000000 83.907000 8.000000 1.000000 1.000000 115.559449 -46.528542 2110.309645 192.827541 11.919985 0.000000 0.231227
141.000000 182.715000 1.000000 2.000000 1.000000 66.487361 25.482891 462.028427 1459.734066 5.479109 0.000000 0.111810
142.000000 187.855000 2.000000 2.000000 1.000000 89.010674 9.427633 796.287285 959.840686 5.327248 0.000000 0.156526
143.000000 164.376000 3.000000 2.000000 1.000000 100.318239 -3.982107 1049.924066 744.576026 6.086818 0.000000 0.162393
144.000000 139.423000 4.000000 2.000000 1.000000 105.716170 -14.281220 1248.968302 628.481669 7.175358 0.000000 0.135561
145.000000 118.813000 5.000000 2.000000 1.000000 108.284045 -21.976290 1409.333104 557.517880 8.419555 0.000000 0.097976
146.000000 102.600000 6.000000 2.000000 1.000000 109.493802 -27.751201 1541.294630 510.475367 9.749654 0.000000 0.058984
147.000000 89.856000 7.000000 2.000000 1.000000 110.031835 -32.162108 1651.785020 477.449597 11.132161 0.000000 0.027082
148.000000 79.710000 8.000000 2.000000 1.000000 110.227006 -35.603494 1745.650306 453.246699 12.548993 0.000000 0.032949
149.000000 71.502000 9.000000 2.000000 1.000000 110.243365 -38.345027 1826.380225 434.905572 13.989529 0.000000 0.063070
150.000000 64.755000 10.000000 2.000000 1.000000 110.166050 -40.571014 1896.551688 420.627385 15.447118 0.000000 0.094005
151.000000 59.127000 11.000000 2.000000 1.000000 110.040750 -42.409207 1958.108924 409.263274 16.917386 0.000000 0.123141
152.000000 54.370000 12.000000 2.000000 1.000000 109.892617 -43.949855 2012.546422 400.049099 18.397337 0.000000 0.150167
153.000000 50.303000 13.000000 2.000000 1.000000 109.735717 -45.258018 2061.031862 392.459218 19.884849 0.000000 0.175140
154.000000 46.789000 14.000000 2.000000 1.000000 109.577951 -46.381525 2104.490819 386.121636 21.378379 0.000000 0.198208
155.000000 96.824000 1.000000 3.000000 1.000000 45.685519 24.875475 475.960688 2099.305569 10.342383 0.000000 0.220313
156.000000 120.366000 2.000000 3.000000 1.000000 66.945509 13.782228 710.990724 1412.647934 8.317580 0.000000 0.085762
157.000000 121.078000 3.000000 3.000000 1.000000 81.204721 3.749556 904.464328 1107.885587 8.266681 0.000000 0.144891
158.000000 112.399000 4.000000 3.000000 1.000000 90.266067 -4.859670 1066.507857 935.983897 8.903349 0.000000 0.162434
159.000000 101.487000 5.000000 3.000000 1.000000 95.980181 -12.021967 1204.204747 825.725081 9.859478 0.000000 0.155290
160.000000 91.040000 6.000000 3.000000 1.000000 99.631739 -17.901207 1322.658627 749.052551 10.989937 0.000000 0.136609
161.000000 81.831000 7.000000 3.000000 1.000000 102.014167 -22.718853 1425.639836 692.681661 12.225942 0.000000 0.113015
162.000000 73.938000 8.000000 3.000000 1.000000 103.602825 -26.686168 1515.994120 649.511422 13.530691 0.000000 0.088156
163.000000 67.219000 9.000000 3.000000 1.000000 104.683570 -29.980468 1595.909681 615.403093 14.882710 0.000000 0.064696
164.000000 61.491000 10.000000 3.000000 1.000000 105.431371 -32.742505 1667.096723 587.782201 16.268624 0.000000 0.046192
165.000000 56.583000 11.000000 3.000000 1.000000 105.955797 -35.081428 1730.911211 564.963777 17.679670 0.000000 0.039274
166.000000 52.347000 12.000000 3.000000 1.000000 106.327135 -37.081272 1788.442077 545.799016 19.109866 0.000000 0.047506
167.000000 48.667000 13.000000 3.000000 1.000000 106.591533 -38.806823 1840.573864 529.477897 20.554989 0.000000 0.064002
169.000000 78.933000 2.000000 4.000000 1.000000 52.050035 16.100521 664.333009 1814.648070 12.686241 0.000000 0.106223
170.000000 87.895000 3.000000 4.000000 1.000000 66.384545 8.179378 820.299029 1416.403218 11.390576 0.000000 0.076701
171.000000 88.209000 4.000000 4.000000 1.000000 76.869137 1.015699 955.918216 1192.112209 11.347988 0.000000 0.130385
172.000000 84.271000 5.000000 4.000000 1.000000 84.373685 -5.304409 1074.928337 1047.486704 11.876557 0.000000 0.152996
173.000000 78.716000 6.000000 4.000000 1.000000 89.734460 -10.794368 1180.204467 946.078022 12.713187 0.000000 0.156259
174.000000 72.854000 7.000000 4.000000 1.000000 93.596080 -15.525281 1273.994305 870.797728 13.734862 0.000000 0.148759
175.000000 67.260000 8.000000 4.000000 1.000000 96.414802 -19.591935 1358.080445 812.556404 14.876369 0.000000 0.135388
176.000000 62.145000 9.000000 4.000000 1.000000 98.503375 -23.091728 1433.894763 766.065871 16.099918 0.000000 0.119028
177.000000 57.559000 10.000000 4.000000 1.000000 100.074588 -26.114144 1502.600625 728.035625 17.382095 0.000000 0.101515
178.000000 53.479000 11.000000 4.000000 1.000000 101.273897 -28.736812 1565.153009 696.308175 18.707625 0.000000 0.084204
179.000000 49.857000 12.000000 4.000000 1.000000 102.201796 -31.025038 1622.343165 669.408308 20.066112 0.000000 0.068398
180.000000 46.639000 13.000000 4.000000 1.000000 102.928648 -33.032885 1674.832259 646.292038 21.450240 0.000000 0.055784
181.000000 53.876000 2.000000 5.000000 1.000000 41.693411 17.535721 634.907845 2208.172366 18.588308 0.000000 0.232318
182.000000 64.463000 3.000000 5.000000 1.000000 55.125390 11.018564 765.427659 1705.212458 15.533679 0.000000 0.058816
183.000000 68.794000 4.000000 5.000000 1.000000 65.830680 4.953215 881.721971 1425.823823 14.553438 0.000000 0.071042
184.000000 69.039000 5.000000 5.000000 1.000000 74.140435 -0.585358 985.996270 1246.785420 14.499799 0.000000 0.118675
185.000000 66.997000 6.000000 5.000000 1.000000 80.521293 -5.573159 1080.022540 1121.552210 14.939898 0.000000 0.142879
186.000000 63.852000 7.000000 5.000000 1.000000 85.417037 -10.023802 1165.240775 1028.611834 15.674161 0.000000 0.151667
187.000000 60.293000 8.000000 5.000000 1.000000 89.192494 -13.974083 1242.833258 956.632552 16.597803 0.000000 0.150930
188.000000 56.694000 9.000000 5.000000 1.000000 92.128284 -17.472176 1313.779737 899.067393 17.650523 0.000000 0.144324
189.000000 53.238000 10.000000 5.000000 1.000000 94.433737 -20.569516 1378.899017 851.863370 18.795167 0.000000 0.134160
190.000000 50.010000 11.000000 5.000000 1.000000 96.263118 -23.315947 1438.880705 812.373064 20.007589 0.000000 0.121956
191.000000 47.037000 12.000000 5.000000 1.000000 97.729878 -25.757211 1494.309723 778.791258 21.271421 0.000000 0.108765
192.000000 48.194000 3.000000 6.000000 1.000000 46.499126 12.984554 726.823481 1989.198067 20.779363 0.000000 0.150766
193.000000 53.929000 4.000000 6.000000 1.000000 56.867739 7.751575 828.492649 1649.969710 18.567564 0.000000 0.035050
194.000000 56.373000 5.000000 6.000000 1.000000 65.382262 2.868430 921.071831 1434.787770 17.760187 0.000000 0.067202
195.000000 56.585000 6.000000 6.000000 1.000000 72.271739 -1.635336 1005.727932 1285.214552 17.691739 0.000000 0.109598
196.000000 55.425000 7.000000 6.000000 1.000000 77.811624 -5.753119 1083.436321 1174.651403 18.059838 0.000000 0.133831
197.000000 53.502000 8.000000 6.000000 1.000000 82.264188 -9.495271 1155.018581 1089.236741 18.707283 0.000000 0.145572
198.000000 51.207000 9.000000 6.000000 1.000000 85.854348 -12.883174 1221.171668 1021.026282 19.544263 0.000000 0.149026
199.000000 48.779000 10.000000 6.000000 1.000000 88.764904 -15.944315 1282.490679 965.133150 20.515740 0.000000 0.146970
200.000000 46.358000 11.000000 6.000000 1.000000 91.140300 -18.708659 1339.486807 918.381661 21.586104 0.000000 0.141259
201.000000 46.163000 5.000000 7.000000 1.000000 57.968202 5.488130 871.589687 1617.475090 21.690853 0.000000 0.023135
202.000000 47.696000 6.000000 7.000000 1.000000 65.027043 1.413899 948.434679 1442.418599 20.991641 0.000000 0.064493
203.000000 47.880000 7.000000 7.000000 1.000000 70.913949 -2.376520 1019.668267 1313.727466 20.908691 0.000000 0.102505
204.000000 47.178000 8.000000 7.000000 1.000000 75.804020 -5.882051 1085.883437 1214.705029 21.217642 0.000000 0.126078
205.000000 45.933000 9.000000 7.000000 1.000000 79.864639 -9.110279 1147.592467 1135.860708 21.791257 0.000000 0.139362
206.000000 195.522000 3.000000 1.000000 2.000000 140.340885 3.212559 914.589141 -359.330103 5.113764 0.000000 0.006127
207.000000 159.425000 4.000000 1.000000 2.000000 138.824829 -15.514804 1273.782330 -336.050542 6.271725 0.000000 0.055307
208.000000 132.580000 5.000000 1.000000 2.000000 135.645297 -26.978579 1522.892563 -294.238466 7.541906 0.000000 0.106739
209.000000 112.601000 6.000000 1.000000 2.000000 132.473469 -34.176427 1705.801694 -249.996646 8.880365 0.000000 0.153482
220.000000 182.833000 1.000000 2.000000 2.000000 84.980759 42.875910 -24.311408 1069.990194 5.473344 0.000000 0.154163
221.000000 182.125000 2.000000 2.000000 2.000000 105.227427 27.177760 422.387882 611.663157 5.492895 0.000000 0.080405
222.000000 162.002000 3.000000 2.000000 2.000000 115.959856 11.772905 750.681553 405.729424 6.174167 0.000000 0.109133
223.000000 139.670000 4.000000 2.000000 2.000000 120.716181 -1.444398 1002.138588 301.328792 7.160786 0.000000 0.102900
224.000000 120.303000 5.000000 2.000000 2.000000 122.337951 -11.853987 1200.908191 244.748716 8.313332 0.000000 0.078758
225.000000 104.547000 6.000000 2.000000 2.000000 122.474104 -19.775941 1361.979338 213.077900 9.566052 0.000000 0.047925
226.000000 91.889000 7.000000 2.000000 2.000000 121.956040 -25.793393 1495.147872 195.310531 10.883881 0.000000 0.019437
227.000000 73.317000 9.000000 2.000000 2.000000 120.327712 -34.055831 1702.496594 181.024148 13.640951 0.000000 0.057828
228.000000 60.631000 11.000000 2.000000 2.000000 118.686252 -39.317689 1856.491685 179.774145 16.495514 0.000000 0.116118
229.000000 51.535000 13.000000 2.000000 2.000000 117.265920 -42.906407 1975.378653 183.687267 19.407422 0.000000 0.167272
231.000000 116.162000 1.000000 3.000000 2.000000 63.846088 37.056454 162.290195 1603.280169 8.618107 0.000000 0.189344
232.000000 129.395000 2.000000 3.000000 2.000000 82.771866 26.068386 448.465054 1092.963789 7.734616 0.000000 0.120072
233.000000 126.189000 3.000000 3.000000 2.000000 95.598791 15.304725 680.463792 831.611972 7.929446 0.000000 0.147833
234.000000 116.168000 4.000000 3.000000 2.000000 103.650012 5.448532 872.340348 678.436057 8.612230 0.000000 0.156527
235.000000 104.673000 5.000000 3.000000 2.000000 108.479612 -3.120409 1033.674528 580.768691 9.557050 0.000000 0.147896
236.000000 93.848000 6.000000 3.000000 2.000000 111.285674 -10.332224 1171.221197 514.768754 10.658805 0.000000 0.129575
237.000000 84.326000 7.000000 3.000000 2.000000 112.859859 -16.307336 1289.880076 468.223721 11.861973 0.000000 0.106317
238.000000 76.155000 8.000000 3.000000 2.000000 113.691982 -21.238149 1393.291691 434.306249 13.134460 0.000000 0.080854
239.000000 69.190000 9.000000 3.000000 2.000000 114.077661 -25.319816 1484.217458 408.941440 14.456421 0.000000 0.054792
240.000000 63.246000 10.000000 3.000000 2.000000 114.194573 -28.721950 1564.789935 389.569916 15.814929 0.000000 0.029272
241.000000 58.149000 11.000000 3.000000 2.000000 114.150146 -31.582291 1636.682189 374.516921 17.201196 0.000000 0.008713
242.000000 53.749000 12.000000 3.000000 2.000000 114.009989 -34.009350 1701.225230 362.648973 18.609046 0.000000 0.023338
243.000000 49.926000 13.000000 3.000000 2.000000 113.814597 -36.087622 1759.491174 353.176928 20.034005 0.000000 0.045964
244.000000 46.581000 14.000000 3.000000 2.000000 113.589182 -37.882794 1812.353269 345.537986 21.472759 0.000000 0.067986
245.000000 75.716000 1.000000 4.000000 2.000000 49.543376 33.905286 251.616120 2046.876168 13.224467 0.000000 0.256195
246.000000 96.032000 3.000000 4.000000 2.000000 79.529621 17.217972 641.461271 1149.235836 10.422743 0.000000 0.129558
247.000000 88.604000 5.000000 4.000000 2.000000 95.687136 2.328070 931.243413 833.727062 11.293204 0.000000 0.165798
248.000000 75.739000 7.000000 4.000000 2.000000 103.513296 -9.499798 1155.105999 678.743900 13.209345 0.000000 0.151242
249.000000 64.262000 9.000000 4.000000 2.000000 107.236000 -18.410042 1333.244987 589.078985 15.567236 0.000000 0.117373
250.000000 55.106000 11.000000 4.000000 2.000000 109.003979 -25.064966 1478.370798 531.781637 18.152933 0.000000 0.078266
251.000000 47.927000 13.000000 4.000000 2.000000 109.820851 -30.099057 1598.882313 492.606122 20.871444 0.000000 0.041110
253.000000 65.681000 2.000000 5.000000 2.000000 54.585732 25.121141 470.342559 1786.234875 15.244828 0.000000 0.143334
254.000000 73.071000 3.000000 5.000000 2.000000 67.027497 18.415352 616.644217 1421.875305 13.700850 0.000000 0.093642
255.000000 75.160000 4.000000 5.000000 2.000000 76.884382 11.995046 746.323860 1197.368477 13.317969 0.000000 0.126423
256.000000 73.901000 5.000000 5.000000 2.000000 84.469858 5.990256 862.061975 1045.778980 13.543100 0.000000 0.152198
257.000000 70.842000 6.000000 5.000000 2.000000 90.217374 0.479518 965.992103 936.916493 14.126303 0.000000 0.163665
258.000000 66.986000 7.000000 5.000000 2.000000 94.544814 -4.506739 1059.833573 855.181370 14.938123 0.000000 0.164859
259.000000 62.910000 8.000000 5.000000 2.000000 97.801452 -8.975025 1144.987369 791.710402 15.904796 0.000000 0.159298
260.000000 58.919000 9.000000 5.000000 2.000000 100.259521 -12.955741 1222.606552 741.100862 16.981209 0.000000 0.149396
261.000000 55.159000 10.000000 5.000000 2.000000 102.123764 -16.491968 1293.648775 699.875566 18.138224 0.000000 0.136770
262.000000 51.686000 11.000000 5.000000 2.000000 103.545524 -19.631404 1358.915996 665.697602 19.356178 0.000000 0.122512
263.000000 48.514000 12.000000 5.000000 2.000000 104.635926 -22.421311 1419.084885 636.939905 20.621322 0.000000 0.107389
264.000000 45.631000 13.000000 5.000000 2.000000 105.476541 -24.905746 1474.730369 612.435809 21.923756 0.000000 0.091970
265.000000 56.206000 3.000000 6.000000 2.000000 57.252054 19.234663 599.464424 1674.168701 17.814599 0.000000 0.093750
266.000000 61.302000 5.000000 6.000000 2.000000 74.855354 8.601271 812.201373 1235.619968 16.329291 0.000000 0.120158
267.000000 58.661000 7.000000 6.000000 2.000000 86.257610 -0.740763 988.915914 1011.406366 17.060972 0.000000 0.157966
268.000000 53.493000 9.000000 6.000000 2.000000 93.447634 -8.614005 1138.043308 875.418571 18.706436 0.000000 0.160915
269.000000 48.066000 11.000000 6.000000 2.000000 98.004830 -15.108403 1265.575824 784.225158 20.816543 0.000000 0.146877
270.000000 48.510000 4.000000 7.000000 2.000000 58.789424 15.095584 684.682498 1616.404949 20.640887 0.000000 0.068550
271.000000 50.884000 5.000000 7.000000 2.000000 66.683718 10.549458 774.559515 1412.863987 19.675672 0.000000 0.080610
272.000000 51.568000 6.000000 7.000000 2.000000 73.289202 6.234228 857.426420 1266.047107 19.412213 0.000000 0.113684
273.000000 51.092000 7.000000 7.000000 2.000000 78.760731 2.177694 934.072579 1155.033278 19.591120 0.000000 0.137356
274.000000 49.877000 8.000000 7.000000 2.000000 83.269000 -1.605825 1005.173130 1068.075839 20.066820 0.000000 0.151369
275.000000 48.228000 9.000000 7.000000 2.000000 86.976892 -5.113320 1071.308924 998.068596 20.751298 0.000000 0.158052
276.000000 46.355000 10.000000 7.000000 2.000000 90.028488 -8.350454 1132.982431 940.459119 21.588210 0.000000 0.159409
290.000000 160.297000 2.000000 2.000000 3.000000 112.585735 43.540625 -47.816487 323.380622 6.239836 0.000000 0.149202
291.000000 147.911000 3.000000 2.000000 3.000000 124.358035 28.701864 385.700572 102.131982 6.761271 0.000000 0.032253
292.000000 131.644000 4.000000 2.000000 3.000000 130.388849 13.930410 708.037784 -2.383075 7.596145 0.000000 0.033930
293.000000 116.029000 5.000000 2.000000 3.000000 132.673440 0.952598 957.103906 -51.389553 8.618183 0.000000 0.038086
294.000000 102.445000 6.000000 2.000000 3.000000 132.869366 -9.511519 1155.332337 -72.008962 9.760907 0.000000 0.032363
295.000000 91.021000 7.000000 2.000000 3.000000 132.045336 -17.620601 1316.846641 -77.425514 10.985991 0.000000 0.033967
296.000000 81.499000 8.000000 2.000000 3.000000 130.790795 -23.857009 1450.982119 -74.496990 12.269782 0.000000 0.050176
297.000000 73.545000 9.000000 2.000000 3.000000 129.403055 -28.696008 1564.156444 -66.973933 13.596893 0.000000 0.073245
298.000000 66.859000 10.000000 2.000000 3.000000 128.023440 -32.509534 1660.926889 -56.984758 14.956883 0.000000 0.098107
299.000000 61.192000 11.000000 2.000000 3.000000 126.714600 -35.567181 1744.618907 -45.769276 16.342417 0.000000 0.122876
300.000000 56.346000 12.000000 2.000000 3.000000 125.500512 -38.060203 1817.715980 -34.061502 17.748190 0.000000 0.146800
301.000000 52.167000 13.000000 2.000000 3.000000 124.386532 -40.124482 1882.110235 -22.298614 19.170272 0.000000 0.169564
302.000000 48.533000 14.000000 2.000000 3.000000 123.369376 -41.857649 1939.268564 -10.739371 20.605686 0.000000 0.191059
303.000000 115.693000 1.000000 3.000000 3.000000 75.747001 47.783570 -211.303391 1347.891602 8.650879 0.000000 0.267833
304.000000 124.355000 2.000000 3.000000 3.000000 92.964426 37.755638 141.474517 870.504097 8.046203 0.000000 0.089170
305.000000 112.977000 4.000000 3.000000 3.000000 113.221498 16.735651 651.366124 458.797165 8.853709 0.000000 0.104067
306.000000 102.927000 5.000000 3.000000 3.000000 118.042822 7.065784 841.593137 363.304680 9.717507 0.000000 0.110080
307.000000 84.232000 7.000000 3.000000 3.000000 122.022585 -8.687021 1139.446650 260.054920 11.873461 0.000000 0.087963
308.000000 76.444000 8.000000 3.000000 3.000000 122.494868 -14.742895 1258.221930 232.122438 13.082887 0.000000 0.068842
309.000000 63.871000 10.000000 3.000000 3.000000 122.171108 -23.964479 1453.397788 200.112662 15.658252 0.000000 0.027578
310.000000 58.827000 11.000000 3.000000 3.000000 121.713859 -27.469477 1534.554797 191.394393 17.000752 0.000000 0.016042
311.000000 50.614000 13.000000 3.000000 3.000000 120.613426 -32.937960 1672.297941 182.165696 19.759689 0.000000 0.047667
312.000000 47.249000 14.000000 3.000000 3.000000 120.043317 -35.093313 1731.244634 180.218521 21.167085 0.000000 0.067942
314.000000 83.271000 1.000000 4.000000 3.000000 61.824846 42.514262 -11.734968 1723.113669 12.022053 0.000000 0.264460
315.000000 94.297000 2.000000 4.000000 3.000000 77.338946 34.539192 234.198956 1234.521241 10.614215 0.000000 0.126631
316.000000 96.938000 3.000000 4.000000 3.000000 89.480082 26.353245 441.817153 951.899609 10.323063 0.000000 0.117313
317.000000 94.268000 4.000000 4.000000 3.000000 98.435386 18.281907 619.426717 772.902621 10.613854 0.000000 0.136775
318.000000 88.957000 5.000000 4.000000 3.000000 104.764271 10.624778 773.095215 652.400861 11.246274 0.000000 0.146709
319.000000 82.699000 6.000000 4.000000 3.000000 109.097070 3.596159 907.357733 567.626134 12.096317 0.000000 0.145992
320.000000 76.397000 7.000000 4.000000 3.000000 111.986350 -2.695496 1025.671962 505.965788 13.093516 0.000000 0.137777
321.000000 70.467000 8.000000 4.000000 3.000000 113.862665 -8.232531 1130.720205 459.933484 14.194862 0.000000 0.124720
322.000000 65.066000 9.000000 4.000000 3.000000 115.040552 -13.057253 1224.615190 424.842660 15.372619 0.000000 0.108666
323.000000 60.225000 10.000000 4.000000 3.000000 115.741590 -17.242492 1309.043635 397.632386 16.608098 0.000000 0.090857
324.000000 55.914000 11.000000 4.000000 3.000000 116.118857 -20.870801 1385.368464 376.233033 17.888243 0.000000 0.072121
325.000000 52.084000 12.000000 4.000000 3.000000 116.277159 -24.022471 1454.702955 359.204267 19.203660 0.000000 0.053012
326.000000 48.678000 13.000000 4.000000 3.000000 116.288074 -26.769880 1517.965388 345.518910 20.547419 0.000000 0.033904
327.000000 45.641000 14.000000 4.000000 3.000000 116.200543 -29.175632 1575.919953 334.428890 21.914290 0.000000 0.015061
329.000000 71.540000 2.000000 5.000000 3.000000 65.148643 32.503451 289.233792 1532.075591 13.993597 0.000000 0.148430
330.000000 76.733000 3.000000 5.000000 3.000000 76.751022 25.836750 453.847080 1222.558101 13.044333 0.000000 0.117605
331.000000 77.588000 4.000000 5.000000 3.000000 85.989557 19.260052 598.929355 1020.932694 12.898762 0.000000 0.136431
332.000000 75.688000 5.000000 5.000000 3.000000 93.111145 12.937110 727.761927 880.976401 13.220798 0.000000 0.153552
333.000000 72.301000 6.000000 5.000000 3.000000 98.481800 6.995680 842.930048 779.292388 13.838819 0.000000 0.161161
334.000000 68.264000 7.000000 5.000000 3.000000 102.473882 1.516920 946.498189 702.822516 14.656036 0.000000 0.160831
335.000000 64.074000 8.000000 5.000000 3.000000 105.412851 -3.463187 1040.134882 643.736571 15.613710 0.000000 0.154840
336.000000 59.996000 9.000000 5.000000 3.000000 107.561542 -7.944657 1125.203301 597.073299 16.674133 0.000000 0.144987
337.000000 56.162000 10.000000 5.000000 3.000000 109.122897 -11.951842 1202.828059 559.548826 17.811983 0.000000 0.132568
338.000000 52.622000 11.000000 5.000000 3.000000 110.249614 -15.522854 1273.945205 528.910864 19.009629 0.000000 0.118498
339.000000 49.387000 12.000000 5.000000 3.000000 111.054963 -18.701655 1339.340159 503.568353 20.254416 0.000000 0.103428
340.000000 46.445000 13.000000 5.000000 3.000000 111.622402 -21.532861 1399.676834 482.368948 21.537022 0.000000 0.087822
341.000000 54.897000 2.000000 6.000000 3.000000 55.609521 31.102368 325.677113 1801.373814 18.238495 0.000000 0.182147
342.000000 63.627000 4.000000 6.000000 3.000000 75.608927 19.934228 584.659531 1234.767878 15.731940 0.000000 0.118062
343.000000 63.919000 5.000000 6.000000 3.000000 83.051539 14.555336 695.542098 1076.519121 15.658225 0.000000 0.140493
344.000000 60.385000 7.000000 6.000000 3.000000 93.723946 4.609462 888.224526 870.720139 16.571293 0.000000 0.164412
345.000000 57.678000 8.000000 6.000000 3.000000 97.424433 0.135186 972.460535 800.746659 17.347725 0.000000 0.165789
346.000000 51.904000 10.000000 6.000000 3.000000 102.577299 -7.745980 1121.400304 698.656119 19.275637 0.000000 0.155591
347.000000 49.114000 11.000000 6.000000 3.000000 104.340161 -11.171596 1187.557575 660.538066 20.369784 0.000000 0.146400
348.000000 48.749000 3.000000 7.000000 3.000000 58.161530 25.225317 467.953356 1679.782796 20.538710 0.000000 0.125987
349.000000 52.310000 4.000000 7.000000 3.000000 66.955679 20.426947 574.153435 1429.564655 19.138319 0.000000 0.097714
350.000000 53.886000 5.000000 7.000000 3.000000 74.426101 15.749451 671.464750 1252.679432 18.576597 0.000000 0.116249
351.000000 53.990000 6.000000 7.000000 3.000000 80.663824 11.247610 760.958436 1121.412927 18.538740 0.000000 0.138629
352.000000 53.094000 7.000000 7.000000 3.000000 85.811565 6.963680 843.540174 1020.405446 18.849978 0.000000 0.154222
353.000000 51.570000 8.000000 7.000000 3.000000 90.028442 2.926354 919.980945 940.465027 19.405501 0.000000 0.162855
354.000000 49.689000 9.000000 7.000000 3.000000 93.468451 -0.848555 990.941178 875.758716 20.138640 0.000000 0.165928
355.000000 47.637000 10.000000 7.000000 3.000000 96.269684 -4.356261 1056.989878 822.409783 21.004962 0.000000 0.164807
356.000000 45.534000 11.000000 7.000000 3.000000 98.550460 -7.600607 1118.619919 777.743211 21.973715 0.000000 0.160580
357.000000 45.517000 5.000000 8.000000 3.000000 67.037079 16.666134 652.789538 1417.035211 21.994901 0.000000 0.090501
358.000000 46.508000 6.000000 8.000000 3.000000 73.348431 12.658166 733.272221 1270.931407 21.524092 0.000000 0.112952
359.000000 46.549000 7.000000 8.000000 3.000000 78.723959 8.810025 808.188005 1158.158952 21.503215 0.000000 0.134572
360.000000 45.920000 8.000000 8.000000 3.000000 83.267273 5.144790 878.095168 1068.572780 21.795949 0.000000 0.149889
370.000000 120.182000 4.000000 2.000000 4.000000 135.151786 30.077909 351.648324 -309.382612 8.319951 0.000000 0.122502
371.000000 108.630000 5.000000 2.000000 4.000000 139.084409 15.916396 668.076499 -350.331023 9.204296 0.000000 0.050302
372.000000 88.099000 7.000000 2.000000 4.000000 139.997251 -7.256865 1112.052973 -351.909017 11.349280 0.000000 0.026936
373.000000 72.495000 9.000000 2.000000 4.000000 137.289711 -21.946041 1408.672489 -316.038498 13.792407 0.000000 0.081663
374.000000 60.938000 11.000000 2.000000 4.000000 134.019824 -30.966848 1620.855550 -271.976653 16.408778 0.000000 0.130684
378.000000 113.649000 2.000000 3.000000 4.000000 98.890163 48.047077 -222.322836 689.169200 8.802964 0.000000 0.209104
379.000000 112.094000 3.000000 3.000000 4.000000 110.881246 38.403877 121.821093 417.051220 8.923450 0.000000 0.062924
380.000000 106.012000 4.000000 3.000000 4.000000 119.256245 28.211324 397.622166 256.818195 9.434230 0.000000 0.011781
381.000000 98.113000 5.000000 3.000000 4.000000 124.633204 18.081393 623.599639 158.974272 10.193063 0.000000 0.046285
382.000000 89.936000 6.000000 3.000000 4.000000 127.753644 8.604671 812.136044 98.046320 11.119340 0.000000 0.058327
383.000000 82.211000 7.000000 3.000000 4.000000 129.303325 0.169038 971.824627 59.955200 12.163965 0.000000 0.057391
384.000000 75.214000 8.000000 3.000000 4.000000 129.827501 -7.087224 1108.815828 36.478829 13.295326 0.000000 0.049444
385.000000 69.003000 9.000000 3.000000 4.000000 129.717101 -13.209343 1227.627709 22.601153 14.492151 0.000000 0.039004
386.000000 63.534000 10.000000 3.000000 4.000000 129.233494 -18.333752 1331.653810 15.151883 15.739598 0.000000 0.031323
387.000000 58.731000 11.000000 3.000000 4.000000 128.543726 -22.621524 1423.492519 12.068326 17.026994 0.000000 0.032847
388.000000 54.507000 12.000000 3.000000 4.000000 127.751510 -26.224194 1505.167077 11.975820 18.346472 0.000000 0.043854
389.000000 50.783000 13.000000 3.000000 4.000000 126.919885 -29.271174 1578.276366 13.939786 19.692102 0.000000 0.059408
390.000000 47.486000 14.000000 3.000000 4.000000 126.086381 -31.868006 1644.100625 17.314259 21.059331 0.000000 0.076540
392.000000 93.333000 3.000000 4.000000 4.000000 96.481720 35.137622 217.511426 791.471269 10.719990 0.000000 0.074443
393.000000 86.511000 5.000000 4.000000 4.000000 111.564408 19.295395 598.184206 490.322482 11.562594 0.000000 0.099752
394.000000 75.308000 7.000000 4.000000 4.000000 118.877451 4.820992 884.223917 345.298679 13.281200 0.000000 0.109275
395.000000 64.763000 9.000000 4.000000 4.000000 121.791212 -6.992911 1107.017153 268.898180 15.442887 0.000000 0.092203
396.000000 55.998000 11.000000 4.000000 4.000000 122.525863 -16.089976 1285.452409 226.659314 17.859654 0.000000 0.063701
397.000000 48.937000 13.000000 4.000000 4.000000 122.265250 -22.987276 1431.577767 202.896715 20.436682 0.000000 0.032403
400.000000 72.817000 2.000000 5.000000 4.000000 73.379708 39.462470 88.954881 1357.133767 13.745768 0.000000 0.168235
401.000000 76.669000 3.000000 5.000000 4.000000 84.296065 33.040713 274.958503 1069.241961 13.053137 0.000000 0.109712
402.000000 77.021000 4.000000 5.000000 4.000000 93.113991 26.521708 437.870214 875.559804 12.991528 0.000000 0.112793
403.000000 75.081000 5.000000 5.000000 4.000000 99.995007 20.071514 581.738892 739.051649 13.325779 0.000000 0.128168
404.000000 71.845000 6.000000 5.000000 4.000000 105.219048 13.846062 709.719126 639.430107 13.924664 0.000000 0.138108
405.000000 68.009000 7.000000 5.000000 4.000000 109.096713 7.970321 824.305196 564.734124 14.709189 0.000000 0.140993
406.000000 64.003000 8.000000 5.000000 4.000000 111.918624 2.527242 927.495251 507.504410 15.628953 0.000000 0.138175
407.000000 60.075000 9.000000 5.000000 4.000000 113.932900 -2.442444 1020.908823 462.878102 16.650288 0.000000 0.131174
408.000000 56.352000 10.000000 5.000000 4.000000 115.339806 -6.932869 1105.872444 427.568828 17.749844 0.000000 0.121219
409.000000 52.891000 11.000000 5.000000 4.000000 116.295220 -10.962684 1183.483043 399.288395 18.910918 0.000000 0.109229
410.000000 49.709000 12.000000 5.000000 4.000000 116.917641 -14.565193 1254.655560 376.403055 20.121248 0.000000 0.095882
411.000000 46.800000 13.000000 5.000000 4.000000 117.295814 -17.780641 1320.159184 357.720981 21.371628 0.000000 0.081670
413.000000 62.766000 3.000000 6.000000 4.000000 74.109462 31.584128 313.270264 1300.676480 15.947430 0.000000 0.124399
414.000000 64.578000 5.000000 6.000000 4.000000 89.883358 20.610281 570.227157 943.340928 15.496093 0.000000 0.134881
415.000000 60.799000 7.000000 6.000000 4.000000 100.118847 10.231279 780.737436 745.813808 16.456434 0.000000 0.154911
416.000000 55.210000 9.000000 6.000000 4.000000 106.382306 0.992690 956.350566 624.543004 18.120204 0.000000 0.153830
417.000000 49.558000 11.000000 6.000000 4.000000 110.077608 -6.891290 1105.079909 544.746415 20.185053 0.000000 0.139589
418.000000 46.662000 2.000000 7.000000 4.000000 56.015304 35.274995 213.646139 1829.731747 21.456722 0.000000 0.217718
419.000000 51.526000 3.000000 7.000000 4.000000 65.609782 30.514688 340.642525 1507.462833 19.428923 0.000000 0.135313
420.000000 54.290000 4.000000 7.000000 4.000000 73.975893 25.736439 456.171244 1284.152965 18.437625 0.000000 0.115569
421.000000 55.335000 5.000000 7.000000 4.000000 81.102489 21.006071 561.718476 1121.490220 18.087637 0.000000 0.127400
422.000000 55.103000 6.000000 7.000000 4.000000 87.064420 16.385553 658.524229 998.529357 18.162015 0.000000 0.143386
423.000000 53.998000 7.000000 7.000000 4.000000 91.984845 11.928436 747.631282 902.876787 18.531751 0.000000 0.155107
424.000000 52.346000 8.000000 7.000000 4.000000 96.005655 7.676808 829.922899 826.745483 19.115317 0.000000 0.161575
425.000000 50.384000 9.000000 7.000000 4.000000 99.268087 3.660078 906.152206 765.006591 19.858662 0.000000 0.163501
426.000000 48.276000 10.000000 7.000000 4.000000 101.901927 -0.104622 976.965307 714.151043 20.724538 0.000000 0.161830
427.000000 46.133000 11.000000 7.000000 4.000000 104.020727 -3.610867 1042.919642 671.701489 21.686438 0.000000 0.157400
428.000000 47.407000 5.000000 8.000000 4.000000 73.491678 21.309106 555.173331 1283.391031 21.115169 0.000000 0.113086
429.000000 47.785000 7.000000 8.000000 4.000000 84.671376 13.247165 721.622541 1044.131419 20.944283 0.000000 0.145300
430.000000 45.752000 9.000000 8.000000 4.000000 92.649325 5.782713 866.002094 890.942515 21.871875 0.000000 0.163125
444.000000 101.611000 3.000000 3.000000 5.000000 113.732570 48.292121 -232.671809 229.792184 9.843403 0.000000 0.256486
445.000000 97.627000 4.000000 3.000000 5.000000 122.484330 39.006393 103.235224 59.153756 10.243892 0.000000 0.131771
446.000000 91.804000 5.000000 3.000000 5.000000 128.585008 29.175983 374.071401 -42.515473 10.892795 0.000000 0.065166
447.000000 85.347000 6.000000 3.000000 5.000000 132.470759 19.347977 597.075030 -103.204624 11.716380 0.000000 0.034173
448.000000 78.937000 7.000000 3.000000 5.000000 134.643300 10.068690 783.889538 -138.603005 12.667469 0.000000 0.024117
449.000000 72.910000 8.000000 3.000000 5.000000 135.583649 1.720922 942.662970 -157.943924 13.714470 0.000000 0.022004
450.000000 67.400000 9.000000 3.000000 5.000000 135.694690 -5.533371 1079.268071 -166.877736 14.835431 0.000000 0.023453
451.000000 62.438000 10.000000 3.000000 5.000000 135.280394 -11.707903 1198.044666 -168.973698 16.014625 0.000000 0.029811
452.000000 57.999000 11.000000 3.000000 5.000000 134.553316 -16.912962 1302.269181 -166.545731 17.240488 0.000000 0.040736
453.000000 54.038000 12.000000 3.000000 5.000000 133.654509 -21.292234 1394.461552 -161.126099 18.504328 0.000000 0.054504
454.000000 50.504000 13.000000 3.000000 5.000000 132.674265 -24.987203 1476.591641 -153.747046 19.799485 0.000000 0.069778
455.000000 47.345000 14.000000 3.000000 5.000000 131.668800 -28.122113 1550.221563 -145.113520 21.120772 0.000000 0.085748
457.000000 85.813000 2.000000 4.000000 5.000000 90.147808 50.272722 -320.147601 936.655738 11.660158 0.000000 0.268643
458.000000 87.545000 3.000000 4.000000 5.000000 101.117725 43.217498 -36.326319 650.772121 11.427522 0.000000 0.119874
459.000000 85.972000 4.000000 4.000000 5.000000 109.776633 35.703352 201.508620 464.435358 11.635048 0.000000 0.032801
460.000000 82.414000 5.000000 4.000000 5.000000 116.295689 27.959649 403.696091 338.882662 12.136289 0.000000 0.026810
461.000000 77.872000 6.000000 4.000000 5.000000 120.977785 20.261352 577.691786 252.246827 12.843279 0.000000 0.053762
462.000000 72.999000 7.000000 4.000000 5.000000 124.172353 12.874097 729.007755 191.468409 13.699992 0.000000 0.067179
463.000000 68.174000 8.000000 4.000000 5.000000 126.218607 6.003680 861.807015 148.387445 14.669049 0.000000 0.070861
464.000000 63.597000 9.000000 4.000000 5.000000 127.413097 -0.228505 979.292459 117.714444 15.724558 0.000000 0.068072
465.000000 59.356000 10.000000 4.000000 5.000000 127.996495 -5.781167 1083.968568 95.914566 16.848016 0.000000 0.061136
466.000000 55.477000 11.000000 4.000000 5.000000 128.153723 -10.671934 1177.821928 80.564240 18.025848 0.000000 0.051805
467.000000 51.955000 12.000000 4.000000 5.000000 128.021348 -14.953120 1262.448524 69.965151 19.247870 0.000000 0.041671
468.000000 48.767000 13.000000 4.000000 5.000000 127.697460 -18.692345 1339.145238 62.904678 20.506292 0.000000 0.032754
469.000000 45.883000 14.000000 4.000000 5.000000 127.251170 -21.959976 1408.976782 58.502828 21.795053 0.000000 0.028281
471.000000 71.198000 2.000000 5.000000 5.000000 79.585926 45.849899 -133.707965 1224.989619 14.056346 0.000000 0.216009
472.000000 74.260000 3.000000 5.000000 5.000000 89.923512 39.825027 77.468646 942.870859 13.474804 0.000000 0.109545
473.000000 74.517000 4.000000 5.000000 5.000000 98.443311 33.554105 261.153842 749.289418 13.426508 0.000000 0.070984
474.000000 70.025000 6.000000 5.000000 5.000000 110.467808 20.851355 565.049883 511.125406 14.284991 0.000000 0.096574
475.000000 66.608000 7.000000 5.000000 5.000000 114.403949 14.723182 692.173981 436.103533 15.016945 0.000000 0.106641
476.000000 62.973000 8.000000 5.000000 5.000000 117.280090 8.915031 806.167522 379.169329 15.883021 0.000000 0.110141
477.000000 59.350000 9.000000 5.000000 5.000000 119.320192 3.510928 908.964972 335.376284 16.852090 0.000000 0.108441
478.000000 52.593000 11.000000 5.000000 5.000000 121.624952 -5.939775 1086.979401 274.635477 19.016406 0.000000 0.094604
479.000000 49.552000 12.000000 5.000000 5.000000 122.170513 -9.988522 1164.557409 253.575003 20.183249 0.000000 0.084385
480.000000 46.749000 13.000000 5.000000 5.000000 122.448536 -13.619307 1235.766931 236.884740 21.393207 0.000000 0.072876
482.000000 58.785000 2.000000 6.000000 5.000000 70.488529 42.637147 -15.991918 1459.417888 17.027563 0.000000 0.215171
483.000000 62.537000 3.000000 6.000000 5.000000 80.209121 37.412770 151.730725 1174.836971 16.003714 0.000000 0.129732
484.000000 64.015000 4.000000 6.000000 5.000000 88.502772 32.047887 301.205259 974.189590 15.632195 0.000000 0.102460
485.000000 63.766000 5.000000 6.000000 5.000000 95.388623 26.633012 435.256110 827.425122 15.691507 0.000000 0.108786
486.000000 62.335000 6.000000 6.000000 5.000000 100.976947 21.263808 556.153418 716.988363 16.050236 0.000000 0.121644
487.000000 60.174000 7.000000 6.000000 5.000000 105.426083 16.031227 665.742648 631.995165 16.625480 0.000000 0.131127
488.000000 57.616000 8.000000 6.000000 5.000000 108.909987 11.012830 765.539462 565.375156 17.362357 0.000000 0.135694
489.000000 54.892000 9.000000 6.000000 5.000000 111.597417 6.267167 856.800238 512.359381 18.223088 0.000000 0.135886
490.000000 52.150000 10.000000 6.000000 5.000000 113.640565 1.831953 940.575245 469.629923 19.180818 0.000000 0.132587
491.000000 49.478000 11.000000 6.000000 5.000000 115.170268 -2.274530 1017.749238 434.817570 20.215930 0.000000 0.126616
492.000000 46.929000 12.000000 6.000000 5.000000 116.295331 -6.050002 1089.072832 406.192648 21.313765 0.000000 0.118641
493.000000 48.594000 2.000000 7.000000 5.000000 62.739386 40.211655 65.085467 1667.209122 20.601085 0.000000 0.228696
494.000000 52.590000 3.000000 7.000000 5.000000 71.858483 35.615378 204.011946 1374.794207 19.033711 0.000000 0.146402
495.000000 54.791000 4.000000 7.000000 5.000000 79.854995 30.935083 329.955761 1165.528704 18.266684 0.000000 0.116535
496.000000 55.519000 5.000000 7.000000 5.000000 86.709733 26.231793 444.655518 1009.979245 18.025423 0.000000 0.119282
497.000000 55.138000 6.000000 7.000000 5.000000 92.477053 21.568345 549.552648 890.934221 18.148061 0.000000 0.131334
498.000000 53.989000 7.000000 7.000000 5.000000 97.256429 17.004455 645.852304 797.690137 18.532992 0.000000 0.142030
499.000000 52.346000 8.000000 7.000000 5.000000 101.168635 12.592388 734.569859 723.262697 19.113215 0.000000 0.148785
500.000000 50.419000 9.000000 7.000000 5.000000 104.338809 8.373940 816.566857 662.914750 19.842759 0.000000 0.151570
501.000000 48.354000 10.000000 7.000000 5.000000 106.885902 4.379074 892.579075 613.329481 20.689032 0.000000 0.150982
502.000000 46.252000 11.000000 7.000000 5.000000 108.917065 0.626081 963.238667 572.121903 21.628283 0.000000 0.147685
503.000000 46.895000 4.000000 8.000000 5.000000 72.352611 30.079955 351.596992 1336.689457 21.345241 0.000000 0.122602
504.000000 48.246000 5.000000 8.000000 5.000000 79.081485 25.924009 451.822118 1171.851869 20.745782 0.000000 0.118982
505.000000 48.611000 6.000000 8.000000 5.000000 84.901009 21.802408 544.460530 1044.436377 20.587855 0.000000 0.129954
506.000000 48.234000 7.000000 8.000000 5.000000 89.869188 17.756433 630.342246 943.580217 20.747129 0.000000 0.142305
507.000000 47.330000 8.000000 8.000000 5.000000 94.066988 13.822907 710.180468 862.191149 21.141944 0.000000 0.151744
508.000000 46.075000 9.000000 8.000000 5.000000 97.585103 10.032463 784.591436 795.450926 21.716458 0.000000 0.157527
515.000000 74.969000 7.000000 3.000000 6.000000 138.129972 20.541055 571.710803 -341.342762 13.337261 0.000000 0.070017
516.000000 69.928000 8.000000 3.000000 6.000000 139.742471 11.461398 756.780497 -355.893022 14.298478 0.000000 0.033540
517.000000 60.784000 10.000000 3.000000 6.000000 140.235006 -4.025698 1050.746932 -355.613772 16.449363 0.000000 0.016703
518.000000 56.777000 11.000000 3.000000 6.000000 139.670007 -10.239575 1169.423485 -347.295277 17.610446 0.000000 0.036713
519.000000 49.854000 13.000000 3.000000 6.000000 137.822785 -19.977810 1366.267098 -322.997261 20.056270 0.000000 0.073037
520.000000 46.882000 14.000000 3.000000 6.000000 136.745486 -23.759564 1448.795271 -308.889212 21.327983 0.000000 0.090150
521.000000 81.051000 3.000000 4.000000 6.000000 104.019559 50.398335 -325.939337 519.410659 12.342237 0.000000 0.273612
522.000000 77.536000 5.000000 4.000000 6.000000 119.309166 36.238890 186.149244 191.873885 12.898984 0.000000 0.072998
523.000000 69.937000 7.000000 4.000000 6.000000 127.965186 21.182532 557.910419 40.302923 14.298822 0.000000 0.026307
524.000000 61.812000 9.000000 4.000000 6.000000 131.882429 7.145405 840.074209 -31.662021 16.177642 0.000000 0.038137
525.000000 54.480000 11.000000 4.000000 6.000000 132.952217 -4.597415 1061.547712 -64.218116 18.354614 0.000000 0.035454
526.000000 48.238000 13.000000 4.000000 6.000000 132.539095 -13.832483 1240.010317 -76.090634 20.729761 0.000000 0.031230
529.000000 68.030000 2.000000 5.000000 6.000000 84.175972 51.595563 -382.729431 1117.723313 14.709580 0.000000 0.318361
530.000000 70.608000 3.000000 5.000000 6.000000 93.996727 46.055112 -141.682920 832.637285 14.170261 0.000000 0.173272
531.000000 70.944000 4.000000 5.000000 6.000000 102.271635 40.171428 66.380435 634.617916 14.101522 0.000000 0.079451
532.000000 69.663000 5.000000 5.000000 6.000000 109.022410 34.045105 247.796911 493.172247 14.359339 0.000000 0.027854
533.000000 67.342000 6.000000 5.000000 6.000000 114.364671 27.806536 407.377474 389.938993 14.853019 0.000000 0.037577
534.000000 64.433000 7.000000 5.000000 6.000000 118.467413 21.601116 548.840702 313.330603 15.522608 0.000000 0.058665
535.000000 61.256000 8.000000 5.000000 6.000000 121.521248 15.569726 675.106181 255.751335 16.326884 0.000000 0.071601
536.000000 58.022000 9.000000 5.000000 6.000000 123.716000 9.830678 788.498160 212.063373 17.236571 0.000000 0.077444
537.000000 54.858000 10.000000 5.000000 6.000000 125.226376 4.468459 890.889934 178.698533 18.230305 0.000000 0.078007
538.000000 51.837000 11.000000 5.000000 6.000000 126.204262 -0.468886 983.808155 153.122338 19.292131 0.000000 0.074756
539.000000 48.998000 12.000000 5.000000 6.000000 126.776074 -4.965443 1068.509465 133.499273 20.409890 0.000000 0.068813
540.000000 46.354000 13.000000 5.000000 6.000000 127.043558 -9.029567 1146.037664 118.477368 21.574156 0.000000 0.061062
542.000000 61.958000 5.000000 6.000000 6.000000 99.690326 32.494576 289.468162 723.098523 16.147706 0.000000 0.070532
543.000000 58.792000 7.000000 6.000000 6.000000 109.691689 21.895755 542.425109 525.860418 17.014720 0.000000 0.094216
544.000000 48.965000 11.000000 6.000000 6.000000 119.592919 2.653203 925.124251 329.099742 20.426349 0.000000 0.107751
545.000000 49.053000 2.000000 7.000000 6.000000 68.317293 44.841847 -95.368847 1544.525411 20.406142 0.000000 0.258159
546.000000 52.383000 3.000000 7.000000 6.000000 77.000253 40.461763 56.999363 1267.582943 19.106632 0.000000 0.162070
547.000000 54.200000 4.000000 7.000000 6.000000 84.674386 35.944647 194.613996 1064.927915 18.463988 0.000000 0.111296
548.000000 54.760000 5.000000 7.000000 6.000000 91.311551 31.342107 319.518948 912.148230 18.273376 0.000000 0.098376
549.000000 54.357000 6.000000 7.000000 6.000000 96.945330 26.712028 433.397243 794.225844 18.407108 0.000000 0.105504
550.000000 53.269000 7.000000 7.000000 6.000000 101.650572 22.114389 537.647309 701.456045 18.781449 0.000000 0.116611
551.000000 51.730000 8.000000 7.000000 6.000000 105.525070 17.606706 633.440698 627.315497 19.339205 0.000000 0.125497
552.000000 49.918000 9.000000 7.000000 6.000000 108.675420 13.239914 721.766298 567.275295 20.039977 0.000000 0.130827
553.000000 47.967000 10.000000 7.000000 6.000000 111.207270 9.055409 803.464600 518.105131 20.854419 0.000000 0.132750
554.000000 45.967000 11.000000 7.000000 6.000000 113.219280 5.083562 879.254529 477.447540 21.760700 0.000000 0.131782
555.000000 48.240000 5.000000 8.000000 6.000000 83.832752 30.452512 342.215202 1075.911631 20.745993 0.000000 0.112428
556.000000 48.039000 7.000000 8.000000 6.000000 94.325398 22.283065 533.951141 853.023276 20.829287 0.000000 0.127521
557.000000 45.907000 9.000000 8.000000 6.000000 101.887989 14.385721 698.940502 707.090658 21.793659 0.000000 0.143240
575.000000 72.447000 5.000000 4.000000 7.000000 120.999003 43.846732 -58.815554 44.325817 13.804555 0.000000 0.203706
576.000000 69.712000 6.000000 4.000000 7.000000 126.386573 36.746503 171.395256 -48.807690 14.344960 0.000000 0.129017
577.000000 66.485000 7.000000 4.000000 7.000000 130.434437 29.407119 368.363133 -111.759326 15.040634 0.000000 0.080665
578.000000 63.057000 8.000000 4.000000 7.000000 133.316956 22.061533 538.803725 -154.026711 15.857749 0.000000 0.049893
579.000000 59.620000 9.000000 4.000000 7.000000 135.227405 14.943856 687.737903 -181.847774 16.771635 0.000000 0.030795
580.000000 56.289000 10.000000 4.000000 7.000000 136.359733 8.247398 818.994655 -199.425363 17.763883 0.000000 0.019658
581.000000 53.128000 11.000000 4.000000 7.000000 136.893234 2.099423 935.544941 -209.653299 18.820473 0.000000 0.015366
582.000000 50.169000 12.000000 4.000000 7.000000 136.982489 -3.441673 1039.729287 -214.561449 19.930542 0.000000 0.017946
583.000000 47.421000 13.000000 4.000000 7.000000 136.753342 -8.373077 1133.416580 -215.596560 21.085543 0.000000 0.024952
585.000000 66.447000 3.000000 5.000000 7.000000 96.875975 51.668119 -386.266943 731.737232 15.056593 0.000000 0.299756
586.000000 66.907000 4.000000 5.000000 7.000000 104.915401 46.251399 -149.366645 526.406388 14.951390 0.000000 0.177487
587.000000 66.011000 5.000000 5.000000 7.000000 111.638582 40.502707 55.669912 379.469849 15.152781 0.000000 0.094647
588.000000 64.188000 6.000000 5.000000 7.000000 117.103254 34.515080 234.866276 272.480514 15.582006 0.000000 0.039699
589.000000 61.792000 7.000000 5.000000 7.000000 121.417400 28.409561 392.817735 193.564135 16.185153 0.000000 0.013562
590.000000 59.091000 8.000000 5.000000 7.000000 124.718127 22.322262 533.090948 134.821395 16.924075 0.000000 0.027763
591.000000 56.273000 9.000000 5.000000 7.000000 127.154848 16.386912 658.496508 90.849806 17.771022 0.000000 0.040948
592.000000 53.461000 10.000000 5.000000 7.000000 128.876342 10.718137 771.279201 57.866347 18.705324 0.000000 0.048041
593.000000 50.732000 11.000000 5.000000 7.000000 130.021383 5.400352 873.253563 33.167652 19.711268 0.000000 0.050384
594.000000 48.130000 12.000000 5.000000 7.000000 130.712858 0.484301 965.902246 14.787468 20.776695 0.000000 0.049316
595.000000 45.678000 13.000000 5.000000 7.000000 131.055073 -4.009893 1050.448580 1.273382 21.892052 0.000000 0.045972
599.000000 58.563000 3.000000 6.000000 7.000000 88.653501 47.917759 -216.900930 978.747843 17.086197 0.000000 0.219758
600.000000 59.666000 4.000000 6.000000 7.000000 96.359077 43.105762 -32.381402 776.709545 16.768382 0.000000 0.123481
601.000000 59.548000 5.000000 6.000000 7.000000 102.955815 38.085782 131.508694 626.412583 16.799954 0.000000 0.059755
602.000000 58.531000 6.000000 6.000000 7.000000 108.478933 32.925070 278.045785 512.490702 17.090457 0.000000 0.032524
603.000000 56.903000 7.000000 6.000000 7.000000 113.006441 27.703569 409.847354 424.825568 17.578179 0.000000 0.044888
604.000000 54.897000 8.000000 6.000000 7.000000 116.641699 22.507027 529.029666 356.534669 18.219574 0.000000 0.062088
605.000000 52.687000 9.000000 6.000000 7.000000 119.499533 17.418785 637.322259 302.807485 18.983038 0.000000 0.074072
606.000000 50.397000 10.000000 6.000000 7.000000 121.695963 12.512120 736.152421 260.203076 19.845077 0.000000 0.080828
607.000000 48.110000 11.000000 6.000000 7.000000 123.341137 7.844806 826.708454 226.210666 20.787863 0.000000 0.083349
608.000000 45.880000 12.000000 6.000000 7.000000 124.534957 3.456686 909.987684 198.966178 21.797623 0.000000 0.082582
609.000000 48.492000 2.000000 7.000000 7.000000 72.891981 49.138686 -269.204651 1447.360297 20.640266 0.000000 0.310748
610.000000 51.314000 3.000000 7.000000 7.000000 81.172605 45.008809 -101.625288 1177.416690 19.502883 0.000000 0.196488
611.000000 52.867000 4.000000 7.000000 7.000000 88.557971 40.703729 49.118978 976.739811 18.927626 0.000000 0.120584
612.000000 53.352000 5.000000 7.000000 7.000000 95.012610 36.263316 185.443705 823.920246 18.753835 0.000000 0.079307
613.000000 53.000000 6.000000 7.000000 7.000000 100.551800 31.736351 309.323420 705.266558 18.876746 0.000000 0.070937
614.000000 50.653000 8.000000 7.000000 7.000000 109.114494 22.644802 525.994180 536.837633 19.748871 0.000000 0.092424
615.000000 49.005000 9.000000 7.000000 7.000000 112.299942 18.192840 621.281471 476.353636 20.411678 0.000000 0.101753
616.000000 47.211000 10.000000 7.000000 7.000000 114.874202 13.871457 709.213037 426.999441 21.186629 0.000000 0.107515
617.000000 46.681000 4.000000 8.000000 7.000000 81.517753 38.815632 109.153614 1147.005066 21.439040 0.000000 0.132837
618.000000 47.601000 5.000000 8.000000 7.000000 87.807415 34.842661 225.766883 991.208786 21.022454 0.000000 0.101375
619.000000 47.767000 6.000000 8.000000 7.000000 93.316874 30.814758 333.024034 868.369880 20.947509 0.000000 0.095692
620.000000 47.348000 7.000000 8.000000 7.000000 98.077284 26.771025 432.007631 769.918362 21.131586 0.000000 0.102839
621.000000 46.497000 8.000000 8.000000 7.000000 102.140841 22.751491 523.639425 689.923933 21.516720 0.000000 0.112638
630.000000 57.192000 9.000000 4.000000 8.000000 137.527550 22.900801 520.337769 -335.301719 17.482868 0.000000 0.081278
631.000000 51.531000 11.000000 4.000000 8.000000 139.974068 9.310924 798.539336 -357.608553 19.403006 0.000000 0.026026
632.000000 46.384000 13.000000 4.000000 8.000000 140.312916 -2.313866 1018.489332 -357.055873 21.555938 0.000000 0.011374
635.000000 62.222000 5.000000 5.000000 8.000000 113.332489 46.439326 -156.774808 267.318136 16.074728 0.000000 0.211094
636.000000 60.842000 6.000000 5.000000 8.000000 118.897324 40.819810 45.318102 155.977480 16.438257 0.000000 0.135943
637.000000 58.917000 7.000000 5.000000 8.000000 123.418084 34.965293 222.341850 74.406481 16.974161 0.000000 0.084938
638.000000 56.668000 8.000000 5.000000 8.000000 126.985166 28.988257 378.688671 14.292042 17.646908 0.000000 0.052244
639.000000 54.258000 9.000000 5.000000 8.000000 129.707264 23.016183 517.781362 -30.091520 18.430105 0.000000 0.034486
640.000000 51.802000 10.000000 5.000000 8.000000 131.701941 17.175926 642.326761 -62.774424 19.303735 0.000000 0.028323
641.000000 49.374000 11.000000 5.000000 8.000000 133.087450 11.578282 754.493642 -86.647447 20.252345 0.000000 0.027839
642.000000 47.025000 12.000000 5.000000 8.000000 133.976003 6.307149 856.040083 -103.818500 21.263810 0.000000 0.028237
644.000000 55.795000 3.000000 6.000000 8.000000 91.448216 52.516407 -428.486001 896.285417 17.932823 0.000000 0.327400
645.000000 56.827000 5.000000 6.000000 8.000000 105.364384 43.327184 -40.212957 534.453490 17.603305 0.000000 0.124052
646.000000 54.710000 7.000000 6.000000 8.000000 115.487848 33.340188 266.925635 326.836344 18.281849 0.000000 0.019366
647.000000 51.085000 9.000000 6.000000 8.000000 122.273423 23.098489 515.955130 202.053591 19.577311 0.000000 0.032621
648.000000 47.000000 11.000000 6.000000 8.000000 126.429912 13.231088 721.941274 124.957815 21.277734 0.000000 0.054412
650.000000 49.707000 3.000000 7.000000 8.000000 84.526088 49.231697 -273.294377 1098.948689 20.131801 0.000000 0.259727
651.000000 51.076000 4.000000 7.000000 8.000000 91.644851 45.170428 -107.716355 897.160570 19.590117 0.000000 0.163437
652.000000 51.537000 5.000000 7.000000 8.000000 97.935983 40.937937 41.436561 742.385680 19.413069 0.000000 0.094781
653.000000 51.271000 6.000000 7.000000 8.000000 103.400282 36.571870 176.492899 621.722392 19.512242 0.000000 0.050821
654.000000 50.456000 7.000000 7.000000 8.000000 108.070010 32.118370 299.360905 526.379142 19.825669 0.000000 0.038240
655.000000 49.254000 8.000000 7.000000 8.000000 111.999328 27.629579 411.619270 450.194184 20.308627 0.000000 0.050117
656.000000 47.793000 9.000000 7.000000 8.000000 115.255883 23.160158 514.585331 388.744799 20.928032 0.000000 0.064598
657.000000 46.179000 10.000000 7.000000 8.000000 117.913979 18.763380 609.367004 338.790885 21.658882 0.000000 0.075572
658.000000 46.517000 5.000000 8.000000 8.000000 91.087674 39.051985 101.815990 914.686663 21.510813 0.000000 0.101014
659.000000 46.295000 7.000000 8.000000 8.000000 101.182112 31.167088 324.017738 692.347010 21.610465 0.000000 0.071565
673.000000 55.973000 7.000000 5.000000 9.000000 124.644396 41.123612 35.307283 -46.288838 17.866599 0.000000 0.181103
674.000000 54.130000 8.000000 5.000000 9.000000 128.459553 35.396911 210.204787 -107.731922 18.473982 0.000000 0.127896
675.000000 52.098000 9.000000 5.000000 9.000000 131.471366 29.543958 364.971450 -152.437600 19.193882 0.000000 0.089591
676.000000 49.979000 10.000000 5.000000 9.000000 133.765798 23.684202 502.893745 -184.711364 20.006934 0.000000 0.061975
677.000000 47.847000 11.000000 5.000000 9.000000 135.436281 17.937917 626.579690 -207.646099 20.897975 0.000000 0.041963
678.000000 45.752000 12.000000 5.000000 9.000000 136.578181 12.411985 738.125323 -223.498870 21.854962 0.000000 0.027357
681.000000 53.996000 5.000000 6.000000 9.000000 107.085989 48.171784 -227.577248 444.938335 18.525575 0.000000 0.225447
682.000000 52.364000 7.000000 6.000000 9.000000 117.264151 38.710551 112.400226 230.179142 19.100032 0.000000 0.094117
683.000000 50.946000 8.000000 6.000000 9.000000 121.167598 33.740698 256.095875 158.139469 19.630652 0.000000 0.055676
684.000000 47.534000 10.000000 6.000000 9.000000 126.907207 23.670970 503.190103 58.429609 21.038309 0.000000 0.025067
685.000000 45.709000 11.000000 6.000000 9.000000 128.891716 18.724218 610.187366 24.279160 21.877566 0.000000 0.028799
688.000000 49.033000 4.000000 7.000000 9.000000 94.071161 49.321814 -277.271617 823.473011 20.405001 0.000000 0.239978
689.000000 49.495000 5.000000 7.000000 9.000000 100.206672 45.326955 -113.648520 665.368842 20.212721 0.000000 0.154943
690.000000 49.325000 6.000000 7.000000 9.000000 105.601578 41.164746 33.944743 541.782798 20.280696 0.000000 0.091211
691.000000 48.666000 7.000000 7.000000 9.000000 110.272571 36.870766 167.753792 444.059723 20.554131 0.000000 0.043693
692.000000 47.646000 8.000000 7.000000 9.000000 114.256054 32.488693 289.623504 366.046261 20.992604 0.000000 0.010139
693.000000 46.378000 9.000000 7.000000 9.000000 117.602052 28.068043 401.083595 303.274630 21.565642 0.000000 0.019547
700.000000 46.218000 11.000000 5.000000 10.000000 137.122766 24.327570 488.410890 -331.110745 21.633924 0.000000 0.088563
702.000000 49.974000 7.000000 6.000000 10.000000 118.461777 43.746505 -55.201808 133.350763 20.012948 0.000000 0.184829
703.000000 47.428000 9.000000 6.000000 10.000000 125.841477 34.127321 245.545277 1.836406 21.085406 0.000000 0.092934
706.000000 47.357000 5.000000 7.000000 10.000000 101.941309 49.409171 -281.140949 591.164593 21.124671 0.000000 0.243784
707.000000 47.280000 6.000000 7.000000 10.000000 107.263365 45.478623 -119.427921 463.981579 21.157368 0.000000 0.167372
708.000000 46.766000 7.000000 7.000000 10.000000 111.931335 41.384494 26.636520 363.421439 21.388289 0.000000 0.109457
709.000000 45.921000 8.000000 7.000000 10.000000 115.967402 37.160436 159.218960 283.257593 21.780555 0.000000 0.066056
718.000000 45.521000 9.000000 6.000000 11.000000 126.815852 39.291951 94.315805 -99.968009 21.968280 0.000000 0.168566
#UB matrix in q= (UB) B0 G* 
#[[-0.796069835  0.074125226 -0.600055944]
# [-0.528227191  0.399320932  0.750103107]
# [ 0.295379167  0.914758274 -0.278961892]]
#B0 matrix in q= UB (B0) G*
#[[ 0.19670273 -0.          0.03056101]
# [ 0.          0.19187965 -0.        ]
# [ 0.          0.          0.18806537]]
#UBB0 matrix in q= (UB B0) G* i.e. recip. basis vectors are columns in LT frame: astar = UBB0[:,0], bstar = UBB0[:,1], cstar = UBB0[:,2]. (abcstar as columns on xyzlab1, xlab1 = ui, ui = unit vector along incident beam)
#[[-0.15658911  0.01422312 -0.13717844]
# [-0.10390373  0.07662156  0.12492526]
# [ 0.05810189  0.1755235  -0.04343599]]
#Euler angles phi theta psi (deg)
#[162.089 106.17   38.709]
#deviatoric strain in direct crystal frame (10-3 unit)
#[[-5.14 -0.14  0.92]
# [-0.14 -5.85  0.08]
# [ 0.92  0.08 10.99]]
#deviatoric strain in sample2 frame (10-3 unit)
#[[ 1.65 -7.79 -2.63]
# [-7.8   3.19  2.38]
# [-2.63  2.37 -4.84]]
#new lattice parameters
#[ 5.1505     5.2078932  5.3166868 89.9925677 99.175198  90.0158507]
#CCDLabel
#sCMOS
#DetectorParameters
#[79.0, 975.0, 941.0, 0.0, 0.0]
#pixelsize
#0.0734
#Frame dimensions
#[2018, 2016]
#
