#CCD Geometry Refinement from experimental file: /home/micha/lauetoolsgithub/LaueTools/Examples/Ge/Ge0001.dat
#File created at Wed Jun 14 12:38:11 2023 with DetectorCalibration.py
#Number of indexed spots: 83
#Element
#Si
#Mean Deviation(pixel): 0.609
#spot_index Itot h k l Xtheo Ytheo Xexp Yexp XdevCalib YdevCalib pixDevCalib 2theta_theo chi_theo Energy PeakAmplitude Imax PeakBkg PeakFwhm1 PeakFwhm2 PeakTilt XdevPeakFit YdevPeakFit
0.000000 70931.270000 -3.000000 3.000000 3.000000 1026.917620 1294.167980 1027.110000 1293.280000 -0.192380 0.887980 0.908580 78.199410 1.651350 9.404340 70931.270000 500.000000 271.350000 1.050000 1.000000 201.470000 0.400000 0.090000
1.000000 51933.840000 -2.000000 2.000000 4.000000 1378.885810 1554.076930 1379.170000 1553.580000 -0.284190 0.496930 0.572460 64.336380 -20.820650 10.502970 51933.840000 500.000000 219.830000 0.820000 0.850000 195.680000 0.580000 0.340000
2.000000 22795.070000 -3.000000 3.000000 5.000000 1288.242270 1460.277260 1288.110000 1460.160000 0.132270 0.117260 0.176760 68.712500 -15.374630 13.263120 22795.070000 500.000000 206.660000 0.560000 0.740000 134.120000 -0.020000 0.630000
3.000000 19489.690000 -5.000000 3.000000 3.000000 925.923760 872.940770 926.220000 872.060000 -0.296240 0.880770 0.929260 105.593140 8.204790 9.397270 19489.690000 500.000000 279.330000 0.650000 0.690000 182.310000 0.720000 0.060000
4.000000 19058.790000 -6.000000 4.000000 2.000000 595.638680 876.642240 595.460000 876.440000 0.178680 0.202240 0.269860 103.871870 27.859610 10.849050 19058.790000 500.000000 214.980000 0.740000 0.870000 189.560000 0.310000 0.740000
5.000000 17182.880000 -6.000000 2.000000 4.000000 1183.565100 599.406210 1183.270000 598.920000 0.295100 0.486210 0.568750 120.593480 -8.916500 9.833820 17182.880000 500.000000 212.930000 0.830000 0.760000 186.030000 0.120000 0.620000
6.000000 15825.390000 -4.000000 6.000000 2.000000 626.024290 1661.865120 626.120000 1661.280000 -0.095710 0.585120 0.592900 60.345280 26.490800 16.994770 15825.390000 500.000000 124.750000 0.740000 0.840000 200.000000 0.620000 0.280000
7.000000 15486.200000 -3.000000 5.000000 3.000000 856.395810 1702.673270 856.140000 1702.520000 0.255810 0.153270 0.298210 56.273660 12.946420 15.871930 15486.200000 500.000000 131.610000 0.830000 0.820000 214.140000 0.030000 0.240000
8.000000 13318.810000 -3.000000 1.000000 5.000000 1672.268460 1258.906960 1672.670000 1258.620000 -0.401540 0.286960 0.493540 82.103320 -35.876500 10.282320 13318.810000 500.000000 154.580000 0.930000 0.890000 87.130000 0.830000 0.780000
9.000000 13145.990000 -4.000000 2.000000 6.000000 1497.259110 1224.825520 1497.400000 1224.700000 -0.140890 0.125520 0.188700 83.390750 -27.450420 12.841360 13145.990000 500.000000 198.070000 0.830000 0.910000 137.930000 0.820000 0.820000
10.000000 11799.930000 -6.000000 4.000000 6.000000 1176.688880 1086.273590 1176.090000 1086.190000 0.598880 0.083590 0.604690 91.839140 -8.342890 14.905500 11799.930000 500.000000 289.110000 0.700000 0.680000 61.300000 0.090000 0.690000
11.000000 11662.160000 -5.000000 5.000000 3.000000 780.514920 1242.697260 780.270000 1242.530000 0.244920 0.167260 0.296580 81.979360 17.517340 13.366660 11662.160000 500.000000 243.960000 0.630000 0.630000 185.060000 0.090000 0.710000
12.000000 10727.930000 -6.000000 6.000000 4.000000 828.660390 1246.359200 828.680000 1246.060000 -0.019610 0.299200 0.299840 81.615620 14.550710 16.384370 10727.930000 500.000000 253.550000 0.790000 0.780000 157.070000 0.390000 0.560000
13.000000 10271.900000 -7.000000 3.000000 3.000000 819.653670 553.394630 819.910000 552.840000 -0.256330 0.554630 0.611000 122.283040 14.894590 10.667810 10271.900000 500.000000 182.460000 0.830000 0.800000 290.680000 0.410000 -0.160000
14.000000 10010.520000 -4.000000 2.000000 2.000000 873.504960 707.214920 873.560000 706.970000 -0.055040 0.244920 0.251030 114.949770 11.543650 6.632050 10010.520000 500.000000 223.670000 0.860000 0.870000 226.370000 0.280000 0.470000
15.000000 9107.770000 -3.000000 5.000000 5.000000 1085.687840 1726.735250 1085.800000 1725.830000 -0.112160 0.905250 0.912170 54.481370 -2.147950 19.154330 9107.770000 500.000000 122.720000 0.790000 0.790000 218.720000 0.300000 -0.170000
16.000000 8515.140000 -5.000000 1.000000 5.000000 1579.730870 755.123500 1579.390000 754.630000 0.340870 0.493500 0.599770 109.478490 -31.676390 9.983000 8515.140000 500.000000 163.190000 0.840000 0.890000 137.370000 0.180000 0.350000
17.000000 8262.020000 -5.000000 3.000000 5.000000 1216.119420 1043.086460 1216.490000 1042.280000 -0.370580 0.806460 0.887530 94.633220 -10.910450 11.926770 8262.020000 500.000000 278.300000 0.720000 0.620000 209.060000 0.610000 0.150000
18.000000 6598.440000 -7.000000 1.000000 5.000000 1481.535760 365.219490 1481.200000 364.840000 0.335760 0.379490 0.506710 127.798760 -26.756600 11.007610 6598.440000 500.000000 120.960000 0.790000 0.860000 51.790000 0.040000 0.380000
19.000000 6505.450000 -5.000000 5.000000 1.000000 399.812560 1297.685280 399.870000 1297.190000 -0.057440 0.495280 0.498600 80.509580 37.219060 12.614680 6505.450000 500.000000 135.930000 0.840000 0.800000 16.530000 0.370000 0.690000
20.000000 6137.870000 -3.000000 3.000000 1.000000 547.842020 1260.545570 548.250000 1260.320000 -0.407980 0.225570 0.466180 81.785420 30.405450 7.600130 6137.870000 500.000000 177.030000 0.770000 0.880000 186.160000 0.630000 0.710000
21.000000 5781.180000 -5.000000 3.000000 7.000000 1396.895960 1217.632680 1396.710000 1217.560000 0.185960 0.072680 0.199660 83.560070 -21.928400 15.607630 5781.180000 500.000000 219.560000 0.740000 0.780000 238.140000 0.580000 0.680000
22.000000 5481.590000 -6.000000 2.000000 8.000000 1573.503870 1074.106190 1573.490000 1073.130000 0.013870 0.976190 0.976290 92.182140 -31.332060 16.157230 5481.590000 500.000000 178.570000 0.840000 0.660000 44.490000 0.690000 0.130000
23.000000 5182.440000 -5.000000 5.000000 7.000000 1199.398500 1388.074550 1199.060000 1387.530000 0.338500 0.544550 0.641180 72.526540 -9.743930 19.200620 5182.440000 500.000000 222.650000 0.640000 0.690000 201.160000 0.060000 0.240000
24.000000 5055.990000 -8.000000 2.000000 6.000000 1352.357340 568.457690 1352.760000 568.030000 -0.402660 0.427690 0.587410 120.852750 -19.457270 13.384000 5055.990000 500.000000 166.290000 0.620000 0.780000 113.480000 0.870000 0.360000
25.000000 4950.230000 -8.000000 6.000000 2.000000 467.343820 985.051120 467.050000 984.600000 0.293820 0.451120 0.538370 97.255910 34.162520 15.511510 4950.230000 500.000000 165.340000 0.790000 0.710000 189.480000 0.050000 0.400000
26.000000 4761.410000 -7.000000 7.000000 3.000000 639.335620 1247.041380 638.870000 1246.590000 0.465620 0.451380 0.648500 82.192250 25.647430 17.962300 4761.410000 500.000000 200.160000 0.670000 0.620000 249.290000 -0.130000 0.310000
27.000000 4673.940000 -7.000000 5.000000 5.000000 966.894980 1020.816620 967.150000 1019.900000 -0.255020 0.916620 0.951440 96.232140 5.557470 15.254690 4673.940000 500.000000 288.970000 0.760000 0.770000 344.490000 0.650000 -0.100000
28.000000 4649.480000 -8.000000 6.000000 6.000000 977.012240 1061.028070 977.500000 1060.310000 -0.487760 0.718070 0.868060 93.583690 4.900370 18.262850 4649.480000 500.000000 293.710000 0.700000 0.770000 339.850000 0.780000 0.310000
29.000000 4413.680000 -7.000000 5.000000 3.000000 702.445030 951.107640 702.520000 949.880000 -0.074970 1.227640 1.229920 100.100550 22.035460 13.564860 4413.680000 500.000000 227.750000 0.700000 0.850000 331.090000 0.230000 -0.120000
30.000000 4400.610000 -5.000000 3.000000 1.000000 383.932210 755.207390 383.770000 754.580000 0.162210 0.627390 0.648020 108.436550 37.741160 8.323940 4400.610000 500.000000 132.660000 0.970000 0.880000 307.470000 -0.230000 0.380000
31.000000 4305.200000 -8.000000 4.000000 8.000000 1283.709110 976.563020 1283.340000 976.690000 0.369110 -0.126980 1.322400 98.756350 -15.202340 18.045790 4305.200000 500.000000 257.110000 0.690000 0.700000 11.130000 0.220000 0.820000
32.000000 4170.570000 -9.000000 3.000000 3.000000 707.314040 261.641070 707.200000 261.110000 0.114040 0.531070 0.543180 132.715170 21.541880 12.397690 4170.570000 500.000000 108.160000 0.760000 0.840000 188.930000 0.200000 0.110000
33.000000 4160.120000 -7.000000 3.000000 5.000000 1141.312730 749.212430 1140.930000 748.400000 0.382730 0.812430 0.898070 112.893570 -6.110370 12.478130 4160.120000 500.000000 233.890000 0.830000 0.800000 342.240000 -0.070000 0.400000
34.000000 4044.720000 -5.000000 7.000000 3.000000 701.287240 1560.605150 701.050000 1560.170000 0.237240 0.435150 0.495620 64.382000 22.290890 19.519600 4044.720000 500.000000 143.900000 0.850000 0.870000 145.340000 0.050000 0.170000
35.000000 3856.170000 -5.000000 1.000000 7.000000 1730.096130 1064.327160 1730.330000 1063.320000 -0.233870 1.007160 1.033960 92.478860 -38.349190 13.686770 3856.170000 500.000000 135.190000 0.720000 0.770000 248.990000 0.620000 0.320000
36.000000 3693.430000 -9.000000 5.000000 5.000000 905.122150 804.712670 905.640000 804.810000 -0.517850 -0.097330 1.102480 109.615830 9.537430 15.986160 3693.430000 500.000000 243.710000 0.620000 0.630000 157.560000 0.810000 0.970000
37.000000 3277.590000 -10.000000 4.000000 6.000000 1055.349200 635.193280 1055.140000 634.640000 0.209200 0.553280 0.591510 119.142220 -0.436970 16.320530 3277.590000 500.000000 206.850000 0.810000 0.770000 10.770000 0.140000 0.350000
38.000000 3232.590000 -10.000000 6.000000 4.000000 703.229720 801.383630 703.420000 801.020000 -0.190280 0.363630 0.410410 108.764900 21.944020 17.311010 3232.590000 500.000000 207.120000 0.750000 0.740000 170.490000 0.140000 0.020000
39.000000 3125.110000 -7.000000 5.000000 1.000000 289.934310 946.600880 289.690000 945.970000 0.244310 0.630880 0.676530 98.497790 41.504580 13.048720 3125.110000 500.000000 120.300000 0.870000 0.840000 242.730000 -0.310000 -0.030000
40.000000 3088.730000 -7.000000 5.000000 7.000000 1150.855950 1116.676100 1151.050000 1115.850000 -0.194050 0.826100 0.848580 89.839570 -6.640680 17.927770 3088.730000 500.000000 284.220000 0.890000 0.680000 6.540000 0.550000 -0.150000
41.000000 2830.160000 -7.000000 3.000000 7.000000 1339.530470 927.379260 1339.110000 926.870000 0.420470 0.509260 0.660410 101.597140 -18.619610 15.236320 2830.160000 500.000000 235.410000 0.910000 0.870000 338.130000 0.110000 0.590000
42.000000 2775.350000 -10.000000 2.000000 8.000000 1458.491040 557.294610 1458.760000 556.690000 -0.268960 0.604610 0.661740 120.246560 -25.487920 17.062230 2775.350000 500.000000 146.050000 0.710000 0.630000 187.820000 0.960000 0.290000
43.000000 2670.740000 -7.000000 7.000000 5.000000 861.066830 1250.443120 861.480000 1250.420000 -0.413170 0.023120 0.413810 81.275100 12.507420 19.437490 2670.740000 500.000000 252.320000 0.780000 0.690000 354.000000 0.680000 0.820000
44.000000 2634.420000 -7.000000 7.000000 1.000000 327.810290 1321.814490 327.890000 1321.030000 -0.079710 0.784490 0.788530 79.702980 40.152590 17.723320 2634.420000 500.000000 115.060000 0.710000 0.790000 166.790000 0.390000 0.030000
45.000000 2612.620000 -9.000000 5.000000 3.000000 621.476590 713.702090 621.540000 713.500000 -0.063410 0.202090 0.211810 112.760230 26.447110 14.699240 2612.620000 500.000000 171.030000 0.630000 0.840000 4.220000 0.340000 0.900000
46.000000 2377.760000 -5.000000 1.000000 3.000000 1275.014790 307.881580 1274.860000 306.950000 0.154790 0.931580 0.944360 132.146350 -14.813610 7.387660 2377.760000 500.000000 118.090000 0.790000 0.980000 326.560000 0.360000 -0.050000
47.000000 2278.070000 -9.000000 3.000000 7.000000 1280.292010 692.198590 1280.510000 691.440000 -0.217990 0.758590 0.789290 115.333220 -15.054430 15.926710 2278.070000 500.000000 203.700000 0.560000 0.830000 311.620000 0.910000 0.240000
48.000000 2195.880000 -9.000000 3.000000 5.000000 1063.355830 498.444300 1063.250000 497.790000 0.105830 0.654300 0.662800 125.608220 -1.009580 13.761880 2195.880000 500.000000 167.040000 0.850000 0.840000 56.410000 0.250000 0.500000
49.000000 2124.740000 -5.000000 3.000000 9.000000 1520.314550 1383.095320 1520.650000 1382.650000 -0.335450 0.445320 0.557520 74.533760 -28.625190 20.214550 2124.740000 500.000000 155.240000 0.700000 0.730000 28.000000 0.850000 0.250000
50.000000 2077.070000 -7.000000 1.000000 9.000000 1766.333480 958.597980 1765.960000 958.470000 0.373480 0.127980 0.394800 97.788610 -39.814920 17.338170 2077.070000 500.000000 137.040000 0.650000 0.670000 157.710000 -0.040000 0.720000
51.000000 2052.310000 -7.000000 1.000000 7.000000 1660.851220 706.695170 1660.860000 706.310000 -0.008780 0.385170 0.385270 111.014040 -35.433870 13.779620 2052.310000 500.000000 131.510000 0.750000 0.820000 208.100000 0.460000 0.510000
52.000000 1952.150000 -9.000000 5.000000 7.000000 1101.182220 907.829550 1101.370000 907.290000 -0.187780 0.539550 0.571290 103.499730 -3.410480 18.095540 1952.150000 500.000000 272.950000 0.760000 0.710000 181.150000 0.770000 0.090000
53.000000 1878.930000 -4.000000 6.000000 6.000000 1075.934390 1633.071720 1075.860000 1633.060000 0.074390 0.011720 0.075310 58.844260 -1.523390 21.797030 1878.930000 500.000000 144.120000 0.690000 0.730000 15.920000 0.360000 0.560000
54.000000 1877.760000 -7.000000 3.000000 9.000000 1473.924970 1089.087350 1473.720000 1088.400000 0.204970 0.687350 0.717270 91.421840 -26.232590 18.799660 1877.760000 500.000000 204.750000 0.820000 0.690000 178.740000 0.320000 0.200000
55.000000 1746.380000 -5.000000 1.000000 9.000000 1819.700340 1305.642940 1819.620000 1305.460000 0.080340 0.182940 0.199800 80.423520 -41.826020 18.288100 1746.380000 500.000000 102.990000 0.770000 0.880000 113.670000 0.220000 0.660000
56.000000 1676.950000 -8.000000 2.000000 10.000000 1626.654000 982.977050 1626.900000 982.640000 -0.246000 0.337050 0.417280 97.119610 -33.859340 19.735480 1676.950000 500.000000 159.030000 0.710000 0.710000 338.960000 0.400000 0.140000
57.000000 1646.400000 -9.000000 7.000000 3.000000 575.901940 1017.696750 576.200000 1016.970000 -0.298060 0.726750 0.785490 95.764360 28.920240 18.142180 1646.400000 500.000000 191.850000 0.780000 0.840000 17.160000 0.700000 -0.030000
58.000000 1591.710000 -8.000000 8.000000 4.000000 701.487670 1242.504580 701.500000 1242.550000 -0.012330 -0.045420 0.454400 82.241420 22.180690 20.827530 1591.710000 500.000000 215.030000 0.820000 0.780000 2.030000 0.100000 0.750000
59.000000 1576.400000 -3.000000 1.000000 3.000000 1426.325140 858.897490 1426.670000 858.780000 -0.344860 0.117490 0.364320 105.157230 -23.662860 6.264740 1576.400000 500.000000 203.380000 0.830000 0.920000 345.270000 0.840000 0.940000
60.000000 1466.190000 -5.000000 7.000000 5.000000 911.249690 1538.087670 911.320000 1538.140000 -0.070310 -0.052330 0.527960 64.060170 9.367610 21.413760 1466.190000 500.000000 172.410000 0.790000 0.770000 256.120000 0.820000 0.640000
61.000000 1399.400000 -11.000000 5.000000 5.000000 841.371790 613.917180 841.450000 613.020000 -0.078210 0.897180 0.900580 119.558110 13.554220 17.273820 1399.400000 500.000000 186.410000 0.750000 0.780000 180.310000 0.200000 0.020000
62.000000 1361.220000 -11.000000 3.000000 7.000000 1218.986780 482.453020 1219.190000 482.300000 -0.203220 0.153020 0.254390 125.752510 -11.232730 17.158320 1361.220000 500.000000 155.430000 0.750000 0.740000 74.680000 0.690000 0.800000
63.000000 1343.440000 -9.000000 1.000000 7.000000 1588.353800 404.072120 1588.650000 403.050000 -0.296200 1.022120 1.064170 124.875060 -32.136220 14.736810 1343.440000 500.000000 103.190000 0.780000 0.870000 347.850000 0.900000 0.050000
64.000000 1331.830000 -6.000000 8.000000 2.000000 521.739430 1575.113130 521.920000 1574.920000 -0.180570 0.193130 0.264400 65.573000 31.775170 21.496110 1331.830000 500.000000 110.930000 0.760000 0.770000 341.010000 0.420000 0.420000
65.000000 1277.200000 -9.000000 7.000000 5.000000 809.907930 1039.878620 810.650000 1039.110000 -0.742070 0.768620 1.068380 94.861340 15.652120 19.295980 1277.200000 500.000000 259.740000 0.770000 0.910000 70.510000 0.900000 0.110000
66.000000 1253.580000 -11.000000 3.000000 5.000000 981.938670 264.532030 982.110000 264.380000 -0.171330 0.152030 0.229060 134.568170 4.333550 15.405710 1253.580000 500.000000 112.580000 0.840000 0.840000 281.470000 0.610000 0.880000
67.000000 1183.420000 -11.000000 5.000000 3.000000 537.260290 497.661370 537.370000 496.910000 -0.109710 0.751370 0.759340 121.753470 30.706100 16.267310 1183.420000 500.000000 120.540000 0.790000 0.900000 259.050000 0.120000 -0.090000
68.000000 1105.270000 -10.000000 8.000000 2.000000 393.487000 1057.910310 393.710000 1057.160000 -0.223000 0.750310 0.782750 93.156800 37.421770 20.369440 1105.270000 500.000000 141.270000 0.860000 0.640000 285.180000 0.210000 0.160000
69.000000 1055.910000 -9.000000 7.000000 1.000000 245.202030 1050.644310 245.420000 1050.380000 -0.217970 0.264310 0.342600 93.283720 43.160290 17.968230 1055.910000 500.000000 109.290000 0.870000 0.850000 10.090000 0.090000 0.720000
70.000000 1019.630000 -11.000000 5.000000 7.000000 1050.204930 728.786180 1050.010000 728.620000 0.194930 0.166180 0.256150 114.174890 -0.067090 18.986550 1019.630000 500.000000 229.500000 0.620000 0.900000 271.630000 0.010000 0.120000
71.000000 943.570000 -12.000000 6.000000 2.000000 297.276560 544.601560 296.950000 544.570000 0.326560 0.031560 0.328080 116.660670 41.127920 18.192130 943.570000 500.000000 94.180000 0.830000 0.970000 150.910000 -0.050000 0.820000
72.000000 887.260000 -11.000000 7.000000 3.000000 510.654780 824.462900 510.170000 824.170000 0.484780 0.292900 0.566400 106.088060 32.091990 19.110690 887.260000 500.000000 160.140000 0.730000 0.760000 317.700000 0.170000 0.670000
73.000000 860.610000 -7.000000 5.000000 9.000000 1286.213230 1221.932240 1285.920000 1221.220000 0.293230 0.712240 0.770240 83.063810 -15.302420 21.432750 860.610000 500.000000 242.820000 0.580000 0.670000 87.470000 -0.080000 0.220000
74.000000 797.370000 -10.000000 6.000000 8.000000 1090.090280 955.834790 1090.080000 954.930000 0.010280 0.904790 0.904850 100.454250 -2.659410 21.002550 797.370000 500.000000 280.010000 0.820000 0.810000 76.780000 0.580000 -0.070000
75.000000 772.050000 -9.000000 1.000000 9.000000 1711.032710 678.445500 1711.330000 678.470000 -0.297290 -0.024500 0.385210 111.769670 -37.596220 17.601900 772.050000 500.000000 116.630000 0.920000 0.940000 156.430000 0.670000 0.800000
76.000000 708.970000 -11.000000 3.000000 9.000000 1377.373160 660.575270 1377.040000 659.840000 0.333160 0.735270 0.807230 116.188350 -20.907120 19.531040 708.970000 500.000000 176.810000 0.750000 0.710000 192.030000 0.040000 -0.160000
77.000000 706.880000 -13.000000 5.000000 5.000000 775.483080 435.105290 775.110000 434.930000 0.373080 0.175290 0.412210 127.026500 17.568700 18.872550 706.880000 500.000000 136.170000 0.850000 0.600000 354.940000 0.110000 0.430000
78.000000 703.030000 -11.000000 7.000000 5.000000 757.534680 864.438230 757.840000 863.720000 -0.305320 0.718230 0.780430 105.488790 18.782820 20.025590 703.030000 500.000000 226.880000 0.690000 0.820000 356.500000 0.340000 -0.280000
79.000000 655.210000 -9.000000 7.000000 7.000000 984.209560 1090.779700 983.890000 1090.230000 0.319560 0.549700 0.635840 91.609470 4.432370 21.299840 655.210000 500.000000 290.270000 0.740000 0.610000 177.720000 -0.110000 0.230000
80.000000 646.940000 -14.000000 4.000000 6.000000 925.592100 261.055170 925.430000 261.100000 0.162100 -0.044830 0.476700 134.492170 8.037620 19.492280 646.940000 500.000000 111.420000 0.810000 0.910000 208.360000 0.430000 0.600000
81.000000 550.970000 -9.000000 5.000000 9.000000 1244.795320 1013.811390 1244.110000 1013.220000 0.685320 0.591390 0.905210 96.480560 -12.749910 20.924940 550.970000 500.000000 264.450000 0.550000 0.890000 79.260000 0.110000 0.220000
82.000000 492.940000 -12.000000 2.000000 10.000000 1531.389030 552.968630 1530.970000 552.130000 0.419030 0.838630 0.937490 119.566820 -29.313510 20.801610 492.940000 500.000000 130.470000 0.860000 0.650000 4.260000 -0.030000 0.130000
#UB matrix in q= (UB) B0 G* 
#[[ 0.972946009  0.092358916 -0.211768494]
# [-0.22481836   0.589652848 -0.775735924]
# [ 0.053223766  0.802358616  0.594464365]]
#Umatrix in q_lab= (Umatrix) (B) B0 G* 
#[[ 0.972946009  0.092358916 -0.211768494]
# [-0.22481836   0.589652848 -0.775735924]
# [ 0.053223766  0.802358616  0.594464365]]
#Bmatrix in q_lab= (U) (Bmatrix) B0 G* 
#[[ 1. -0. -0.]
# [-0.  1.  0.]
# [-0. -0.  1.]]
#(B-I)*1000 
#[[ 0. -0. -0.]
# [-0.  0.  0.]
# [-0. -0.  0.]]
#HKL coord. of lab and sample frame axes :
#HKLx_lab_LT	[ 1.     0.095 -0.218]
#HKLy_lab_LT	[-0.29  0.76 -1.  ]
#HKLz_lab_LT	[0.066 1.    0.741]
#HKLx_sample_LT	[1.    0.752 0.282]
#HKLy_sample_LT	[-0.29  0.76 -1.  ]
#HKLz_sample_LT	[-0.988  0.939  1.   ]
#B0 matrix in q= UB (B0) G*
#[[ 0.18413154 -0.         -0.        ]
# [ 0.          0.18413154 -0.        ]
# [ 0.          0.          0.18413154]]
#UBB0 matrix in q= (UB B0) G* i.e. recip. basis vectors are columns in LT frame: astar = UBB0[:,0], bstar = UBB0[:,1], cstar = UBB0[:,2]. (abcstar as columns on xyzlab1, xlab1 = ui, ui = unit vector along incident beam)
#[[ 0.17915005  0.01700619 -0.03899326]
# [-0.04139615  0.10857369 -0.14283745]
# [ 0.00980017  0.14773953  0.10945964]]
#Euler angles phi theta psi (deg)
#[176.205  53.526 164.731]
#CCDLabel
#MARCCD165
#DetectorParameters
#[67.956, 1050.888, 1116.941, 0.15, -0.249]
#pixelsize
#0.079142
#Frame dimensions
#(2048, 2048)
#
