#CCD Geometry Refinement from experimental file: /home/micha/lauetoolsgithub/LaueTools/LaueImages/AH12_CMT_r14_0200_LT_0.dat
#File created at Tue Oct  8 13:02:42 2024 with DetectorCalibration.py
#Number of indexed spots: 71
#Element
#Si
#Mean Deviation(pixel): 0.244
#spot_index Itot h k l Xtheo Ytheo Xexp Yexp XdevCalib YdevCalib pixDevCalib 2theta_theo chi_theo Energy PeakAmplitude Imax PeakBkg PeakFwhm1 PeakFwhm2 PeakTilt XdevPeakFit YdevPeakFit XfitEerr YfitErr
0.000000 20395.610000 -4.000000 6.000000 6.000000 871.024320 1551.094330 870.910000 1551.470000 0.114320 -0.375670 0.392680 64.344000 8.140100 20.109530 20395.610000 20830.000000 1071.860000 1.060000 0.890000 22.502000 -0.090000 0.470000 0.006000 0.005000
1.000000 17926.930000 -2.000000 6.000000 4.000000 536.686850 1670.217200 536.470000 1670.310000 0.216850 -0.092800 0.235870 61.407220 24.924830 16.728830 17926.930000 19286.000000 1055.150000 1.280000 1.050000 10.567000 0.470000 0.310000 0.010000 0.010000
2.000000 17602.870000 -3.000000 3.000000 3.000000 1021.454050 1241.952160 1021.480000 1242.390000 -0.025950 -0.437840 0.438610 79.400410 -0.053870 9.285100 17602.870000 17261.000000 1156.690000 0.970000 1.080000 159.481000 0.480000 0.390000 0.013000 0.014000
3.000000 16339.320000 -6.000000 4.000000 6.000000 1245.490690 1367.105160 1245.630000 1367.400000 -0.139310 -0.294840 0.326090 73.297880 -12.213990 17.938330 16339.320000 14802.000000 1063.230000 0.840000 0.940000 17.188000 -0.370000 0.400000 0.004000 0.004000
4.000000 14729.760000 -3.000000 5.000000 5.000000 840.362990 1635.178460 840.150000 1635.560000 0.212990 -0.381540 0.436970 60.828370 9.783170 17.318610 14729.760000 15506.000000 1056.300000 0.950000 1.050000 236.598000 0.150000 -0.440000 0.008000 0.010000
5.000000 14104.590000 -5.000000 3.000000 5.000000 1294.962670 1405.717200 1295.070000 1405.960000 -0.107330 -0.242800 0.265470 71.599780 -14.796540 14.988310 14104.590000 15991.000000 1057.700000 0.920000 0.830000 317.290000 0.070000 -0.040000 0.006000 0.005000
6.000000 10358.260000 -8.000000 2.000000 6.000000 1674.722760 1379.364620 1674.750000 1379.130000 -0.027240 0.234620 0.236200 74.942180 -32.165900 19.133970 10358.260000 12024.000000 1037.160000 0.960000 0.890000 259.002000 -0.250000 0.130000 0.009000 0.008000
7.000000 9440.830000 -2.000000 4.000000 2.000000 521.710180 1184.217730 521.560000 1184.320000 0.150180 -0.102270 0.181700 83.168350 25.581950 8.425020 9440.830000 9887.000000 1052.220000 1.040000 0.910000 321.428000 -0.440000 0.320000 0.011000 0.010000
9.000000 8994.180000 -4.000000 2.000000 2.000000 1444.850760 770.341770 1444.930000 770.350000 -0.079240 -0.008230 0.079670 103.835790 -22.049410 7.104120 8994.180000 10042.000000 1054.470000 0.860000 1.060000 358.145000 -0.070000 0.350000 0.006000 0.007000
10.000000 8766.220000 -5.000000 1.000000 5.000000 1631.413230 1805.730980 1631.450000 1805.190000 -0.036770 0.540980 0.542220 57.855430 -30.537240 16.852080 8766.220000 9895.000000 1026.520000 1.110000 1.020000 282.494000 0.450000 0.190000 0.011000 0.011000
11.000000 8544.870000 -7.000000 3.000000 7.000000 1430.354550 1535.441710 1430.540000 1535.470000 -0.185450 -0.028290 0.187600 66.440760 -21.548320 21.551200 8544.870000 8088.000000 1035.630000 0.780000 0.990000 190.252000 0.540000 0.470000 0.007000 0.007000
12.000000 8534.850000 -6.000000 8.000000 6.000000 830.266750 1188.990890 830.360000 1189.310000 -0.093250 -0.319110 0.332450 82.341350 10.350690 20.220530 8534.850000 8691.000000 1069.340000 0.890000 0.930000 321.835000 0.360000 0.310000 0.004000 0.005000
13.000000 8384.040000 -6.000000 6.000000 4.000000 944.722300 889.963190 944.750000 890.140000 -0.027700 -0.176810 0.178970 98.520250 4.195780 14.132050 8384.040000 9906.000000 1091.880000 1.000000 0.990000 354.659000 -0.250000 0.140000 0.008000 0.009000
14.000000 8101.490000 -3.000000 7.000000 5.000000 626.604560 1552.996120 626.330000 1553.330000 0.274560 -0.333880 0.432270 65.482500 20.713400 19.227160 8101.490000 8557.000000 1037.670000 1.180000 0.870000 12.285000 0.330000 0.330000 0.006000 0.006000
16.000000 7680.810000 -6.000000 2.000000 4.000000 1608.453740 1164.254720 1608.570000 1164.200000 -0.116260 0.054720 0.128490 84.470500 -29.420570 12.707520 7680.810000 8519.000000 1048.470000 0.970000 1.120000 201.221000 -0.430000 0.200000 0.010000 0.009000
17.000000 7359.960000 -1.000000 5.000000 3.000000 393.907650 1905.284650 393.540000 1904.710000 0.367650 0.574650 0.682200 54.625470 31.070510 14.716880 7359.960000 8279.000000 1029.950000 0.960000 1.470000 134.803000 0.540000 -0.290000 0.012000 0.012000
18.000000 6464.780000 -5.000000 7.000000 5.000000 795.361100 1183.839990 795.290000 1184.170000 0.071100 -0.330010 0.337580 82.657730 12.196560 17.197820 6464.780000 7566.000000 1062.960000 0.880000 0.930000 347.219000 0.290000 0.170000 0.006000 0.006000
19.000000 5756.440000 -8.000000 6.000000 6.000000 1167.131010 1038.272990 1167.220000 1038.710000 -0.088990 -0.437010 0.445980 90.493600 -7.976450 18.744400 5756.440000 6869.000000 1073.430000 0.960000 0.900000 320.296000 0.220000 -0.290000 0.008000 0.007000
21.000000 5608.940000 -7.000000 5.000000 7.000000 1211.170740 1342.832910 1211.210000 1343.170000 -0.039260 -0.337090 0.339370 74.407400 -10.392930 20.936200 5608.940000 6686.000000 1050.510000 0.790000 0.890000 7.755000 0.210000 0.170000 0.004000 0.004000
22.000000 5209.230000 -7.000000 3.000000 5.000000 1481.531620 1154.114000 1481.670000 1154.160000 -0.138380 -0.046000 0.145830 84.685970 -23.851160 15.438600 5209.230000 6143.000000 1044.640000 0.840000 0.980000 197.901000 -0.330000 0.160000 0.006000 0.006000
23.000000 5128.760000 -7.000000 1.000000 5.000000 1831.815080 1474.644710 1831.700000 1474.100000 0.115080 0.544710 0.556740 72.120050 -37.973360 16.793310 5128.760000 6496.000000 1022.960000 0.940000 1.050000 11.299000 -0.300000 0.100000 0.011000 0.010000
24.000000 4969.230000 -7.000000 5.000000 5.000000 1195.708040 1004.969450 1195.950000 1005.120000 -0.241960 -0.150550 0.284970 92.297690 -9.503400 15.748770 4969.230000 6404.000000 1065.870000 0.870000 0.990000 8.304000 -0.050000 0.120000 0.007000 0.008000
25.000000 4953.790000 -6.000000 10.000000 4.000000 509.919690 916.978560 509.890000 916.980000 0.029690 -0.001440 0.029730 96.321820 26.096070 18.888740 4953.790000 6224.000000 1045.680000 0.900000 0.930000 356.871000 -0.110000 -0.020000 0.006000 0.005000
27.000000 4724.350000 -8.000000 8.000000 4.000000 884.945790 676.619300 884.960000 676.680000 -0.014210 -0.060700 0.062340 109.336560 7.458800 16.789510 4724.350000 5664.000000 1061.690000 0.900000 0.900000 213.258000 -0.040000 -0.320000 0.006000 0.006000
28.000000 4710.980000 -10.000000 4.000000 6.000000 1548.574210 1002.616700 1548.700000 1002.450000 -0.125790 0.166700 0.208830 92.235900 -26.820620 19.524320 4710.980000 4968.000000 1041.870000 0.860000 0.930000 17.965000 -0.300000 0.450000 0.005000 0.006000
29.000000 4650.960000 -3.000000 7.000000 3.000000 395.523070 1205.567690 395.500000 1205.600000 0.023070 -0.032310 0.039710 82.495100 30.957560 14.170830 4650.960000 5337.000000 1035.960000 0.950000 1.210000 326.530000 0.500000 -0.400000 0.007000 0.007000
32.000000 3936.870000 -1.000000 3.000000 1.000000 184.238070 1266.101440 184.190000 1265.870000 0.048070 0.231440 0.236380 80.600310 38.757640 5.853040 3936.870000 5148.000000 1024.270000 1.110000 1.070000 47.443000 0.190000 -0.130000 0.009000 0.009000
33.000000 3934.860000 -9.000000 5.000000 7.000000 1342.611460 1157.984080 1342.640000 1158.210000 -0.028540 -0.225920 0.227710 84.231160 -17.163920 21.190140 3934.860000 4696.000000 1049.390000 0.780000 0.880000 200.885000 -0.360000 0.210000 0.005000 0.005000
34.000000 3697.490000 -1.000000 7.000000 3.000000 151.910320 1873.360340 151.840000 1872.350000 0.070320 1.010340 1.012780 58.503210 39.887190 17.942450 3697.490000 5092.000000 1019.920000 1.220000 1.240000 197.647000 -0.160000 0.350000 0.017000 0.016000
35.000000 3579.610000 -10.000000 6.000000 4.000000 1320.160820 541.764000 1320.120000 541.730000 0.040820 0.034000 0.053120 114.936990 -15.894600 16.691470 3579.610000 4628.000000 1044.450000 1.010000 0.870000 99.919000 0.120000 -0.270000 0.006000 0.005000
36.000000 3547.980000 -9.000000 3.000000 7.000000 1568.603710 1327.749870 1568.750000 1327.750000 -0.146290 -0.000130 0.146290 76.641940 -27.773540 21.702970 3547.980000 4586.000000 1030.910000 0.870000 0.850000 173.512000 -0.250000 -0.250000 0.007000 0.007000
37.000000 3529.240000 -9.000000 3.000000 3.000000 1830.133760 514.492530 1829.800000 514.270000 0.333760 0.222530 0.401140 112.008210 -37.662990 13.698480 3529.240000 4689.000000 1024.780000 1.060000 1.080000 269.791000 -0.200000 0.270000 0.011000 0.011000
38.000000 3443.370000 -5.000000 9.000000 5.000000 605.576450 1176.972980 605.610000 1177.210000 -0.033550 -0.237020 0.239390 83.340630 21.715130 19.650160 3443.370000 4313.000000 1044.440000 0.850000 1.000000 125.894000 -0.390000 0.210000 0.005000 0.005000
39.000000 3325.770000 -7.000000 9.000000 5.000000 758.720970 933.035380 758.680000 933.170000 0.040970 -0.134620 0.140720 96.010440 14.115570 19.120820 3325.770000 4304.000000 1059.760000 0.840000 0.960000 326.930000 -0.320000 0.170000 0.005000 0.005000
41.000000 3264.780000 -6.000000 8.000000 2.000000 485.844860 489.359330 485.820000 489.300000 0.024860 0.059330 0.064330 115.312020 27.132000 13.778000 3264.780000 4289.000000 1038.910000 1.150000 1.060000 142.962000 -0.180000 0.300000 0.009000 0.009000
43.000000 3117.200000 -5.000000 7.000000 3.000000 628.973200 825.042420 628.860000 825.130000 0.113200 -0.087580 0.143120 101.202640 20.593960 13.457080 3117.200000 4302.000000 1075.130000 1.020000 1.110000 143.443000 -0.140000 0.130000 0.029000 0.032000
45.000000 2911.890000 -10.000000 8.000000 6.000000 1101.966610 831.054710 1102.170000 831.200000 -0.203390 -0.145290 0.249960 101.656730 -4.407060 20.821830 2911.890000 4037.000000 1059.180000 0.930000 0.800000 293.872000 0.170000 0.200000 0.007000 0.006000
46.000000 2836.940000 -5.000000 9.000000 3.000000 397.063380 879.616330 396.960000 879.510000 0.103380 0.106330 0.148310 97.764030 30.873380 16.247930 2836.940000 3616.000000 1033.380000 0.880000 1.050000 149.483000 -0.040000 -0.490000 0.005000 0.006000
47.000000 2824.260000 -9.000000 7.000000 5.000000 1116.137300 771.928200 1116.350000 772.050000 -0.212700 -0.121800 0.245100 104.701760 -5.169200 17.948110 2824.260000 3889.000000 1055.700000 0.800000 0.960000 177.882000 0.350000 0.050000 0.006000 0.007000
49.000000 2700.200000 -9.000000 3.000000 5.000000 1660.181610 984.047330 1660.250000 983.850000 -0.068390 0.197330 0.208840 93.016640 -31.484840 16.872390 2700.200000 3775.000000 1031.250000 0.960000 0.960000 210.279000 0.250000 -0.150000 0.010000 0.009000
50.000000 2661.700000 -7.000000 7.000000 3.000000 851.968480 570.929940 851.980000 570.950000 -0.011520 -0.020060 0.023130 114.165990 9.235030 14.065090 2661.700000 3909.000000 1057.800000 1.040000 0.940000 208.721000 -0.020000 -0.050000 0.009000 0.008000
52.000000 2561.570000 -3.000000 3.000000 1.000000 798.033600 409.938670 798.000000 409.840000 0.033600 0.098670 0.104240 120.719230 12.094800 5.724450 2561.570000 3736.000000 1049.690000 0.940000 0.870000 210.055000 0.000000 -0.160000 0.006000 0.006000
53.000000 2559.140000 -10.000000 10.000000 4.000000 837.132250 525.364220 837.110000 525.330000 0.022250 0.034220 0.040820 116.121320 10.027640 19.768300 2559.140000 3500.000000 1054.170000 0.910000 0.860000 97.712000 0.110000 0.330000 0.005000 0.005000
57.000000 2534.230000 -4.000000 6.000000 2.000000 500.373230 734.544530 500.380000 734.490000 -0.006770 0.054530 0.054950 104.918920 26.509230 10.772420 2534.230000 3298.000000 1038.140000 0.990000 0.940000 51.804000 0.380000 -0.510000 0.008000 0.007000
59.000000 2321.180000 -7.000000 7.000000 5.000000 958.511740 944.845220 958.540000 944.950000 -0.028260 -0.104780 0.108530 95.571300 3.436480 17.092180 2321.180000 3240.000000 1069.300000 0.870000 0.940000 149.218000 0.540000 -0.050000 0.009000 0.009000
60.000000 2162.970000 -11.000000 5.000000 5.000000 1524.796200 709.633650 1524.890000 709.450000 -0.093800 0.183650 0.206210 106.269360 -25.697080 18.656570 2162.970000 2969.000000 1032.860000 0.960000 0.820000 272.392000 -0.110000 0.450000 0.004000 0.005000
63.000000 2038.040000 -6.000000 4.000000 2.000000 1222.153890 386.624740 1222.160000 386.570000 -0.006110 0.054740 0.055080 121.785800 -10.788720 9.776320 2038.040000 2982.000000 1042.670000 0.990000 0.930000 111.884000 0.160000 -0.430000 0.008000 0.007000
64.000000 2024.140000 -8.000000 6.000000 2.000000 1078.098830 183.886900 1078.070000 183.940000 0.028830 -0.053100 0.060430 129.413970 -3.005690 12.874590 2024.140000 3295.000000 1043.180000 1.350000 1.160000 81.163000 0.070000 -0.060000 0.011000 0.012000
65.000000 2015.570000 -9.000000 5.000000 5.000000 1363.381570 838.254800 1363.530000 838.300000 -0.148430 -0.045200 0.155160 100.795310 -18.126760 16.955870 2015.570000 2824.000000 1044.870000 0.830000 0.970000 1.662000 -0.470000 0.300000 0.006000 0.007000
66.000000 1933.070000 -7.000000 9.000000 3.000000 601.618360 610.939950 601.710000 610.820000 -0.091640 0.119950 0.150950 111.101400 21.894020 16.319230 1933.070000 2910.000000 1042.080000 0.990000 0.890000 254.333000 -0.290000 -0.180000 0.005000 0.005000
67.000000 1905.730000 -8.000000 10.000000 2.000000 475.305670 326.714660 475.370000 326.580000 -0.064330 0.134660 0.149240 121.303530 27.579010 16.973010 1905.730000 2825.000000 1030.660000 1.000000 1.070000 342.510000 0.370000 -0.420000 0.006000 0.006000
69.000000 1674.100000 -9.000000 5.000000 3.000000 1399.300710 404.701570 1399.140000 404.750000 0.160710 -0.048430 0.167850 120.019520 -19.785790 14.132710 1674.100000 2740.000000 1034.860000 1.190000 0.970000 72.548000 0.140000 -0.250000 0.008000 0.007000
70.000000 1632.680000 -7.000000 11.000000 3.000000 398.331670 671.238520 398.340000 671.090000 -0.008330 0.148520 0.148760 107.088180 30.808210 18.986750 1632.680000 2631.000000 1028.650000 1.020000 0.880000 62.779000 0.340000 0.090000 0.006000 0.005000
72.000000 1506.090000 -6.000000 12.000000 2.000000 57.695840 688.527310 57.850000 688.230000 -0.154160 0.297310 0.334900 104.058940 42.680920 19.640480 1506.090000 2527.000000 1015.300000 1.010000 1.210000 168.532000 -0.150000 0.230000 0.006000 0.006000
74.000000 1457.180000 -7.000000 5.000000 3.000000 1167.593770 574.978650 1167.830000 575.030000 -0.236230 -0.051350 0.241750 114.092250 -7.917700 12.392830 1457.180000 2618.000000 1049.350000 1.010000 1.290000 176.358000 -0.170000 0.030000 0.009000 0.011000
76.000000 1391.650000 -9.000000 9.000000 5.000000 907.189600 752.134200 907.270000 752.140000 -0.080400 -0.005800 0.080610 105.652830 6.250520 19.589200 1391.650000 2464.000000 1056.820000 0.930000 0.840000 283.636000 0.270000 0.140000 0.007000 0.007000
79.000000 1357.350000 -9.000000 7.000000 7.000000 1146.606080 1063.319370 1146.680000 1063.800000 -0.073920 -0.480630 0.486280 89.126290 -6.872310 21.763460 1357.350000 2362.000000 1057.330000 0.810000 0.900000 350.238000 -0.320000 -0.200000 0.007000 0.008000
85.000000 1187.720000 -7.000000 11.000000 5.000000 588.244050 948.033100 588.130000 948.060000 0.114050 -0.026900 0.117180 94.952670 22.528420 21.627220 1187.720000 2271.000000 1044.430000 0.980000 0.820000 75.867000 0.130000 0.060000 0.006000 0.006000
86.000000 1181.020000 -3.000000 5.000000 3.000000 665.348850 1175.491660 665.400000 1175.750000 -0.051150 -0.258340 0.263360 83.299980 18.824300 11.262580 1181.020000 2323.000000 1046.420000 1.120000 1.160000 156.216000 0.400000 -0.250000 0.011000 0.012000
87.000000 1167.040000 -10.000000 8.000000 2.000000 977.362700 54.615420 977.200000 54.680000 0.162700 -0.064580 0.175050 133.357860 2.507310 16.110890 1167.040000 2271.000000 1038.600000 1.240000 1.220000 271.352000 0.200000 -0.320000 0.010000 0.010000
88.000000 1163.730000 -11.000000 7.000000 3.000000 1268.238090 237.916050 1268.060000 237.830000 0.178090 0.086050 0.197790 126.937340 -13.169160 17.068830 1163.730000 2247.000000 1032.970000 1.000000 1.050000 350.620000 0.060000 -0.170000 0.007000 0.007000
89.000000 1161.840000 -9.000000 7.000000 3.000000 1064.879250 384.168520 1064.870000 384.120000 0.009250 0.048520 0.049400 122.304850 -2.314440 15.363830 1161.840000 2250.000000 1043.960000 1.040000 1.130000 348.038000 -0.130000 0.120000 0.008000 0.009000
94.000000 1052.890000 -11.000000 3.000000 5.000000 1831.424930 854.205570 1831.470000 853.810000 -0.045070 0.395570 0.398130 98.381540 -37.796510 18.775130 1052.890000 2076.000000 1019.380000 0.920000 1.100000 190.331000 -0.530000 -0.190000 0.008000 0.010000
95.000000 1043.400000 -9.000000 11.000000 5.000000 728.389840 760.036950 728.450000 760.030000 -0.060160 0.006950 0.060560 104.774190 15.674740 21.709720 1043.400000 2020.000000 1048.720000 0.910000 0.960000 155.654000 -0.550000 0.030000 0.007000 0.008000
96.000000 1042.330000 -10.000000 12.000000 2.000000 467.309350 209.003540 467.560000 208.950000 -0.250650 0.053540 0.256300 125.180620 27.915420 20.248420 1042.330000 2050.000000 1025.610000 1.030000 1.040000 325.928000 -0.440000 -0.050000 0.006000 0.006000
98.000000 1022.270000 -10.000000 4.000000 2.000000 1827.272450 34.022090 1826.550000 33.820000 0.722450 0.202090 0.750180 127.505330 -37.438730 13.941180 1022.270000 2093.000000 1017.910000 1.580000 1.280000 16.761000 0.550000 -0.180000 0.022000 0.022000
99.000000 1007.170000 -5.000000 11.000000 3.000000 209.690640 948.721580 209.580000 948.430000 0.110640 0.291580 0.311870 94.166890 37.864720 19.404360 1007.170000 1954.000000 1019.550000 1.140000 1.000000 338.926000 -0.420000 0.430000 0.012000 0.012000
105.000000 953.390000 -11.000000 9.000000 5.000000 1051.091070 610.023480 1051.380000 610.070000 -0.288930 -0.046520 0.292650 112.667160 -1.593240 20.663020 953.390000 1924.000000 1049.160000 1.050000 0.910000 263.140000 -0.620000 0.070000 0.007000 0.008000
106.000000 935.390000 -11.000000 7.000000 5.000000 1268.433420 637.456450 1268.570000 637.450000 -0.136580 0.006450 0.136730 110.891000 -13.262230 19.353420 935.390000 1861.000000 1042.840000 1.030000 0.900000 24.682000 -0.430000 0.450000 0.011000 0.010000
107.000000 933.230000 -14.000000 6.000000 4.000000 1665.864890 320.524980 1665.530000 320.310000 0.334890 0.214980 0.397960 120.627530 -31.537450 20.690960 933.230000 1956.000000 1019.970000 1.050000 1.030000 178.527000 -0.470000 0.310000 0.011000 0.013000
109.000000 909.450000 -7.000000 9.000000 1.000000 304.840790 126.164060 305.120000 126.180000 -0.279210 -0.015940 0.279670 125.857860 34.393840 14.671670 909.450000 1965.000000 1018.570000 1.210000 1.330000 207.840000 0.120000 0.180000 0.008000 0.009000
#UB matrix in q= (UB) B0 G* 
#[[ 0.821678154 -0.519391349  0.234686354]
# [ 0.565918407  0.792388007 -0.227722464]
# [-0.067685599  0.319927902  0.945021038]]
#Umatrix in q_lab= (Umatrix) (B) B0 G* 
#[[ 0.821678165 -0.519391288  0.23468635 ]
# [ 0.565918415  0.792388055 -0.227722457]
# [-0.0676856    0.319927898  0.945021058]]
#Bmatrix in q_lab= (U) (Bmatrix) B0 G* 
#[[ 9.99999986e-01 -7.70000000e-08  1.00000000e-09]
# [-0.00000000e+00  9.99999994e-01 -1.30000000e-08]
# [-0.00000000e+00 -0.00000000e+00  9.99999984e-01]]
#(B-I)*1000 
#[[-0. -0.  0.]
# [-0. -0. -0.]
# [-0. -0. -0.]]
#HKL coord. of lab and sample frame axes :
#HKLx_lab_LT	[ 1.    -0.632  0.286]
#HKLy_lab_LT	[ 0.714  1.    -0.287]
#HKLz_lab_LT	[-0.072  0.339  1.   ]
#HKLx_sample_LT	[ 0.744 -0.244  1.   ]
#HKLy_sample_LT	[ 0.714  1.    -0.287]
#HKLz_sample_LT	[-1.     0.998  0.988]
#B0 matrix in q= UB (B0) G*
#[[ 0.18413154 -0.         -0.        ]
# [ 0.          0.18413154 -0.        ]
# [ 0.          0.          0.18413154]]
#UBB0 matrix in q= (UB B0) G* i.e. recip. basis vectors are columns in LT frame: astar = UBB0[:,0], bstar = UBB0[:,1], cstar = UBB0[:,2]. (abcstar as columns on xyzlab1, xlab1 = ui, ui = unit vector along incident beam)
#[[ 0.15129687 -0.09563633  0.04321316]
# [ 0.10420343  0.14590363 -0.04193089]
# [-0.01246305  0.05890882  0.17400818]]
#Euler angles phi theta psi (deg)
#[191.946  19.087 134.137]
#CCDLabel
#sCMOS
#DetectorParameters
#[76.56, 1020.927, 1054.085, 0.389, 0.138]
#pixelsize
#0.0734
#Frame dimensions
#(2018, 2016)
#
