#Strain and Orientation Refinement from experimental file: /home/micha/LaueProjects/DepthEffects/testZrO2_109.cor
#File created at Wed Jun 28 14:25:00 2023 with indexingSpotsSet.py
#Number of indexed spots: 540
#Element
#ZrO2
#grainIndex
#G_0
#Mean Deviation(pixel): 0.118
##spot_index intensity h k l 2theta Chi Xexp Yexp Energy GrainIndex PixDev
22.000000 46.772000 6.000000 12.000000 -11.000000 136.939285 -24.484419 1465.142134 -324.539916 21.368527 0.000000 0.087626
23.000000 46.247000 7.000000 12.000000 -11.000000 138.848018 -15.588734 1275.278656 -337.553069 21.610523 0.000000 0.047143
42.000000 51.295000 5.000000 11.000000 -10.000000 135.151882 -28.607548 1561.998645 -291.476486 19.484659 0.000000 0.107823
43.000000 50.847000 6.000000 11.000000 -10.000000 137.728780 -19.228443 1350.404522 -312.982119 19.655642 0.000000 0.059502
44.000000 50.003000 7.000000 11.000000 -10.000000 139.131434 -9.369601 1152.592717 -319.705887 19.987292 0.000000 0.023739
45.000000 48.830000 8.000000 11.000000 -10.000000 139.383177 0.412073 967.259122 -314.020618 20.467534 0.000000 0.006352
46.000000 47.399000 9.000000 11.000000 -10.000000 138.618774 9.584438 793.259127 -297.916595 21.085469 0.000000 0.030149
47.000000 45.781000 10.000000 11.000000 -10.000000 137.044817 17.793038 629.583960 -273.068995 21.831241 0.000000 0.055182
49.000000 47.401000 3.000000 12.000000 -10.000000 122.697902 -41.722911 1934.715530 15.304933 21.088499 0.000000 0.175030
50.000000 47.909000 2.000000 6.000000 -5.000000 126.867113 -35.046461 1729.930771 -44.894875 10.431940 0.000000 0.109522
51.000000 47.997000 5.000000 12.000000 -10.000000 130.259030 -27.587214 1537.367248 -87.358841 20.824610 0.000000 0.063071
52.000000 47.694000 3.000000 6.000000 -5.000000 132.757657 -19.491809 1355.962644 -114.685131 10.478214 0.000000 0.034840
53.000000 47.042000 7.000000 12.000000 -10.000000 134.300040 -11.028922 1184.774294 -129.076585 21.246502 0.000000 0.025268
54.000000 46.094000 4.000000 6.000000 -5.000000 134.894630 -2.551579 1022.962805 -132.407031 10.841625 0.000000 0.026359
71.000000 56.630000 4.000000 10.000000 -9.000000 132.691123 -33.245891 1680.539090 -246.177834 17.649582 0.000000 0.135004
72.000000 56.368000 5.000000 10.000000 -9.000000 136.150911 -23.443389 1441.722122 -280.234655 17.730968 0.000000 0.075030
73.000000 55.533000 6.000000 10.000000 -9.000000 138.229604 -12.827770 1220.076707 -294.867070 17.996999 0.000000 0.033015
74.000000 54.222000 7.000000 10.000000 -9.000000 138.897429 -2.065400 1013.815097 -293.469510 18.432215 0.000000 0.006427
75.000000 52.539000 8.000000 10.000000 -9.000000 138.290426 8.122500 821.389388 -278.836975 19.022833 0.000000 0.025151
76.000000 50.588000 9.000000 10.000000 -9.000000 136.665459 17.218393 641.452603 -253.280717 19.756527 0.000000 0.050522
77.000000 48.466000 10.000000 10.000000 -9.000000 134.317531 25.012619 472.827112 -218.719352 20.622243 0.000000 0.079401
78.000000 46.252000 11.000000 10.000000 -9.000000 131.512932 31.537416 314.478831 -176.751100 21.610036 0.000000 0.112993
81.000000 51.113000 2.000000 11.000000 -9.000000 118.194435 -45.734691 2079.256526 114.374827 19.558350 0.000000 0.221783
82.000000 52.109000 3.000000 11.000000 -9.000000 123.243208 -39.097919 1849.615730 31.974195 19.183327 0.000000 0.136620
83.000000 52.540000 4.000000 11.000000 -9.000000 127.476932 -31.516205 1634.972766 -26.963382 19.024830 0.000000 0.076036
84.000000 52.429000 5.000000 11.000000 -9.000000 130.721711 -23.092182 1433.904835 -66.168263 19.064254 0.000000 0.038844
85.000000 51.828000 6.000000 11.000000 -9.000000 132.860335 -14.090843 1245.163587 -88.750998 19.285066 0.000000 0.027574
86.000000 50.806000 7.000000 11.000000 -9.000000 133.865403 -4.919987 1067.649186 -97.315837 19.672526 0.000000 0.030867
87.000000 49.447000 8.000000 11.000000 -9.000000 133.812314 3.965528 900.388859 -94.051299 20.213446 0.000000 0.032562
88.000000 47.832000 9.000000 11.000000 -9.000000 132.860397 12.188703 742.519059 -80.802864 20.895997 0.000000 0.031503
89.000000 46.041000 10.000000 11.000000 -9.000000 131.211374 19.528076 593.270560 -59.131666 21.709533 0.000000 0.034474
90.000000 45.992000 1.000000 12.000000 -9.000000 109.183074 -48.391116 2186.880899 377.106816 21.738833 0.000000 0.236032
91.000000 47.384000 2.000000 12.000000 -9.000000 114.302888 -43.043141 1980.176817 275.969596 21.098920 0.000000 0.145838
92.000000 48.316000 1.000000 4.000000 -3.000000 118.878211 -36.980767 1785.479603 197.904629 6.896851 0.000000 0.077371
93.000000 48.777000 4.000000 12.000000 -9.000000 122.761253 -30.214090 1601.772614 139.525998 20.493886 0.000000 0.030673
94.000000 48.782000 5.000000 12.000000 -9.000000 125.825241 -22.832492 1428.150834 97.974317 20.491279 0.000000 0.025267
95.000000 48.366000 2.000000 4.000000 -3.000000 127.985102 -15.020550 1263.805958 70.826046 6.888999 0.000000 0.043444
96.000000 47.582000 7.000000 12.000000 -9.000000 129.215786 -7.045175 1108.013811 56.020086 21.006966 0.000000 0.054971
97.000000 46.494000 8.000000 12.000000 -9.000000 129.559806 0.791880 960.123683 51.798057 21.498549 0.000000 0.058035
114.000000 63.063000 4.000000 9.000000 -8.000000 133.885799 -28.323667 1555.098357 -235.018696 15.848939 0.000000 0.095766
115.000000 62.346000 5.000000 9.000000 -8.000000 136.909098 -16.958703 1303.208095 -261.823782 16.030540 0.000000 0.043961
116.000000 60.910000 6.000000 9.000000 -8.000000 138.192431 -5.083778 1070.749550 -267.202494 16.408400 0.000000 0.012201
117.000000 58.913000 7.000000 9.000000 -8.000000 137.847125 6.332518 855.557684 -255.249821 16.964538 0.000000 0.020552
118.000000 56.520000 8.000000 9.000000 -8.000000 136.190333 16.520041 655.777570 -229.279019 17.683104 0.000000 0.045235
119.000000 53.880000 9.000000 9.000000 -8.000000 133.619016 25.144343 469.810795 -191.983856 18.550073 0.000000 0.075292
120.000000 51.119000 10.000000 9.000000 -8.000000 130.494931 32.236149 296.272594 -145.563926 19.552990 0.000000 0.111904
121.000000 48.333000 11.000000 9.000000 -8.000000 127.094080 38.004940 133.957310 -91.822205 20.680756 0.000000 0.154891
122.000000 45.595000 12.000000 9.000000 -8.000000 123.605784 42.700399 -18.189653 -32.241555 21.923447 0.000000 0.203420
125.000000 56.749000 1.000000 5.000000 -4.000000 118.486182 -43.466653 1995.175244 136.282057 8.807946 0.000000 0.177677
126.000000 57.775000 3.000000 10.000000 -8.000000 123.767084 -35.858464 1752.918652 53.090233 17.301748 0.000000 0.096126
127.000000 58.040000 2.000000 5.000000 -4.000000 127.977684 -27.174065 1527.524394 -3.465456 8.610913 0.000000 0.044279
128.000000 57.596000 5.000000 10.000000 -8.000000 130.918636 -17.642092 1317.291119 -37.970966 17.354050 0.000000 0.028370
129.000000 56.536000 3.000000 5.000000 -4.000000 132.498542 -7.711408 1120.738912 -54.191622 8.839519 0.000000 0.035659
130.000000 54.979000 7.000000 10.000000 -8.000000 132.769598 2.044692 936.574400 -55.233445 18.179695 0.000000 0.038976
131.000000 53.050000 4.000000 5.000000 -4.000000 131.915194 11.109083 763.662258 -43.669559 9.420446 0.000000 0.035349
132.000000 50.869000 9.000000 10.000000 -8.000000 130.192757 19.161672 601.001786 -21.639942 19.649187 0.000000 0.031738
133.000000 48.540000 5.000000 5.000000 -4.000000 127.867523 26.100916 447.707526 9.069342 10.296300 0.000000 0.041768
134.000000 46.149000 11.000000 10.000000 -8.000000 125.168503 31.979457 302.993138 46.962814 21.660418 0.000000 0.067504
137.000000 50.542000 1.000000 11.000000 -8.000000 108.626542 -46.770169 2119.941840 411.354597 19.782239 0.000000 0.196274
138.000000 52.135000 2.000000 11.000000 -8.000000 114.082805 -40.767753 1902.975716 305.819369 19.176213 0.000000 0.106152
139.000000 53.111000 3.000000 11.000000 -8.000000 118.839823 -33.940495 1699.344434 226.608078 18.822622 0.000000 0.040430
140.000000 53.463000 4.000000 11.000000 -8.000000 122.714507 -26.339242 1507.855296 169.557437 18.697738 0.000000 0.017671
141.000000 53.225000 5.000000 11.000000 -8.000000 125.566059 -18.132052 1327.453725 131.199694 18.780721 0.000000 0.044124
142.000000 52.463000 6.000000 11.000000 -8.000000 127.326013 -9.608398 1157.203830 108.634219 19.053187 0.000000 0.061118
143.000000 51.263000 7.000000 11.000000 -8.000000 128.017091 -1.132262 996.272169 99.425270 19.498856 0.000000 0.066996
144.000000 49.722000 8.000000 11.000000 -8.000000 127.748866 6.944066 843.914101 101.520114 20.103265 0.000000 0.063317
145.000000 47.934000 9.000000 11.000000 -8.000000 126.690050 14.359656 699.462270 113.183046 20.853513 0.000000 0.051763
146.000000 45.985000 10.000000 11.000000 -8.000000 125.030973 20.978306 562.316828 132.941938 21.738063 0.000000 0.034518
147.000000 46.575000 1.000000 12.000000 -8.000000 105.162742 -44.174111 2020.704640 534.333962 21.468622 0.000000 0.135563
148.000000 48.001000 1.000000 6.000000 -4.000000 110.091233 -38.631579 1835.166110 437.040847 10.414719 0.000000 0.061017
149.000000 48.922000 3.000000 12.000000 -8.000000 114.421872 -32.457869 1659.562971 361.796195 20.436176 0.000000 0.008474
150.000000 49.329000 1.000000 3.000000 -2.000000 118.018048 -25.705728 1493.117988 305.384710 5.066622 0.000000 0.038450
151.000000 49.244000 5.000000 12.000000 -8.000000 120.775668 -18.500474 1335.132937 265.088795 20.300651 0.000000 0.066353
152.000000 48.714000 3.000000 6.000000 -4.000000 122.640810 -11.039410 1184.978810 238.603079 10.260598 0.000000 0.083170
153.000000 47.801000 7.000000 12.000000 -8.000000 123.620591 -3.566739 1042.087450 223.965223 20.912595 0.000000 0.090327
154.000000 46.580000 2.000000 3.000000 -2.000000 123.781752 3.671097 905.944362 219.499584 5.365250 0.000000 0.089160
155.000000 45.613000 4.000000 13.000000 -8.000000 113.816463 -25.208654 1481.664229 415.921119 21.919189 0.000000 0.061859
156.000000 45.640000 5.000000 13.000000 -8.000000 116.478203 -18.787570 1341.139928 374.718665 21.905166 0.000000 0.085532
169.000000 71.242000 3.000000 8.000000 -7.000000 130.565246 -33.950733 1699.623906 -169.721887 14.029906 0.000000 0.125856
170.000000 70.890000 4.000000 8.000000 -7.000000 134.923253 -21.921776 1408.142765 -216.077939 14.098860 0.000000 0.057678
171.000000 69.400000 5.000000 8.000000 -7.000000 137.134553 -8.818148 1141.968260 -232.503200 14.401179 0.000000 0.019559
172.000000 67.021000 6.000000 8.000000 -7.000000 137.226090 4.095153 897.941793 -225.332092 14.912437 0.000000 0.017917
173.000000 64.021000 7.000000 8.000000 -7.000000 135.578444 15.653510 673.409416 -199.550551 15.611503 0.000000 0.039424
174.000000 60.649000 8.000000 8.000000 -7.000000 132.739424 25.304921 466.124915 -159.107751 16.480000 0.000000 0.070093
175.000000 57.110000 9.000000 8.000000 -7.000000 129.217550 33.070035 274.174408 -107.149012 17.501875 0.000000 0.110420
176.000000 53.560000 10.000000 8.000000 -7.000000 125.389070 39.240856 95.917073 -46.191576 18.663041 0.000000 0.159341
177.000000 50.105000 11.000000 8.000000 -7.000000 121.498394 44.156504 -70.061871 21.741521 19.951084 0.000000 0.215236
180.000000 61.648000 1.000000 9.000000 -7.000000 112.165127 -48.134815 2176.016907 284.007800 16.217542 0.000000 0.242808
181.000000 63.707000 2.000000 9.000000 -7.000000 118.737849 -40.624754 1898.302675 163.416252 15.691839 0.000000 0.129584
182.000000 64.692000 3.000000 9.000000 -7.000000 124.200547 -31.790368 1642.080256 80.435319 15.451916 0.000000 0.054563
183.000000 64.626000 4.000000 9.000000 -7.000000 128.231859 -21.775249 1404.947770 27.918560 15.466878 0.000000 0.026496
184.000000 63.624000 5.000000 9.000000 -7.000000 130.629889 -11.032722 1184.848387 0.140952 15.710128 0.000000 0.040170
185.000000 61.857000 6.000000 9.000000 -7.000000 131.388623 -0.266729 980.010513 -7.511555 16.158646 0.000000 0.047301
186.000000 59.523000 7.000000 9.000000 -7.000000 130.708501 9.809909 788.900008 1.222004 16.792407 0.000000 0.042616
187.000000 56.813000 8.000000 9.000000 -7.000000 128.921666 18.724489 610.181684 23.296670 17.593907 0.000000 0.031824
188.000000 53.893000 9.000000 9.000000 -7.000000 126.385156 26.316006 442.688074 56.221646 18.547780 0.000000 0.033792
189.000000 50.896000 10.000000 9.000000 -7.000000 123.405844 32.648606 285.393893 97.951274 19.640483 0.000000 0.061035
190.000000 47.923000 11.000000 9.000000 -7.000000 120.213844 37.891140 137.395035 146.799472 20.860031 0.000000 0.101220
193.000000 53.426000 0.000000 10.000000 -7.000000 101.409328 -50.677452 2288.919332 598.241023 18.716464 0.000000 0.274254
194.000000 56.043000 1.000000 10.000000 -7.000000 107.884266 -44.809816 2044.172717 451.455697 17.840617 0.000000 0.153505
195.000000 57.871000 2.000000 10.000000 -7.000000 113.701434 -38.001357 1815.934313 341.387587 17.275704 0.000000 0.064053
196.000000 58.847000 3.000000 10.000000 -7.000000 118.602258 -30.246509 1602.588387 261.647433 16.988219 0.000000 0.005222
197.000000 58.979000 4.000000 10.000000 -7.000000 122.363813 -21.673059 1402.723398 207.028931 16.949299 0.000000 0.042710
198.000000 58.342000 5.000000 10.000000 -7.000000 124.845594 -12.575684 1215.100725 173.266592 17.133955 0.000000 0.067311
199.000000 57.054000 6.000000 10.000000 -7.000000 126.028262 -3.383307 1038.628976 156.848280 17.520436 0.000000 0.077284
200.000000 55.258000 7.000000 10.000000 -7.000000 126.021103 5.448406 872.342746 154.868941 18.089726 0.000000 0.075062
201.000000 53.100000 8.000000 10.000000 -7.000000 125.029182 13.561374 715.384945 164.915622 18.825123 0.000000 0.062756
202.000000 50.713000 9.000000 10.000000 -7.000000 123.297752 20.761011 566.992020 184.976450 19.711901 0.000000 0.042311
203.000000 48.207000 10.000000 10.000000 -7.000000 121.062261 27.005035 426.481541 213.368132 20.737025 0.000000 0.017223
204.000000 45.672000 11.000000 10.000000 -7.000000 118.519772 32.351443 293.241696 248.677840 21.888913 0.000000 0.024381
205.000000 46.057000 -1.000000 11.000000 -7.000000 92.077860 -52.437506 2374.490720 876.945253 21.714124 0.000000 0.322882
206.000000 48.849000 0.000000 11.000000 -7.000000 98.231112 -47.651415 2155.818910 709.877866 20.471277 0.000000 0.198033
207.000000 51.106000 1.000000 11.000000 -7.000000 104.011480 -42.179367 1950.218022 578.567437 19.565606 0.000000 0.101753
208.000000 52.732000 2.000000 11.000000 -7.000000 109.222620 -35.985243 1756.550111 477.212917 18.960890 0.000000 0.032888
209.000000 53.677000 3.000000 11.000000 -7.000000 113.673151 -29.089752 1573.805599 401.028875 18.625917 0.000000 0.034393
210.000000 53.942000 4.000000 11.000000 -7.000000 117.201743 -21.597727 1401.085668 346.047519 18.533646 0.000000 0.068054
211.000000 53.573000 5.000000 11.000000 -7.000000 119.704772 -13.710814 1237.587482 308.963517 18.660535 0.000000 0.090203
212.000000 52.654000 6.000000 11.000000 -7.000000 121.157847 -5.708605 1082.591701 287.011445 18.985989 0.000000 0.100828
213.000000 51.287000 7.000000 11.000000 -7.000000 121.620995 2.104369 935.451907 277.868349 19.491917 0.000000 0.101438
214.000000 49.582000 8.000000 11.000000 -7.000000 121.223158 9.463981 795.585589 279.575757 20.162361 0.000000 0.093492
215.000000 47.643000 9.000000 11.000000 -7.000000 120.132342 16.192203 662.466437 290.476887 20.983189 0.000000 0.078276
216.000000 45.562000 10.000000 11.000000 -7.000000 118.524135 22.207060 535.617723 309.165803 21.941843 0.000000 0.056932
217.000000 46.771000 1.000000 12.000000 -7.000000 100.525051 -40.054739 1879.871796 679.753196 21.380632 0.000000 0.078180
218.000000 48.222000 2.000000 12.000000 -7.000000 105.241050 -34.391069 1711.707669 585.631193 20.735996 0.000000 0.042673
219.000000 49.124000 3.000000 12.000000 -7.000000 109.320668 -28.191401 1551.895985 512.863185 20.353983 0.000000 0.061408
220.000000 49.474000 4.000000 12.000000 -7.000000 112.643101 -21.539895 1399.829543 458.322532 20.209191 0.000000 0.088501
221.000000 49.301000 5.000000 12.000000 -7.000000 115.128706 -14.580304 1254.958608 419.370527 20.279390 0.000000 0.107944
222.000000 48.662000 6.000000 12.000000 -7.000000 116.751872 -7.504575 1116.784267 393.771602 20.545045 0.000000 0.118587
223.000000 47.632000 7.000000 12.000000 -7.000000 117.544724 -0.524486 984.852687 379.624916 20.988917 0.000000 0.121136
224.000000 46.294000 8.000000 12.000000 -7.000000 117.589422 6.164583 858.750140 375.308855 21.595736 0.000000 0.116565
225.000000 45.519000 4.000000 13.000000 -7.000000 108.600122 -21.494100 1398.835564 551.711447 21.966660 0.000000 0.103902
226.000000 45.487000 5.000000 13.000000 -7.000000 111.044417 -15.267341 1268.781490 511.742227 21.981422 0.000000 0.121198
231.000000 81.203000 2.000000 7.000000 -6.000000 125.580090 -40.374733 1890.180122 -69.712969 12.309617 0.000000 0.174309
232.000000 81.787000 3.000000 7.000000 -6.000000 131.839798 -27.895199 1544.753026 -149.358619 12.220823 0.000000 0.076962
233.000000 80.478000 4.000000 7.000000 -6.000000 135.480404 -13.511202 1233.617954 -184.649156 12.419172 0.000000 0.027286
234.000000 77.660000 5.000000 7.000000 -6.000000 136.314692 1.228996 951.909916 -186.115274 12.869618 0.000000 0.019705
235.000000 73.802000 6.000000 7.000000 -6.000000 134.761867 14.550322 695.642628 -161.752859 13.542596 0.000000 0.033724
236.000000 69.348000 7.000000 7.000000 -6.000000 131.598049 25.504999 461.518691 -117.684446 14.412989 0.000000 0.063337
237.000000 64.658000 8.000000 7.000000 -6.000000 127.569040 34.082002 246.786946 -58.632551 15.459323 0.000000 0.108408
238.000000 59.990000 9.000000 7.000000 -6.000000 123.206120 40.703274 49.133861 11.737143 16.663131 0.000000 0.165430
239.000000 55.512000 10.000000 7.000000 -6.000000 118.830650 45.841948 -133.400161 90.564004 18.008441 0.000000 0.231267
244.000000 70.116000 1.000000 8.000000 -6.000000 111.801491 -45.804707 2081.959635 323.419081 14.259065 0.000000 0.188050
245.000000 73.252000 3.000000 8.000000 -6.000000 124.402169 -26.590877 1513.753701 116.807540 13.646233 0.000000 0.020969
246.000000 70.608000 5.000000 8.000000 -6.000000 129.493458 -3.090925 1033.119052 52.685554 14.156363 0.000000 0.057513
247.000000 67.750000 3.000000 4.000000 -3.000000 129.118650 8.218481 819.549238 56.655445 7.376792 0.000000 0.053652
248.000000 64.299000 7.000000 8.000000 -6.000000 127.291769 18.193895 621.259523 78.191986 15.545933 0.000000 0.036848
249.000000 60.535000 4.000000 4.000000 -3.000000 124.507855 26.572979 436.666694 113.671589 8.256495 0.000000 0.024836
250.000000 56.679000 9.000000 8.000000 -6.000000 121.191276 33.433963 264.398958 160.189587 17.637090 0.000000 0.053319
251.000000 52.887000 5.000000 4.000000 -3.000000 117.649080 39.005539 103.261792 215.407022 9.451435 0.000000 0.100621
252.000000 49.257000 11.000000 8.000000 -6.000000 114.080779 43.539879 -47.789798 277.433012 20.296908 0.000000 0.155753
253.000000 45.847000 6.000000 4.000000 -3.000000 110.606009 47.258470 -189.673962 344.733723 10.903713 0.000000 0.216054
256.000000 59.578000 0.000000 3.000000 -2.000000 99.787262 -49.089459 2217.046305 657.494722 5.594791 0.000000 0.231359
257.000000 62.806000 1.000000 9.000000 -6.000000 106.862798 -42.397423 1957.702968 499.231096 15.920051 0.000000 0.108502
258.000000 64.896000 2.000000 9.000000 -6.000000 113.053672 -34.584034 1717.043124 384.637553 15.406032 0.000000 0.022181
259.000000 65.485000 4.000000 9.000000 -6.000000 121.497497 -16.030408 1284.240694 254.829131 15.265696 0.000000 0.073121
260.000000 64.191000 5.000000 9.000000 -6.000000 123.389369 -6.043205 1088.943720 227.636869 15.573024 0.000000 0.088929
261.000000 59.463000 7.000000 9.000000 -6.000000 122.920877 12.615372 734.116526 226.918363 16.811398 0.000000 0.076641
262.000000 56.477000 8.000000 9.000000 -6.000000 121.128435 20.505722 572.467532 247.037639 17.700523 0.000000 0.053711
263.000000 53.329000 3.000000 3.000000 -2.000000 118.719282 27.273266 420.118929 277.516525 6.248734 0.000000 0.022326
264.000000 50.154000 10.000000 9.000000 -6.000000 115.953551 32.990855 276.290522 316.428379 19.933645 0.000000 0.016268
265.000000 47.049000 11.000000 9.000000 -6.000000 113.023740 37.795133 140.287008 362.181825 21.249869 0.000000 0.060127
267.000000 50.313000 -1.000000 10.000000 -6.000000 89.542871 -51.277240 2317.341765 954.727528 19.878572 0.000000 0.293925
268.000000 53.785000 0.000000 5.000000 -3.000000 96.259523 -45.935352 2087.021644 771.252191 9.296733 0.000000 0.165274
269.000000 56.518000 1.000000 10.000000 -6.000000 102.498345 -39.786116 1871.292811 630.531383 17.692663 0.000000 0.072377
270.000000 58.371000 1.000000 5.000000 -3.000000 107.997733 -32.807030 1668.811253 524.983253 8.564879 0.000000 0.036623
271.000000 59.282000 3.000000 10.000000 -6.000000 112.514645 -25.065941 1478.393106 448.476517 16.865527 0.000000 0.068586
272.000000 59.275000 2.000000 5.000000 -3.000000 115.866678 -16.753108 1298.991486 396.021694 8.433296 0.000000 0.096906
273.000000 58.450000 5.000000 10.000000 -6.000000 117.971629 -8.178140 1129.677240 363.535141 17.104371 0.000000 0.112096
274.000000 56.951000 3.000000 5.000000 -3.000000 118.866906 0.286247 969.622845 347.657084 8.777122 0.000000 0.115228
275.000000 54.946000 7.000000 10.000000 -6.000000 118.696226 8.294619 818.088884 345.610068 18.194889 0.000000 0.108056
276.000000 52.597000 4.000000 5.000000 -3.000000 117.668710 15.603981 674.412624 355.088010 9.503877 0.000000 0.092265
277.000000 50.047000 9.000000 10.000000 -6.000000 116.010660 22.098350 537.998328 374.168574 19.976612 0.000000 0.069455
278.000000 47.412000 5.000000 5.000000 -3.000000 113.929008 27.767725 408.308992 401.243512 10.543608 0.000000 0.041660
279.000000 45.865000 -1.000000 11.000000 -6.000000 87.096479 -48.410162 2187.692547 1023.237945 21.807643 0.000000 0.231844
280.000000 48.785000 0.000000 11.000000 -6.000000 93.086068 -43.386979 1992.337688 861.152638 20.500308 0.000000 0.131495
281.000000 51.120000 1.000000 11.000000 -6.000000 98.651576 -37.728935 1807.723306 733.941807 19.562288 0.000000 0.068366
282.000000 52.766000 2.000000 11.000000 -6.000000 103.597012 -31.439330 1632.987342 635.883117 18.950857 0.000000 0.063473
283.000000 53.673000 3.000000 11.000000 -6.000000 107.744048 -24.582024 1467.357588 562.273512 18.629637 0.000000 0.090439
284.000000 53.850000 4.000000 11.000000 -6.000000 110.958221 -17.295727 1310.140279 509.226014 18.567460 0.000000 0.114173
285.000000 53.360000 5.000000 11.000000 -6.000000 113.172138 -9.789768 1160.710377 473.511647 18.737465 0.000000 0.128504
286.000000 52.301000 6.000000 11.000000 -6.000000 114.397228 -2.314606 1018.503268 452.435436 19.116383 0.000000 0.133449
287.000000 50.793000 7.000000 11.000000 -6.000000 114.718237 4.885277 883.007632 443.738383 19.683950 0.000000 0.130031
288.000000 48.956000 8.000000 11.000000 -6.000000 114.272026 11.615794 753.759300 445.519438 20.422445 0.000000 0.119435
289.000000 46.904000 9.000000 11.000000 -6.000000 113.219315 17.756738 630.335941 456.172957 21.316296 0.000000 0.102864
290.000000 46.480000 1.000000 12.000000 -6.000000 95.257347 -36.070385 1758.995484 818.474423 21.516753 0.000000 0.077918
291.000000 47.946000 1.000000 6.000000 -3.000000 99.749320 -30.355266 1605.329035 726.692195 10.428783 0.000000 0.083013
292.000000 48.825000 1.000000 4.000000 -2.000000 103.583557 -24.203251 1458.779229 655.881089 6.826909 0.000000 0.105709
293.000000 49.120000 2.000000 6.000000 -3.000000 106.657607 -17.718046 1318.862872 602.927860 10.178527 0.000000 0.126199
294.000000 48.868000 5.000000 12.000000 -6.000000 108.915395 -11.047653 1185.139547 565.214981 20.461243 0.000000 0.139746
295.000000 48.138000 2.000000 4.000000 -2.000000 110.354831 -4.367751 1057.206979 540.532264 6.923753 0.000000 0.145865
296.000000 47.013000 7.000000 12.000000 -6.000000 111.025667 2.144501 934.696995 527.006088 21.267819 0.000000 0.145106
297.000000 45.585000 4.000000 6.000000 -3.000000 111.018091 8.337196 817.271985 523.042351 10.966987 0.000000 0.138281
302.000000 87.080000 5.000000 6.000000 -5.000000 133.619698 13.099482 724.548732 -112.049448 11.477919 0.000000 0.030512
303.000000 80.929000 6.000000 6.000000 -5.000000 130.058033 25.761185 455.598242 -63.845605 12.350707 0.000000 0.054281
304.000000 74.431000 7.000000 6.000000 -5.000000 125.364029 35.335023 211.953037 4.642097 13.429797 0.000000 0.105752
305.000000 68.051000 8.000000 6.000000 -5.000000 120.321704 42.458182 -9.797841 87.776823 14.689926 0.000000 0.174429
311.000000 76.175000 0.000000 7.000000 -5.000000 102.076176 -51.359417 2321.293649 572.234359 13.126771 0.000000 0.294657
312.000000 81.147000 1.000000 7.000000 -5.000000 111.186292 -42.757713 1970.184917 372.826278 12.320777 0.000000 0.126925
313.000000 83.771000 2.000000 7.000000 -5.000000 118.753239 -32.186064 1652.413124 243.211351 11.933713 0.000000 0.021563
314.000000 83.971000 3.000000 7.000000 -5.000000 124.081552 -19.845029 1363.445559 166.824291 11.904529 0.000000 0.043736
315.000000 82.045000 4.000000 7.000000 -5.000000 126.773883 -6.600216 1099.535615 131.227008 12.183488 0.000000 0.069571
316.000000 78.525000 5.000000 7.000000 -5.000000 126.937680 6.227230 857.559451 126.984942 12.729661 0.000000 0.068914
317.000000 73.996000 6.000000 7.000000 -5.000000 125.127914 17.536500 634.891761 146.877383 13.509061 0.000000 0.048154
318.000000 68.974000 7.000000 7.000000 -5.000000 122.055279 26.885375 429.310135 185.334287 14.493228 0.000000 0.017570
319.000000 63.846000 8.000000 7.000000 -5.000000 118.329939 34.368287 238.920629 238.029222 15.658155 0.000000 0.044674
320.000000 58.867000 9.000000 7.000000 -5.000000 114.373720 40.304237 62.099240 301.581557 16.983444 0.000000 0.102130
321.000000 54.185000 10.000000 7.000000 -5.000000 110.441787 45.033525 -102.554525 373.336151 18.451656 0.000000 0.167720
322.000000 49.874000 11.000000 7.000000 -5.000000 106.673325 48.841858 -256.254830 451.198694 20.047791 0.000000 0.238732
326.000000 67.201000 0.000000 8.000000 -5.000000 97.627273 -47.113899 2133.794167 729.213579 14.881085 0.000000 0.186938
327.000000 71.267000 1.000000 8.000000 -5.000000 105.402795 -39.368690 1858.093543 557.446935 14.030435 0.000000 0.065610
328.000000 73.619000 2.000000 8.000000 -5.000000 111.951750 -30.290871 1603.705564 438.615227 13.580987 0.000000 0.033786
329.000000 74.181000 3.000000 8.000000 -5.000000 116.825772 -20.071033 1368.250880 361.524049 13.477209 0.000000 0.077813
330.000000 73.114000 4.000000 8.000000 -5.000000 119.762382 -9.219191 1149.691609 317.484373 13.673366 0.000000 0.101775
331.000000 70.743000 5.000000 8.000000 -5.000000 120.779418 1.528941 946.272204 299.695420 14.131451 0.000000 0.105869
332.000000 67.458000 6.000000 8.000000 -5.000000 120.161243 11.477162 756.472190 302.794546 14.819617 0.000000 0.093779
333.000000 63.632000 7.000000 8.000000 -5.000000 118.337297 20.201534 578.968100 322.524925 15.710980 0.000000 0.068781
334.000000 59.571000 8.000000 8.000000 -5.000000 115.741152 27.588476 412.602561 355.487453 16.782687 0.000000 0.034011
335.000000 55.498000 9.000000 8.000000 -5.000000 112.725876 33.731010 256.359037 398.953612 18.015187 0.000000 0.015769
336.000000 51.560000 10.000000 8.000000 -5.000000 109.542767 38.809574 109.341032 450.723002 19.391659 0.000000 0.063046
337.000000 47.847000 11.000000 8.000000 -5.000000 106.354841 43.016637 -29.245113 509.013913 20.897547 0.000000 0.118269
339.000000 55.250000 -1.000000 9.000000 -5.000000 86.310607 -49.883407 2252.389534 1048.707404 18.103405 0.000000 0.266877
340.000000 59.672000 0.000000 9.000000 -5.000000 93.693422 -43.856216 2009.158149 844.649150 16.759805 0.000000 0.136338
341.000000 63.039000 1.000000 9.000000 -5.000000 100.449938 -36.873183 1782.317130 692.855822 15.863189 0.000000 0.060053
342.000000 65.133000 2.000000 9.000000 -5.000000 106.225317 -28.945571 1570.263756 583.080456 15.351938 0.000000 0.068973
343.000000 65.887000 3.000000 9.000000 -5.000000 110.714247 -20.228056 1371.597674 507.244012 15.175264 0.000000 0.102496
344.000000 65.386000 4.000000 9.000000 -5.000000 113.730559 -11.045109 1185.089933 458.925383 15.290927 0.000000 0.123602
345.000000 63.829000 5.000000 9.000000 -5.000000 115.256067 -1.844333 1009.657538 432.984174 15.663508 0.000000 0.130328
346.000000 61.476000 6.000000 9.000000 -5.000000 115.439123 6.921598 844.342410 425.278402 16.263091 0.000000 0.124516
347.000000 58.590000 7.000000 9.000000 -5.000000 114.540410 14.916224 688.293876 432.450942 17.064229 0.000000 0.108361
348.000000 55.407000 8.000000 9.000000 -5.000000 112.857232 21.972301 540.754033 451.766390 18.045143 0.000000 0.084131
349.000000 52.110000 9.000000 9.000000 -5.000000 110.663117 28.069625 401.045433 480.985304 19.187080 0.000000 0.055051
350.000000 48.837000 10.000000 9.000000 -5.000000 108.177884 33.279397 268.560686 518.266450 20.473811 0.000000 0.032718
351.000000 45.676000 11.000000 9.000000 -5.000000 105.562599 37.713049 142.753630 562.090225 21.891215 0.000000 0.050207
353.000000 49.731000 -1.000000 10.000000 -5.000000 83.743649 -46.891496 2124.811041 1113.661991 20.113397 0.000000 0.214014
354.000000 53.361000 0.000000 4.000000 -2.000000 90.242068 -41.292856 1920.309865 934.947877 7.497382 0.000000 0.117270
355.000000 56.183000 1.000000 10.000000 -5.000000 96.202232 -34.965648 1727.668100 798.271496 17.800647 0.000000 0.075845
356.000000 58.043000 2.000000 10.000000 -5.000000 101.368573 -27.942173 1545.883191 696.037838 17.228899 0.000000 0.091619
357.000000 58.885000 3.000000 10.000000 -5.000000 105.523967 -20.343497 1374.062489 622.143710 16.981535 0.000000 0.118732
358.000000 58.751000 4.000000 10.000000 -5.000000 108.530030 -12.388318 1211.408594 571.649667 17.019397 0.000000 0.137638
359.000000 56.099000 6.000000 10.000000 -5.000000 111.075009 3.412776 910.815497 525.494990 17.823323 0.000000 0.144199
360.000000 53.939000 7.000000 10.000000 -5.000000 110.850210 10.698800 771.655441 523.822577 18.537094 0.000000 0.134049
361.000000 51.461000 8.000000 10.000000 -5.000000 109.881894 17.327547 639.203902 533.267724 19.429917 0.000000 0.116979
362.000000 48.814000 9.000000 10.000000 -5.000000 108.373975 23.232035 512.987199 551.962304 20.483796 0.000000 0.094819
363.000000 46.115000 4.000000 4.000000 -2.000000 106.506618 28.419547 392.575219 578.347228 8.673228 0.000000 0.070498
364.000000 48.050000 0.000000 11.000000 -5.000000 87.217341 -39.230877 1853.770437 1008.535232 20.816420 0.000000 0.113334
365.000000 50.442000 1.000000 11.000000 -5.000000 92.541530 -33.463264 1686.391662 883.733861 19.827911 0.000000 0.090696
366.000000 52.095000 2.000000 11.000000 -5.000000 97.215199 -27.165473 1527.320484 787.848452 19.197412 0.000000 0.106131
367.000000 52.963000 3.000000 11.000000 -5.000000 101.078468 -20.431940 1375.953376 716.111151 18.881857 0.000000 0.128909
368.000000 53.065000 4.000000 11.000000 -5.000000 104.025040 -13.416846 1231.743891 664.606609 18.844819 0.000000 0.146140
369.000000 52.477000 5.000000 11.000000 -5.000000 106.019068 -6.319568 1094.196066 630.100705 19.055283 0.000000 0.155260
370.000000 51.314000 6.000000 11.000000 -5.000000 107.098046 0.646305 962.858727 609.907769 19.486672 0.000000 0.156437
371.000000 49.708000 7.000000 11.000000 -5.000000 107.360308 7.289681 837.320539 601.786709 20.116083 0.000000 0.150543
372.000000 47.790000 8.000000 11.000000 -5.000000 106.942097 13.469741 717.205712 603.859112 20.923673 0.000000 0.138667
373.000000 45.676000 9.000000 11.000000 -5.000000 105.992631 19.106153 602.170234 614.544151 21.892166 0.000000 0.122033
374.000000 45.604000 1.000000 12.000000 -5.000000 89.366967 -32.250890 1654.114492 955.061322 21.932778 0.000000 0.101504
375.000000 47.076000 2.000000 12.000000 -5.000000 93.633524 -26.546652 1512.715168 864.598044 21.245537 0.000000 0.115262
376.000000 47.934000 3.000000 12.000000 -5.000000 97.239110 -20.501866 1377.449888 795.041029 20.864433 0.000000 0.134875
377.000000 48.183000 4.000000 12.000000 -5.000000 100.100054 -14.229197 1247.927974 743.213710 20.755484 0.000000 0.150767
378.000000 47.873000 5.000000 12.000000 -5.000000 102.180971 -7.870910 1123.791236 706.461526 20.889559 0.000000 0.160416
379.000000 47.078000 6.000000 12.000000 -5.000000 103.497530 -1.581225 1004.710661 682.555255 21.241540 0.000000 0.163602
380.000000 45.893000 7.000000 12.000000 -5.000000 104.110230 4.495254 890.383504 669.614442 21.789657 0.000000 0.160829
381.000000 87.522000 6.000000 5.000000 -4.000000 122.272435 36.925098 166.157908 90.784675 11.421513 0.000000 0.102610
382.000000 78.351000 7.000000 5.000000 -4.000000 116.354594 44.598537 -86.316112 192.149595 12.759443 0.000000 0.189105
387.000000 87.001000 5.000000 6.000000 -4.000000 122.120503 16.700937 652.077052 235.547511 11.490259 0.000000 0.066348
388.000000 72.882000 7.000000 6.000000 -4.000000 114.499643 35.497729 207.351114 338.538072 13.717605 0.000000 0.037542
389.000000 66.116000 4.000000 3.000000 -2.000000 110.061729 41.835337 11.486732 413.458249 7.561143 0.000000 0.108582
390.000000 59.917000 9.000000 6.000000 -4.000000 105.734637 46.756924 -169.411608 498.382739 16.687956 0.000000 0.187799
391.000000 54.360000 5.000000 3.000000 -2.000000 101.674743 50.636304 -336.996122 590.352292 9.197452 0.000000 0.272714
394.000000 69.341000 -1.000000 7.000000 -4.000000 85.026412 -52.116627 2358.388893 1093.532655 14.424573 0.000000 0.328730
395.000000 76.789000 0.000000 7.000000 -4.000000 94.629740 -44.596166 2036.228255 818.598401 13.023681 0.000000 0.145245
396.000000 82.038000 1.000000 7.000000 -4.000000 103.216609 -35.478469 1742.103178 630.596859 12.189018 0.000000 0.049074
397.000000 84.562000 2.000000 7.000000 -4.000000 110.045978 -24.808284 1472.506628 508.356842 11.824025 0.000000 0.080463
398.000000 84.350000 3.000000 7.000000 -4.000000 114.554727 -13.051085 1224.493095 436.223528 11.852918 0.000000 0.115059
399.000000 81.845000 4.000000 7.000000 -4.000000 116.576951 -1.094925 995.570534 402.475076 12.215385 0.000000 0.125181
400.000000 77.725000 5.000000 7.000000 -4.000000 116.404382 10.082789 783.616331 398.237747 12.862829 0.000000 0.114460
401.000000 72.682000 6.000000 7.000000 -4.000000 114.617967 19.832930 586.811299 416.729052 13.755655 0.000000 0.087646
402.000000 67.277000 7.000000 7.000000 -4.000000 111.835829 27.964167 403.587324 452.721162 14.861281 0.000000 0.050344
403.000000 61.901000 8.000000 7.000000 -4.000000 108.553482 34.597432 232.585497 502.154920 16.152646 0.000000 0.028737
404.000000 56.790000 9.000000 7.000000 -4.000000 105.106507 39.976860 72.622354 561.858525 17.607092 0.000000 0.073094
405.000000 52.066000 10.000000 7.000000 -4.000000 101.697609 44.355191 -77.337555 629.340048 19.205503 0.000000 0.135398
406.000000 47.775000 11.000000 7.000000 -4.000000 98.437687 47.948900 -218.204104 702.632732 20.931637 0.000000 0.203671
409.000000 60.903000 -1.000000 8.000000 -4.000000 82.065324 -48.179867 2177.918698 1165.975128 16.424227 0.000000 0.244856
410.000000 70.927000 1.000000 8.000000 -4.000000 97.577702 -33.272006 1681.240668 769.745121 14.099913 0.000000 0.076097
411.000000 73.588000 3.000000 8.000000 -4.000000 107.889955 -14.395389 1251.253067 582.313155 13.588075 0.000000 0.133911
412.000000 69.498000 5.000000 8.000000 -4.000000 111.099911 5.288723 875.368862 523.918956 14.387117 0.000000 0.142398
413.000000 65.912000 3.000000 4.000000 -2.000000 110.445920 14.101591 704.621795 527.280199 7.584923 0.000000 0.126275
414.000000 61.856000 7.000000 8.000000 -4.000000 108.791130 21.824407 543.981076 546.511500 16.164896 0.000000 0.100710
415.000000 53.494000 9.000000 8.000000 -4.000000 103.884431 33.978049 249.630138 620.173972 18.692740 0.000000 0.049450
416.000000 49.541000 5.000000 4.000000 -2.000000 101.130154 38.643856 114.455910 669.889539 10.092612 0.000000 0.065925
417.000000 45.856000 11.000000 8.000000 -4.000000 98.377165 42.567130 -13.564362 725.795375 21.808066 0.000000 0.110208
419.000000 53.960000 -1.000000 9.000000 -4.000000 79.436128 -45.076238 2054.162347 1225.240326 18.538659 0.000000 0.202504
420.000000 58.570000 0.000000 9.000000 -4.000000 86.520865 -38.777484 1839.666661 1024.936521 17.077663 0.000000 0.113448
421.000000 62.031000 1.000000 9.000000 -4.000000 92.911645 -31.645950 1638.331091 876.696436 16.123646 0.000000 0.095535
422.000000 64.109000 2.000000 9.000000 -4.000000 98.272320 -23.767825 1448.980551 770.014711 15.599671 0.000000 0.120029
423.000000 64.753000 3.000000 9.000000 -4.000000 102.346330 -15.356200 1270.575812 696.695939 15.443619 0.000000 0.144070
424.000000 64.082000 4.000000 9.000000 -4.000000 105.015549 -6.739846 1102.194419 650.285682 15.604785 0.000000 0.156887
425.000000 62.336000 5.000000 9.000000 -4.000000 106.323190 1.702212 943.014737 625.657443 16.041372 0.000000 0.157974
426.000000 59.811000 6.000000 9.000000 -4.000000 106.447780 9.633942 792.302546 618.708596 16.718617 0.000000 0.148864
427.000000 56.792000 7.000000 9.000000 -4.000000 105.642989 16.831603 649.399714 626.133670 17.607373 0.000000 0.131587
428.000000 53.523000 8.000000 9.000000 -4.000000 104.174394 23.199330 513.714590 645.253331 18.683013 0.000000 0.108633
429.000000 50.189000 9.000000 9.000000 -4.000000 102.276365 28.742263 384.713817 673.884030 19.924595 0.000000 0.083978
430.000000 46.918000 10.000000 9.000000 -4.000000 100.133769 33.525943 261.915327 710.237671 21.314190 0.000000 0.066462
431.000000 48.219000 -1.000000 10.000000 -4.000000 77.122045 -42.580171 1964.016087 1275.181776 20.746887 0.000000 0.180495
432.000000 51.956000 0.000000 5.000000 -2.000000 83.353046 -36.805194 1780.323170 1097.649183 9.626512 0.000000 0.116308
433.000000 54.832000 1.000000 10.000000 -4.000000 89.008406 -30.399755 1606.451927 962.598251 18.241668 0.000000 0.107386
434.000000 56.688000 1.000000 5.000000 -2.000000 93.848339 -23.439492 1441.635153 862.088811 8.821709 0.000000 0.127601
435.000000 57.473000 3.000000 10.000000 -4.000000 97.687215 -16.076761 1285.183521 789.811086 17.401569 0.000000 0.148656
436.000000 57.247000 2.000000 5.000000 -2.000000 100.427713 -8.532421 1136.475941 740.708055 8.734673 0.000000 0.161828
437.000000 56.158000 5.000000 10.000000 -4.000000 102.075936 -1.061973 994.951327 710.695705 17.807810 0.000000 0.165908
438.000000 54.396000 3.000000 5.000000 -2.000000 102.730990 6.093463 860.101518 696.453146 9.192147 0.000000 0.161645
439.000000 52.163000 7.000000 10.000000 -4.000000 102.554228 12.749711 731.465182 695.263314 19.171179 0.000000 0.150348
440.000000 49.642000 4.000000 5.000000 -2.000000 101.731861 18.798903 608.622542 704.890788 10.072482 0.000000 0.133605
441.000000 46.982000 9.000000 10.000000 -4.000000 100.443961 24.204578 491.190802 723.487165 21.285522 0.000000 0.113465
442.000000 46.516000 0.000000 11.000000 -4.000000 80.638666 -35.220721 1734.825191 1158.193426 21.505711 0.000000 0.119761
443.000000 48.940000 1.000000 11.000000 -4.000000 85.706952 -29.415097 1581.834341 1033.752934 20.439283 0.000000 0.114218
444.000000 50.593000 2.000000 11.000000 -4.000000 90.117206 -23.183083 1435.924204 938.604900 19.770496 0.000000 0.130986
445.000000 51.431000 3.000000 11.000000 -4.000000 93.730675 -16.637006 1296.614336 867.754290 19.447358 0.000000 0.149706
446.000000 51.483000 4.000000 11.000000 -4.000000 96.467211 -9.932201 1163.466795 817.139283 19.426563 0.000000 0.162917
447.000000 50.840000 5.000000 11.000000 -4.000000 98.315562 -3.248150 1036.081545 783.433956 19.671751 0.000000 0.169005
448.000000 49.627000 6.000000 11.000000 -4.000000 99.329513 3.238917 914.092444 763.897848 20.152166 0.000000 0.168200
449.000000 47.985000 7.000000 11.000000 -4.000000 99.611752 9.382222 797.163725 756.260058 20.841617 0.000000 0.161330
450.000000 46.049000 8.000000 11.000000 -4.000000 99.291723 15.080477 684.986912 758.629084 21.717664 0.000000 0.149472
451.000000 45.532000 1.000000 6.000000 -2.000000 86.934505 -22.977306 1431.356792 1003.607259 10.984548 0.000000 0.131768
452.000000 46.374000 3.000000 12.000000 -4.000000 90.337494 -17.085002 1305.802985 934.367443 21.569053 0.000000 0.148533
453.000000 46.599000 1.000000 3.000000 -1.000000 93.027679 -11.054302 1185.269204 882.996211 5.366089 0.000000 0.161563
454.000000 46.260000 5.000000 12.000000 -4.000000 94.986195 -5.015676 1069.460277 846.736806 21.620969 0.000000 0.168998
457.000000 84.430000 6.000000 5.000000 -3.000000 109.131009 36.889306 167.209495 474.190414 11.842423 0.000000 0.040781
458.000000 74.855000 7.000000 5.000000 -3.000000 104.165224 43.664441 -52.251950 565.480332 13.358131 0.000000 0.125678
459.000000 66.412000 8.000000 5.000000 -3.000000 99.455325 48.763530 -252.863182 669.070520 15.057230 0.000000 0.222519
464.000000 78.284000 -1.000000 6.000000 -3.000000 79.239357 -50.232202 2268.285855 1260.767233 12.778186 0.000000 0.301949
465.000000 84.318000 5.000000 6.000000 -3.000000 109.429658 19.377072 596.460994 538.554297 11.858479 0.000000 0.110051
466.000000 69.533000 7.000000 6.000000 -3.000000 102.973129 35.624927 203.740504 635.960591 14.381117 0.000000 0.050079
467.000000 62.736000 8.000000 6.000000 -3.000000 99.288831 41.333118 28.349547 706.563161 15.940138 0.000000 0.093875
468.000000 56.626000 3.000000 2.000000 -1.000000 95.705994 45.882835 -134.983961 786.513776 5.886907 0.000000 0.164330
469.000000 51.231000 10.000000 6.000000 -3.000000 92.345435 49.551215 -287.462056 873.050689 19.521332 0.000000 0.243418
473.000000 67.089000 -1.000000 7.000000 -3.000000 76.282001 -46.054818 2091.671423 1319.590655 14.911488 0.000000 0.232530
474.000000 74.955000 0.000000 7.000000 -3.000000 85.408728 -38.068778 1817.975815 1050.786282 13.344999 0.000000 0.114116
475.000000 80.368000 1.000000 7.000000 -3.000000 93.378694 -28.747523 1565.414736 868.525278 12.444763 0.000000 0.106277
476.000000 82.769000 2.000000 7.000000 -3.000000 99.514086 -18.332668 1331.631206 750.973536 12.082641 0.000000 0.139385
477.000000 82.229000 3.000000 7.000000 -3.000000 103.409221 -7.390573 1114.606157 682.257934 12.161375 0.000000 0.159079
478.000000 79.327000 4.000000 7.000000 -3.000000 105.072614 3.318108 912.599973 650.658601 12.605812 0.000000 0.159844
479.000000 74.866000 5.000000 7.000000 -3.000000 104.877541 13.121850 724.105761 647.406045 13.356963 0.000000 0.144693
480.000000 69.599000 6.000000 7.000000 -3.000000 103.365801 21.648455 547.811693 665.862443 14.367878 0.000000 0.118201
481.000000 64.101000 7.000000 7.000000 -3.000000 101.055584 28.829906 382.570432 700.953227 15.600725 0.000000 0.087431
482.000000 58.741000 8.000000 7.000000 -3.000000 98.345221 34.784988 227.374134 748.765434 17.024678 0.000000 0.069326
483.000000 53.727000 9.000000 7.000000 -3.000000 95.501519 39.703448 81.333871 806.259433 18.614367 0.000000 0.088907
484.000000 49.149000 10.000000 7.000000 -3.000000 92.686316 43.778037 -56.337401 871.059084 20.348722 0.000000 0.137441
486.000000 58.287000 -1.000000 8.000000 -3.000000 73.740012 -42.873086 1974.212620 1369.340541 17.164163 0.000000 0.199711
487.000000 64.289000 0.000000 8.000000 -3.000000 81.498520 -35.712921 1748.763998 1139.141893 15.560264 0.000000 0.118680
488.000000 68.599000 1.000000 8.000000 -3.000000 88.350819 -27.613613 1537.998708 975.971733 14.581172 0.000000 0.117112
489.000000 70.862000 2.000000 8.000000 -3.000000 93.853933 -18.758345 1340.527514 864.427679 14.114557 0.000000 0.143681
490.000000 71.064000 3.000000 8.000000 -3.000000 97.724635 -9.501097 1155.131076 792.977549 14.073490 0.000000 0.162883
491.000000 69.500000 4.000000 8.000000 -3.000000 99.914693 -0.305283 980.734750 752.869476 14.389655 0.000000 0.168549
492.000000 66.633000 5.000000 8.000000 -3.000000 100.600937 8.383273 816.387738 737.383126 15.008612 0.000000 0.161718
493.000000 62.951000 6.000000 8.000000 -3.000000 100.099896 16.252113 661.245752 741.304903 15.886451 0.000000 0.144991
494.000000 58.872000 7.000000 8.000000 -3.000000 98.762734 23.161455 514.556504 760.553629 16.987359 0.000000 0.121832
495.000000 54.704000 8.000000 8.000000 -3.000000 96.900536 29.111980 375.647507 791.909308 18.281838 0.000000 0.097726
496.000000 50.651000 9.000000 8.000000 -3.000000 94.753152 34.186721 243.915767 832.813819 19.745372 0.000000 0.083397
497.000000 46.829000 10.000000 8.000000 -3.000000 92.488791 38.501886 118.819031 881.222589 21.357416 0.000000 0.092904
498.000000 45.753000 -2.000000 9.000000 -3.000000 64.456783 -46.110797 2093.857149 1682.941617 21.868949 0.000000 0.303593
499.000000 51.282000 -1.000000 9.000000 -3.000000 71.567861 -40.383139 1890.452219 1411.910396 19.509838 0.000000 0.182597
500.000000 55.990000 0.000000 3.000000 -1.000000 78.295349 -33.921768 1698.833453 1209.716381 5.955931 0.000000 0.122332
501.000000 59.492000 1.000000 9.000000 -3.000000 84.300780 -26.771573 1518.005284 1061.309723 16.814576 0.000000 0.121417
502.000000 61.552000 2.000000 9.000000 -3.000000 89.280032 -19.070566 1347.081198 955.310630 16.250803 0.000000 0.143176
503.000000 61.381000 4.000000 9.000000 -3.000000 95.479990 -3.024068 1031.859563 837.600013 16.294578 0.000000 0.170187
504.000000 59.570000 5.000000 9.000000 -3.000000 96.716588 4.715764 886.214376 813.818027 16.789361 0.000000 0.168891
505.000000 57.015000 2.000000 3.000000 -1.000000 96.922004 11.921941 747.758725 807.454064 5.847165 0.000000 0.159142
506.000000 54.012000 7.000000 9.000000 -3.000000 96.328844 18.447508 615.973084 815.161176 18.517078 0.000000 0.143020
507.000000 50.800000 8.000000 9.000000 -3.000000 95.167650 24.240174 490.386803 834.250399 19.687917 0.000000 0.123297
508.000000 47.558000 3.000000 3.000000 -1.000000 93.636553 29.317783 370.572496 862.547500 7.010122 0.000000 0.104286
509.000000 45.626000 -1.000000 10.000000 -3.000000 69.707879 -38.388466 1827.707630 1448.726104 21.929373 0.000000 0.172592
510.000000 49.407000 0.000000 10.000000 -3.000000 75.635774 -32.516545 1661.112096 1267.870671 20.249727 0.000000 0.124240
511.000000 52.302000 1.000000 10.000000 -3.000000 80.978413 -26.121820 1502.779480 1131.323628 19.127250 0.000000 0.122256
512.000000 54.151000 2.000000 10.000000 -3.000000 85.518551 -19.309342 1352.109913 1030.383667 18.473326 0.000000 0.140142
513.000000 54.909000 3.000000 10.000000 -3.000000 89.102652 -12.243585 1208.560220 958.250304 18.217188 0.000000 0.157483
514.000000 54.653000 4.000000 10.000000 -3.000000 91.666935 -5.130666 1071.637378 909.551991 18.301635 0.000000 0.167861
515.000000 53.545000 5.000000 10.000000 -3.000000 93.241888 1.815063 940.892854 880.005847 18.679933 0.000000 0.170331
516.000000 51.788000 6.000000 10.000000 -3.000000 93.934598 8.407762 815.917702 866.168394 19.313522 0.000000 0.165625
517.000000 49.587000 7.000000 10.000000 -3.000000 93.897737 14.515621 696.338287 865.250352 20.170309 0.000000 0.155057
518.000000 47.127000 8.000000 10.000000 -3.000000 93.297637 20.068054 581.812557 874.977272 21.223361 0.000000 0.140329
519.000000 46.521000 1.000000 11.000000 -3.000000 78.209152 -25.605361 1490.797636 1190.137448 21.505537 0.000000 0.121290
520.000000 48.170000 2.000000 11.000000 -3.000000 82.377174 -19.497855 1356.090451 1093.807673 20.768008 0.000000 0.135866
521.000000 48.999000 3.000000 11.000000 -3.000000 85.785295 -13.182689 1227.099502 1022.462561 20.415586 0.000000 0.151993
522.000000 49.045000 4.000000 11.000000 -3.000000 88.375122 -6.806728 1103.468499 971.748041 20.395639 0.000000 0.163325
523.000000 48.405000 5.000000 11.000000 -3.000000 90.152133 -0.525416 984.870159 938.142074 20.664708 0.000000 0.168378
524.000000 47.212000 6.000000 11.000000 -3.000000 91.177537 5.519058 871.003316 918.773953 21.186591 0.000000 0.167356
525.000000 45.609000 7.000000 11.000000 -3.000000 91.551121 11.215246 761.590360 911.287856 21.930893 0.000000 0.161079
528.000000 73.186000 7.000000 4.000000 -2.000000 90.764759 51.123014 -359.962985 918.110256 13.665629 0.000000 0.284770
533.000000 87.726000 -1.000000 5.000000 -2.000000 70.569250 -47.713382 2158.387081 1505.283610 11.404565 0.000000 0.293833
534.000000 88.597000 5.000000 5.000000 -2.000000 98.845912 28.982901 378.820163 749.517133 11.287757 0.000000 0.093183
535.000000 78.299000 6.000000 5.000000 -2.000000 95.183513 36.862121 168.007511 818.964686 12.772842 0.000000 0.079497
536.000000 69.078000 7.000000 5.000000 -2.000000 91.392112 42.926312 -26.075844 905.279269 14.478468 0.000000 0.130422
537.000000 61.111000 8.000000 5.000000 -2.000000 87.783544 47.639971 -205.345263 1002.824648 16.366672 0.000000 0.212520
538.000000 54.338000 9.000000 5.000000 -2.000000 84.480559 51.362339 -371.434469 1107.568035 18.407731 0.000000 0.305785
542.000000 72.889000 -1.000000 6.000000 -2.000000 68.039532 -43.338493 1990.614479 1537.700766 13.726894 0.000000 0.236114
543.000000 90.883000 3.000000 6.000000 -2.000000 96.240534 0.899388 958.103727 823.292053 11.004947 0.000000 0.170706
544.000000 78.629000 5.000000 6.000000 -2.000000 95.805899 21.435626 552.432688 823.429562 12.719776 0.000000 0.133392
545.000000 64.326000 7.000000 6.000000 -2.000000 90.973110 35.727096 200.832040 918.480493 15.548632 0.000000 0.093484
546.000000 57.923000 4.000000 3.000000 -1.000000 88.168097 40.919635 42.038841 986.556488 8.634006 0.000000 0.121860
547.000000 52.235000 9.000000 6.000000 -2.000000 85.418266 45.147048 -106.833064 1063.291929 19.149028 0.000000 0.178416
548.000000 47.254000 5.000000 3.000000 -1.000000 82.821350 48.620226 -246.685324 1146.068828 10.584021 0.000000 0.248016
550.000000 61.900000 -1.000000 7.000000 -2.000000 65.947814 -40.152031 1882.995685 1569.482899 16.164498 0.000000 0.208244
551.000000 69.918000 0.000000 7.000000 -2.000000 74.470694 -31.922129 1645.511061 1293.364738 14.309490 0.000000 0.124681
552.000000 75.377000 1.000000 7.000000 -2.000000 81.806089 -22.667565 1424.507915 1108.952904 13.271908 0.000000 0.129154
553.000000 77.716000 2.000000 7.000000 -2.000000 87.376588 -12.739240 1218.328060 991.559532 12.871498 0.000000 0.154856
554.000000 77.078000 3.000000 7.000000 -2.000000 90.914622 -2.687878 1025.528528 923.798553 12.977375 0.000000 0.168608
555.000000 74.134000 4.000000 7.000000 -2.000000 92.526325 6.895085 844.847755 893.166561 13.492205 0.000000 0.166954
556.000000 69.740000 5.000000 7.000000 -2.000000 92.587378 15.566181 675.177936 890.511498 14.342101 0.000000 0.152861
557.000000 64.655000 6.000000 7.000000 -2.000000 91.564686 23.117081 515.542300 909.033477 15.469964 0.000000 0.131332
558.000000 59.428000 7.000000 7.000000 -2.000000 89.878862 29.539734 365.076286 943.615561 16.830972 0.000000 0.110304
559.000000 54.392000 8.000000 7.000000 -2.000000 87.846802 34.941331 223.011886 990.365258 18.389447 0.000000 0.102985
560.000000 49.723000 9.000000 7.000000 -2.000000 85.681282 39.471682 88.664525 1046.294074 20.116639 0.000000 0.121152
561.000000 45.490000 10.000000 7.000000 -2.000000 83.513621 43.281090 -38.577962 1109.089591 21.989120 0.000000 0.161442
563.000000 53.552000 -1.000000 8.000000 -2.000000 64.221815 -37.741381 1808.097115 1598.318636 18.685196 0.000000 0.192469
564.000000 59.590000 0.000000 4.000000 -1.000000 71.494922 -30.457220 1607.903809 1358.895365 8.395259 0.000000 0.124738
565.000000 63.911000 1.000000 8.000000 -2.000000 77.865455 -22.445535 1419.617507 1191.384767 15.654103 0.000000 0.124201
566.000000 66.159000 1.000000 4.000000 -1.000000 82.951356 -13.942664 1242.206589 1078.119884 7.560563 0.000000 0.145877
567.000000 66.353000 3.000000 8.000000 -2.000000 86.545434 -5.295274 1074.755263 1006.250823 15.076226 0.000000 0.161669
568.000000 64.822000 2.000000 4.000000 -1.000000 88.657450 3.113919 916.447751 966.261562 7.715843 0.000000 0.166107
569.000000 62.054000 5.000000 8.000000 -2.000000 89.477601 10.960732 766.555001 950.995824 16.119621 0.000000 0.160141
570.000000 58.541000 3.000000 4.000000 -1.000000 89.291384 18.041753 624.423458 955.000335 8.543335 0.000000 0.146494
571.000000 54.689000 7.000000 8.000000 -2.000000 88.395601 24.280937 489.465539 974.071861 18.290316 0.000000 0.129095
572.000000 50.785000 4.000000 4.000000 -1.000000 87.045972 29.697633 361.151516 1004.938471 9.848127 0.000000 0.113876
573.000000 47.014000 9.000000 8.000000 -2.000000 85.438265 34.365315 239.002562 1045.031269 21.276510 0.000000 0.109352
574.000000 47.051000 -1.000000 9.000000 -2.000000 62.787192 -35.860106 1752.965602 1623.885422 21.267764 0.000000 0.182408
575.000000 51.750000 0.000000 9.000000 -2.000000 69.121480 -29.339193 1579.956636 1411.940004 19.335192 0.000000 0.123854
576.000000 55.247000 1.000000 9.000000 -2.000000 74.749723 -22.278586 1415.950602 1258.108799 18.110189 0.000000 0.118813
577.000000 57.306000 2.000000 9.000000 -2.000000 79.406550 -14.844446 1260.262585 1149.245875 17.458243 0.000000 0.136504
578.000000 57.905000 3.000000 9.000000 -2.000000 82.931792 -7.268518 1112.275431 1075.534210 17.276906 0.000000 0.152801
579.000000 57.208000 4.000000 9.000000 -2.000000 85.297920 0.189963 971.431561 1029.527313 17.486775 0.000000 0.160967
580.000000 55.497000 5.000000 9.000000 -2.000000 86.598180 7.294635 837.225959 1005.500011 18.025360 0.000000 0.160608
581.000000 53.088000 6.000000 9.000000 -2.000000 87.005270 13.872105 709.200118 998.998544 18.842808 0.000000 0.153188
582.000000 50.270000 7.000000 9.000000 -2.000000 86.722305 19.827018 586.936804 1006.522465 19.898860 0.000000 0.140987
583.000000 47.272000 8.000000 9.000000 -2.000000 85.944236 25.133666 470.055517 1025.295709 21.160652 0.000000 0.127157
584.000000 45.629000 0.000000 5.000000 -1.000000 67.188116 -28.458500 1558.371130 1455.916382 10.964769 0.000000 0.122745
585.000000 48.513000 1.000000 10.000000 -2.000000 72.227937 -22.148484 1413.099097 1313.465771 20.624966 0.000000 0.113812
586.000000 50.364000 1.000000 5.000000 -1.000000 76.510445 -15.545045 1274.394265 1208.990992 9.932960 0.000000 0.127594
587.000000 51.147000 3.000000 10.000000 -2.000000 79.910737 -8.810501 1141.821157 1134.795862 19.560814 0.000000 0.143427
588.000000 50.945000 2.000000 5.000000 -1.000000 82.388680 -2.127434 1014.981970 1084.923954 9.818736 0.000000 0.153782
589.000000 49.925000 5.000000 10.000000 -2.000000 83.986190 4.329666 893.512581 1054.709890 20.038254 0.000000 0.157279
590.000000 48.289000 3.000000 5.000000 -1.000000 84.806849 10.419773 777.079059 1040.460935 10.358282 0.000000 0.154548
591.000000 46.240000 7.000000 10.000000 -2.000000 84.987587 16.049324 665.374598 1039.227011 21.634333 0.000000 0.146983
592.000000 45.657000 3.000000 11.000000 -2.000000 77.356836 -10.047017 1165.690529 1186.191797 21.913618 0.000000 0.134262
593.000000 45.751000 4.000000 11.000000 -2.000000 79.863695 -4.003576 1050.329330 1133.891621 21.868140 0.000000 0.145758
598.000000 86.952000 5.000000 4.000000 -1.000000 83.710636 38.378902 122.584784 1092.318297 11.504019 0.000000 0.122539
599.000000 74.509000 6.000000 4.000000 -1.000000 80.228231 44.821218 -94.598363 1202.327601 13.425698 0.000000 0.194018
600.000000 64.318000 7.000000 4.000000 -1.000000 76.983834 49.678321 -293.149633 1325.500612 15.553420 0.000000 0.295215
604.000000 75.007000 -1.000000 5.000000 -1.000000 55.636526 -39.763548 1870.575120 1898.402995 13.341977 0.000000 0.272199
605.000000 87.904000 4.000000 5.000000 -1.000000 84.672485 21.172978 558.116821 1048.631915 11.380073 0.000000 0.136486
606.000000 78.350000 5.000000 5.000000 -1.000000 83.066120 29.907338 355.919907 1091.999935 12.767758 0.000000 0.117771
607.000000 69.279000 6.000000 5.000000 -1.000000 80.793868 36.840773 168.633803 1158.966739 14.439631 0.000000 0.125861
608.000000 61.235000 7.000000 5.000000 -1.000000 78.331935 42.328520 -5.332213 1241.643165 16.336628 0.000000 0.172057
609.000000 54.325000 8.000000 5.000000 -1.000000 75.922892 46.705373 -167.350362 1334.568057 18.414992 0.000000 0.242380
610.000000 48.466000 9.000000 5.000000 -1.000000 73.674199 50.239276 -318.610636 1433.909776 20.641614 0.000000 0.324831
612.000000 62.546000 -1.000000 6.000000 -1.000000 54.873487 -36.724089 1777.949178 1885.670755 16.000372 0.000000 0.241297
613.000000 73.501000 0.000000 6.000000 -1.000000 64.234877 -27.160712 1527.207500 1524.877333 13.614598 0.000000 0.120967
614.000000 80.549000 1.000000 6.000000 -1.000000 72.074477 -16.562409 1295.088507 1304.233754 12.422289 0.000000 0.112455
615.000000 82.803000 2.000000 6.000000 -1.000000 77.662218 -5.550445 1079.591813 1177.522642 12.083186 0.000000 0.137566
616.000000 80.844000 3.000000 6.000000 -1.000000 80.833674 5.097342 878.993627 1115.362117 12.375148 0.000000 0.148728
617.000000 76.095000 4.000000 6.000000 -1.000000 81.952056 14.741776 691.800545 1098.361781 13.146994 0.000000 0.143770
618.000000 69.996000 5.000000 6.000000 -1.000000 81.619362 23.064377 516.712306 1113.337431 14.292259 0.000000 0.130069
619.000000 63.583000 6.000000 6.000000 -1.000000 80.408211 30.040295 352.591544 1151.105635 15.733804 0.000000 0.119864
620.000000 57.447000 7.000000 6.000000 -1.000000 78.743925 35.810960 198.439055 1205.142515 17.414370 0.000000 0.128288
621.000000 51.860000 8.000000 6.000000 -1.000000 76.900039 40.573314 53.373434 1270.738317 19.290555 0.000000 0.161501
622.000000 46.905000 9.000000 6.000000 -1.000000 75.036171 44.519339 -83.385785 1344.448062 21.328870 0.000000 0.213198
623.000000 53.473000 -1.000000 7.000000 -1.000000 54.233856 -34.520176 1715.274735 1881.959360 18.715799 0.000000 0.222797
624.000000 61.328000 0.000000 7.000000 -1.000000 62.089708 -26.251005 1505.793078 1576.676554 16.317466 0.000000 0.120202
625.000000 66.743000 1.000000 7.000000 -1.000000 68.845218 -17.265269 1309.512768 1377.142322 14.992577 0.000000 0.101340
626.000000 69.179000 2.000000 7.000000 -1.000000 74.030228 -7.945739 1125.224020 1251.993713 14.463771 0.000000 0.122012
627.000000 68.804000 3.000000 7.000000 -1.000000 77.469893 1.231626 951.860488 1180.257400 14.541666 0.000000 0.137989
628.000000 66.290000 4.000000 7.000000 -1.000000 79.296217 9.831688 788.478618 1147.473874 15.092534 0.000000 0.141640
629.000000 62.453000 5.000000 7.000000 -1.000000 79.834782 17.568018 634.240470 1143.422581 16.019262 0.000000 0.135729
630.000000 57.998000 6.000000 7.000000 -1.000000 79.462047 24.328080 488.399340 1160.728440 17.249617 0.000000 0.126142
631.000000 53.417000 7.000000 7.000000 -1.000000 78.509315 30.132119 350.287677 1193.977073 18.728763 0.000000 0.121240
632.000000 49.006000 8.000000 7.000000 -1.000000 77.226816 35.073653 219.306860 1239.135613 20.414317 0.000000 0.129891
633.000000 46.616000 -1.000000 8.000000 -1.000000 53.701757 -32.853443 1670.046055 1882.081631 21.469064 0.000000 0.210634
634.000000 52.513000 0.000000 8.000000 -1.000000 60.463138 -25.578260 1490.171772 1617.114048 19.057189 0.000000 0.120310
635.000000 56.789000 1.000000 8.000000 -1.000000 66.393867 -17.779797 1320.141699 1434.951144 17.621232 0.000000 0.093893
636.000000 59.102000 2.000000 8.000000 -1.000000 71.174501 -9.710079 1159.169224 1313.268223 16.930637 0.000000 0.108521
637.000000 59.480000 3.000000 8.000000 -1.000000 74.652570 -1.679028 1006.549370 1236.525544 16.822173 0.000000 0.126018
638.000000 58.249000 4.000000 8.000000 -1.000000 76.860727 6.012028 861.648470 1193.628815 17.177027 0.000000 0.134956
639.000000 55.873000 5.000000 8.000000 -1.000000 77.971674 13.132472 723.895372 1176.488245 17.906661 0.000000 0.135304
640.000000 52.813000 6.000000 8.000000 -1.000000 78.224456 19.551557 592.773917 1179.098779 18.943742 0.000000 0.130069
641.000000 49.439000 7.000000 8.000000 -1.000000 77.860322 25.231280 467.816476 1196.934825 20.236160 0.000000 0.123794
642.000000 46.013000 8.000000 8.000000 -1.000000 77.085659 30.199340 348.598374 1226.541345 21.742946 0.000000 0.122269
643.000000 45.857000 0.000000 9.000000 -1.000000 59.188384 -25.060690 1478.272901 1649.604211 21.823562 0.000000 0.121014
644.000000 49.313000 1.000000 9.000000 -1.000000 64.471615 -18.172686 1328.299088 1482.005603 20.293354 0.000000 0.089432
645.000000 51.413000 2.000000 9.000000 -1.000000 68.880081 -11.061395 1185.407535 1364.607052 19.463356 0.000000 0.097441
646.000000 52.139000 3.000000 9.000000 -1.000000 72.287947 -3.938879 1049.108144 1285.552679 19.191506 0.000000 0.114388
647.000000 51.652000 4.000000 9.000000 -1.000000 74.685546 2.980824 918.955014 1236.131965 19.371740 0.000000 0.126334
648.000000 50.220000 5.000000 9.000000 -1.000000 76.161642 9.518047 794.541577 1209.828184 19.923264 0.000000 0.131173
649.000000 48.140000 6.000000 9.000000 -1.000000 76.865386 15.550450 675.496345 1201.689646 20.783456 0.000000 0.130249
650.000000 45.678000 7.000000 9.000000 -1.000000 76.966405 21.017171 561.479215 1207.903199 21.903025 0.000000 0.126172
651.000000 46.259000 3.000000 10.000000 -1.000000 70.289334 -5.739065 1083.169648 1328.537683 21.631401 0.000000 0.103778
652.000000 46.206000 4.000000 10.000000 -1.000000 72.762950 0.529533 965.052503 1274.945812 21.655351 0.000000 0.117147
656.000000 173.527000 0.000000 2.000000 0.000000 48.758871 -21.099836 1390.303849 1952.399718 5.768117 0.000000 0.163209
657.000000 162.384000 2.000000 2.000000 0.000000 67.170810 30.633880 337.622022 1467.564733 6.162080 0.000000 0.133796
658.000000 122.688000 3.000000 2.000000 0.000000 64.732111 43.977648 -63.554152 1646.970816 8.155543 0.000000 0.261268
661.000000 135.329000 1.000000 3.000000 0.000000 61.364804 -1.006462 993.908207 1528.763340 7.395395 0.000000 0.041629
662.000000 127.176000 2.000000 3.000000 0.000000 66.683219 17.007740 645.784816 1426.115694 7.868530 0.000000 0.096048
663.000000 89.764000 4.000000 3.000000 0.000000 65.700961 40.279040 62.912760 1577.965063 11.146886 0.000000 0.208888
664.000000 74.739000 5.000000 3.000000 0.000000 63.733776 47.106891 -183.509982 1721.374615 13.387733 0.000000 0.320441
668.000000 100.126000 1.000000 4.000000 0.000000 58.909727 -5.999246 1088.108775 1593.587067 9.995881 0.000000 0.032403
669.000000 100.291000 2.000000 4.000000 0.000000 64.844936 8.487807 814.380894 1452.032179 9.978405 0.000000 0.074704
670.000000 92.122000 3.000000 4.000000 0.000000 67.123333 20.840718 565.278672 1426.920346 10.862431 0.000000 0.104232
671.000000 70.573000 5.000000 4.000000 0.000000 66.150857 38.176457 128.755813 1546.265044 14.178282 0.000000 0.185997
674.000000 78.857000 1.000000 5.000000 0.000000 57.201243 -9.034568 1146.133984 1643.304232 12.692183 0.000000 0.042240
675.000000 81.267000 2.000000 5.000000 0.000000 62.977999 2.887199 920.718365 1490.617680 12.314714 0.000000 0.055946
676.000000 78.133000 3.000000 5.000000 0.000000 66.117837 13.732735 711.976184 1431.570795 12.807831 0.000000 0.088673
677.000000 72.016000 4.000000 5.000000 0.000000 67.266663 23.000754 518.123479 1430.907425 13.894880 0.000000 0.109101
678.000000 58.081000 6.000000 5.000000 0.000000 66.401972 36.823564 169.138416 1528.365565 17.227800 0.000000 0.173498
679.000000 51.878000 7.000000 5.000000 0.000000 65.321164 41.834617 11.511102 1604.771700 19.287374 0.000000 0.228876
680.000000 46.472000 8.000000 5.000000 0.000000 64.133101 45.916158 -136.276464 1691.099957 21.531027 0.000000 0.296095
682.000000 64.812000 1.000000 6.000000 0.000000 55.966416 -11.064367 1185.465493 1681.655046 15.442759 0.000000 0.055102
683.000000 59.053000 5.000000 6.000000 0.000000 67.318906 24.383229 487.151083 1434.856130 16.944931 0.000000 0.112500
684.000000 49.322000 7.000000 6.000000 0.000000 66.559235 35.881036 196.435664 1516.960274 20.287049 0.000000 0.165717
685.000000 54.912000 1.000000 7.000000 0.000000 55.038936 -12.513953 1213.883704 1711.852825 18.227046 0.000000 0.066492
686.000000 57.654000 2.000000 7.000000 0.000000 60.022209 -3.846229 1047.359668 1563.244159 17.359190 0.000000 0.033552
687.000000 57.929000 3.000000 7.000000 0.000000 63.576985 4.519681 889.921791 1477.484396 17.275847 0.000000 0.061802
688.000000 56.301000 4.000000 7.000000 0.000000 65.809396 12.273762 740.846159 1435.803399 17.774420 0.000000 0.085103
689.000000 53.465000 5.000000 7.000000 0.000000 66.967800 19.233744 599.483775 1425.624349 18.716539 0.000000 0.100790
690.000000 50.021000 6.000000 7.000000 0.000000 67.337067 25.342928 465.251103 1438.261102 20.004486 0.000000 0.115051
691.000000 47.585000 1.000000 8.000000 0.000000 54.319223 -13.599719 1235.377396 1736.142544 21.033706 0.000000 0.076032
692.000000 50.825000 3.000000 8.000000 0.000000 62.408913 1.440009 947.943903 1503.637572 19.691146 0.000000 0.050585
693.000000 48.426000 5.000000 8.000000 0.000000 66.354235 14.982305 686.964051 1428.828938 20.664796 0.000000 0.091574
706.000000 63.640000 2.000000 4.000000 1.000000 41.434057 12.470108 736.980341 2189.815411 15.729527 0.000000 0.211160
707.000000 62.321000 3.000000 4.000000 1.000000 45.680802 22.922427 519.858950 2082.127273 16.061131 0.000000 0.200262
708.000000 57.769000 4.000000 4.000000 1.000000 48.047016 31.348903 319.343940 2073.885922 17.325350 0.000000 0.238263
711.000000 51.825000 1.000000 5.000000 1.000000 37.620526 -3.702520 1044.648361 2340.482366 19.316251 0.000000 0.262400
712.000000 56.322000 2.000000 5.000000 1.000000 43.680932 6.863329 845.452972 2076.162859 17.773218 0.000000 0.167011
713.000000 56.450000 3.000000 5.000000 1.000000 47.808039 16.334968 659.556370 1957.688746 17.731639 0.000000 0.142745
714.000000 53.850000 4.000000 5.000000 1.000000 50.346875 24.448611 485.669783 1920.938561 18.586630 0.000000 0.164972
715.000000 49.992000 5.000000 5.000000 1.000000 51.761490 31.219753 322.665756 1932.752028 20.019756 0.000000 0.205346
716.000000 45.808000 6.000000 5.000000 1.000000 52.448009 36.809397 169.553672 1974.460138 21.847417 0.000000 0.254743
717.000000 46.011000 1.000000 6.000000 1.000000 39.626628 -6.381225 1095.368631 2248.889072 21.756489 0.000000 0.232346
718.000000 49.810000 2.000000 6.000000 1.000000 45.065720 2.764194 923.034631 2016.078894 20.096770 0.000000 0.142845
719.000000 50.675000 3.000000 6.000000 1.000000 49.045547 11.265199 760.614939 1893.457772 19.752651 0.000000 0.108737
720.000000 49.399000 4.000000 6.000000 1.000000 51.716851 18.863025 607.277927 1838.704058 20.261692 0.000000 0.120062
721.000000 46.866000 5.000000 6.000000 1.000000 53.362445 25.471870 462.282449 1827.602629 21.355457 0.000000 0.150095
722.000000 45.516000 3.000000 7.000000 1.000000 49.771035 7.300305 837.117702 1858.913061 21.991475 0.000000 0.088285
#UB matrix in q= (UB) B0 G* 
#[[-0.369879575 -0.412585877  0.831479808]
# [ 0.912939394 -0.327927789  0.243389171]
# [ 0.172426106  0.850072275  0.498581093]]
#B0 matrix in q= UB (B0) G*
#[[ 0.19670273 -0.          0.03056101]
# [ 0.          0.19187965 -0.        ]
# [ 0.          0.          0.18806537]]
#UBB0 matrix in q= (UB B0) G* i.e. recip. basis vectors are columns in LT frame: astar = UBB0[:,0], bstar = UBB0[:,1], cstar = UBB0[:,2]. (abcstar as columns on xyzlab1, xlab1 = ui, ui = unit vector along incident beam)
#[[-0.07275632 -0.07916683  0.14506867]
# [ 0.17957767 -0.06292267  0.07367342]
# [ 0.03391669  0.16311157  0.09903535]]
#Euler angles phi theta psi (deg)
#[168.532  60.141  73.712]
#deviatoric strain in direct crystal frame (10-3 unit)
#[[ 4.08  0.17 -0.68]
# [ 0.17  3.78 -0.87]
# [-0.68 -0.87 -7.87]]
#deviatoric strain in sample2 frame (10-3 unit)
#[[-7.06 -3.06  0.7 ]
# [-3.06  3.08  0.46]
# [ 0.68  0.46  3.99]]
#new lattice parameters
#[ 5.1505     5.2100268  5.3189043 90.0549693 99.2683882 89.9800397]
#CCDLabel
#sCMOS
#DetectorParameters
#[79.0, 975.0, 941.0, 0.0, 0.0]
#pixelsize
#0.0734
#Frame dimensions
#[2018, 2016]
#
