#Strain and Orientation Refinement from experimental file: /home/micha/LaueProjects/DepthEffects/testZrO2_64.cor
#File created at Wed Jun 28 14:22:24 2023 with indexingSpotsSet.py
#Number of indexed spots: 515
#Element
#ZrO2
#grainIndex
#G_0
#Mean Deviation(pixel): 0.114
##spot_index intensity h k l 2theta Chi Xexp Yexp Energy GrainIndex PixDev
0.000000 45.805000 3.000000 -1.000000 -4.000000 101.084283 -7.810464 1122.634229 728.171639 7.282308 0.000000 0.160416
1.000000 46.152000 10.000000 -3.000000 -12.000000 107.885101 -7.241926 1111.767805 590.882477 21.679961 0.000000 0.147939
2.000000 46.035000 11.000000 -3.000000 -12.000000 114.165735 -6.627313 1100.051466 454.818903 21.732266 0.000000 0.128681
3.000000 45.558000 4.000000 -1.000000 -4.000000 119.948142 -5.960947 1087.381439 317.528231 7.319338 0.000000 0.104695
4.000000 45.460000 4.000000 -1.000000 -6.000000 93.644006 -2.270884 1017.680640 872.401464 11.008003 0.000000 0.169614
5.000000 46.360000 9.000000 -2.000000 -12.000000 101.006666 -1.509452 1003.361442 731.586972 21.585394 0.000000 0.166607
6.000000 46.673000 5.000000 -1.000000 -6.000000 107.817550 -0.689951 987.961274 595.050937 10.718940 0.000000 0.154150
7.000000 46.513000 11.000000 -2.000000 -12.000000 114.089828 0.194148 971.352930 459.776844 21.509153 0.000000 0.134548
8.000000 45.987000 6.000000 -1.000000 -6.000000 119.847629 1.150322 953.388429 323.287242 10.876506 0.000000 0.109868
9.000000 45.550000 8.000000 -1.000000 -12.000000 92.874909 3.880442 901.994712 886.825618 21.972862 0.000000 0.169406
10.000000 46.458000 9.000000 -1.000000 -12.000000 100.230650 4.863725 883.415432 746.047655 21.540428 0.000000 0.166380
11.000000 46.768000 10.000000 -1.000000 -12.000000 107.020197 5.918241 863.429476 609.763438 21.394880 0.000000 0.153466
12.000000 46.598000 11.000000 -1.000000 -12.000000 113.257971 7.051225 841.870805 474.884774 21.470306 0.000000 0.133015
13.000000 46.058000 12.000000 -1.000000 -12.000000 118.969388 8.270780 818.546179 338.889470 21.719550 0.000000 0.107140
14.000000 46.073000 3.000000 0.000000 -4.000000 98.752769 11.153762 762.790481 772.098947 7.240289 0.000000 0.159695
15.000000 46.414000 5.000000 0.000000 -6.000000 105.493666 12.409919 738.166017 635.507515 10.779204 0.000000 0.145845
16.000000 46.272000 11.000000 0.000000 -12.000000 111.676101 13.751736 711.597912 500.585919 21.622084 0.000000 0.124018
17.000000 45.757000 4.000000 0.000000 -4.000000 117.325846 15.186650 682.846590 364.743834 7.287708 0.000000 0.096365
18.000000 45.616000 10.000000 1.000000 -12.000000 103.286145 18.629763 612.164431 672.796432 21.936283 0.000000 0.131647
19.000000 45.538000 11.000000 1.000000 -12.000000 109.398956 20.128409 580.526985 537.345282 21.971139 0.000000 0.107819
20.000000 45.626000 10.000000 -6.000000 -11.000000 108.794864 -28.098467 1549.650619 525.767693 21.928902 0.000000 0.057488
21.000000 45.491000 11.000000 -6.000000 -11.000000 114.998555 -28.349415 1555.722704 370.758694 21.991411 0.000000 0.026601
22.000000 46.497000 8.000000 -5.000000 -11.000000 96.797741 -22.124047 1412.564085 802.505452 21.523021 0.000000 0.124386
23.000000 47.241000 9.000000 -5.000000 -11.000000 104.157424 -22.126271 1412.612767 647.923179 21.181105 0.000000 0.109443
24.000000 47.413000 10.000000 -5.000000 -11.000000 110.967840 -22.128683 1412.665557 495.744924 21.101599 0.000000 0.087018
25.000000 47.130000 11.000000 -5.000000 -11.000000 117.245362 -22.131307 1412.722999 342.701353 21.226158 0.000000 0.059912
26.000000 46.498000 12.000000 -5.000000 -11.000000 123.016714 -22.134173 1412.785737 185.956196 21.512541 0.000000 0.033883
27.000000 45.610000 13.000000 -5.000000 -11.000000 128.314799 -22.137315 1412.854536 22.860396 21.929411 0.000000 0.030816
28.000000 46.830000 7.000000 -4.000000 -11.000000 90.174707 -16.321808 1290.175204 937.580330 21.373074 0.000000 0.146809
29.000000 48.213000 8.000000 -4.000000 -11.000000 98.233814 -16.089613 1285.445008 778.905857 20.756950 0.000000 0.144674
30.000000 48.862000 9.000000 -4.000000 -11.000000 105.703363 -15.837943 1280.330552 626.458364 20.478146 0.000000 0.131911
31.000000 48.912000 10.000000 -4.000000 -11.000000 112.588738 -15.564253 1274.783030 476.185454 20.454683 0.000000 0.111207
32.000000 48.493000 11.000000 -4.000000 -11.000000 118.911364 -15.265534 1268.745007 324.834290 20.629156 0.000000 0.085291
33.000000 47.722000 12.000000 -4.000000 -11.000000 124.703041 -14.938207 1262.148419 169.583502 20.960168 0.000000 0.057529
34.000000 46.700000 13.000000 -4.000000 -11.000000 130.001359 -14.577980 1254.912000 7.794744 21.417113 0.000000 0.034618
35.000000 45.508000 14.000000 -4.000000 -11.000000 134.846263 -14.179665 1246.937915 -163.175498 21.976876 0.000000 0.032566
36.000000 45.923000 6.000000 -3.000000 -11.000000 82.107268 -10.577522 1175.985990 1092.788280 21.799165 0.000000 0.145641
37.000000 48.172000 7.000000 -3.000000 -11.000000 90.881898 -10.120682 1167.118075 924.170472 20.777699 0.000000 0.160004
38.000000 49.514000 8.000000 -3.000000 -11.000000 99.046135 -9.626612 1157.555792 767.195818 20.211062 0.000000 0.159639
39.000000 50.086000 9.000000 -3.000000 -11.000000 106.585701 -9.090650 1147.214264 616.357557 19.977377 0.000000 0.147925
40.000000 50.036000 10.000000 -3.000000 -11.000000 113.509930 -8.507338 1135.994190 467.583068 19.994743 0.000000 0.127796
41.000000 49.508000 11.000000 -3.000000 -11.000000 119.844656 -7.870253 1123.778653 317.614092 20.206083 0.000000 0.101940
42.000000 48.626000 12.000000 -3.000000 -11.000000 125.625962 -7.171779 1110.429024 163.629184 20.570405 0.000000 0.073073
43.000000 47.497000 13.000000 -3.000000 -11.000000 130.895231 -6.402835 1095.779680 2.990518 21.057506 0.000000 0.044399
44.000000 46.206000 14.000000 -3.000000 -11.000000 135.695553 -5.552516 1079.631100 -166.947040 21.644644 0.000000 0.021303
45.000000 46.706000 6.000000 -2.000000 -11.000000 82.038644 -4.343088 1056.741005 1091.956582 21.433836 0.000000 0.150981
46.000000 48.977000 7.000000 -2.000000 -11.000000 90.899629 -3.633230 1043.341407 924.065144 20.436060 0.000000 0.167278
47.000000 50.301000 8.000000 -2.000000 -11.000000 99.119223 -2.866372 1028.889418 768.018790 19.895117 0.000000 0.167820
48.000000 50.825000 9.000000 -2.000000 -11.000000 106.685289 -2.035674 1013.255988 618.193711 19.686950 0.000000 0.156377
49.000000 50.711000 10.000000 -2.000000 -11.000000 113.610244 -1.133214 996.290071 470.457384 19.728690 0.000000 0.136037
50.000000 50.111000 11.000000 -2.000000 -11.000000 119.923259 -0.149786 977.813725 321.519700 19.962876 0.000000 0.109510
51.000000 49.157000 12.000000 -2.000000 -11.000000 125.663548 0.925353 957.615849 168.541195 20.348409 0.000000 0.079397
52.000000 47.958000 13.000000 -2.000000 -11.000000 130.875155 2.104785 935.444082 8.872378 20.855112 0.000000 0.048484
53.000000 46.603000 14.000000 -2.000000 -11.000000 135.603233 3.403296 910.994202 -160.141541 21.460335 0.000000 0.020639
54.000000 46.851000 6.000000 -1.000000 -11.000000 81.270166 2.031514 936.822259 1106.373706 21.367783 0.000000 0.150454
55.000000 49.159000 7.000000 -1.000000 -11.000000 90.156654 2.986990 918.838871 938.053261 20.360855 0.000000 0.167791
56.000000 50.494000 8.000000 -1.000000 -11.000000 98.380106 4.015860 899.438779 782.058275 19.819462 0.000000 0.168574
57.000000 51.011000 9.000000 -1.000000 -11.000000 105.929708 5.126172 878.447712 632.572472 19.615460 0.000000 0.156775
58.000000 50.879000 10.000000 -1.000000 -11.000000 112.819755 6.327053 855.661589 485.355488 19.663784 0.000000 0.135567
59.000000 50.255000 11.000000 -1.000000 -11.000000 119.081419 7.628860 830.839870 337.053720 19.905747 0.000000 0.107718
60.000000 49.276000 12.000000 -1.000000 -11.000000 124.755743 9.043342 803.697025 184.788347 20.299555 0.000000 0.076015
61.000000 48.052000 13.000000 -1.000000 -11.000000 129.888277 10.583823 773.891506 25.883767 20.814630 0.000000 0.044457
62.000000 46.673000 14.000000 -1.000000 -11.000000 134.525299 12.265368 741.011298 -142.334017 21.428092 0.000000 0.026436
63.000000 47.519000 7.000000 1.000000 -11.000000 86.383508 15.938350 667.630501 1011.745346 21.064933 0.000000 0.148870
64.000000 48.979000 8.000000 1.000000 -11.000000 94.474882 17.378377 638.155851 852.739743 20.433605 0.000000 0.148022
65.000000 49.621000 9.000000 1.000000 -11.000000 101.884995 18.912079 606.248588 701.557792 20.166083 0.000000 0.133577
66.000000 49.609000 10.000000 1.000000 -11.000000 108.627804 20.546479 571.594595 553.559465 20.168295 0.000000 0.108503
67.000000 49.098000 11.000000 1.000000 -11.000000 114.734186 22.288894 533.823243 405.144299 20.376029 0.000000 0.075506
68.000000 48.223000 12.000000 1.000000 -11.000000 120.244962 24.146835 492.494079 253.274650 20.743953 0.000000 0.038633
69.000000 47.095000 13.000000 1.000000 -11.000000 125.205566 26.127868 447.079576 95.168752 21.239157 0.000000 0.026619
70.000000 45.802000 14.000000 1.000000 -11.000000 129.662322 28.239413 396.942490 -71.921523 21.837166 0.000000 0.067454
71.000000 45.762000 7.000000 2.000000 -11.000000 83.495344 21.965085 540.911633 1073.321820 21.874231 0.000000 0.132603
72.000000 47.328000 8.000000 2.000000 -11.000000 91.464972 23.531556 506.308911 910.978066 21.147447 0.000000 0.129269
73.000000 48.093000 9.000000 2.000000 -11.000000 98.767762 25.186625 468.841196 757.560656 20.807899 0.000000 0.112294
74.000000 48.211000 10.000000 2.000000 -11.000000 105.415560 26.935021 428.137304 608.113404 20.754159 0.000000 0.084063
75.000000 47.830000 11.000000 2.000000 -11.000000 111.437035 28.781322 383.759037 458.837568 20.917376 0.000000 0.046675
76.000000 47.078000 12.000000 2.000000 -11.000000 116.870998 30.729820 335.185342 306.566539 21.249170 0.000000 0.004669
77.000000 46.066000 13.000000 2.000000 -11.000000 121.761243 32.784347 281.791761 148.432276 21.714551 0.000000 0.049986
78.000000 46.101000 9.000000 3.000000 -11.000000 95.106169 30.911775 330.550711 828.904344 21.708132 0.000000 0.091282
79.000000 46.381000 10.000000 3.000000 -11.000000 101.652953 32.711808 283.718088 677.191518 21.574111 0.000000 0.061228
80.000000 46.165000 11.000000 3.000000 -11.000000 107.592314 34.595357 232.643028 526.436021 21.672714 0.000000 0.028211
81.000000 45.575000 12.000000 3.000000 -11.000000 112.959877 36.564013 176.721715 373.301767 21.951487 0.000000 0.042357
82.000000 45.634000 8.000000 -7.000000 -10.000000 96.433815 -36.204110 1762.846893 790.589418 21.929220 0.000000 0.069865
83.000000 46.343000 9.000000 -7.000000 -10.000000 103.626193 -36.758390 1778.952561 615.344884 21.591144 0.000000 0.048539
84.000000 46.508000 10.000000 -7.000000 -10.000000 110.281479 -37.356837 1796.605089 440.620207 21.512006 0.000000 0.052480
85.000000 46.239000 11.000000 -7.000000 -10.000000 116.415684 -38.004803 1816.038571 262.482092 21.634817 0.000000 0.086570
86.000000 45.637000 12.000000 -7.000000 -10.000000 122.054378 -38.708511 1837.536842 77.316691 21.918166 0.000000 0.133091
87.000000 47.062000 7.000000 -6.000000 -10.000000 91.312475 -30.620496 1612.038443 912.345397 21.266573 0.000000 0.096264
88.000000 48.326000 4.000000 -3.000000 -5.000000 99.276013 -30.967054 1620.860823 735.991449 10.353614 0.000000 0.074435
89.000000 48.876000 9.000000 -6.000000 -10.000000 106.648110 -31.342633 1630.494595 564.168122 20.471263 0.000000 0.044270
90.000000 48.847000 5.000000 -3.000000 -5.000000 113.437072 -31.751000 1641.057087 392.302435 10.240478 0.000000 0.008696
91.000000 48.368000 11.000000 -6.000000 -10.000000 119.666304 -32.196597 1652.689398 216.524931 20.681643 0.000000 0.036172
92.000000 47.554000 6.000000 -3.000000 -5.000000 125.368778 -32.684696 1665.562733 33.264519 10.516880 0.000000 0.081472
93.000000 46.502000 13.000000 -6.000000 -10.000000 130.582613 -33.221600 1679.886886 -161.050954 21.507962 0.000000 0.128199
94.000000 47.600000 6.000000 -5.000000 -10.000000 84.793615 -24.808457 1472.510568 1049.041983 21.029125 0.000000 0.120794
95.000000 49.672000 7.000000 -5.000000 -10.000000 93.596728 -24.921672 1475.094071 866.400669 20.148501 0.000000 0.116442
96.000000 50.822000 8.000000 -5.000000 -10.000000 101.764175 -25.044639 1477.905507 693.590810 19.689380 0.000000 0.100523
97.000000 51.203000 9.000000 -5.000000 -10.000000 109.288284 -25.178675 1480.976434 524.787960 19.540191 0.000000 0.075274
98.000000 50.974000 4.000000 -2.000000 -4.000000 116.184642 -25.325342 1484.344513 355.483937 7.850218 0.000000 0.044128
99.000000 50.285000 11.000000 -5.000000 -10.000000 122.484541 -25.486513 1488.055070 181.858461 19.892670 0.000000 0.020398
100.000000 49.263000 12.000000 -5.000000 -10.000000 128.228582 -25.664446 1492.163138 0.373572 20.303522 0.000000 0.044461
101.000000 48.014000 13.000000 -5.000000 -10.000000 133.461766 -25.861898 1496.736210 -192.525800 20.829981 0.000000 0.082262
103.000000 46.738000 5.000000 -4.000000 -10.000000 76.686077 -18.878332 1343.043207 1210.181209 21.420768 0.000000 0.120928
104.000000 49.919000 3.000000 -2.000000 -5.000000 86.363195 -18.745818 1340.265077 1013.240971 10.025924 0.000000 0.138082
105.000000 51.953000 7.000000 -4.000000 -10.000000 95.385496 -18.601836 1337.251428 833.942222 19.263459 0.000000 0.139219
106.000000 52.987000 4.000000 -2.000000 -5.000000 103.716921 -18.444829 1333.970986 664.064450 9.442303 0.000000 0.126996
107.000000 53.202000 9.000000 -4.000000 -10.000000 111.355662 -18.272950 1330.386680 497.817291 18.805445 0.000000 0.104773
108.000000 52.784000 5.000000 -2.000000 -5.000000 118.324751 -18.083985 1326.454240 330.729547 9.476095 0.000000 0.076162
109.000000 51.899000 11.000000 -4.000000 -10.000000 124.663209 -17.875257 1322.120359 159.011649 19.273442 0.000000 0.046409
110.000000 50.687000 6.000000 -2.000000 -5.000000 130.418838 -17.643501 1317.320258 -20.853360 9.866147 0.000000 0.030696
111.000000 49.263000 13.000000 -4.000000 -10.000000 135.642909 -17.384693 1311.974429 -212.410960 20.301561 0.000000 0.046894
112.000000 47.710000 7.000000 -2.000000 -5.000000 140.386582 -17.093816 1305.984197 -419.496373 10.480388 0.000000 0.071121
114.000000 48.497000 5.000000 -3.000000 -10.000000 77.419468 -12.580073 1215.187270 1187.104673 20.643521 0.000000 0.129842
115.000000 51.740000 6.000000 -3.000000 -10.000000 87.312930 -12.173639 1207.184784 992.675350 19.346106 0.000000 0.153092
116.000000 53.740000 7.000000 -3.000000 -10.000000 96.498488 -11.731227 1198.501647 815.785058 18.622933 0.000000 0.157363
117.000000 54.672000 8.000000 -3.000000 -10.000000 104.942924 -11.247896 1189.047162 648.131373 18.302360 0.000000 0.147018
118.000000 54.746000 9.000000 -3.000000 -10.000000 112.650068 -10.717776 1178.713771 483.904075 18.274948 0.000000 0.125988
119.000000 54.168000 10.000000 -3.000000 -10.000000 119.649733 -10.133830 1167.372942 318.634179 18.467631 0.000000 0.097884
120.000000 53.121000 11.000000 -3.000000 -10.000000 125.987690 -9.487566 1154.869797 148.539924 18.829760 0.000000 0.066474
121.000000 51.755000 12.000000 -3.000000 -10.000000 131.717760 -8.768640 1141.015998 -29.889639 19.325120 0.000000 0.036977
122.000000 50.188000 13.000000 -3.000000 -10.000000 136.896179 -7.964337 1125.580190 -220.199767 19.927130 0.000000 0.021997
123.000000 48.508000 14.000000 -3.000000 -10.000000 141.577925 -7.058869 1108.274984 -426.234232 20.615838 0.000000 0.029415
125.000000 49.583000 5.000000 -2.000000 -10.000000 77.456630 -5.917345 1086.553514 1181.746364 20.191702 0.000000 0.135131
126.000000 52.885000 3.000000 -1.000000 -5.000000 87.490567 -5.216436 1073.261760 988.365725 9.463614 0.000000 0.162058
127.000000 54.870000 7.000000 -2.000000 -10.000000 96.772278 -4.453944 1058.835743 812.800659 18.239177 0.000000 0.168040
128.000000 55.737000 4.000000 -1.000000 -5.000000 105.271038 -3.621692 1043.123803 646.555839 8.976332 0.000000 0.158404
129.000000 55.715000 9.000000 -2.000000 -10.000000 112.995264 -2.710051 1025.945980 483.733771 17.957056 0.000000 0.137419
130.000000 55.028000 5.000000 -1.000000 -5.000000 119.980057 -1.707628 1007.087092 319.824740 9.089470 0.000000 0.108736
131.000000 53.870000 11.000000 -2.000000 -10.000000 126.276241 -0.600869 986.287671 151.026753 18.567691 0.000000 0.075822
132.000000 52.399000 6.000000 -1.000000 -5.000000 131.941910 0.626439 963.231959 -26.183455 9.543632 0.000000 0.042348
133.000000 50.737000 13.000000 -2.000000 -10.000000 137.036572 1.993790 937.531762 -215.362416 19.711296 0.000000 0.013060
134.000000 48.973000 7.000000 -1.000000 -5.000000 141.617413 3.524746 908.704417 -420.368797 10.210032 0.000000 0.012697
136.000000 49.843000 5.000000 -1.000000 -10.000000 76.700392 0.950953 957.134822 1195.452447 20.086820 0.000000 0.134396
137.000000 53.211000 6.000000 -1.000000 -10.000000 86.789165 1.942947 938.487975 1001.413098 18.811725 0.000000 0.163382
138.000000 55.216000 7.000000 -1.000000 -10.000000 96.094518 3.018538 918.244614 825.921814 18.125275 0.000000 0.170081
139.000000 56.070000 8.000000 -1.000000 -10.000000 104.587317 4.187893 896.190532 660.150847 17.846157 0.000000 0.160293
140.000000 56.017000 9.000000 -1.000000 -10.000000 112.278843 5.462719 872.071408 498.031964 17.860586 0.000000 0.138461
141.000000 55.288000 10.000000 -1.000000 -10.000000 119.207424 6.856508 845.582955 334.962204 18.093549 0.000000 0.108326
142.000000 54.087000 11.000000 -1.000000 -10.000000 125.426865 8.384822 816.358014 167.085322 18.493584 0.000000 0.073561
143.000000 52.574000 12.000000 -1.000000 -10.000000 130.997681 10.065599 783.949433 -9.156400 19.024211 0.000000 0.039569
144.000000 50.873000 13.000000 -1.000000 -10.000000 135.981121 11.919479 747.807026 -197.344732 19.658851 0.000000 0.026649
145.000000 49.076000 14.000000 -1.000000 -10.000000 140.435450 13.970106 707.246085 -401.361094 20.377678 0.000000 0.050473
147.000000 49.194000 2.000000 0.000000 -4.000000 75.118953 7.833546 826.923985 1229.692586 8.140927 0.000000 0.127303
148.000000 52.637000 6.000000 0.000000 -10.000000 85.174993 9.087039 802.855295 1033.006764 19.017395 0.000000 0.156730
149.000000 54.704000 7.000000 0.000000 -10.000000 94.433416 10.438311 776.719034 856.147955 18.295219 0.000000 0.163216
150.000000 55.610000 8.000000 0.000000 -10.000000 102.865449 11.897573 748.236827 689.781944 17.994128 0.000000 0.152466
151.000000 55.600000 9.000000 0.000000 -10.000000 110.483173 13.476171 717.077984 527.567223 17.994850 0.000000 0.128918
152.000000 53.738000 11.000000 0.000000 -10.000000 123.448142 17.042794 645.064605 197.360339 18.614087 0.000000 0.059149
153.000000 52.252000 12.000000 0.000000 -10.000000 128.911308 19.059600 603.149394 21.798032 19.141692 0.000000 0.030629
154.000000 50.576000 13.000000 0.000000 -10.000000 133.777188 21.253171 556.383468 -165.566860 19.774782 0.000000 0.050717
155.000000 48.801000 14.000000 0.000000 -10.000000 138.104571 23.640466 503.873076 -368.648123 20.493060 0.000000 0.093754
157.000000 47.647000 5.000000 1.000000 -10.000000 72.758305 14.536801 695.913708 1286.074209 21.013800 0.000000 0.116002
158.000000 51.169000 6.000000 1.000000 -10.000000 82.700023 16.001087 666.355485 1084.433151 19.563459 0.000000 0.143191
159.000000 53.340000 7.000000 1.000000 -10.000000 91.849198 17.567573 634.249656 904.551053 18.763981 0.000000 0.148204
160.000000 54.361000 8.000000 1.000000 -10.000000 100.176170 19.244742 599.252023 736.371396 18.408583 0.000000 0.135534
161.000000 54.468000 9.000000 1.000000 -10.000000 107.691720 21.041555 560.953459 573.154195 18.369688 0.000000 0.109244
162.000000 53.890000 10.000000 1.000000 -10.000000 114.433740 22.967350 518.863841 409.905586 18.564318 0.000000 0.072924
163.000000 52.826000 11.000000 1.000000 -10.000000 120.455705 25.031684 472.390961 242.529970 18.936168 0.000000 0.032211
164.000000 51.438000 12.000000 1.000000 -10.000000 125.817973 27.244090 420.812492 67.316066 19.445688 0.000000 0.034473
165.000000 49.848000 13.000000 1.000000 -10.000000 130.581888 29.613746 363.238167 -119.421875 20.064283 0.000000 0.085860
168.000000 48.903000 3.000000 1.000000 -5.000000 79.492565 22.509274 528.980202 1157.085747 10.235351 0.000000 0.126722
169.000000 51.204000 7.000000 2.000000 -10.000000 88.481664 24.220687 490.827008 972.282149 19.547610 0.000000 0.128044
170.000000 52.389000 4.000000 1.000000 -5.000000 96.670841 26.035722 449.225301 800.902759 9.551145 0.000000 0.112221
171.000000 52.676000 9.000000 2.000000 -10.000000 104.067709 27.960093 403.685407 635.656978 18.995510 0.000000 0.082186
172.000000 52.279000 5.000000 1.000000 -5.000000 110.706650 29.999236 353.620332 471.224701 9.568672 0.000000 0.040624
173.000000 51.388000 11.000000 2.000000 -10.000000 116.637913 32.158089 298.320333 303.307910 19.467128 0.000000 0.010294
174.000000 50.159000 6.000000 1.000000 -5.000000 121.919248 34.440821 236.919049 128.065368 9.971224 0.000000 0.068885
175.000000 48.713000 13.000000 2.000000 -10.000000 126.610136 36.850524 168.347790 -58.274305 20.532761 0.000000 0.134205
178.000000 46.004000 6.000000 3.000000 -10.000000 75.730122 28.495843 390.720996 1252.476257 21.761636 0.000000 0.117596
179.000000 48.442000 7.000000 3.000000 -10.000000 84.519831 30.285034 346.441490 1060.578597 20.663320 0.000000 0.111609
180.000000 49.819000 8.000000 3.000000 -10.000000 92.547772 32.164751 298.145695 884.425900 20.088851 0.000000 0.092092
181.000000 50.327000 9.000000 3.000000 -10.000000 99.816967 34.137681 245.261217 715.992778 19.883333 0.000000 0.061460
182.000000 50.159000 10.000000 3.000000 -10.000000 106.356504 36.205900 187.101469 549.522505 19.947460 0.000000 0.034785
183.000000 49.491000 11.000000 3.000000 -10.000000 112.211558 38.370692 122.835697 380.445617 20.214629 0.000000 0.062962
184.000000 48.470000 12.000000 3.000000 -10.000000 117.435535 40.632367 51.449048 204.746878 20.638504 0.000000 0.123807
185.000000 47.214000 13.000000 3.000000 -10.000000 122.084508 42.990054 -28.311422 18.541449 21.185851 0.000000 0.197054
187.000000 46.807000 4.000000 2.000000 -5.000000 88.015963 37.604669 146.002081 988.062504 10.691380 0.000000 0.098831
188.000000 47.552000 9.000000 4.000000 -10.000000 95.151225 39.566604 85.668095 815.135905 21.044830 0.000000 0.083041
189.000000 47.639000 5.000000 2.000000 -5.000000 101.595123 41.603834 19.292429 645.667437 10.502133 0.000000 0.090384
190.000000 47.223000 11.000000 4.000000 -10.000000 107.386335 43.715330 -54.080245 474.734704 21.186708 0.000000 0.131145
191.000000 46.443000 6.000000 2.000000 -5.000000 112.572457 45.899184 -135.617873 298.096790 10.770342 0.000000 0.195193
192.000000 45.862000 8.000000 -8.000000 -9.000000 96.690329 -45.052639 2053.273719 762.289378 21.819758 0.000000 0.156732
193.000000 46.483000 9.000000 -8.000000 -9.000000 103.780672 -45.942162 2087.286163 561.384970 21.525593 0.000000 0.176613
194.000000 46.568000 10.000000 -8.000000 -9.000000 110.320431 -46.898795 2125.104652 357.689512 21.483627 0.000000 0.217237
197.000000 46.042000 6.000000 -7.000000 -9.000000 83.919957 -39.021064 1847.221257 1088.562590 21.739540 0.000000 0.122459
198.000000 48.024000 7.000000 -7.000000 -9.000000 92.445821 -39.688145 1868.180592 881.259275 20.839350 0.000000 0.098072
199.000000 49.150000 8.000000 -7.000000 -9.000000 100.359985 -40.408004 1891.257514 682.597425 20.358853 0.000000 0.085703
200.000000 49.559000 9.000000 -7.000000 -9.000000 107.655234 -41.186906 1916.790019 485.806383 20.188291 0.000000 0.099492
201.000000 49.395000 10.000000 -7.000000 -9.000000 114.345442 -42.032098 1945.192072 285.354761 20.253107 0.000000 0.138798
202.000000 48.793000 11.000000 -7.000000 -9.000000 120.458814 -42.952001 1976.976232 76.233427 20.500885 0.000000 0.192964
205.000000 46.552000 5.000000 -6.000000 -9.000000 77.372292 -33.454706 1686.160700 1230.009362 21.504834 0.000000 0.118820
206.000000 49.557000 2.000000 -2.000000 -3.000000 86.873951 -33.921044 1698.813686 1011.836661 6.732330 0.000000 0.098818
207.000000 51.457000 7.000000 -6.000000 -9.000000 95.722429 -34.426595 1712.688113 810.244312 19.447993 0.000000 0.073013
208.000000 52.400000 8.000000 -6.000000 -9.000000 103.886583 -34.976434 1727.969819 616.259481 19.095433 0.000000 0.042706
209.000000 52.561000 3.000000 -2.000000 -3.000000 111.367447 -35.576530 1744.884350 423.270269 6.344758 0.000000 0.034325
210.000000 52.119000 10.000000 -6.000000 -9.000000 118.189126 -36.233952 1763.708174 225.857838 19.193571 0.000000 0.073058
211.000000 51.233000 11.000000 -6.000000 -9.000000 124.390396 -36.957126 1784.783906 19.084885 19.523686 0.000000 0.125447
216.000000 49.916000 5.000000 -5.000000 -9.000000 79.680663 -27.832683 1543.250435 1162.607833 20.055022 0.000000 0.113857
217.000000 52.954000 6.000000 -5.000000 -9.000000 89.555885 -28.085801 1549.344898 950.456366 18.900864 0.000000 0.108199
218.000000 54.740000 7.000000 -5.000000 -9.000000 98.698251 -28.362079 1556.029888 753.875635 18.281093 0.000000 0.090167
219.000000 55.469000 8.000000 -5.000000 -9.000000 107.082582 -28.664834 1563.395605 564.047790 18.038141 0.000000 0.060584
220.000000 55.361000 9.000000 -5.000000 -9.000000 114.719925 -28.998043 1571.551604 374.486093 18.070843 0.000000 0.022570
221.000000 54.628000 10.000000 -5.000000 -9.000000 121.645970 -29.366518 1580.632281 179.862633 18.311273 0.000000 0.025127
222.000000 53.452000 11.000000 -5.000000 -9.000000 127.910939 -29.776135 1590.804337 -24.701591 18.712128 0.000000 0.072565
223.000000 51.983000 12.000000 -5.000000 -9.000000 133.571848 -30.234141 1602.277107 -244.142344 19.239455 0.000000 0.120818
226.000000 48.371000 4.000000 -4.000000 -9.000000 70.615027 -21.541731 1399.869388 1348.144691 20.699548 0.000000 0.105155
227.000000 52.978000 5.000000 -4.000000 -9.000000 81.557245 -21.518268 1399.360050 1112.723048 18.895831 0.000000 0.126139
228.000000 56.024000 6.000000 -4.000000 -9.000000 91.759233 -21.492621 1398.803470 905.472202 17.864835 0.000000 0.131237
229.000000 57.677000 7.000000 -4.000000 -9.000000 101.149247 -21.464468 1398.192757 713.070469 17.349725 0.000000 0.119770
230.000000 58.183000 8.000000 -4.000000 -9.000000 109.709504 -21.433426 1397.519610 526.783352 17.196136 0.000000 0.095482
231.000000 57.806000 9.000000 -4.000000 -9.000000 117.462054 -21.399023 1396.773938 340.204736 17.305703 0.000000 0.063148
232.000000 56.792000 10.000000 -4.000000 -9.000000 124.454583 -21.360683 1395.943355 148.069287 17.612779 0.000000 0.032450
233.000000 55.344000 11.000000 -4.000000 -9.000000 130.748672 -21.317691 1395.012479 -54.461442 18.071876 0.000000 0.038415
234.000000 53.623000 12.000000 -4.000000 -9.000000 136.411231 -21.269143 1393.961980 -272.306299 18.650478 0.000000 0.071693
237.000000 50.695000 4.000000 -3.000000 -9.000000 71.514189 -14.889037 1261.159253 1313.327474 19.750676 0.000000 0.106571
238.000000 55.472000 5.000000 -3.000000 -9.000000 82.788460 -14.556409 1254.479426 1081.704342 18.046084 0.000000 0.141500
239.000000 58.517000 2.000000 -1.000000 -3.000000 93.247061 -14.191669 1247.177814 878.016787 5.701203 0.000000 0.152692
240.000000 60.043000 7.000000 -3.000000 -9.000000 102.819865 -13.789965 1239.163363 688.810390 16.665705 0.000000 0.144672
241.000000 60.347000 8.000000 -3.000000 -9.000000 111.496878 -13.345424 1230.326325 505.339653 16.579124 0.000000 0.122729
242.000000 59.734000 3.000000 -1.000000 -3.000000 119.310783 -12.850872 1220.533209 321.221393 5.582323 0.000000 0.091830
243.000000 58.477000 10.000000 -3.000000 -9.000000 126.320266 -12.297453 1209.619982 131.216534 17.104980 0.000000 0.057536
244.000000 56.798000 11.000000 -3.000000 -9.000000 132.596810 -11.674117 1197.382815 -69.495519 17.608853 0.000000 0.030396
245.000000 54.868000 4.000000 -1.000000 -3.000000 138.215486 -10.966901 1183.565231 -285.829906 6.075686 0.000000 0.033094
249.000000 52.193000 4.000000 -2.000000 -9.000000 71.659684 -7.752871 1121.532153 1301.082120 19.184181 0.000000 0.108804
250.000000 57.118000 5.000000 -2.000000 -9.000000 83.163649 -7.075820 1108.598306 1071.023182 17.526263 0.000000 0.151904
251.000000 60.172000 6.000000 -2.000000 -9.000000 93.787403 -6.333246 1094.456174 869.312797 16.633023 0.000000 0.166433
252.000000 61.611000 7.000000 -2.000000 -9.000000 103.462715 -5.515443 1078.928144 682.146854 16.241656 0.000000 0.159939
253.000000 61.769000 8.000000 -2.000000 -9.000000 112.186338 -4.610759 1061.799997 500.646726 16.197406 0.000000 0.138523
254.000000 60.985000 9.000000 -2.000000 -9.000000 119.999617 -3.605105 1042.810967 318.378707 16.403213 0.000000 0.107286
255.000000 59.555000 10.000000 -2.000000 -9.000000 126.969754 -2.481315 1021.640369 130.084225 16.795119 0.000000 0.071012
256.000000 57.714000 11.000000 -2.000000 -9.000000 133.175436 -1.218315 997.889347 -69.067966 17.329263 0.000000 0.034822
257.000000 55.638000 12.000000 -2.000000 -9.000000 138.697166 0.209982 971.055502 -284.006077 17.974564 0.000000 0.004793
261.000000 45.525000 3.000000 -1.000000 -9.000000 58.528225 -1.259717 998.667450 1599.984151 21.998848 0.000000 0.015234
262.000000 52.615000 4.000000 -1.000000 -9.000000 70.911724 -0.318283 980.978966 1313.459429 19.030580 0.000000 0.106408
263.000000 57.670000 5.000000 -1.000000 -9.000000 82.522010 0.707645 961.706290 1082.287001 17.358698 0.000000 0.153967
264.000000 60.768000 6.000000 -1.000000 -9.000000 93.206008 1.829221 940.626624 880.681851 16.470154 0.000000 0.170147
265.000000 62.188000 7.000000 -1.000000 -9.000000 102.896795 3.059481 917.473335 694.207304 16.091072 0.000000 0.163902
266.000000 62.290000 8.000000 -1.000000 -9.000000 111.595495 4.413709 891.924619 513.695605 16.061921 0.000000 0.141751
267.000000 61.434000 9.000000 -1.000000 -9.000000 119.348878 5.909868 863.588453 332.570173 16.283482 0.000000 0.108938
268.000000 59.928000 10.000000 -1.000000 -9.000000 126.229252 7.569105 831.982335 145.496048 16.690807 0.000000 0.070464
269.000000 58.015000 11.000000 -1.000000 -9.000000 132.319389 9.416323 796.505585 -52.403964 17.239597 0.000000 0.033886
270.000000 55.875000 12.000000 -1.000000 -9.000000 137.702602 11.480812 756.400802 -266.092064 17.898603 0.000000 0.029338
273.000000 49.815000 4.000000 1.000000 -9.000000 66.625102 14.479747 697.057230 1421.455530 20.101291 0.000000 0.090333
274.000000 55.067000 5.000000 1.000000 -9.000000 78.060058 16.075248 664.847249 1177.855860 18.180212 0.000000 0.132449
275.000000 58.388000 6.000000 1.000000 -9.000000 88.556652 17.792495 629.595219 969.481120 17.142833 0.000000 0.146729
276.000000 60.036000 7.000000 1.000000 -9.000000 98.047167 19.642510 590.848822 779.431112 16.669112 0.000000 0.137365
277.000000 60.360000 8.000000 1.000000 -9.000000 106.531964 21.636970 548.061396 597.317587 16.576904 0.000000 0.110036
278.000000 59.710000 9.000000 1.000000 -9.000000 114.057139 23.788041 500.565975 415.906296 16.754910 0.000000 0.069657
279.000000 58.391000 10.000000 1.000000 -9.000000 120.694493 26.108096 447.540275 229.483860 17.131288 0.000000 0.024690
280.000000 56.646000 11.000000 1.000000 -9.000000 126.526575 28.609299 387.958680 32.942256 17.657591 0.000000 0.047836
281.000000 54.653000 12.000000 1.000000 -9.000000 131.636908 31.303014 320.525261 -178.831509 18.299958 0.000000 0.110113
284.000000 46.781000 4.000000 2.000000 -9.000000 63.294891 21.378541 553.669820 1522.447917 21.405278 0.000000 0.096647
285.000000 52.076000 5.000000 2.000000 -9.000000 74.473081 23.147856 514.858691 1266.208890 19.225271 0.000000 0.117891
286.000000 55.548000 6.000000 2.000000 -9.000000 84.750258 25.032660 472.368630 1050.145003 18.019930 0.000000 0.125511
287.000000 57.419000 7.000000 2.000000 -9.000000 94.056981 27.040142 425.650517 855.293794 17.429828 0.000000 0.111909
288.000000 57.998000 8.000000 2.000000 -9.000000 102.388837 29.177248 374.040231 670.223970 17.252918 0.000000 0.080098
289.000000 57.609000 9.000000 2.000000 -9.000000 109.786126 31.450403 316.726874 487.127102 17.366896 0.000000 0.033870
290.000000 56.540000 10.000000 2.000000 -9.000000 116.315212 33.865160 252.709858 299.954005 17.693391 0.000000 0.026271
291.000000 55.022000 11.000000 2.000000 -9.000000 122.054286 36.425769 180.739985 103.391717 18.179865 0.000000 0.093904
292.000000 53.231000 12.000000 2.000000 -9.000000 127.083852 39.134680 99.237126 -107.801618 18.789781 0.000000 0.170950
295.000000 48.286000 5.000000 3.000000 -9.000000 70.280365 29.590484 363.816168 1384.647141 20.735145 0.000000 0.120759
296.000000 51.899000 2.000000 1.000000 -3.000000 80.279060 31.556522 313.984657 1157.375972 6.429392 0.000000 0.114249
297.000000 54.018000 7.000000 3.000000 -9.000000 89.366313 33.627187 259.175409 955.296640 18.528390 0.000000 0.095303
298.000000 54.904000 8.000000 3.000000 -9.000000 97.531089 35.805208 198.603364 765.551022 18.226386 0.000000 0.065554
299.000000 54.842000 3.000000 1.000000 -3.000000 104.805140 38.092360 131.309214 579.543497 6.081549 0.000000 0.049626
300.000000 54.091000 10.000000 3.000000 -9.000000 111.246405 40.489213 56.108222 390.763722 18.495719 0.000000 0.090016
301.000000 52.869000 11.000000 3.000000 -9.000000 116.925867 42.994860 -28.480133 193.617933 18.921338 0.000000 0.161574
304.000000 47.732000 6.000000 4.000000 -9.000000 75.414775 37.321990 154.430475 1293.166657 20.973048 0.000000 0.137966
305.000000 50.087000 7.000000 4.000000 -9.000000 84.256361 39.384525 91.408640 1081.064350 19.983996 0.000000 0.118905
306.000000 51.290000 8.000000 4.000000 -9.000000 92.243339 41.531095 21.733450 884.678031 19.512297 0.000000 0.107506
307.000000 51.579000 9.000000 4.000000 -9.000000 99.397359 43.760548 -55.707425 694.365625 19.400193 0.000000 0.122636
308.000000 51.183000 10.000000 4.000000 -9.000000 105.765871 46.070643 -142.288899 503.004913 19.548147 0.000000 0.172539
309.000000 50.298000 11.000000 4.000000 -9.000000 111.410416 48.457927 -239.730811 304.630811 19.890258 0.000000 0.249114
312.000000 45.881000 7.000000 5.000000 -9.000000 78.973866 44.364098 -77.664883 1234.351123 21.817327 0.000000 0.188149
313.000000 47.374000 8.000000 5.000000 -9.000000 86.771829 46.434581 -156.587143 1029.082713 21.126667 0.000000 0.190101
314.000000 48.005000 9.000000 5.000000 -9.000000 93.803219 48.565697 -244.343817 832.882207 20.846305 0.000000 0.217570
315.000000 47.965000 10.000000 5.000000 -9.000000 100.104157 50.754002 -342.506212 637.834908 20.861095 0.000000 0.273829
320.000000 45.924000 3.000000 -4.000000 -4.000000 83.724839 -47.913107 2166.706411 1117.576678 10.897319 0.000000 0.240101
321.000000 47.814000 7.000000 -8.000000 -8.000000 92.118892 -48.905889 2209.035329 880.416685 20.930355 0.000000 0.239931
322.000000 48.860000 2.000000 -2.000000 -2.000000 99.886852 -49.971664 2256.390048 649.335309 5.119832 0.000000 0.264764
326.000000 47.274000 5.000000 -7.000000 -8.000000 78.017770 -42.657284 1966.691132 1251.604223 21.174815 0.000000 0.179599
327.000000 50.159000 6.000000 -7.000000 -8.000000 87.464099 -43.497656 1996.281436 1006.712091 19.953648 0.000000 0.153484
328.000000 51.922000 7.000000 -7.000000 -8.000000 96.222476 -44.405907 2029.202617 776.736153 19.273351 0.000000 0.146222
329.000000 52.726000 8.000000 -7.000000 -8.000000 104.268494 -45.390092 2066.050636 551.247670 18.976576 0.000000 0.166358
330.000000 52.761000 9.000000 -7.000000 -8.000000 111.609501 -46.459488 2107.572641 322.097756 18.961612 0.000000 0.213044
333.000000 47.346000 2.000000 -3.000000 -4.000000 70.665939 -36.947966 1784.514458 1413.522488 10.572914 0.000000 0.156336
334.000000 51.675000 5.000000 -6.000000 -8.000000 81.289817 -37.586890 1803.465933 1149.084113 19.370872 0.000000 0.123184
335.000000 54.545000 3.000000 -3.000000 -4.000000 91.188839 -38.281616 1824.445399 912.546369 9.174273 0.000000 0.093612
336.000000 56.114000 7.000000 -6.000000 -8.000000 100.298956 -39.039551 1847.796780 689.200456 17.832456 0.000000 0.071963
337.000000 56.611000 4.000000 -3.000000 -4.000000 108.605251 -39.869430 1873.946425 468.922591 8.836589 0.000000 0.082013
338.000000 56.280000 9.000000 -6.000000 -8.000000 116.128935 -40.781603 1903.429380 243.770850 17.774826 0.000000 0.127238
339.000000 55.346000 5.000000 -3.000000 -4.000000 122.914466 -41.788408 1936.926378 6.636537 9.036524 0.000000 0.189555
342.000000 51.586000 4.000000 -5.000000 -8.000000 73.217540 -31.242220 1627.911463 1320.648686 19.407663 0.000000 0.120290
343.000000 56.098000 5.000000 -5.000000 -8.000000 84.381730 -31.669931 1638.952858 1065.403401 17.843004 0.000000 0.105599
344.000000 58.895000 6.000000 -5.000000 -8.000000 94.710200 -32.139047 1651.180702 836.270864 16.992442 0.000000 0.082673
345.000000 60.210000 7.000000 -5.000000 -8.000000 104.143295 -32.655813 1664.797084 618.868572 16.618347 0.000000 0.047713
346.000000 60.348000 8.000000 -5.000000 -8.000000 112.679183 -33.227779 1680.052758 403.325250 16.577997 0.000000 0.014425
347.000000 59.612000 9.000000 -5.000000 -8.000000 120.356054 -33.864153 1697.262717 181.873706 16.780498 0.000000 0.058419
348.000000 58.270000 10.000000 -5.000000 -8.000000 127.235748 -34.576278 1716.828184 -52.489369 17.165214 0.000000 0.117127
351.000000 48.841000 3.000000 -4.000000 -8.000000 62.922718 -24.583868 1467.399492 1546.077502 20.502634 0.000000 0.107490
352.000000 55.611000 2.000000 -2.000000 -4.000000 75.393464 -24.703880 1470.128359 1249.740773 9.001472 0.000000 0.113688
353.000000 60.264000 5.000000 -4.000000 -8.000000 87.052471 -24.835910 1473.136607 1002.065565 16.609117 0.000000 0.120860
354.000000 62.942000 3.000000 -2.000000 -4.000000 97.761027 -24.981859 1476.469453 779.171347 7.949716 0.000000 0.109812
355.000000 63.964000 7.000000 -4.000000 -8.000000 107.467041 -25.144047 1480.182433 566.875102 15.642416 0.000000 0.082304
356.000000 62.570000 9.000000 -4.000000 -8.000000 123.970949 -25.529326 1489.042422 137.360583 15.986519 0.000000 0.022292
357.000000 60.826000 5.000000 -2.000000 -4.000000 130.906150 -25.760537 1494.386750 -94.419288 8.221505 0.000000 0.063179
358.000000 58.724000 11.000000 -4.000000 -8.000000 137.079077 -26.024807 1500.520774 -346.978393 17.030177 0.000000 0.110120
361.000000 51.847000 3.000000 -3.000000 -8.000000 63.939844 -17.571033 1315.821858 1493.102577 19.314312 0.000000 0.082469
362.000000 59.039000 4.000000 -3.000000 -8.000000 76.927611 -17.344800 1311.151757 1202.820329 16.957645 0.000000 0.123269
363.000000 63.799000 5.000000 -3.000000 -8.000000 88.997130 -17.094664 1306.001631 960.711570 15.688701 0.000000 0.144251
364.000000 66.339000 6.000000 -3.000000 -8.000000 100.005173 -16.816638 1300.293461 742.637194 15.084699 0.000000 0.140027
365.000000 67.073000 7.000000 -3.000000 -8.000000 109.909226 -16.505797 1293.931352 534.436810 14.916830 0.000000 0.117149
366.000000 66.467000 8.000000 -3.000000 -8.000000 118.740241 -16.155990 1286.796099 326.494996 15.050464 0.000000 0.082588
367.000000 64.945000 9.000000 -3.000000 -8.000000 126.573879 -15.759432 1278.737655 111.244318 15.401212 0.000000 0.045437
368.000000 62.848000 10.000000 -3.000000 -8.000000 133.507291 -15.306124 1269.564454 -118.195966 15.913489 0.000000 0.031940
369.000000 60.429000 11.000000 -3.000000 -8.000000 139.643286 -14.783020 1259.027998 -368.939158 16.549196 0.000000 0.055211
372.000000 53.868000 3.000000 -2.000000 -8.000000 64.164512 -9.915690 1163.147143 1470.026131 18.589796 0.000000 0.067927
373.000000 61.419000 2.000000 -1.000000 -4.000000 77.532422 -9.285385 1150.968062 1182.129345 8.150253 0.000000 0.133144
374.000000 66.273000 5.000000 -2.000000 -8.000000 89.887593 -8.587401 1137.532137 943.135499 15.103007 0.000000 0.161455
375.000000 69.217000 7.000000 -2.000000 -8.000000 111.089273 -6.940714 1106.021987 522.859853 14.454602 0.000000 0.139026
376.000000 66.534000 9.000000 -2.000000 -8.000000 127.751634 -4.849581 1066.316958 104.600582 15.033371 0.000000 0.064365
377.000000 64.176000 5.000000 -1.000000 -4.000000 134.609742 -3.579223 1042.322868 -122.806390 7.792035 0.000000 0.026135
378.000000 61.528000 11.000000 -2.000000 -8.000000 140.634830 -2.114694 1014.742327 -371.821388 16.253544 0.000000 0.009731
381.000000 54.497000 3.000000 -1.000000 -8.000000 63.400278 -1.828690 1009.363391 1480.236114 18.375807 0.000000 0.056480
382.000000 62.327000 4.000000 -1.000000 -8.000000 76.966871 -0.775229 989.563475 1190.160506 16.063414 0.000000 0.135197
383.000000 67.289000 5.000000 -1.000000 -8.000000 89.451591 0.387962 967.712078 951.302355 14.875252 0.000000 0.167266
384.000000 69.703000 6.000000 -1.000000 -8.000000 100.707274 1.677841 943.472946 737.403272 14.356866 0.000000 0.167307
385.000000 70.115000 7.000000 -1.000000 -8.000000 110.707107 3.114750 916.432093 533.547779 14.269659 0.000000 0.145480
386.000000 69.103000 8.000000 -1.000000 -8.000000 119.506199 4.723188 886.073962 329.832826 14.476334 0.000000 0.109502
387.000000 67.164000 9.000000 -1.000000 -8.000000 127.204580 6.532765 851.748236 118.572505 14.892290 0.000000 0.066446
388.000000 64.681000 10.000000 -1.000000 -8.000000 133.919562 8.579341 812.622727 -107.177988 15.462558 0.000000 0.027384
389.000000 61.924000 11.000000 -1.000000 -8.000000 139.768294 10.906332 767.615026 -354.594921 16.149867 0.000000 0.034299
392.000000 53.480000 3.000000 0.000000 -8.000000 61.558731 6.390315 854.458475 1527.597097 18.725562 0.000000 0.049566
393.000000 66.594000 5.000000 0.000000 -8.000000 87.566329 9.415310 796.525147 987.368390 15.030851 0.000000 0.160253
394.000000 69.594000 7.000000 0.000000 -8.000000 108.653281 13.069669 725.139024 568.010384 14.376930 0.000000 0.135793
395.000000 66.738000 9.000000 0.000000 -8.000000 124.873286 17.531322 634.998742 154.375719 14.987801 0.000000 0.050057
396.000000 64.290000 5.000000 0.000000 -4.000000 131.415133 20.133246 580.423918 -70.174518 7.778582 0.000000 0.034606
397.000000 61.562000 11.000000 0.000000 -8.000000 137.070172 23.024532 517.596225 -316.171551 16.245133 0.000000 0.082403
399.000000 50.836000 3.000000 1.000000 -8.000000 58.704608 14.411711 698.420089 1616.536190 19.699937 0.000000 0.066512
400.000000 58.913000 4.000000 1.000000 -8.000000 72.058805 16.164267 663.035363 1303.832005 16.995416 0.000000 0.113172
401.000000 64.177000 5.000000 1.000000 -8.000000 84.314725 18.064307 623.954775 1053.704399 15.597683 0.000000 0.142068
402.000000 66.914000 6.000000 1.000000 -8.000000 95.323953 20.126513 580.567380 834.178299 14.956472 0.000000 0.138732
403.000000 67.643000 7.000000 1.000000 -8.000000 105.058462 22.366491 532.119725 627.873548 14.792435 0.000000 0.110849
404.000000 66.925000 8.000000 1.000000 -8.000000 113.572272 24.800461 477.671726 423.689305 14.948683 0.000000 0.065410
405.000000 65.251000 9.000000 1.000000 -8.000000 120.964599 27.444752 416.035060 213.303830 15.330312 0.000000 0.017318
406.000000 62.999000 10.000000 1.000000 -8.000000 127.352426 30.315036 345.685445 -10.591614 15.876543 0.000000 0.067583
407.000000 60.443000 11.000000 1.000000 -8.000000 132.853364 33.425215 264.634876 -255.401230 16.546647 0.000000 0.142946
409.000000 46.867000 3.000000 2.000000 -8.000000 55.045829 21.950244 541.235746 1752.148195 21.368905 0.000000 0.116431
410.000000 54.870000 2.000000 1.000000 -4.000000 68.025138 23.907513 497.883165 1416.061824 9.124209 0.000000 0.108208
411.000000 60.282000 5.000000 2.000000 -8.000000 79.964384 26.003100 449.984123 1152.922484 16.606397 0.000000 0.121321
412.000000 63.317000 3.000000 1.000000 -4.000000 90.716049 28.245967 396.783852 925.730126 7.903518 0.000000 0.111400
413.000000 64.421000 7.000000 2.000000 -8.000000 100.245202 30.644571 337.350725 714.890172 15.533385 0.000000 0.078116
414.000000 64.095000 4.000000 1.000000 -4.000000 108.595872 33.206393 270.521241 508.198131 7.804871 0.000000 0.028229
415.000000 62.795000 9.000000 2.000000 -8.000000 115.857560 35.937351 194.823087 296.734401 15.930851 0.000000 0.048032
416.000000 60.882000 5.000000 1.000000 -4.000000 122.139534 38.841096 108.365414 72.848023 8.214908 0.000000 0.127931
419.000000 49.840000 4.000000 3.000000 -8.000000 63.351287 30.876416 331.452720 1570.299789 20.090630 0.000000 0.138944
420.000000 55.339000 5.000000 3.000000 -8.000000 74.882383 33.054269 274.596080 1287.906915 18.090766 0.000000 0.123166
421.000000 58.682000 6.000000 3.000000 -8.000000 85.319998 35.353911 211.419768 1049.030912 17.056708 0.000000 0.103836
422.000000 60.220000 7.000000 3.000000 -8.000000 94.620322 37.777806 140.808124 830.952363 16.618300 0.000000 0.076976
423.000000 60.375000 8.000000 3.000000 -8.000000 102.813188 40.326916 61.366462 619.908681 16.573114 0.000000 0.073868
424.000000 59.548000 9.000000 3.000000 -8.000000 109.973390 43.000323 -28.671982 406.135473 16.801112 0.000000 0.126768
425.000000 58.071000 10.000000 3.000000 -8.000000 116.197575 45.794858 -131.578997 181.499846 17.226603 0.000000 0.213349
427.000000 49.840000 5.000000 4.000000 -8.000000 69.438101 39.181535 97.773251 1461.849839 20.088095 0.000000 0.174795
428.000000 53.438000 3.000000 2.000000 -4.000000 79.522042 41.449813 24.454650 1206.565816 9.366053 0.000000 0.152350
429.000000 55.395000 7.000000 4.000000 -8.000000 88.574896 43.811182 -57.532415 978.105035 18.067130 0.000000 0.144517
430.000000 56.047000 4.000000 2.000000 -4.000000 96.610659 46.262984 -149.821840 760.578328 8.927155 0.000000 0.167631
431.000000 55.730000 9.000000 4.000000 -8.000000 103.686577 48.801031 -254.485678 543.072695 17.953505 0.000000 0.229408
434.000000 47.985000 6.000000 5.000000 -8.000000 73.640101 46.624694 -164.132334 1401.052534 20.862264 0.000000 0.249255
435.000000 50.294000 7.000000 5.000000 -8.000000 82.427077 48.875059 -257.695676 1158.561130 19.901398 0.000000 0.252392
436.000000 51.401000 8.000000 5.000000 -8.000000 90.297150 51.188153 -363.073467 932.093978 19.469929 0.000000 0.286879
446.000000 47.483000 4.000000 -7.000000 -7.000000 70.714624 -46.608319 2113.480341 1489.201428 21.083754 0.000000 0.277340
447.000000 51.672000 5.000000 -7.000000 -7.000000 81.215012 -47.641904 2155.425247 1187.868148 19.371365 0.000000 0.244316
448.000000 54.398000 6.000000 -7.000000 -7.000000 90.957691 -48.759759 2202.700189 913.707376 18.397242 0.000000 0.238470
451.000000 46.649000 3.000000 -6.000000 -7.000000 62.297489 -40.806548 1904.246967 1687.613920 21.464475 0.000000 0.240138
452.000000 52.886000 4.000000 -6.000000 -7.000000 74.212298 -41.646858 1932.153985 1348.238683 18.929211 0.000000 0.184937
453.000000 57.233000 5.000000 -6.000000 -7.000000 85.352716 -42.562697 1963.410844 1059.786360 17.488209 0.000000 0.149143
454.000000 59.811000 6.000000 -6.000000 -7.000000 95.596135 -43.564189 1998.659207 795.460555 16.731357 0.000000 0.133890
455.000000 60.895000 7.000000 -6.000000 -7.000000 104.894960 -44.663233 2038.715796 538.500032 16.430723 0.000000 0.153429
456.000000 60.817000 8.000000 -6.000000 -7.000000 113.259271 -45.873869 2084.636459 276.547115 16.449504 0.000000 0.208186
459.000000 51.823000 3.000000 -5.000000 -7.000000 64.965508 -35.086430 1731.051526 1555.300351 19.321021 0.000000 0.165218
460.000000 58.584000 4.000000 -5.000000 -7.000000 77.667118 -35.729339 1749.231913 1230.876430 17.087610 0.000000 0.125722
461.000000 63.010000 5.000000 -5.000000 -7.000000 89.443449 -36.437650 1769.604778 953.995674 15.884104 0.000000 0.093260
462.000000 65.329000 6.000000 -5.000000 -7.000000 100.167931 -37.221622 1792.592178 698.586786 15.317216 0.000000 0.060213
463.000000 65.946000 7.000000 -5.000000 -7.000000 109.807741 -38.093716 1818.731922 448.429836 15.171294 0.000000 0.060655
464.000000 65.304000 8.000000 -5.000000 -7.000000 118.397284 -39.069194 1848.720183 191.521410 15.318204 0.000000 0.113827
465.000000 63.802000 9.000000 -5.000000 -7.000000 126.011222 -40.166916 1883.474416 -82.721311 15.677027 0.000000 0.186043
467.000000 46.970000 2.000000 -4.000000 -7.000000 53.068724 -28.070360 1548.972294 1857.875380 21.321760 0.000000 0.175669
468.000000 56.996000 3.000000 -4.000000 -7.000000 67.356623 -28.377660 1556.407907 1451.294445 17.567551 0.000000 0.118319
469.000000 64.238000 4.000000 -4.000000 -7.000000 80.818043 -28.717980 1564.692968 1139.374841 15.583371 0.000000 0.112631
470.000000 68.654000 5.000000 -4.000000 -7.000000 93.188797 -29.096917 1573.981857 872.376512 14.577579 0.000000 0.098749
471.000000 70.617000 6.000000 -4.000000 -7.000000 104.343872 -29.521399 1584.468774 624.715511 14.169364 0.000000 0.065481
472.000000 70.687000 7.000000 -4.000000 -7.000000 114.272018 -30.000107 1596.401470 380.585313 14.152849 0.000000 0.016350
473.000000 69.430000 8.000000 -4.000000 -7.000000 123.037645 -30.544058 1610.101064 128.264184 14.406984 0.000000 0.043827
474.000000 67.324000 9.000000 -4.000000 -7.000000 130.745700 -31.167443 1625.991375 -142.672716 14.855942 0.000000 0.107603
477.000000 50.631000 2.000000 -3.000000 -7.000000 54.057004 -20.709267 1381.896667 1775.241669 19.780409 0.000000 0.117466
478.000000 61.647000 3.000000 -3.000000 -7.000000 69.157967 -20.634763 1380.297872 1378.838765 16.242164 0.000000 0.101043
479.000000 69.306000 4.000000 -3.000000 -7.000000 83.289483 -20.551624 1378.515619 1076.243184 14.443522 0.000000 0.130439
480.000000 73.647000 5.000000 -3.000000 -7.000000 96.161479 -20.458256 1376.516409 816.987272 13.588840 0.000000 0.131845
481.000000 75.210000 6.000000 -3.000000 -7.000000 107.655887 -20.352649 1374.258060 575.612257 13.303493 0.000000 0.107858
482.000000 74.722000 7.000000 -3.000000 -7.000000 117.787549 -20.232228 1371.686694 336.537092 13.387929 0.000000 0.068027
483.000000 72.871000 8.000000 -3.000000 -7.000000 126.653109 -20.093644 1368.732386 88.217500 13.726098 0.000000 0.030996
484.000000 70.204000 9.000000 -3.000000 -7.000000 134.387807 -19.932452 1365.302712 -179.670174 14.245912 0.000000 0.051836
487.000000 53.189000 2.000000 -2.000000 -7.000000 54.251978 -12.493726 1213.485052 1734.556259 18.829751 0.000000 0.070710
488.000000 65.069000 3.000000 -2.000000 -7.000000 69.990301 -11.945463 1202.702872 1341.620834 15.388086 0.000000 0.100022
489.000000 73.078000 4.000000 -2.000000 -7.000000 84.625258 -11.331383 1190.677948 1044.274181 13.698059 0.000000 0.150144
490.000000 77.339000 5.000000 -2.000000 -7.000000 97.846325 -10.639047 1177.182282 790.085123 12.939968 0.000000 0.158735
491.000000 78.556000 6.000000 -2.000000 -7.000000 109.545015 -9.852726 1161.928476 553.192476 12.736550 0.000000 0.138308
492.000000 77.607000 7.000000 -2.000000 -7.000000 119.761310 -8.952256 1144.549030 317.975797 12.889960 0.000000 0.100110
493.000000 75.281000 8.000000 -2.000000 -7.000000 128.620115 -7.911395 1124.566350 72.924502 13.286447 0.000000 0.054955
494.000000 72.178000 9.000000 -2.000000 -7.000000 136.281076 -6.695414 1101.348186 -192.261989 13.855966 0.000000 0.020549
497.000000 53.991000 2.000000 -1.000000 -7.000000 53.392739 -3.653375 1043.721359 1742.166459 18.550431 0.000000 0.042753
498.000000 66.512000 3.000000 -1.000000 -7.000000 69.498564 -2.585646 1023.604047 1343.850826 15.054570 0.000000 0.097888
499.000000 74.814000 4.000000 -1.000000 -7.000000 84.398870 -1.392210 1001.157645 1046.584180 13.380363 0.000000 0.158230
500.000000 79.080000 5.000000 -1.000000 -7.000000 97.769492 -0.050723 975.952823 794.149770 12.655134 0.000000 0.169798
501.000000 80.128000 6.000000 -1.000000 -7.000000 109.509564 1.466401 947.447824 559.537088 12.486867 0.000000 0.149656
502.000000 78.934000 7.000000 -1.000000 -7.000000 119.676522 3.193458 914.949081 326.723072 12.673332 0.000000 0.109903
503.000000 76.354000 8.000000 -1.000000 -7.000000 128.413434 5.173363 877.554042 84.037808 13.099633 0.000000 0.061050
504.000000 73.024000 9.000000 -1.000000 -7.000000 135.894111 7.460077 834.066040 -178.900443 13.695658 0.000000 0.020391
507.000000 49.076000 2.000000 1.000000 -7.000000 48.204067 14.329186 700.072084 1934.075486 20.409147 0.000000 0.131947
508.000000 61.878000 3.000000 1.000000 -7.000000 64.047719 16.273105 660.817863 1486.696905 16.183100 0.000000 0.083590
509.000000 70.592000 4.000000 1.000000 -7.000000 78.662850 18.399360 616.977890 1168.416257 14.181755 0.000000 0.131232
510.000000 75.330000 5.000000 1.000000 -7.000000 91.723238 20.728110 567.698742 906.378384 13.286303 0.000000 0.138885
511.000000 76.851000 6.000000 1.000000 -7.000000 103.125984 23.280833 511.901223 667.777753 13.020433 0.000000 0.111615
512.000000 76.097000 7.000000 1.000000 -7.000000 112.926676 26.079753 448.200419 434.159906 13.147025 0.000000 0.059712
513.000000 73.907000 8.000000 1.000000 -7.000000 121.266991 29.146844 374.789186 192.697503 13.534754 0.000000 0.018150
514.000000 70.911000 9.000000 1.000000 -7.000000 128.320243 32.502308 289.263971 -67.600992 14.105005 0.000000 0.096078
517.000000 56.307000 3.000000 2.000000 -7.000000 59.508258 24.825924 477.091150 1639.309288 17.784831 0.000000 0.115781
518.000000 65.056000 4.000000 2.000000 -7.000000 73.636712 27.182652 422.271775 1296.257964 15.389411 0.000000 0.116780
519.000000 70.174000 5.000000 2.000000 -7.000000 86.312045 29.719050 360.618220 1020.880582 14.263604 0.000000 0.111245
520.000000 72.261000 6.000000 2.000000 -7.000000 97.423218 32.445341 290.767531 774.832037 13.848674 0.000000 0.077334
521.000000 72.127000 7.000000 2.000000 -7.000000 107.007893 35.369887 210.968520 537.265208 13.871798 0.000000 0.030522
522.000000 70.530000 8.000000 2.000000 -7.000000 115.189121 38.498172 118.932939 294.184344 14.183926 0.000000 0.078475
523.000000 68.061000 9.000000 2.000000 -7.000000 122.125498 41.831620 11.612494 33.982849 14.696739 0.000000 0.176233
525.000000 49.600000 3.000000 3.000000 -7.000000 54.340840 32.406868 291.781888 1855.682456 20.190172 0.000000 0.195946
526.000000 58.199000 4.000000 3.000000 -7.000000 67.837579 34.841843 225.789684 1475.162416 17.203477 0.000000 0.148468
527.000000 63.644000 5.000000 3.000000 -7.000000 80.034889 37.419492 151.530542 1179.103927 15.728267 0.000000 0.123602
528.000000 66.347000 6.000000 3.000000 -7.000000 90.813248 40.141364 67.347248 921.014829 15.084555 0.000000 0.100726
529.000000 66.945000 7.000000 3.000000 -7.000000 100.186343 43.006589 -28.892083 676.542729 14.947047 0.000000 0.110719
530.000000 66.080000 8.000000 3.000000 -7.000000 108.250074 46.011344 -139.977050 429.981952 15.140553 0.000000 0.178962
533.000000 50.869000 4.000000 4.000000 -7.000000 61.771901 41.358391 27.507206 1710.771550 19.683706 0.000000 0.241168
534.000000 56.496000 5.000000 4.000000 -7.000000 73.432240 43.868267 -59.593616 1385.142556 17.719617 0.000000 0.207506
535.000000 59.734000 6.000000 4.000000 -7.000000 83.845282 46.480261 -158.395277 1109.547278 16.755922 0.000000 0.200821
536.000000 61.045000 7.000000 4.000000 -7.000000 93.000375 49.189233 -271.425325 854.683508 16.393528 0.000000 0.232737
553.000000 52.289000 1.000000 -2.000000 -2.000000 65.213650 -46.120403 2094.232685 1658.031075 6.382637 0.000000 0.303559
554.000000 58.851000 2.000000 -3.000000 -3.000000 77.794694 -47.288459 2140.897637 1284.217978 8.504612 0.000000 0.252523
555.000000 63.045000 5.000000 -6.000000 -6.000000 89.389564 -48.567199 2194.408227 958.329139 15.874368 0.000000 0.237317
558.000000 49.276000 2.000000 -5.000000 -6.000000 54.377197 -39.412200 1859.461951 1939.188853 20.322493 0.000000 0.281595
559.000000 59.388000 3.000000 -5.000000 -6.000000 68.862519 -40.315585 1888.267360 1486.732020 16.858607 0.000000 0.196048
560.000000 66.438000 4.000000 -5.000000 -6.000000 82.393146 -41.314508 1921.030612 1132.372576 15.066139 0.000000 0.146850
561.000000 70.492000 5.000000 -5.000000 -6.000000 94.715767 -42.424255 1958.627587 820.721880 14.196363 0.000000 0.119705
562.000000 72.035000 6.000000 -5.000000 -6.000000 105.728103 -43.663362 2002.213196 522.008165 13.889649 0.000000 0.136638
563.000000 71.702000 7.000000 -5.000000 -6.000000 115.443792 -45.054455 2053.342104 216.133603 13.951772 0.000000 0.202595
566.000000 55.517000 1.000000 -2.000000 -3.000000 56.738619 -32.622934 1663.926077 1779.190988 9.018981 0.000000 0.188138
567.000000 66.908000 3.000000 -4.000000 -6.000000 72.397067 -33.234862 1680.242929 1349.259967 14.963408 0.000000 0.128853
568.000000 78.056000 5.000000 -4.000000 -6.000000 99.890629 -34.695628 1720.140005 712.752747 12.819817 0.000000 0.057870
569.000000 77.583000 7.000000 -4.000000 -6.000000 121.364513 -36.586732 1773.940029 123.945784 12.893183 0.000000 0.098465
571.000000 61.509000 2.000000 -3.000000 -6.000000 58.623112 -24.546256 1466.545330 1662.589890 16.281070 0.000000 0.118082
572.000000 81.817000 4.000000 -3.000000 -6.000000 90.731786 -24.882909 1474.208984 925.845993 12.232962 0.000000 0.119253
573.000000 85.045000 5.000000 -3.000000 -6.000000 104.343327 -25.088016 1478.898596 637.120331 11.765711 0.000000 0.093007
574.000000 82.722000 7.000000 -3.000000 -6.000000 126.372933 -25.603114 1490.745740 61.957994 12.091502 0.000000 0.032978
575.000000 79.271000 8.000000 -3.000000 -6.000000 135.100599 -25.932617 1498.377811 -260.011510 12.616399 0.000000 0.094819
576.000000 47.265000 1.000000 -2.000000 -6.000000 40.877598 -15.605078 1275.609590 2232.081074 21.192569 0.000000 0.241225
577.000000 66.216000 1.000000 -1.000000 -3.000000 59.567354 -15.193594 1267.293476 1596.184158 7.562048 0.000000 0.067694
578.000000 79.962000 3.000000 -2.000000 -6.000000 77.246137 -14.726468 1257.891990 1192.891329 12.520473 0.000000 0.127084
579.000000 90.492000 5.000000 -2.000000 -6.000000 107.269094 -13.573463 1234.855384 596.794713 11.057016 0.000000 0.135128
580.000000 86.518000 7.000000 -2.000000 -6.000000 129.545465 -11.995319 1203.681505 32.498595 11.560596 0.000000 0.041843
582.000000 47.869000 1.000000 -1.000000 -6.000000 39.710284 -5.896637 1086.160343 2243.822776 20.925761 0.000000 0.235338
583.000000 68.346000 2.000000 -1.000000 -6.000000 59.075152 -4.840428 1066.143784 1588.090763 14.653140 0.000000 0.027089
584.000000 82.946000 3.000000 -1.000000 -6.000000 77.295817 -3.641719 1043.501519 1184.126887 12.070246 0.000000 0.135612
585.000000 88.393000 7.000000 -1.000000 -6.000000 129.946392 3.314528 912.667452 38.086163 11.315349 0.000000 0.053486
586.000000 83.739000 8.000000 -1.000000 -6.000000 138.386429 5.888281 863.998298 -277.108214 11.942771 0.000000 0.014504
590.000000 66.894000 2.000000 0.000000 -6.000000 56.838160 5.937226 863.069007 1648.076775 14.971617 0.000000 0.028473
591.000000 90.260000 4.000000 0.000000 -6.000000 91.438650 9.976415 785.677064 913.554447 11.088961 0.000000 0.163221
592.000000 87.957000 7.000000 0.000000 -6.000000 127.159635 18.368507 617.621495 81.447929 11.371755 0.000000 0.036857
593.000000 83.319000 8.000000 0.000000 -6.000000 135.276712 22.026556 539.568490 -231.307370 12.003353 0.000000 0.064213
594.000000 61.805000 2.000000 1.000000 -6.000000 52.950760 16.409209 658.041378 1787.996426 16.204823 0.000000 0.097902
595.000000 76.942000 3.000000 1.000000 -6.000000 70.807003 18.822600 608.125748 1336.825765 13.013105 0.000000 0.109233
596.000000 85.630000 4.000000 1.000000 -6.000000 86.753706 21.495880 551.125803 1006.610160 11.689332 0.000000 0.136129
597.000000 88.805000 5.000000 1.000000 -6.000000 100.485098 24.459710 485.418174 722.170849 11.268365 0.000000 0.112179
598.000000 88.129000 6.000000 1.000000 -6.000000 112.029007 27.745485 408.842482 448.939973 11.352271 0.000000 0.051797
599.000000 85.153000 7.000000 1.000000 -6.000000 121.595045 31.383239 318.459260 165.540358 11.747025 0.000000 0.035592
600.000000 81.007000 8.000000 1.000000 -6.000000 129.455025 35.398356 210.163958 -145.691470 12.346731 0.000000 0.138483
602.000000 54.120000 1.000000 1.000000 -3.000000 47.906627 25.957996 451.032592 2022.374709 9.253024 0.000000 0.198933
603.000000 68.791000 3.000000 2.000000 -6.000000 64.958723 28.645646 387.072477 1513.957837 14.555828 0.000000 0.123627
604.000000 81.896000 5.000000 2.000000 -6.000000 93.562821 34.702642 229.665086 859.486675 12.220186 0.000000 0.081143
605.000000 80.291000 7.000000 2.000000 -6.000000 114.176691 41.728559 15.093999 293.572144 12.459707 0.000000 0.123431
607.000000 59.134000 1.000000 1.000000 -2.000000 58.375514 37.007637 163.729131 1770.967425 5.644535 0.000000 0.212758
608.000000 68.320000 4.000000 3.000000 -6.000000 72.912365 39.927178 74.210495 1372.443505 14.653527 0.000000 0.166174
609.000000 73.207000 5.000000 3.000000 -6.000000 85.672086 43.013850 -29.147169 1052.399835 13.672072 0.000000 0.144600
610.000000 73.949000 7.000000 3.000000 -6.000000 105.845485 49.665253 -292.563488 469.029979 13.529811 0.000000 0.257593
613.000000 58.422000 2.000000 2.000000 -3.000000 65.416702 46.727654 -168.240781 1659.322720 8.568713 0.000000 0.300956
614.000000 63.898000 5.000000 4.000000 -6.000000 77.597744 49.632008 -291.073808 1306.424014 15.665570 0.000000 0.289766
630.000000 67.820000 3.000000 -5.000000 -5.000000 72.870718 -46.808722 2121.486680 1425.652324 14.761058 0.000000 0.268726
631.000000 74.863000 4.000000 -5.000000 -5.000000 87.156333 -48.301908 2183.087198 1021.368913 13.368987 0.000000 0.237190
634.000000 66.026000 2.000000 -4.000000 -5.000000 60.853507 -38.484260 1830.640484 1707.757982 15.165536 0.000000 0.221022
635.000000 78.660000 3.000000 -4.000000 -5.000000 77.962758 -39.566103 1864.316050 1238.713865 12.726196 0.000000 0.148412
636.000000 85.730000 4.000000 -4.000000 -5.000000 93.391521 -40.795157 1903.873539 856.746905 11.673461 0.000000 0.104689
637.000000 88.103000 5.000000 -4.000000 -5.000000 106.887985 -42.202261 1951.001453 499.900707 11.356286 0.000000 0.114005
638.000000 87.167000 6.000000 -4.000000 -5.000000 118.468087 -43.826995 2008.102968 132.049897 11.476047 0.000000 0.196303
641.000000 75.911000 2.000000 -3.000000 -5.000000 64.144954 -29.724983 1589.529550 1541.608031 13.190786 0.000000 0.131426
642.000000 89.922000 3.000000 -3.000000 -5.000000 82.770530 -30.299742 1603.929088 1099.131109 11.131838 0.000000 0.109330
645.000000 60.389000 1.000000 -2.000000 -5.000000 44.732706 -19.219287 1350.211603 2091.506372 16.586088 0.000000 0.202237
646.000000 84.673000 2.000000 -2.000000 -5.000000 66.432381 -19.000692 1345.612388 1437.552018 11.825900 0.000000 0.091885
648.000000 62.817000 1.000000 -1.000000 -5.000000 43.934417 -7.715637 1120.819816 2068.297289 15.945615 0.000000 0.171945
649.000000 89.702000 2.000000 -1.000000 -5.000000 66.751699 -6.563658 1098.839720 1406.425362 11.163143 0.000000 0.081111
652.000000 80.654000 2.000000 1.000000 -5.000000 59.291411 19.374044 596.524915 1618.648169 12.416567 0.000000 0.088714
653.000000 68.410000 2.000000 2.000000 -5.000000 52.538444 30.505372 340.878280 1898.219702 14.639220 0.000000 0.192981
654.000000 85.349000 3.000000 2.000000 -5.000000 71.605962 33.907002 251.569308 1372.247188 11.730342 0.000000 0.132754
657.000000 71.032000 3.000000 3.000000 -5.000000 62.965188 43.022362 -29.446303 1692.241562 14.095819 0.000000 0.256161
658.000000 80.222000 4.000000 3.000000 -5.000000 78.461349 46.559084 -161.522449 1260.559014 12.477784 0.000000 0.224319
659.000000 83.749000 5.000000 3.000000 -5.000000 91.556881 50.275093 -320.256626 895.227953 11.949510 0.000000 0.261044
674.000000 80.232000 1.000000 -2.000000 -4.000000 49.873208 -24.474307 1464.912812 1937.744829 12.483074 0.000000 0.176305
675.000000 87.520000 1.000000 -1.000000 -4.000000 50.060416 -10.487570 1174.237853 1857.496473 11.444191 0.000000 0.099745
676.000000 85.408000 1.000000 0.000000 -4.000000 47.180904 5.069792 879.515244 1942.243027 11.727607 0.000000 0.119018
677.000000 72.957000 1.000000 1.000000 -4.000000 41.304802 20.122174 580.659847 2245.540638 13.729119 0.000000 0.245414
#UB matrix in q= (UB) B0 G* 
#[[-0.94000691   0.143066824  0.309195138]
# [ 0.128082256  0.990150772 -0.068762386]
# [-0.316199217 -0.02504312  -0.949531727]]
#B0 matrix in q= UB (B0) G*
#[[ 0.19670273 -0.          0.03056101]
# [ 0.          0.19187965 -0.        ]
# [ 0.          0.          0.18806537]]
#UBB0 matrix in q= (UB B0) G* i.e. recip. basis vectors are columns in LT frame: astar = UBB0[:,0], bstar = UBB0[:,1], cstar = UBB0[:,2]. (abcstar as columns on xyzlab1, xlab1 = ui, ui = unit vector along incident beam)
#[[-0.18490193  0.02745161  0.02942134]
# [ 0.02519413  0.18998979 -0.0090175 ]
# [-0.06219725 -0.00480527 -0.1882374 ]]
#Euler angles phi theta psi (deg)
#[274.51  161.507 102.514]
#deviatoric strain in direct crystal frame (10-3 unit)
#[[ 3.14 -0.13 -0.42]
# [-0.13  2.3   0.03]
# [-0.42  0.03 -5.44]]
#deviatoric strain in sample2 frame (10-3 unit)
#[[ 1.68 -0.2  -3.27]
# [-0.2   2.25 -0.46]
# [-3.27 -0.46 -3.92]]
#new lattice parameters
#[ 5.1505     5.2071912  5.3116191 89.995966  99.2651781 90.01509  ]
#CCDLabel
#sCMOS
#DetectorParameters
#[79.0, 975.0, 941.0, 0.0, 0.0]
#pixelsize
#0.0734
#Frame dimensions
#[2018, 2016]
#
