#Strain and Orientation Refinement from experimental file: /home/micha/LaueProjects/DepthEffects/testZrO2_164.cor
#File created at Wed Jun 28 14:28:09 2023 with indexingSpotsSet.py
#Number of indexed spots: 525
#Element
#ZrO2
#grainIndex
#G_0
#Mean Deviation(pixel): 0.116
##spot_index intensity h k l 2theta Chi Xexp Yexp Energy GrainIndex PixDev
27.000000 46.917000 -12.000000 8.000000 -3.000000 118.012849 45.565472 -122.751376 123.130341 21.322662 0.000000 0.216611
28.000000 48.608000 -11.000000 8.000000 -3.000000 114.165370 47.754061 -210.076344 222.698896 20.582017 0.000000 0.242728
35.000000 46.069000 -10.000000 9.000000 -3.000000 103.274702 50.239329 -318.613060 543.985412 21.720274 0.000000 0.262929
66.000000 45.952000 -15.000000 6.000000 -2.000000 135.235230 27.210530 421.609813 -279.205581 21.765565 0.000000 0.099817
67.000000 48.332000 -7.000000 3.000000 -1.000000 133.308911 29.727576 360.405839 -227.324223 10.347206 0.000000 0.106858
68.000000 50.896000 -13.000000 6.000000 -2.000000 131.052851 32.330940 293.781232 -168.328469 19.652616 0.000000 0.114472
69.000000 53.642000 -6.000000 3.000000 -1.000000 128.401306 35.013862 220.982493 -100.619619 9.323483 0.000000 0.123212
70.000000 56.558000 -11.000000 6.000000 -2.000000 125.273442 37.767776 141.109683 -22.074609 17.686522 0.000000 0.134023
71.000000 59.603000 -5.000000 3.000000 -1.000000 121.569663 40.582355 53.079034 70.190237 8.391823 0.000000 0.148454
72.000000 62.700000 -9.000000 6.000000 -2.000000 117.167297 43.445650 -44.426521 180.196657 15.955659 0.000000 0.168910
73.000000 65.703000 -4.000000 3.000000 -1.000000 111.916006 46.344331 -153.023689 313.732857 7.613804 0.000000 0.198940
74.000000 68.360000 -7.000000 6.000000 -2.000000 105.633935 49.264018 -274.719173 479.452565 14.637109 0.000000 0.243613
77.000000 46.024000 -14.000000 7.000000 -2.000000 127.346656 32.785490 281.761382 -35.922499 21.734116 0.000000 0.090084
78.000000 48.167000 -13.000000 7.000000 -2.000000 124.696676 35.087434 218.920297 30.342349 20.767539 0.000000 0.095314
79.000000 50.399000 -12.000000 7.000000 -2.000000 121.634936 37.441188 150.884217 105.906557 19.848666 0.000000 0.102662
80.000000 52.683000 -11.000000 7.000000 -2.000000 118.086474 39.840330 76.981172 192.971055 18.989438 0.000000 0.113605
81.000000 54.953000 -10.000000 7.000000 -2.000000 113.961556 42.277553 -3.581924 294.513389 18.206151 0.000000 0.130160
82.000000 57.104000 -9.000000 7.000000 -2.000000 109.153469 44.744771 -91.747845 414.670237 17.521627 0.000000 0.154911
83.000000 58.969000 -8.000000 7.000000 -2.000000 103.536988 47.233254 -188.646118 559.373314 16.968855 0.000000 0.191102
84.000000 60.295000 -7.000000 7.000000 -2.000000 96.968723 49.733805 -295.641675 737.460022 16.597354 0.000000 0.242992
85.000000 60.714000 -6.000000 7.000000 -2.000000 89.291517 52.236952 -414.399551 962.733365 16.485012 0.000000 0.316696
89.000000 47.113000 -6.000000 4.000000 -1.000000 115.235407 39.287894 94.443034 285.579700 10.617748 0.000000 0.089230
90.000000 48.823000 -11.000000 8.000000 -2.000000 111.367863 41.408628 25.830866 379.543453 20.492725 0.000000 0.104414
91.000000 50.415000 -5.000000 4.000000 -1.000000 106.939541 43.554529 -48.313644 488.666423 9.923500 0.000000 0.126746
92.000000 51.775000 -9.000000 8.000000 -2.000000 101.860936 45.719936 -128.687732 617.231143 19.327454 0.000000 0.158224
93.000000 52.738000 -4.000000 4.000000 -1.000000 96.031701 47.898862 -216.110936 771.372645 9.488088 0.000000 0.201430
94.000000 53.079000 -7.000000 8.000000 -2.000000 89.343387 50.085093 -311.553137 960.223791 18.856321 0.000000 0.260057
98.000000 46.103000 -10.000000 9.000000 -2.000000 100.494922 44.550145 -84.524637 661.221145 21.705499 0.000000 0.136749
99.000000 46.826000 -9.000000 9.000000 -2.000000 95.253727 46.478481 -158.324740 797.281916 21.372301 0.000000 0.174092
100.000000 47.103000 -8.000000 9.000000 -2.000000 89.327956 48.415787 -237.932420 960.021342 21.248541 0.000000 0.222818
101.000000 46.747000 -7.000000 9.000000 -2.000000 82.638562 50.357676 -324.061282 1158.948615 21.412709 0.000000 0.286569
119.000000 79.664000 -9.000000 3.000000 -1.000000 139.525914 20.219081 578.593802 -403.163483 12.554368 0.000000 0.079714
120.000000 87.500000 -8.000000 3.000000 -1.000000 136.885473 24.784793 478.028834 -325.200014 11.430442 0.000000 0.093039
122.000000 49.398000 -15.000000 4.000000 -1.000000 141.605471 8.937830 805.728685 -433.906627 20.245823 0.000000 0.033682
123.000000 52.466000 -14.000000 4.000000 -1.000000 140.559343 11.489096 756.238745 -394.161185 19.062123 0.000000 0.040697
124.000000 55.898000 -13.000000 4.000000 -1.000000 139.283648 14.237935 701.897329 -349.217388 17.892130 0.000000 0.047271
125.000000 59.749000 -12.000000 4.000000 -1.000000 137.717871 17.194024 641.954286 -297.942739 16.739137 0.000000 0.053183
126.000000 64.083000 -11.000000 4.000000 -1.000000 135.782411 20.364138 575.496406 -238.837992 15.607579 0.000000 0.058201
127.000000 68.963000 -10.000000 4.000000 -1.000000 133.371480 23.750830 501.400572 -169.871034 14.503582 0.000000 0.062140
128.000000 74.446000 -9.000000 4.000000 -1.000000 130.342976 27.350980 418.269769 -88.209285 13.435854 0.000000 0.065063
129.000000 80.557000 -8.000000 4.000000 -1.000000 126.503931 31.154363 324.344167 10.231227 12.417198 0.000000 0.067838
130.000000 87.237000 -7.000000 4.000000 -1.000000 121.589734 35.142472 217.375164 131.588200 11.467253 0.000000 0.073491
132.000000 47.771000 -15.000000 5.000000 -1.000000 136.574081 15.481669 676.887977 -238.931185 20.936796 0.000000 0.040590
133.000000 50.510000 -14.000000 5.000000 -1.000000 135.036454 17.897710 627.413933 -191.468606 19.801663 0.000000 0.042989
134.000000 53.523000 -13.000000 5.000000 -1.000000 133.211299 20.450935 573.640247 -138.122282 18.687417 0.000000 0.044332
135.000000 56.835000 -12.000000 5.000000 -1.000000 131.032475 23.142353 514.980951 -77.649333 17.599068 0.000000 0.044405
136.000000 60.464000 -11.000000 5.000000 -1.000000 128.415577 25.970649 450.738538 -8.409694 16.543367 0.000000 0.043107
137.000000 64.414000 -10.000000 5.000000 -1.000000 125.252125 28.931715 380.076087 71.813337 15.529634 0.000000 0.040790
138.000000 68.655000 -9.000000 5.000000 -1.000000 121.401818 32.018224 301.980606 166.102493 14.571110 0.000000 0.039261
139.000000 73.093000 -8.000000 5.000000 -1.000000 116.682471 35.219323 215.214158 278.894836 13.687263 0.000000 0.043575
140.000000 77.513000 -7.000000 5.000000 -1.000000 110.857656 38.520507 118.247749 416.852044 12.907928 0.000000 0.060944
141.000000 81.478000 -6.000000 5.000000 -1.000000 103.623566 41.903713 9.170452 590.519354 12.281281 0.000000 0.096349
142.000000 84.168000 -5.000000 5.000000 -1.000000 94.600594 45.347716 -114.437799 817.767924 11.890480 0.000000 0.155330
143.000000 84.169000 -4.000000 5.000000 -1.000000 83.344423 48.828781 -255.687869 1131.775368 11.892461 0.000000 0.249843
146.000000 45.917000 -15.000000 6.000000 -1.000000 131.338135 20.508701 572.403755 -69.888769 21.783528 0.000000 0.035954
147.000000 48.304000 -14.000000 6.000000 -1.000000 129.365373 22.741626 523.857315 -16.421643 20.707612 0.000000 0.034393
148.000000 50.876000 -13.000000 6.000000 -1.000000 127.065823 25.069659 471.521763 43.459477 19.661325 0.000000 0.031385
149.000000 53.632000 -12.000000 6.000000 -1.000000 124.372524 27.490835 414.935466 111.094775 18.651767 0.000000 0.026855
150.000000 56.555000 -11.000000 6.000000 -1.000000 121.202312 30.001700 353.558629 188.253584 17.688502 0.000000 0.021494
151.000000 59.604000 -10.000000 6.000000 -1.000000 117.451605 32.597169 286.756018 277.329600 16.784733 0.000000 0.019348
152.000000 62.691000 -9.000000 6.000000 -1.000000 112.991350 35.270427 213.774897 381.656443 15.959207 0.000000 0.028539
153.000000 65.658000 -8.000000 6.000000 -1.000000 107.661458 38.012897 133.716537 506.041440 15.239475 0.000000 0.050178
154.000000 68.224000 -7.000000 6.000000 -1.000000 101.265760 40.814294 45.499022 657.719130 14.667743 0.000000 0.083711
155.000000 69.928000 -6.000000 6.000000 -1.000000 93.570211 43.662769 -52.191932 848.172476 14.312106 0.000000 0.132401
156.000000 70.047000 -5.000000 6.000000 -1.000000 84.310069 46.545148 -160.968900 1096.917584 14.290010 0.000000 0.203427
157.000000 67.541000 -4.000000 6.000000 -1.000000 73.216765 49.447263 -282.832464 1440.284698 14.822827 0.000000 0.310349
160.000000 45.930000 -14.000000 7.000000 -1.000000 123.722916 26.482129 438.798568 138.360710 21.779570 0.000000 0.021202
161.000000 48.064000 -13.000000 7.000000 -1.000000 121.026367 28.595692 388.290298 203.684307 20.813393 0.000000 0.014440
162.000000 50.281000 -12.000000 7.000000 -1.000000 117.914881 30.773553 334.072994 277.325666 19.896696 0.000000 0.006340
163.000000 52.540000 -11.000000 7.000000 -1.000000 114.310609 33.012122 275.722527 361.186814 19.042351 0.000000 0.010191
164.000000 54.771000 -10.000000 7.000000 -1.000000 110.119636 35.306865 212.747543 457.846750 18.268120 0.000000 0.026462
165.000000 56.857000 -9.000000 7.000000 -1.000000 105.229371 37.652301 144.575587 570.906211 17.599218 0.000000 0.048922
166.000000 58.616000 -8.000000 7.000000 -1.000000 99.506598 40.042029 70.535658 705.571932 17.072681 0.000000 0.079082
167.000000 59.769000 -7.000000 7.000000 -1.000000 92.797510 42.468789 -10.163957 869.701920 16.745217 0.000000 0.119890
168.000000 59.909000 -6.000000 7.000000 -1.000000 84.932237 44.924570 -98.464099 1075.804149 16.708259 0.000000 0.176125
169.000000 58.478000 -5.000000 7.000000 -1.000000 75.737977 47.400740 -195.491594 1345.192518 17.119359 0.000000 0.255812
172.000000 46.900000 -12.000000 8.000000 -1.000000 111.757227 33.324088 267.358902 426.917490 21.333321 0.000000 0.015834
173.000000 48.562000 -11.000000 8.000000 -1.000000 107.824405 35.334159 211.977404 516.791795 20.604283 0.000000 0.031292
174.000000 50.086000 -10.000000 8.000000 -1.000000 103.318446 37.382951 152.618257 620.344856 19.979040 0.000000 0.051590
175.000000 51.346000 -9.000000 8.000000 -1.000000 98.145119 39.466211 88.836971 741.460784 19.490222 0.000000 0.077996
176.000000 52.167000 -8.000000 8.000000 -1.000000 92.198237 41.579184 20.120265 885.770417 19.185732 0.000000 0.112608
177.000000 52.300000 -7.000000 8.000000 -1.000000 85.362534 43.716652 -54.127772 1061.792804 19.138881 0.000000 0.158662
178.000000 51.423000 -6.000000 8.000000 -1.000000 77.520713 45.873006 -134.603014 1283.118729 19.467790 0.000000 0.221278
179.000000 49.138000 -5.000000 8.000000 -1.000000 68.566999 48.042326 -222.123166 1572.950548 20.375820 0.000000 0.308867
180.000000 45.663000 -10.000000 9.000000 -1.000000 97.060783 39.020425 102.798615 769.410620 21.916740 0.000000 0.078420
181.000000 46.269000 -9.000000 9.000000 -1.000000 91.720602 40.891028 42.979612 898.231622 21.631300 0.000000 0.108156
182.000000 46.389000 -8.000000 9.000000 -1.000000 85.676024 42.782343 -21.043495 1051.881016 21.577486 0.000000 0.146811
183.000000 45.821000 -7.000000 9.000000 -1.000000 78.843958 44.690534 -89.730047 1239.564252 21.847273 0.000000 0.197831
195.000000 127.484000 -6.000000 1.000000 0.000000 141.794367 -10.243130 1169.492444 -448.596776 7.844944 0.000000 0.038886
196.000000 151.325000 -5.000000 1.000000 0.000000 140.097988 -5.472975 1078.123012 -352.036240 6.609125 0.000000 0.016012
197.000000 185.441000 -4.000000 1.000000 0.000000 137.174021 0.845710 959.112295 -220.361989 5.393443 0.000000 0.013673
201.000000 69.210000 -11.000000 2.000000 0.000000 141.052001 -8.018825 1126.623918 -403.730364 14.450405 0.000000 0.027421
202.000000 83.374000 -9.000000 2.000000 0.000000 138.848161 -2.543016 1022.801640 -291.742223 11.995860 0.000000 0.007714
203.000000 104.219000 -7.000000 2.000000 0.000000 134.872806 4.779914 885.001012 -134.265822 9.597059 0.000000 0.025439
204.000000 118.569000 -6.000000 2.000000 0.000000 131.612125 9.355378 797.681715 -27.873098 8.435915 0.000000 0.037658
205.000000 136.643000 -5.000000 2.000000 0.000000 126.822551 14.668187 693.278119 108.020066 7.320583 0.000000 0.049286
206.000000 159.170000 -4.000000 2.000000 0.000000 119.478712 20.796348 566.232649 290.188303 6.285225 0.000000 0.059550
207.000000 184.984000 -3.000000 2.000000 0.000000 107.639469 27.768765 408.284025 554.219607 5.409199 0.000000 0.069083
209.000000 47.493000 -16.000000 3.000000 0.000000 140.760981 -7.208787 1111.135286 -387.333672 21.058157 0.000000 0.023571
210.000000 53.762000 -14.000000 3.000000 0.000000 139.304404 -3.566700 1042.086701 -312.930914 18.603068 0.000000 0.009493
211.000000 57.524000 -13.000000 3.000000 0.000000 138.345357 -1.468460 1002.590891 -269.330777 17.386725 0.000000 0.008067
212.000000 66.739000 -11.000000 3.000000 0.000000 135.726535 3.402114 911.016483 -164.891082 14.986588 0.000000 0.021386
213.000000 72.430000 -10.000000 3.000000 0.000000 133.914312 6.228952 857.526724 -101.413199 13.809283 0.000000 0.029528
214.000000 86.766000 -8.000000 3.000000 0.000000 128.639269 12.809853 730.277299 58.636206 11.528529 0.000000 0.045525
215.000000 95.762000 -7.000000 3.000000 0.000000 124.729070 16.617508 653.784599 162.412826 10.446077 0.000000 0.052893
216.000000 117.544000 -5.000000 3.000000 0.000000 112.266493 25.352273 465.036154 453.350227 8.512071 0.000000 0.065653
217.000000 128.709000 -4.000000 3.000000 0.000000 102.121140 30.273345 346.735910 673.347360 7.774966 0.000000 0.074010
218.000000 135.391000 -3.000000 3.000000 0.000000 87.553032 35.524383 206.595461 997.512781 7.393130 0.000000 0.101770
219.000000 126.902000 -2.000000 3.000000 0.000000 66.521518 41.043635 37.951638 1560.861433 7.890320 0.000000 0.214225
221.000000 49.081000 -15.000000 4.000000 0.000000 136.118625 2.738787 923.512995 -179.442962 20.378204 0.000000 0.019389
222.000000 55.493000 -13.000000 4.000000 0.000000 133.390627 6.981332 843.203632 -84.067465 18.024154 0.000000 0.031573
223.000000 63.542000 -11.000000 4.000000 0.000000 129.458091 11.914017 747.914210 35.588980 15.741934 0.000000 0.043596
224.000000 73.668000 -9.000000 4.000000 0.000000 123.561851 17.626939 633.022285 191.766580 13.579185 0.000000 0.054630
225.000000 85.972000 -7.000000 4.000000 0.000000 114.299066 24.178233 491.785554 408.327337 11.637633 0.000000 0.064122
226.000000 98.304000 -5.000000 4.000000 0.000000 98.965442 31.557117 313.969274 741.728645 10.180268 0.000000 0.077764
227.000000 98.537000 -3.000000 4.000000 0.000000 72.504622 39.643062 83.248557 1381.576464 10.160664 0.000000 0.171194
229.000000 50.120000 -14.000000 5.000000 0.000000 129.923566 11.386976 758.235604 22.241084 19.957289 0.000000 0.042425
230.000000 53.075000 -13.000000 5.000000 0.000000 127.942740 13.542422 715.761631 77.838968 18.846803 0.000000 0.047046
231.000000 56.313000 -12.000000 5.000000 0.000000 125.602926 15.826718 669.897256 140.000676 17.763804 0.000000 0.051470
232.000000 59.846000 -11.000000 5.000000 0.000000 122.818507 18.243840 620.219656 210.145516 16.715750 0.000000 0.055649
233.000000 67.734000 -9.000000 5.000000 0.000000 115.439230 23.484949 507.350064 382.795539 14.770768 0.000000 0.063218
234.000000 71.925000 -8.000000 5.000000 0.000000 110.511201 26.308037 442.874376 491.826766 13.911350 0.000000 0.066938
235.000000 75.981000 -7.000000 5.000000 0.000000 104.447607 29.261236 371.968937 623.142585 13.170032 0.000000 0.071738
236.000000 79.395000 -6.000000 5.000000 0.000000 96.928735 32.337012 293.621475 786.199324 12.605299 0.000000 0.080715
237.000000 79.915000 -4.000000 5.000000 0.000000 75.850519 38.808820 109.364362 1289.203726 12.527745 0.000000 0.151271
238.000000 73.077000 -3.000000 5.000000 0.000000 61.355919 42.172369 0.021331 1734.235436 13.702854 0.000000 0.259923
240.000000 50.386000 -13.000000 6.000000 0.000000 122.303872 18.659812 611.535701 222.737678 19.854177 0.000000 0.056319
241.000000 55.870000 -11.000000 6.000000 0.000000 116.168440 23.027435 517.531847 366.343799 17.907348 0.000000 0.062616
242.000000 66.537000 -7.000000 6.000000 0.000000 95.507093 32.860840 279.757041 817.463148 15.041590 0.000000 0.083068
243.000000 67.038000 -5.000000 6.000000 0.000000 77.983278 38.255395 126.353673 1232.753237 14.933656 0.000000 0.139998
244.000000 47.538000 -13.000000 7.000000 0.000000 116.674812 22.702936 524.711540 354.857795 21.045783 0.000000 0.062185
245.000000 49.661000 -12.000000 7.000000 0.000000 113.448926 24.678563 480.447736 427.228728 20.146865 0.000000 0.064772
246.000000 51.801000 -11.000000 7.000000 0.000000 109.721103 26.722096 433.160199 509.050497 19.316041 0.000000 0.067517
247.000000 53.875000 -10.000000 7.000000 0.000000 105.394608 28.831634 382.528138 602.714451 18.573575 0.000000 0.070906
248.000000 55.756000 -9.000000 7.000000 0.000000 100.353173 31.004436 328.183722 711.596732 17.948654 0.000000 0.076003
249.000000 57.240000 -8.000000 7.000000 0.000000 94.459009 33.236871 269.703127 840.652949 17.484913 0.000000 0.084973
250.000000 57.670000 -6.000000 7.000000 0.000000 79.460096 37.861490 138.288954 1194.648656 17.359018 0.000000 0.132814
251.000000 55.586000 -5.000000 7.000000 0.000000 70.003765 40.241814 64.113584 1454.096128 18.012355 0.000000 0.187975
252.000000 51.062000 -4.000000 7.000000 0.000000 59.036781 42.658144 -16.720978 1819.099287 19.611208 0.000000 0.283317
253.000000 47.786000 -11.000000 8.000000 0.000000 103.594771 29.639196 362.605462 641.538494 20.941146 0.000000 0.072531
254.000000 50.211000 -9.000000 8.000000 0.000000 93.654569 33.519902 262.078597 858.543018 19.932921 0.000000 0.086539
255.000000 50.571000 -7.000000 8.000000 0.000000 80.542773 37.566850 147.133425 1167.185189 19.795508 0.000000 0.127859
256.000000 46.455000 -5.000000 8.000000 0.000000 63.333163 41.748290 14.428337 1665.508489 21.554780 0.000000 0.241424
260.000000 58.994000 -13.000000 1.000000 1.000000 136.614172 -27.353745 1531.796079 -341.065440 16.953598 0.000000 0.111692
261.000000 63.727000 -12.000000 1.000000 1.000000 135.790332 -26.555643 1512.926251 -295.895863 15.694528 0.000000 0.098932
262.000000 69.271000 -11.000000 1.000000 1.000000 134.807129 -25.648317 1491.790242 -244.924116 14.438703 0.000000 0.084697
263.000000 75.847000 -10.000000 1.000000 1.000000 133.614781 -24.608262 1467.953733 -186.912186 13.187143 0.000000 0.068785
264.000000 83.761000 -9.000000 1.000000 1.000000 132.140944 -23.404920 1440.863852 -120.221224 11.941342 0.000000 0.051203
265.000000 93.450000 -8.000000 1.000000 1.000000 130.276648 -21.997924 1409.805749 -42.620109 10.703583 0.000000 0.033307
266.000000 105.543000 -7.000000 1.000000 1.000000 127.850511 -20.333018 1373.838597 49.040789 9.477545 0.000000 0.025055
267.000000 120.967000 -6.000000 1.000000 1.000000 124.578393 -18.335902 1331.698635 159.431849 8.269549 0.000000 0.043267
268.000000 141.074000 -5.000000 1.000000 1.000000 119.957261 -15.902812 1281.647599 295.985108 7.091463 0.000000 0.076587
269.000000 167.638000 -4.000000 1.000000 1.000000 113.019813 -12.885971 1221.226958 471.886636 5.968479 0.000000 0.116877
270.000000 170.531000 -1.000000 1.000000 1.000000 39.013156 2.341473 930.991207 2270.598998 5.874499 0.000000 0.254516
271.000000 47.711000 -16.000000 2.000000 1.000000 136.994182 -19.778544 1362.034559 -285.291305 20.963081 0.000000 0.061462
272.000000 50.734000 -15.000000 2.000000 1.000000 136.284952 -18.753159 1340.418860 -247.795882 19.713890 0.000000 0.051908
273.000000 54.156000 -14.000000 2.000000 1.000000 135.460586 -17.621317 1316.861441 -206.585882 18.468681 0.000000 0.042230
274.000000 58.055000 -13.000000 2.000000 1.000000 134.492486 -16.366570 1291.088365 -161.050711 17.228404 0.000000 0.033221
275.000000 62.535000 -12.000000 2.000000 1.000000 133.342241 -14.969173 1262.771620 -110.427863 15.994335 0.000000 0.027122
276.000000 67.729000 -11.000000 2.000000 1.000000 131.957213 -13.405321 1231.515090 -53.747877 14.768239 0.000000 0.028073
277.000000 73.806000 -10.000000 2.000000 1.000000 130.263611 -11.646192 1196.835906 10.249111 13.552612 0.000000 0.037530
278.000000 80.988000 -9.000000 2.000000 1.000000 128.155264 -9.656804 1158.139322 83.245646 12.351118 0.000000 0.052841
279.000000 89.561000 -8.000000 2.000000 1.000000 125.474789 -7.394666 1114.684327 167.568565 11.169356 0.000000 0.072016
280.000000 99.876000 -7.000000 2.000000 1.000000 121.980716 -4.808287 1065.535728 266.586857 10.016333 0.000000 0.094153
281.000000 112.318000 -6.000000 2.000000 1.000000 117.287634 -1.835747 1009.496091 385.492131 8.907516 0.000000 0.118357
282.000000 127.110000 -5.000000 2.000000 1.000000 110.752436 1.596250 945.006884 533.017917 7.871908 0.000000 0.142470
283.000000 143.563000 -4.000000 2.000000 1.000000 101.251042 5.571903 870.001271 725.874981 6.970975 0.000000 0.160265
284.000000 157.356000 -3.000000 2.000000 1.000000 86.747393 10.182756 781.678487 1003.144399 6.361735 0.000000 0.152944
285.000000 151.727000 -2.000000 2.000000 1.000000 63.640135 15.518331 676.146327 1494.516227 6.600472 0.000000 0.077152
287.000000 46.874000 -16.000000 3.000000 1.000000 134.602490 -11.198100 1188.074910 -141.063346 21.337955 0.000000 0.024088
288.000000 49.723000 -15.000000 3.000000 1.000000 133.613649 -9.852160 1161.917506 -99.779073 20.115457 0.000000 0.026282
289.000000 52.920000 -14.000000 3.000000 1.000000 132.461611 -8.385606 1133.657043 -54.559692 18.900866 0.000000 0.032526
290.000000 56.524000 -13.000000 3.000000 1.000000 131.106813 -6.783673 1103.029270 -4.757787 17.696068 0.000000 0.041705
291.000000 60.609000 -12.000000 3.000000 1.000000 129.496831 -5.029593 1069.723726 50.442386 16.503600 0.000000 0.052955
292.000000 65.264000 -11.000000 3.000000 1.000000 127.561043 -3.104415 1033.373185 112.090610 15.326954 0.000000 0.065828
293.000000 70.590000 -10.000000 3.000000 1.000000 125.202563 -0.986869 993.540054 181.573160 14.171083 0.000000 0.080079
294.000000 76.698000 -9.000000 3.000000 1.000000 122.285806 1.346650 949.698674 260.780251 13.043249 0.000000 0.095484
295.000000 83.688000 -8.000000 3.000000 1.000000 118.616873 3.921917 901.211994 352.395679 11.954539 0.000000 0.111646
296.000000 91.601000 -7.000000 3.000000 1.000000 113.912051 6.766367 847.300406 460.433944 10.922779 0.000000 0.127719
297.000000 100.280000 -6.000000 3.000000 1.000000 107.746770 9.908114 786.999517 591.326995 9.978561 0.000000 0.141850
298.000000 109.030000 -5.000000 3.000000 1.000000 99.474014 13.374235 719.101943 756.385121 9.179170 0.000000 0.149999
299.000000 115.781000 -4.000000 3.000000 1.000000 88.104417 17.188128 642.075639 978.286517 8.645805 0.000000 0.143539
300.000000 115.261000 -3.000000 3.000000 1.000000 72.182826 21.365750 553.946909 1312.444155 8.687238 0.000000 0.111043
301.000000 96.387000 -2.000000 3.000000 1.000000 49.894445 25.910798 452.128897 1948.812172 10.391600 0.000000 0.186048
302.000000 45.739000 -16.000000 4.000000 1.000000 131.468099 -3.717131 1044.923990 -12.162142 21.868297 0.000000 0.042972
303.000000 48.361000 -15.000000 4.000000 1.000000 130.150205 -2.188939 1016.138980 32.400021 20.683100 0.000000 0.051594
304.000000 51.267000 -14.000000 4.000000 1.000000 128.620095 -0.546141 985.259499 81.148296 19.511291 0.000000 0.061049
305.000000 54.495000 -13.000000 4.000000 1.000000 126.829196 1.221632 952.048319 134.790059 18.356058 0.000000 0.071242
306.000000 58.087000 -12.000000 4.000000 1.000000 124.714406 3.125425 916.230977 194.227316 17.221690 0.000000 0.082084
307.000000 62.082000 -11.000000 4.000000 1.000000 122.192703 5.176841 877.488178 260.637513 16.114093 0.000000 0.093447
308.000000 66.511000 -10.000000 4.000000 1.000000 119.153411 7.387830 835.446247 335.601756 15.041637 0.000000 0.105108
309.000000 71.380000 -9.000000 4.000000 1.000000 115.446999 9.770360 789.665040 421.317977 14.016587 0.000000 0.116650
310.000000 76.628000 -8.000000 4.000000 1.000000 110.868861 12.335945 739.622472 520.975641 13.057662 0.000000 0.127305
311.000000 82.058000 -7.000000 4.000000 1.000000 105.136132 15.094988 684.694525 639.460748 12.194938 0.000000 0.135679
312.000000 87.180000 -6.000000 4.000000 1.000000 97.856116 18.055919 624.129087 784.799808 11.479983 0.000000 0.139287
313.000000 90.923000 -5.000000 4.000000 1.000000 88.488792 21.224134 557.011312 971.460543 11.009245 0.000000 0.134164
314.000000 91.132000 -4.000000 4.000000 1.000000 76.320835 24.600745 482.217084 1229.109118 10.986444 0.000000 0.118419
315.000000 83.951000 -3.000000 4.000000 1.000000 60.511470 28.181247 398.349556 1631.507708 11.929154 0.000000 0.136236
317.000000 46.708000 -15.000000 5.000000 1.000000 126.144087 4.259362 894.840685 152.706220 21.416424 0.000000 0.073481
318.000000 49.280000 -14.000000 5.000000 1.000000 124.229625 5.961400 862.609962 204.755823 20.299498 0.000000 0.082010
319.000000 52.082000 -13.000000 5.000000 1.000000 122.006116 7.768756 828.163897 262.065457 19.207839 0.000000 0.090791
320.000000 55.126000 -12.000000 5.000000 1.000000 119.404742 9.687570 791.265959 325.647051 18.147977 0.000000 0.099684
321.000000 58.409000 -11.000000 5.000000 1.000000 116.337308 11.723758 751.644700 396.837984 17.128905 0.000000 0.108457
322.000000 61.902000 -10.000000 5.000000 1.000000 112.689899 13.882794 708.987067 477.458586 16.163358 0.000000 0.116730
323.000000 65.529000 -9.000000 5.000000 1.000000 108.314423 16.169436 662.930115 570.076253 15.269992 0.000000 0.123886
324.000000 69.124000 -8.000000 5.000000 1.000000 103.017732 18.587390 613.050652 678.473246 14.477268 0.000000 0.128954
325.000000 72.363000 -7.000000 5.000000 1.000000 96.548632 21.138930 558.852199 808.532335 13.830877 0.000000 0.130491
326.000000 74.650000 -6.000000 5.000000 1.000000 88.585155 23.824473 499.748411 970.059314 13.409101 0.000000 0.126857
327.000000 74.948000 -5.000000 5.000000 1.000000 78.729765 26.642129 435.041769 1180.961384 13.358173 0.000000 0.119190
328.000000 71.595000 -4.000000 5.000000 1.000000 66.531723 29.587273 363.895935 1478.344973 13.986447 0.000000 0.128628
329.000000 62.304000 -3.000000 5.000000 1.000000 51.574922 32.652173 285.299397 1955.093498 16.075213 0.000000 0.225713
330.000000 47.046000 -14.000000 6.000000 1.000000 119.533465 11.320116 759.542187 319.133945 21.265032 0.000000 0.095283
331.000000 49.404000 -13.000000 6.000000 1.000000 116.913342 13.092744 724.682162 380.067950 20.250881 0.000000 0.102239
332.000000 51.890000 -12.000000 6.000000 1.000000 113.879306 14.953105 687.551780 447.816516 19.281837 0.000000 0.108875
333.000000 54.467000 -11.000000 6.000000 1.000000 110.344329 16.903656 647.921778 523.898886 18.370641 0.000000 0.114875
334.000000 57.065000 -10.000000 6.000000 1.000000 106.199678 18.946261 605.530953 610.403625 17.535334 0.000000 0.119780
335.000000 59.560000 -9.000000 6.000000 1.000000 101.309608 21.082029 560.080395 710.306320 16.802329 0.000000 0.122955
336.000000 61.736000 -8.000000 6.000000 1.000000 95.505746 23.311137 511.226427 828.034261 16.211905 0.000000 0.123639
337.000000 63.238000 -7.000000 6.000000 1.000000 88.582588 25.632648 458.571900 970.538322 15.828678 0.000000 0.121385
338.000000 63.510000 -6.000000 6.000000 1.000000 80.297597 28.044339 401.655373 1149.502315 15.763258 0.000000 0.118206
339.000000 61.724000 -5.000000 6.000000 1.000000 70.382990 30.542533 339.937553 1386.411069 16.222031 0.000000 0.126469
340.000000 56.774000 -4.000000 6.000000 1.000000 58.581630 33.121977 272.784155 1726.002241 17.639453 0.000000 0.180983
342.000000 46.571000 -13.000000 7.000000 1.000000 111.751543 17.437000 636.946359 490.884361 21.484655 0.000000 0.107931
343.000000 48.521000 -12.000000 7.000000 1.000000 108.354306 19.204849 600.092531 562.874389 20.622645 0.000000 0.112355
344.000000 50.442000 -11.000000 7.000000 1.000000 104.442920 21.041338 560.958138 643.990962 19.838555 0.000000 0.115814
345.000000 52.242000 -10.000000 7.000000 1.000000 99.919268 22.946547 519.324735 736.610004 19.156657 0.000000 0.117926
346.000000 53.774000 -9.000000 7.000000 1.000000 94.665878 24.919958 474.945058 844.139844 18.612471 0.000000 0.118363
347.000000 54.818000 -8.000000 7.000000 1.000000 88.544372 26.960368 427.538109 971.684447 18.260132 0.000000 0.117288
348.000000 55.047000 -7.000000 7.000000 1.000000 81.396529 29.065811 376.783203 1127.303553 18.186434 0.000000 0.116817
349.000000 54.005000 -6.000000 7.000000 1.000000 73.050908 31.233496 322.312699 1324.610859 18.539819 0.000000 0.124979
350.000000 51.099000 -5.000000 7.000000 1.000000 63.339724 33.459754 263.703087 1588.731357 19.596938 0.000000 0.160934
351.000000 45.650000 -4.000000 7.000000 1.000000 52.131829 35.740007 200.463948 1972.091872 21.939184 0.000000 0.251679
352.000000 46.479000 -11.000000 8.000000 1.000000 98.772428 24.390098 486.995522 758.636084 21.531906 0.000000 0.113808
353.000000 47.601000 -10.000000 8.000000 1.000000 93.979484 26.157617 446.386130 857.582186 21.026425 0.000000 0.114296
354.000000 48.358000 -9.000000 8.000000 1.000000 88.494367 27.975665 403.310406 973.032770 20.699293 0.000000 0.114186
355.000000 48.548000 -8.000000 8.000000 1.000000 82.208417 29.842627 357.536632 1110.787482 20.620517 0.000000 0.115431
356.000000 47.899000 -7.000000 8.000000 1.000000 75.005501 31.756381 308.803124 1280.037506 20.902254 0.000000 0.123576
357.000000 46.068000 -6.000000 8.000000 1.000000 66.770792 33.714284 256.813225 1496.351225 21.736170 0.000000 0.150161
376.000000 57.576000 -13.000000 0.000000 2.000000 128.554662 -38.829887 1841.287548 -160.140935 17.372851 0.000000 0.178382
377.000000 61.995000 -12.000000 0.000000 2.000000 127.113355 -38.787658 1839.981171 -103.795006 16.134771 0.000000 0.166088
378.000000 67.115000 -11.000000 0.000000 2.000000 125.410050 -38.740427 1838.521865 -39.996712 14.904242 0.000000 0.152070
379.000000 73.104000 -10.000000 0.000000 2.000000 123.367178 -38.687249 1836.881105 32.943771 13.683753 0.000000 0.136061
380.000000 80.177000 -9.000000 0.000000 2.000000 120.873757 -38.626924 1835.022805 117.322265 12.477023 0.000000 0.117880
381.000000 88.612000 -8.000000 0.000000 2.000000 117.765656 -38.557908 1832.900630 216.374822 11.289866 0.000000 0.097751
382.000000 98.746000 -7.000000 0.000000 2.000000 113.790503 -38.478179 1830.454078 334.891346 10.131909 0.000000 0.077399
383.000000 110.924000 -6.000000 0.000000 2.000000 108.541906 -38.385032 1827.602624 480.457880 9.020328 0.000000 0.063587
384.000000 125.259000 -5.000000 0.000000 2.000000 101.328992 -38.274769 1824.236683 666.327753 7.989063 0.000000 0.070895
385.000000 140.657000 -4.000000 0.000000 2.000000 90.903160 -38.142195 1820.203205 919.426481 7.115845 0.000000 0.103767
386.000000 151.087000 -3.000000 0.000000 2.000000 74.872800 -37.979780 1815.281750 1310.125059 6.626501 0.000000 0.158145
388.000000 47.221000 -16.000000 1.000000 2.000000 131.504953 -30.309353 1604.171314 -162.180922 21.181873 0.000000 0.099041
389.000000 50.174000 -15.000000 1.000000 2.000000 130.523627 -29.870824 1593.167580 -119.957743 19.935310 0.000000 0.087397
390.000000 53.509000 -14.000000 1.000000 2.000000 129.399150 -29.389231 1581.194172 -73.627787 18.693270 0.000000 0.074571
391.000000 57.300000 -13.000000 1.000000 2.000000 128.098321 -28.857985 1568.117007 -22.523167 17.456873 0.000000 0.060410
392.000000 61.642000 -12.000000 1.000000 2.000000 126.577007 -28.269094 1553.776089 34.190834 16.227642 0.000000 0.044803
393.000000 66.654000 -11.000000 1.000000 2.000000 124.775318 -27.612786 1537.978924 97.577733 15.007703 0.000000 0.027940
394.000000 72.489000 -10.000000 1.000000 2.000000 122.610065 -26.876989 1520.491838 169.025307 13.800116 0.000000 0.013083
395.000000 79.338000 -9.000000 1.000000 2.000000 119.962522 -26.046621 1501.028333 250.400203 12.609450 0.000000 0.021183
396.000000 87.431000 -8.000000 1.000000 2.000000 116.657862 -25.102628 1479.233276 344.314447 11.442842 0.000000 0.044148
397.000000 97.026000 -7.000000 1.000000 2.000000 112.429134 -24.020608 1454.661024 454.622388 10.312103 0.000000 0.070848
398.000000 108.315000 -6.000000 1.000000 2.000000 106.851235 -22.768876 1426.744639 587.445908 9.238286 0.000000 0.099015
399.000000 121.118000 -5.000000 1.000000 2.000000 99.214405 -21.305637 1394.751601 753.592375 8.262928 0.000000 0.124799
400.000000 133.807000 -4.000000 1.000000 2.000000 88.273912 -19.574836 1357.718599 975.423691 7.480965 0.000000 0.137685
401.000000 139.709000 -3.000000 1.000000 2.000000 71.767528 -17.499931 1314.352862 1312.749143 7.167204 0.000000 0.108812
402.000000 116.673000 -2.000000 1.000000 2.000000 45.732867 -14.974466 1262.878150 2026.985832 8.585631 0.000000 0.178890
403.000000 49.573000 -15.000000 2.000000 2.000000 129.148073 -21.201793 1392.505782 1.206618 20.177575 0.000000 0.026525
404.000000 56.383000 -13.000000 2.000000 2.000000 126.344642 -19.381641 1353.635450 101.517130 17.741467 0.000000 0.031271
405.000000 65.165000 -11.000000 2.000000 2.000000 122.481519 -17.181842 1307.794995 223.805961 15.351319 0.000000 0.058739
406.000000 76.717000 -9.000000 2.000000 2.000000 116.869183 -14.478859 1252.924972 377.805361 13.041079 0.000000 0.096198
407.000000 91.894000 -7.000000 2.000000 2.000000 108.115010 -11.095152 1186.065971 582.194242 10.889051 0.000000 0.137296
408.000000 100.779000 -6.000000 2.000000 2.000000 101.703101 -9.071312 1146.841733 715.225636 9.930274 0.000000 0.154572
409.000000 109.686000 -5.000000 2.000000 2.000000 93.070160 -6.771991 1102.806718 882.866565 9.125481 0.000000 0.162094
410.000000 116.111000 -4.000000 2.000000 2.000000 81.066903 -4.145986 1053.018059 1110.624103 8.622600 0.000000 0.143550
411.000000 113.185000 -3.000000 2.000000 2.000000 63.877888 -1.132108 996.269271 1468.889328 8.848280 0.000000 0.053444
412.000000 45.900000 -16.000000 3.000000 2.000000 128.215650 -14.301135 1249.366681 66.462609 21.792903 0.000000 0.040542
413.000000 48.578000 -15.000000 3.000000 2.000000 126.862060 -13.232196 1228.080693 111.999720 20.591607 0.000000 0.050524
414.000000 51.559000 -14.000000 3.000000 2.000000 125.303634 -12.076195 1205.269807 161.590541 19.401718 0.000000 0.062164
415.000000 54.887000 -13.000000 3.000000 2.000000 123.493632 -10.823110 1180.764071 215.889813 18.226057 0.000000 0.075156
416.000000 58.611000 -12.000000 3.000000 2.000000 121.370821 -9.461542 1154.367309 275.729057 17.068456 0.000000 0.089298
417.000000 62.786000 -11.000000 3.000000 2.000000 118.853726 -7.978520 1125.851849 342.190899 15.934263 0.000000 0.104377
418.000000 67.459000 -10.000000 3.000000 2.000000 115.832114 -6.359316 1094.951944 416.728651 14.831163 0.000000 0.120065
419.000000 72.660000 -9.000000 3.000000 2.000000 112.154138 -4.587247 1061.355466 501.368835 13.770626 0.000000 0.135776
420.000000 78.356000 -8.000000 3.000000 2.000000 107.606740 -2.643512 1024.693323 599.076120 12.770547 0.000000 0.150402
421.000000 84.378000 -7.000000 3.000000 2.000000 101.885595 -0.507088 984.525845 714.462956 11.860494 0.000000 0.161813
422.000000 90.229000 -6.000000 3.000000 2.000000 94.549764 1.845258 940.325063 855.308706 11.093066 0.000000 0.165815
423.000000 94.696000 -5.000000 3.000000 2.000000 84.957707 4.438752 891.451378 1036.249843 10.571751 0.000000 0.153791
424.000000 95.075000 -4.000000 3.000000 2.000000 72.195751 7.300059 837.122403 1289.472946 10.532100 0.000000 0.107520
425.000000 85.967000 -3.000000 3.000000 2.000000 55.070768 10.456241 776.370770 1705.342767 11.651073 0.000000 0.059089
427.000000 47.238000 -15.000000 4.000000 2.000000 123.849191 -6.145617 1090.889447 214.972386 21.176981 0.000000 0.082758
428.000000 52.905000 -13.000000 4.000000 2.000000 119.816316 -3.374597 1038.464801 323.121977 18.910067 0.000000 0.106081
429.000000 59.713000 -11.000000 4.000000 2.000000 114.305540 -0.182209 978.422783 454.906747 16.755711 0.000000 0.130664
430.000000 67.628000 -9.000000 4.000000 2.000000 106.471401 3.510497 908.973105 622.173139 14.796815 0.000000 0.152862
431.000000 75.687000 -7.000000 4.000000 2.000000 94.805091 7.792123 827.716772 849.681545 13.224191 0.000000 0.161922
432.000000 79.484000 -5.000000 4.000000 2.000000 76.568859 12.754868 731.363338 1204.530730 12.596822 0.000000 0.125062
433.000000 64.386000 -3.000000 4.000000 2.000000 47.302288 18.480969 615.274440 1988.095990 15.557333 0.000000 0.168600
434.000000 45.612000 -15.000000 5.000000 2.000000 120.306715 0.016855 974.683387 311.895154 21.933274 0.000000 0.105280
435.000000 47.990000 -14.000000 5.000000 2.000000 118.114179 1.446561 947.820760 365.786726 20.847441 0.000000 0.115155
436.000000 50.549000 -13.000000 5.000000 2.000000 115.587725 2.963223 919.286535 424.919634 19.792925 0.000000 0.125043
437.000000 53.283000 -12.000000 5.000000 2.000000 112.655545 4.572693 888.919674 490.322718 18.778147 0.000000 0.134643
438.000000 56.168000 -11.000000 5.000000 2.000000 109.226269 6.280973 856.537764 563.374527 17.814843 0.000000 0.143494
439.000000 59.143000 -10.000000 5.000000 2.000000 105.182881 8.094119 821.933354 645.983696 16.919876 0.000000 0.150859
440.000000 62.090000 -9.000000 5.000000 2.000000 100.374895 10.018109 784.869504 740.899500 16.118375 0.000000 0.155576
441.000000 64.785000 -8.000000 5.000000 2.000000 94.608812 12.058674 745.074354 852.279107 15.449516 0.000000 0.155797
442.000000 66.834000 -7.000000 5.000000 2.000000 87.637807 14.221073 702.234442 986.802275 14.977918 0.000000 0.148629
443.000000 67.564000 -6.000000 5.000000 2.000000 79.154120 16.509821 655.986434 1156.074765 14.818319 0.000000 0.130073
444.000000 65.898000 -5.000000 5.000000 2.000000 68.793199 18.928361 605.906787 1382.487499 15.195833 0.000000 0.100001
445.000000 60.259000 -4.000000 5.000000 2.000000 56.169200 21.478690 551.498751 1716.188242 16.620735 0.000000 0.112390
447.000000 47.934000 -13.000000 6.000000 2.000000 111.045975 8.298336 818.017571 522.476179 20.874060 0.000000 0.135207
448.000000 52.364000 -11.000000 6.000000 2.000000 103.925992 11.599041 754.087297 668.562316 19.110844 0.000000 0.147066
449.000000 56.440000 -9.000000 6.000000 2.000000 94.255386 15.236486 681.841204 857.998224 17.734045 0.000000 0.149402
450.000000 58.480000 -7.000000 6.000000 2.000000 80.822762 19.230892 599.543886 1125.159135 17.119468 0.000000 0.130472
451.000000 54.534000 -5.000000 6.000000 2.000000 61.944213 23.592741 504.940961 1566.941000 18.363978 0.000000 0.107364
452.000000 46.870000 -12.000000 7.000000 2.000000 102.765999 14.346947 699.716637 689.293558 21.351286 0.000000 0.142691
453.000000 48.482000 -11.000000 7.000000 2.000000 98.626506 15.980875 666.766346 771.152469 20.642900 0.000000 0.144450
454.000000 49.900000 -10.000000 7.000000 2.000000 93.861465 17.681274 631.898236 864.750871 20.058208 0.000000 0.143435
455.000000 50.961000 -9.000000 7.000000 2.000000 88.355054 19.449103 594.939851 973.779055 19.642569 0.000000 0.138615
456.000000 51.428000 -8.000000 7.000000 2.000000 81.972776 21.284887 555.697424 1103.896496 19.466606 0.000000 0.129125
457.000000 50.963000 -7.000000 7.000000 2.000000 74.563931 23.188630 513.952470 1264.308923 19.646649 0.000000 0.116181
458.000000 49.115000 -6.000000 7.000000 2.000000 65.970154 25.159743 469.457722 1471.168223 20.388832 0.000000 0.111259
459.000000 45.832000 -9.000000 8.000000 2.000000 82.805978 22.886524 520.653777 1088.462187 21.842698 0.000000 0.127171
465.000000 62.860000 -11.000000 -1.000000 3.000000 114.306672 -47.948333 2168.180378 215.237012 15.915627 0.000000 0.254792
466.000000 67.635000 -10.000000 -1.000000 3.000000 111.176782 -48.383172 2186.542534 313.178001 14.792725 0.000000 0.250088
467.000000 72.981000 -9.000000 -1.000000 3.000000 107.384446 -48.865291 2207.271572 428.757484 13.709967 0.000000 0.247636
468.000000 78.881000 -8.000000 -1.000000 3.000000 102.707280 -49.402763 2230.856658 568.043073 12.685497 0.000000 0.249820
469.000000 85.167000 -7.000000 -1.000000 3.000000 96.819255 -50.005589 2257.931720 740.743900 11.750333 0.000000 0.260771
470.000000 91.302000 -6.000000 -1.000000 3.000000 89.230573 -50.686299 2289.333291 963.814466 10.962241 0.000000 0.287421
471.000000 95.862000 -5.000000 -1.000000 3.000000 79.191740 -51.460793 2326.188466 1270.788819 10.442509 0.000000 0.341757
474.000000 45.865000 -16.000000 1.000000 3.000000 124.527563 -31.114825 1624.642108 76.089042 21.810233 0.000000 0.054103
475.000000 48.567000 -15.000000 1.000000 3.000000 123.087492 -30.762903 1615.656013 124.870826 20.597509 0.000000 0.040697
476.000000 51.580000 -14.000000 1.000000 3.000000 121.442026 -30.380731 1605.971645 178.198026 19.394813 0.000000 0.026098
477.000000 54.953000 -13.000000 1.000000 3.000000 119.544976 -29.964275 1595.504324 236.823903 18.204725 0.000000 0.010207
478.000000 58.743000 -12.000000 1.000000 3.000000 117.335582 -29.508754 1584.155101 301.707649 17.030794 0.000000 0.007075
479.000000 63.011000 -11.000000 1.000000 3.000000 114.732470 -29.008468 1571.807621 374.102352 15.878036 0.000000 0.025731
480.000000 67.816000 -10.000000 1.000000 3.000000 111.624475 -28.456566 1558.324117 455.698176 14.753786 0.000000 0.045685
481.000000 73.202000 -9.000000 1.000000 3.000000 107.856368 -27.844746 1543.540250 548.869026 13.669206 0.000000 0.066592
482.000000 79.156000 -8.000000 1.000000 3.000000 103.206157 -27.162856 1527.258377 657.127890 12.642163 0.000000 0.087632
483.000000 85.517000 -7.000000 1.000000 3.000000 97.348299 -26.398358 1509.238666 786.043021 11.703149 0.000000 0.107033
484.000000 91.757000 -6.000000 1.000000 3.000000 89.793617 -25.535601 1489.187198 945.296606 10.908822 0.000000 0.121139
485.000000 96.471000 -5.000000 1.000000 3.000000 79.793421 -24.554822 1466.739818 1154.050963 10.377742 0.000000 0.123053
486.000000 96.226000 -4.000000 1.000000 3.000000 66.203277 -23.430738 1441.439815 1458.283233 10.406687 0.000000 0.109370
487.000000 83.422000 -3.000000 1.000000 3.000000 47.372727 -22.130554 1412.706525 2010.436958 12.007103 0.000000 0.195132
488.000000 47.986000 -15.000000 2.000000 3.000000 121.919599 -23.087192 1433.794064 212.183384 20.847246 0.000000 0.031471
489.000000 50.872000 -14.000000 2.000000 3.000000 120.139868 -22.398640 1418.586594 265.099808 19.665353 0.000000 0.044063
490.000000 54.079000 -13.000000 2.000000 3.000000 118.086697 -21.652075 1402.267026 323.030495 18.499619 0.000000 0.058468
491.000000 57.650000 -12.000000 2.000000 3.000000 115.694896 -20.840133 1384.708741 386.880301 17.354588 0.000000 0.074140
492.000000 61.622000 -11.000000 2.000000 3.000000 112.877813 -19.954205 1365.765140 457.840423 16.236681 0.000000 0.090692
493.000000 66.023000 -10.000000 2.000000 3.000000 109.518240 -18.984184 1345.265542 537.533359 15.155280 0.000000 0.107625
494.000000 70.846000 -9.000000 2.000000 3.000000 105.454671 -17.918145 1323.010027 628.265404 14.124658 0.000000 0.124092
495.000000 76.003000 -8.000000 2.000000 3.000000 100.460244 -16.741949 1298.762890 733.497362 13.167646 0.000000 0.138531
496.000000 81.221000 -7.000000 2.000000 3.000000 94.210396 -15.438757 1272.244269 858.799389 12.323173 0.000000 0.147978
497.000000 85.829000 -6.000000 2.000000 3.000000 86.234079 -13.988421 1243.119286 1014.009538 11.663490 0.000000 0.146599
498.000000 88.299000 -5.000000 2.000000 3.000000 75.845633 -12.366745 1210.983836 1218.880136 11.339543 0.000000 0.122544
499.000000 85.394000 -4.000000 2.000000 3.000000 62.072585 -10.544582 1175.345723 1521.328112 11.728181 0.000000 0.059022
500.000000 71.008000 -3.000000 2.000000 3.000000 43.668473 -8.486774 1135.599269 2081.002148 14.107431 0.000000 0.188071
501.000000 49.706000 -14.000000 3.000000 3.000000 117.971811 -14.971002 1262.808423 349.319647 20.127245 0.000000 0.089501
502.000000 52.652000 -13.000000 3.000000 3.000000 115.682737 -13.967986 1242.711635 407.642917 19.002194 0.000000 0.103020
503.000000 59.398000 -11.000000 3.000000 3.000000 109.890946 -11.716111 1198.205478 543.293341 16.845743 0.000000 0.130648
504.000000 63.190000 -10.000000 3.000000 3.000000 106.173701 -10.448362 1173.476189 623.580038 15.835912 0.000000 0.143621
505.000000 71.209000 -8.000000 3.000000 3.000000 96.254128 -7.572006 1118.073125 822.010541 14.055355 0.000000 0.161362
506.000000 74.877000 -7.000000 3.000000 3.000000 89.517282 -5.935760 1086.903155 950.116898 13.368758 0.000000 0.160126
507.000000 77.292000 -5.000000 3.000000 3.000000 70.328491 -2.184046 1016.046921 1326.045156 12.955759 0.000000 0.096892
508.000000 71.827000 -4.000000 3.000000 3.000000 56.572289 -0.029175 975.548042 1651.432512 13.944760 0.000000 0.012512
509.000000 45.729000 -15.000000 4.000000 3.000000 117.338742 -9.363946 1152.483612 377.046314 21.878482 0.000000 0.108355
510.000000 48.148000 -14.000000 4.000000 3.000000 115.103792 -8.260792 1131.262244 431.453161 20.779963 0.000000 0.119837
511.000000 50.759000 -13.000000 4.000000 3.000000 112.533715 -7.083134 1108.737805 491.007929 19.711829 0.000000 0.131328
512.000000 53.559000 -12.000000 4.000000 3.000000 109.554747 -5.824262 1084.786474 556.722738 18.682602 0.000000 0.142449
513.000000 56.522000 -11.000000 4.000000 3.000000 106.071971 -4.476828 1059.268228 629.964948 17.704321 0.000000 0.152602
514.000000 59.589000 -10.000000 4.000000 3.000000 101.962156 -3.032803 1032.024104 712.649674 16.794561 0.000000 0.160827
515.000000 62.632000 -9.000000 4.000000 3.000000 97.064148 -1.483462 1002.872883 807.579623 15.980032 0.000000 0.165561
516.000000 65.409000 -8.000000 4.000000 3.000000 91.166439 0.180620 971.607058 919.085448 15.303401 0.000000 0.164196
517.000000 67.473000 -7.000000 4.000000 3.000000 83.992381 1.969538 937.987882 1054.334747 14.837298 0.000000 0.152245
518.000000 68.040000 -6.000000 4.000000 3.000000 75.186232 3.893978 901.739261 1226.304566 14.716216 0.000000 0.121765
519.000000 65.800000 -5.000000 4.000000 3.000000 64.310328 5.965076 862.540159 1461.565179 15.220207 0.000000 0.060025
520.000000 58.767000 -4.000000 4.000000 3.000000 50.879009 8.194189 820.015056 1825.364307 17.044832 0.000000 0.088390
521.000000 46.274000 -14.000000 5.000000 3.000000 111.718981 -2.325168 1018.701989 511.924138 21.622983 0.000000 0.138933
522.000000 48.509000 -13.000000 5.000000 3.000000 108.855740 -1.045932 994.649882 573.369485 20.627907 0.000000 0.147869
523.000000 50.834000 -12.000000 5.000000 3.000000 105.555683 0.309262 969.190495 641.386070 19.685342 0.000000 0.155773
524.000000 53.200000 -11.000000 5.000000 3.000000 101.725058 1.745726 942.196597 717.515501 18.811516 0.000000 0.161887
525.000000 55.510000 -10.000000 5.000000 3.000000 97.245560 3.269020 913.525142 803.939809 18.030112 0.000000 0.165047
526.000000 57.602000 -9.000000 5.000000 3.000000 91.967859 4.884901 883.014737 903.884656 17.377101 0.000000 0.163440
527.000000 59.201000 -8.000000 5.000000 3.000000 85.704539 6.599260 850.482596 1022.380442 16.909909 0.000000 0.154203
528.000000 59.860000 -7.000000 5.000000 3.000000 78.224167 8.418015 815.720884 1167.819524 16.726203 0.000000 0.132837
529.000000 58.882000 -6.000000 5.000000 3.000000 69.250912 10.346986 778.492262 1355.492269 17.006641 0.000000 0.093451
530.000000 55.253000 -5.000000 5.000000 3.000000 58.479185 12.391717 738.524470 1616.836701 18.126781 0.000000 0.056771
531.000000 47.662000 -4.000000 5.000000 3.000000 45.620266 14.557253 695.503650 2029.173381 21.017003 0.000000 0.172899
532.000000 46.010000 -13.000000 6.000000 3.000000 104.848021 4.180709 896.326220 654.904246 21.749813 0.000000 0.155767
533.000000 49.630000 -11.000000 6.000000 3.000000 97.111409 7.033682 842.205387 805.704622 20.166437 0.000000 0.162251
534.000000 51.222000 -10.000000 6.000000 3.000000 92.320723 8.569503 812.811739 896.889191 19.541456 0.000000 0.160440
535.000000 53.048000 -8.000000 6.000000 3.000000 80.234134 11.876691 748.646489 1130.300427 18.873015 0.000000 0.137096
536.000000 52.610000 -7.000000 6.000000 3.000000 72.598463 13.654323 713.536581 1288.132676 19.032908 0.000000 0.109986
537.000000 46.222000 -5.000000 6.000000 3.000000 53.162028 17.470924 636.246111 1786.277150 21.669455 0.000000 0.107352
538.000000 45.982000 -11.000000 7.000000 3.000000 92.431578 11.510974 755.810761 894.357520 21.768193 0.000000 0.156505
539.000000 46.937000 -10.000000 7.000000 3.000000 87.403618 13.018124 726.159248 991.093590 21.327491 0.000000 0.150233
540.000000 47.441000 -9.000000 7.000000 3.000000 81.629204 14.588414 694.878736 1104.648808 21.102937 0.000000 0.138005
541.000000 47.250000 -8.000000 7.000000 3.000000 74.982391 16.223385 661.831191 1241.721554 21.190869 0.000000 0.118372
542.000000 46.031000 -7.000000 7.000000 3.000000 67.326443 17.924287 626.862533 1413.577092 21.754868 0.000000 0.094068
549.000000 46.481000 -15.000000 -1.000000 4.000000 115.357535 -45.546785 2072.035409 212.647178 21.523605 0.000000 0.206090
550.000000 49.085000 -14.000000 -1.000000 4.000000 113.196868 -45.775400 2080.827350 279.711638 20.382609 0.000000 0.199848
551.000000 51.932000 -13.000000 -1.000000 4.000000 110.716252 -46.022171 2090.398779 354.798423 19.265785 0.000000 0.194265
552.000000 55.036000 -12.000000 -1.000000 4.000000 107.842050 -46.289340 2100.858169 439.663743 18.180252 0.000000 0.190058
553.000000 58.392000 -11.000000 -1.000000 4.000000 104.477414 -46.579531 2112.335097 536.697646 17.136225 0.000000 0.188331
554.000000 61.966000 -10.000000 -1.000000 4.000000 100.493059 -46.895837 2124.985642 649.273574 16.148915 0.000000 0.190713
555.000000 65.659000 -9.000000 -1.000000 4.000000 95.713815 -47.241927 2138.999522 782.375932 15.241993 0.000000 0.199458
556.000000 69.243000 -8.000000 -1.000000 4.000000 89.899040 -47.622187 2154.609678 943.813773 14.454435 0.000000 0.217552
557.000000 72.246000 -7.000000 -1.000000 4.000000 82.714725 -48.041902 2172.105321 1146.800226 13.855270 0.000000 0.249122
558.000000 73.725000 -6.000000 -1.000000 4.000000 73.696407 -48.507493 2191.850018 1416.159604 13.579463 0.000000 0.301151
561.000000 46.722000 -15.000000 0.000000 4.000000 115.907161 -38.519533 1831.722378 272.813118 21.412816 0.000000 0.087367
562.000000 52.281000 -13.000000 0.000000 4.000000 111.359677 -38.433486 1829.084996 403.651247 19.137537 0.000000 0.068883
563.000000 58.920000 -11.000000 0.000000 4.000000 105.241204 -38.332322 1825.992291 567.154974 16.982765 0.000000 0.063766
564.000000 66.502000 -9.000000 0.000000 4.000000 96.630264 -38.211673 1822.315211 781.775449 15.048931 0.000000 0.084652
565.000000 73.653000 -7.000000 0.000000 4.000000 83.809271 -38.065314 1817.870846 1089.285950 13.591004 0.000000 0.127566
566.000000 74.167000 -5.000000 0.000000 4.000000 63.433306 -37.884047 1812.391059 1622.890712 13.501522 0.000000 0.207600
568.000000 46.563000 -15.000000 1.000000 4.000000 115.674866 -31.461116 1633.549666 334.426273 21.486424 0.000000 0.008831
569.000000 49.178000 -14.000000 1.000000 4.000000 113.526286 -31.148706 1625.510747 393.491044 20.344540 0.000000 0.018259
570.000000 52.040000 -13.000000 1.000000 4.000000 111.058704 -30.811504 1616.893080 458.479195 19.226619 0.000000 0.032918
571.000000 55.161000 -12.000000 1.000000 4.000000 108.198602 -30.446461 1607.631833 530.563616 18.139702 0.000000 0.048937
572.000000 58.539000 -11.000000 1.000000 4.000000 104.849266 -30.050015 1597.652114 611.328964 17.093888 0.000000 0.065579
573.000000 62.141000 -10.000000 1.000000 4.000000 100.881572 -29.617975 1586.866941 703.000325 16.104193 0.000000 0.082217
574.000000 65.870000 -9.000000 1.000000 4.000000 96.120543 -29.145378 1575.174705 808.855809 15.193965 0.000000 0.097893
575.000000 69.502000 -8.000000 1.000000 4.000000 90.325771 -28.626308 1562.455951 934.028137 14.401590 0.000000 0.111044
576.000000 72.568000 -7.000000 1.000000 4.000000 83.163537 -28.053654 1548.569288 1087.214110 13.794917 0.000000 0.119338
577.000000 74.132000 -6.000000 1.000000 4.000000 74.169740 -27.418801 1533.346109 1284.795059 13.506248 0.000000 0.120996
578.000000 72.396000 -5.000000 1.000000 4.000000 62.710080 -26.711219 1516.583711 1562.613617 13.832704 0.000000 0.127648
579.000000 64.171000 -4.000000 1.000000 4.000000 47.969368 -25.917909 1498.036218 2019.629406 15.608966 0.000000 0.213808
580.000000 46.013000 -15.000000 2.000000 4.000000 114.680789 -24.580653 1467.326451 397.107736 21.743943 0.000000 0.057182
581.000000 51.227000 -13.000000 2.000000 4.000000 109.844409 -23.418291 1441.162111 517.699394 19.532355 0.000000 0.084907
582.000000 57.286000 -11.000000 2.000000 4.000000 103.351236 -22.066804 1411.311547 665.367273 17.468593 0.000000 0.112618
583.000000 63.851000 -9.000000 2.000000 4.000000 94.266882 -20.477894 1376.936709 855.281878 15.675461 0.000000 0.134022
584.000000 69.217000 -7.000000 2.000000 4.000000 80.917111 -18.586210 1336.924683 1122.532555 14.463881 0.000000 0.131404
585.000000 67.141000 -5.000000 2.000000 4.000000 60.264420 -16.301690 1289.764933 1581.545384 14.916643 0.000000 0.078877
586.000000 47.416000 -14.000000 3.000000 4.000000 110.583457 -17.291379 1310.050681 517.670023 21.102249 0.000000 0.110801
587.000000 49.897000 -13.000000 3.000000 4.000000 107.819462 -16.471860 1293.237978 580.230067 20.054071 0.000000 0.122712
588.000000 52.529000 -12.000000 3.000000 4.000000 104.625726 -15.593471 1275.374567 649.397270 19.050457 0.000000 0.133970
589.000000 55.273000 -11.000000 3.000000 4.000000 100.902874 -14.650095 1256.358772 726.715668 18.105883 0.000000 0.143811
590.000000 58.048000 -10.000000 3.000000 4.000000 96.521771 -13.634815 1236.075365 814.389319 17.241861 0.000000 0.151015
591.000000 60.695000 -9.000000 3.000000 4.000000 91.313387 -12.539801 1214.393227 915.720847 16.491795 0.000000 0.153593
592.000000 62.920000 -8.000000 3.000000 4.000000 85.055747 -11.356180 1191.162506 1035.967700 15.910523 0.000000 0.148214
593.000000 64.204000 -7.000000 3.000000 4.000000 77.458612 -10.073887 1166.211154 1184.173505 15.594792 0.000000 0.129158
594.000000 63.652000 -6.000000 3.000000 4.000000 68.149743 -8.681507 1139.340657 1377.584584 15.732742 0.000000 0.086868
595.000000 59.814000 -5.000000 3.000000 4.000000 56.674728 -7.166104 1110.320740 1654.244345 16.745211 0.000000 0.039446
596.000000 50.577000 -4.000000 3.000000 4.000000 42.539665 -5.513049 1078.882754 2119.388644 19.806499 0.000000 0.200220
597.000000 48.131000 -13.000000 4.000000 4.000000 105.134281 -10.114825 1167.004543 645.306837 20.791098 0.000000 0.146612
598.000000 52.663000 -11.000000 4.000000 4.000000 97.723300 -7.959066 1125.479242 793.613848 19.004767 0.000000 0.160226
599.000000 56.744000 -9.000000 4.000000 4.000000 87.585011 -5.503402 1078.699844 986.602358 17.641353 0.000000 0.157823
600.000000 58.269000 -7.000000 4.000000 4.000000 73.265175 -2.691771 1025.601818 1264.974418 17.184576 0.000000 0.112680
601.000000 51.872000 -5.000000 4.000000 4.000000 52.567302 0.542323 964.812228 1764.899731 19.310400 0.000000 0.056393
602.000000 46.027000 -13.000000 5.000000 4.000000 101.957984 -4.410609 1058.016810 712.374318 21.742766 0.000000 0.159886
603.000000 47.873000 -12.000000 5.000000 4.000000 98.282163 -3.261888 1036.340465 784.073594 20.906039 0.000000 0.164258
604.000000 49.638000 -11.000000 5.000000 4.000000 94.046629 -2.046911 1013.467349 864.809305 20.164258 0.000000 0.165492
605.000000 51.198000 -10.000000 5.000000 4.000000 89.135167 -0.760968 989.295537 957.248454 19.551920 0.000000 0.161905
606.000000 52.354000 -9.000000 5.000000 4.000000 83.404841 0.600930 963.711190 1065.446197 19.122532 0.000000 0.150896
607.000000 52.799000 -8.000000 5.000000 4.000000 76.682180 2.044034 936.586764 1195.940878 18.963805 0.000000 0.128343
608.000000 52.075000 -7.000000 5.000000 4.000000 68.762355 3.573827 907.778885 1360.095813 19.230185 0.000000 0.087728
609.000000 49.530000 -6.000000 5.000000 4.000000 59.416023 5.195974 877.125809 1579.737182 20.221223 0.000000 0.026520
610.000000 46.378000 -11.000000 6.000000 4.000000 90.085761 3.110219 916.517455 939.386619 21.583375 0.000000 0.162633
611.000000 47.828000 -9.000000 6.000000 4.000000 79.042046 5.834230 865.024338 1150.475916 20.933739 0.000000 0.136653
612.000000 46.090000 -7.000000 6.000000 4.000000 64.259919 8.839626 807.618557 1466.150642 21.728598 0.000000 0.063975
619.000000 47.736000 -13.000000 -2.000000 5.000000 101.125462 -51.679933 2336.844015 599.646925 20.962656 0.000000 0.308940
620.000000 49.935000 -12.000000 -2.000000 5.000000 97.559585 -52.114957 2358.305704 708.398601 20.040682 0.000000 0.318400
628.000000 46.297000 -14.000000 -1.000000 5.000000 105.434159 -44.903049 2047.657988 521.473871 21.612777 0.000000 0.156939
629.000000 48.575000 -13.000000 -1.000000 5.000000 102.428815 -45.093063 2054.796314 604.993620 20.600492 0.000000 0.156957
630.000000 50.947000 -12.000000 -1.000000 5.000000 98.966683 -45.297112 2062.514978 699.573499 19.642415 0.000000 0.160515
631.000000 53.355000 -11.000000 -1.000000 5.000000 94.943257 -45.516804 2070.887752 808.147760 18.757160 0.000000 0.168832
632.000000 55.688000 -10.000000 -1.000000 5.000000 90.223044 -45.754004 2080.001461 934.995079 17.972961 0.000000 0.183305
633.000000 57.743000 -9.000000 -1.000000 5.000000 84.629261 -46.010881 2089.959010 1086.690498 17.334815 0.000000 0.205640
634.000000 59.169000 -8.000000 -1.000000 5.000000 77.930837 -46.289978 2100.883286 1274.037223 16.919092 0.000000 0.238467
635.000000 59.361000 -7.000000 -1.000000 5.000000 69.827854 -46.594294 2112.922253 1516.419556 16.866643 0.000000 0.286928
638.000000 46.388000 -14.000000 1.000000 5.000000 105.730196 -31.760884 1641.313881 584.464846 21.570953 0.000000 0.052788
639.000000 48.679000 -13.000000 1.000000 5.000000 102.735360 -31.480860 1634.059523 655.766338 20.556950 0.000000 0.066417
640.000000 51.068000 -12.000000 1.000000 5.000000 99.284506 -31.180198 1626.318667 735.339905 19.596674 0.000000 0.080119
641.000000 53.496000 -11.000000 1.000000 5.000000 95.273220 -30.856546 1618.040675 825.283343 18.708524 0.000000 0.093318
642.000000 55.854000 -10.000000 1.000000 5.000000 90.566115 -30.507186 1609.167630 928.656475 17.920381 0.000000 0.105239
643.000000 57.941000 -9.000000 1.000000 5.000000 84.986534 -30.128959 1599.632978 1050.167174 17.276622 0.000000 0.114913
644.000000 59.407000 -8.000000 1.000000 5.000000 78.303557 -29.718170 1589.359856 1197.565025 16.852438 0.000000 0.121640
645.000000 59.650000 -7.000000 1.000000 5.000000 70.217450 -29.270471 1578.259015 1384.780875 16.786197 0.000000 0.127567
646.000000 57.676000 -6.000000 1.000000 5.000000 60.348403 -28.780719 1566.226220 1640.058512 17.363441 0.000000 0.147839
647.000000 51.942000 -5.000000 1.000000 5.000000 48.242552 -28.242778 1553.138968 2031.731972 19.283440 0.000000 0.228627
648.000000 45.776000 -14.000000 2.000000 5.000000 104.806566 -25.326054 1484.360892 626.247371 21.860170 0.000000 0.092387
649.000000 47.941000 -13.000000 2.000000 5.000000 101.726009 -24.828984 1472.978638 694.847528 20.874100 0.000000 0.103953
650.000000 50.172000 -12.000000 2.000000 5.000000 98.181289 -24.296861 1460.894509 771.224692 19.947411 0.000000 0.114495
651.000000 52.401000 -11.000000 2.000000 5.000000 94.068719 -23.725943 1448.041518 857.372743 19.100409 0.000000 0.123144
652.000000 54.508000 -10.000000 2.000000 5.000000 89.255187 -23.111955 1434.343874 956.213005 18.363852 0.000000 0.128573
653.000000 56.283000 -9.000000 2.000000 5.000000 83.569179 -22.449991 1419.715489 1072.259791 17.786665 0.000000 0.128818
654.000000 57.371000 -8.000000 2.000000 5.000000 76.790108 -21.734397 1404.058159 1212.973051 17.451677 0.000000 0.121315
655.000000 57.185000 -7.000000 2.000000 5.000000 68.637675 -20.958635 1387.259368 1391.804646 17.511140 0.000000 0.105246
656.000000 54.792000 -6.000000 2.000000 5.000000 58.766717 -20.115106 1369.189568 1636.079130 18.278748 0.000000 0.100694
657.000000 48.813000 -5.000000 2.000000 5.000000 46.781053 -19.194944 1349.698840 2011.914667 20.520806 0.000000 0.185339
658.000000 46.730000 -13.000000 3.000000 5.000000 100.025037 -18.505365 1335.235087 740.361060 21.416223 0.000000 0.133567
659.000000 48.713000 -12.000000 3.000000 5.000000 96.337451 -17.778789 1320.120820 815.468811 20.546034 0.000000 0.140550
660.000000 50.634000 -11.000000 3.000000 5.000000 92.073600 -17.003041 1304.118650 900.249425 19.768291 0.000000 0.144597
661.000000 52.359000 -10.000000 3.000000 5.000000 87.105066 -16.173270 1287.147968 997.670094 19.118623 0.000000 0.143975
662.000000 53.671000 -9.000000 3.000000 5.000000 81.269704 -15.284017 1269.118105 1112.338720 18.653669 0.000000 0.136030
663.000000 54.214000 -8.000000 3.000000 5.000000 74.364304 -14.329125 1249.926707 1251.901837 18.469233 0.000000 0.116842
664.000000 53.435000 -7.000000 3.000000 5.000000 66.139202 -13.301644 1229.457794 1430.191112 18.741230 0.000000 0.082870
665.000000 50.505000 -6.000000 3.000000 5.000000 56.300533 -12.193712 1207.579414 1675.352257 19.831528 0.000000 0.066148
666.000000 46.790000 -12.000000 4.000000 5.000000 93.887912 -11.750012 1198.869770 866.288181 21.391660 0.000000 0.155549
667.000000 48.332000 -11.000000 4.000000 5.000000 89.448345 -10.819802 1180.699658 951.550660 20.711075 0.000000 0.154913
668.000000 49.601000 -10.000000 4.000000 5.000000 84.306796 -9.831118 1161.510355 1049.898670 20.183301 0.000000 0.148355
669.000000 50.374000 -9.000000 4.000000 5.000000 78.314900 -8.778916 1141.213635 1166.236673 19.875798 0.000000 0.132710
670.000000 50.313000 -8.000000 4.000000 5.000000 71.292934 -7.657655 1119.710787 1308.732921 19.902586 0.000000 0.103062
671.000000 48.919000 -7.000000 4.000000 5.000000 63.029592 -6.461254 1096.891007 1492.200446 20.472789 0.000000 0.053406
673.000000 45.653000 -11.000000 5.000000 5.000000 86.371294 -5.239270 1073.694292 1009.542445 21.927672 0.000000 0.155930
674.000000 46.678000 -9.000000 5.000000 5.000000 74.942013 -2.990763 1031.232200 1230.954918 21.451232 0.000000 0.120644
675.000000 46.044000 -8.000000 5.000000 5.000000 67.844263 -1.769208 1008.244928 1379.466930 21.749235 0.000000 0.081632
677.000000 46.964000 -11.000000 -2.000000 6.000000 84.577945 -51.060668 2306.994078 1103.542957 21.313339 0.000000 0.310046
680.000000 46.542000 -12.000000 -1.000000 6.000000 90.405696 -44.498384 2032.611758 930.315295 21.504635 0.000000 0.163595
681.000000 48.022000 -11.000000 -1.000000 6.000000 85.825221 -44.668356 2038.906079 1051.465615 20.843675 0.000000 0.181002
682.000000 49.188000 -10.000000 -1.000000 6.000000 80.508283 -44.850476 2045.691323 1194.826100 20.351572 0.000000 0.204666
683.000000 49.786000 -9.000000 -1.000000 6.000000 74.291393 -45.046090 2053.027252 1369.437328 20.108899 0.000000 0.236744
684.000000 49.428000 -8.000000 -1.000000 6.000000 66.972872 -45.256749 2060.983743 1590.866699 20.257184 0.000000 0.281609
686.000000 48.430000 -11.000000 0.000000 6.000000 86.351789 -38.091835 1818.674875 1028.194379 20.668559 0.000000 0.119081
687.000000 49.673000 -10.000000 0.000000 6.000000 81.063555 -38.037834 1817.038359 1155.885452 20.153234 0.000000 0.136737
688.000000 50.105000 -8.000000 0.000000 6.000000 67.574124 -37.917202 1813.391325 1504.044058 19.984149 0.000000 0.187337
689.000000 48.305000 -7.000000 0.000000 6.000000 58.919103 -37.849548 1811.351186 1762.621836 20.731226 0.000000 0.234317
690.000000 46.658000 -12.000000 1.000000 6.000000 90.692361 -31.769808 1641.545809 925.701238 21.452199 0.000000 0.101876
691.000000 48.156000 -11.000000 1.000000 6.000000 86.121761 -31.499305 1634.536025 1026.573224 20.786754 0.000000 0.111514
692.000000 49.344000 -10.000000 1.000000 6.000000 80.815416 -31.209543 1627.072019 1144.471233 20.288401 0.000000 0.119728
693.000000 49.970000 -9.000000 1.000000 6.000000 74.609921 -30.898406 1619.108164 1286.259917 20.036577 0.000000 0.127165
694.000000 49.644000 -8.000000 1.000000 6.000000 67.303699 -30.563459 1610.592510 1463.772634 20.170550 0.000000 0.137940
695.000000 47.783000 -7.000000 1.000000 6.000000 58.654564 -30.201886 1601.465649 1699.531131 20.958828 0.000000 0.165746
696.000000 47.226000 -11.000000 2.000000 6.000000 85.159668 -25.061396 1478.289057 1041.614384 21.197028 0.000000 0.124190
697.000000 48.657000 -9.000000 2.000000 6.000000 73.538123 -24.012538 1454.479333 1289.165552 20.577987 0.000000 0.117011
698.000000 46.051000 -7.000000 2.000000 6.000000 57.564424 -22.805072 1427.544577 1682.976056 21.748231 0.000000 0.120543
699.000000 45.716000 -11.000000 3.000000 6.000000 83.544819 -18.925964 1344.042880 1069.735080 21.898158 0.000000 0.134970
700.000000 46.453000 -10.000000 3.000000 6.000000 78.091323 -18.235624 1329.609236 1179.983322 21.552903 0.000000 0.126005
701.000000 45.708000 -8.000000 3.000000 6.000000 64.400339 -16.714533 1298.201350 1479.414217 21.909632 0.000000 0.085444
#UB matrix in q= (UB) B0 G* 
#[[ 0.955454254 -0.011400113  0.294630511]
# [ 0.188117034  0.794144681 -0.579321779]
# [-0.227418447  0.609208082  0.761267427]]
#B0 matrix in q= UB (B0) G*
#[[ 0.19670273 -0.          0.03056101]
# [ 0.          0.19187965 -0.        ]
# [ 0.          0.          0.18806537]]
#UBB0 matrix in q= (UB B0) G* i.e. recip. basis vectors are columns in LT frame: astar = UBB0[:,0], bstar = UBB0[:,1], cstar = UBB0[:,2]. (abcstar as columns on xyzlab1, xlab1 = ui, ui = unit vector along incident beam)
#[[ 0.18794046 -0.00218745  0.08460944]
# [ 0.03700313  0.15238021 -0.10320132]
# [-0.04473383  0.11689464  0.1362179 ]]
#Euler angles phi theta psi (deg)
#[200.489  40.52  153.004]
#deviatoric strain in direct crystal frame (10-3 unit)
#[[-4.28  0.05  0.83]
# [ 0.05 -5.13 -0.32]
# [ 0.83 -0.32  9.41]]
#deviatoric strain in sample2 frame (10-3 unit)
#[[ 3.13 -6.17  3.26]
# [-6.17 -0.1  -3.03]
# [ 3.27 -3.04 -3.02]]
#new lattice parameters
#[ 5.1505     5.2072013  5.3127634 90.0197923 99.1876787 89.99428  ]
#CCDLabel
#sCMOS
#DetectorParameters
#[79.0, 975.0, 941.0, 0.0, 0.0]
#pixelsize
#0.0734
#Frame dimensions
#[2018, 2016]
#
