#Strain and Orientation Refinement from experimental file: /home/micha/LaueProjects/DepthEffects/testZrO2_152.cor
#File created at Wed Jun 28 14:27:26 2023 with indexingSpotsSet.py
#Number of indexed spots: 549
#Element
#ZrO2
#grainIndex
#G_0
#Mean Deviation(pixel): 0.117
##spot_index intensity h k l 2theta Chi Xexp Yexp Energy GrainIndex PixDev
6.000000 141.294000 0.000000 2.000000 1.000000 44.079421 -14.849927 1260.372784 2090.852621 7.086517 0.000000 0.208848
9.000000 117.671000 1.000000 3.000000 1.000000 56.300494 -33.848990 1696.849674 1805.272485 8.507219 0.000000 0.205694
10.000000 131.603000 2.000000 3.000000 1.000000 74.177012 -47.331974 2142.675710 1391.058704 7.603933 0.000000 0.266717
13.000000 90.181000 2.000000 4.000000 1.000000 60.171331 -43.440563 1994.245235 1790.917482 11.099235 0.000000 0.293597
29.000000 173.225000 0.000000 2.000000 2.000000 70.998530 -0.476339 983.948176 1311.641542 5.778202 0.000000 0.104667
30.000000 193.886000 2.000000 2.000000 2.000000 115.533293 -38.860240 1842.227509 280.735480 5.157787 0.000000 0.083473
32.000000 107.582000 0.000000 3.000000 2.000000 54.819658 -9.733922 1159.630250 1710.771170 9.306170 0.000000 0.059666
33.000000 137.135000 1.000000 3.000000 2.000000 77.254042 -22.499700 1420.809078 1204.519406 7.297693 0.000000 0.120357
34.000000 142.245000 2.000000 3.000000 2.000000 93.235981 -36.338566 1766.732669 865.456881 7.033088 0.000000 0.084255
35.000000 133.045000 3.000000 3.000000 2.000000 102.716349 -49.755865 2246.634090 565.057464 7.517848 0.000000 0.250285
36.000000 93.551000 1.000000 4.000000 2.000000 62.355865 -24.726790 1470.649888 1561.633323 10.700161 0.000000 0.110422
37.000000 103.772000 2.000000 4.000000 2.000000 77.027790 -35.089211 1731.129539 1244.000177 9.643380 0.000000 0.126714
38.000000 103.873000 3.000000 4.000000 2.000000 87.558457 -45.289529 2062.227163 1006.231363 9.631813 0.000000 0.174154
40.000000 66.616000 1.000000 5.000000 2.000000 52.032821 -26.064991 1501.455908 1875.993163 15.028726 0.000000 0.174980
41.000000 77.142000 2.000000 5.000000 2.000000 65.171075 -34.343914 1710.407585 1544.121834 12.974952 0.000000 0.159549
42.000000 81.118000 3.000000 5.000000 2.000000 75.606979 -42.548935 1962.934415 1315.922812 12.336340 0.000000 0.187194
43.000000 80.426000 4.000000 5.000000 2.000000 83.410846 -50.361852 2274.254011 1135.886101 12.440512 0.000000 0.287754
45.000000 49.416000 1.000000 6.000000 2.000000 44.581082 -26.957038 1522.383156 2166.279857 20.261085 0.000000 0.267105
46.000000 64.066000 3.000000 6.000000 2.000000 66.198826 -40.703625 1900.877617 1567.214248 15.622533 0.000000 0.214424
48.000000 46.032000 2.000000 7.000000 2.000000 49.490868 -33.496467 1687.288205 2043.670541 21.748794 0.000000 0.264288
49.000000 51.381000 3.000000 7.000000 2.000000 58.716861 -39.379018 1858.418221 1787.044278 19.481673 0.000000 0.247821
50.000000 54.209000 4.000000 7.000000 2.000000 66.528698 -45.120784 2055.841715 1603.323616 18.462564 0.000000 0.274481
54.000000 46.735000 5.000000 8.000000 2.000000 66.572122 -48.332379 2184.381524 1642.519504 21.414873 0.000000 0.334850
57.000000 142.284000 -1.000000 1.000000 3.000000 64.509914 37.334160 154.068926 1586.364956 7.034580 0.000000 0.183488
59.000000 110.581000 -1.000000 2.000000 3.000000 56.485528 20.238820 578.172658 1700.678042 9.053264 0.000000 0.102639
60.000000 159.057000 0.000000 2.000000 3.000000 85.497488 10.769169 770.286059 1027.273131 6.291094 0.000000 0.156050
61.000000 178.731000 1.000000 2.000000 3.000000 110.313524 -2.907173 1029.657816 542.064396 5.595939 0.000000 0.149503
62.000000 172.303000 2.000000 2.000000 3.000000 126.811262 -21.506429 1399.103103 75.220352 5.802999 0.000000 0.027644
64.000000 80.686000 -1.000000 3.000000 3.000000 47.974136 8.552104 813.145972 1921.886271 12.409284 0.000000 0.128911
65.000000 134.660000 1.000000 3.000000 3.000000 91.214797 -11.697959 1197.849839 917.692675 7.430026 0.000000 0.160199
66.000000 137.146000 2.000000 3.000000 3.000000 106.212910 -24.852701 1473.519631 596.104255 7.293086 0.000000 0.095049
68.000000 58.704000 -1.000000 4.000000 3.000000 40.818441 0.668738 962.437268 2187.172773 17.057380 0.000000 0.236169
69.000000 83.645000 0.000000 4.000000 3.000000 59.493704 -7.291019 1112.705013 1580.314381 11.968578 0.000000 0.034959
70.000000 100.236000 1.000000 4.000000 3.000000 76.395739 -16.441292 1292.613671 1212.572239 9.984493 0.000000 0.123869
71.000000 106.744000 2.000000 4.000000 3.000000 90.032797 -26.511618 1511.893046 940.311519 9.373017 0.000000 0.118621
72.000000 105.423000 3.000000 4.000000 3.000000 99.905320 -36.966327 1785.054635 705.769733 9.488453 0.000000 0.062026
73.000000 99.665000 4.000000 4.000000 3.000000 106.368015 -47.137221 2134.740526 476.288128 10.035204 0.000000 0.196094
75.000000 61.907000 0.000000 5.000000 3.000000 50.749630 -11.745295 1198.777332 1839.186965 16.173054 0.000000 0.107552
76.000000 75.568000 1.000000 5.000000 3.000000 65.170865 -19.371379 1353.418845 1468.865340 13.246177 0.000000 0.090019
77.000000 83.160000 2.000000 5.000000 3.000000 77.487908 -27.500867 1535.304042 1210.273935 12.034011 0.000000 0.116844
78.000000 85.273000 3.000000 5.000000 3.000000 87.245891 -35.837797 1752.327759 1004.866903 11.733306 0.000000 0.102090
79.000000 83.540000 4.000000 5.000000 3.000000 94.489713 -44.038432 2015.761414 823.438655 11.974760 0.000000 0.136964
80.000000 79.608000 5.000000 5.000000 3.000000 99.575420 -51.790801 2342.274310 647.456758 12.564841 0.000000 0.301574
81.000000 58.197000 1.000000 6.000000 3.000000 56.594865 -21.351542 1395.745375 1703.133465 17.202238 0.000000 0.110651
82.000000 65.558000 2.000000 6.000000 3.000000 67.703306 -28.157482 1551.076002 1441.590897 15.267459 0.000000 0.118514
83.000000 69.784000 4.000000 6.000000 3.000000 84.488531 -41.947599 1942.318792 1080.632792 14.337907 0.000000 0.143471
84.000000 68.309000 5.000000 6.000000 3.000000 90.226846 -48.545653 2193.484342 934.563217 14.645705 0.000000 0.226136
85.000000 45.842000 1.000000 7.000000 3.000000 49.921565 -22.776162 1426.905620 1923.221207 21.840142 0.000000 0.173092
86.000000 52.506000 2.000000 7.000000 3.000000 59.965836 -28.624974 1562.423420 1649.900692 19.064923 0.000000 0.141077
87.000000 56.617000 3.000000 7.000000 3.000000 68.734102 -34.556507 1716.280484 1449.630997 17.677677 0.000000 0.147603
88.000000 58.452000 4.000000 7.000000 3.000000 76.106288 -40.445397 1892.469690 1290.831750 17.120073 0.000000 0.163098
89.000000 58.521000 5.000000 7.000000 3.000000 82.114781 -46.171536 2096.233745 1156.256051 17.097837 0.000000 0.208281
90.000000 57.363000 6.000000 7.000000 3.000000 86.891107 -51.633870 2334.595713 1035.182435 17.441150 0.000000 0.309066
92.000000 46.850000 3.000000 8.000000 3.000000 61.936103 -34.158130 1705.299637 1634.441138 21.365161 0.000000 0.173188
93.000000 49.261000 4.000000 8.000000 3.000000 69.064456 -39.315353 1856.418387 1473.218914 20.316755 0.000000 0.184154
94.000000 50.242000 5.000000 8.000000 3.000000 75.112620 -44.364965 2027.696739 1341.231890 19.917715 0.000000 0.213102
95.000000 50.123000 6.000000 8.000000 3.000000 80.138268 -49.235388 2223.457005 1227.548596 19.962647 0.000000 0.275276
100.000000 126.305000 -1.000000 1.000000 4.000000 75.266983 41.403205 26.011945 1318.327432 7.922972 0.000000 0.171580
101.000000 161.115000 0.000000 1.000000 4.000000 103.422840 36.924710 166.169306 619.690686 6.208228 0.000000 0.048566
102.000000 173.472000 1.000000 1.000000 4.000000 128.988606 29.255724 372.104979 -57.583741 5.763658 0.000000 0.066256
104.000000 107.737000 -1.000000 2.000000 4.000000 68.964461 26.198917 445.422829 1402.308548 9.290193 0.000000 0.114059
105.000000 137.505000 0.000000 2.000000 4.000000 93.321579 19.200210 600.190257 874.855260 7.275888 0.000000 0.145062
106.000000 150.702000 1.000000 2.000000 4.000000 114.978931 9.091775 802.764048 433.217974 6.636132 0.000000 0.125929
107.000000 148.605000 2.000000 2.000000 4.000000 131.425786 -5.537197 1079.340606 -13.194752 6.727984 0.000000 0.045268
109.000000 57.015000 -2.000000 3.000000 4.000000 40.756218 20.568056 571.132272 2274.852585 17.561587 0.000000 0.275309
110.000000 86.439000 -1.000000 3.000000 4.000000 61.206162 14.775057 691.131991 1552.775722 11.581217 0.000000 0.069344
111.000000 110.419000 0.000000 3.000000 4.000000 81.642896 7.363836 835.904520 1100.424926 9.062933 0.000000 0.149787
112.000000 123.537000 1.000000 3.000000 4.000000 99.881715 -2.075442 1014.003988 753.387431 8.097688 0.000000 0.170152
113.000000 125.607000 2.000000 3.000000 4.000000 114.222450 -13.753396 1238.435152 442.494018 7.962080 0.000000 0.116074
114.000000 120.158000 3.000000 3.000000 4.000000 123.962423 -27.277456 1529.980714 125.355273 8.321602 0.000000 0.020342
116.000000 67.765000 -1.000000 4.000000 4.000000 53.808175 6.491330 852.536729 1733.573729 14.774608 0.000000 0.054306
117.000000 98.684000 1.000000 4.000000 4.000000 86.587382 -8.688183 1139.468995 1005.926561 10.139657 0.000000 0.158843
118.000000 103.250000 2.000000 4.000000 4.000000 99.440712 -18.081574 1326.404118 752.737596 9.688731 0.000000 0.141118
119.000000 101.895000 3.000000 4.000000 4.000000 109.052747 -28.333680 1555.341120 518.701506 9.815608 0.000000 0.062458
121.000000 53.119000 -1.000000 5.000000 4.000000 47.427641 0.443341 966.671724 1929.775056 18.849586 0.000000 0.127819
122.000000 67.899000 0.000000 5.000000 4.000000 62.085737 -5.865187 1085.563294 1514.212278 14.743656 0.000000 0.045558
123.000000 78.474000 1.000000 5.000000 4.000000 75.611799 -12.954709 1222.586139 1224.320347 12.753539 0.000000 0.123698
124.000000 84.070000 2.000000 5.000000 4.000000 87.230634 -20.724802 1382.230223 996.664766 11.901833 0.000000 0.137059
125.000000 85.264000 3.000000 5.000000 4.000000 96.538998 -28.959333 1570.601403 799.999414 11.732821 0.000000 0.098676
126.000000 83.315000 4.000000 5.000000 4.000000 103.515677 -37.343890 1796.220220 615.586244 12.005387 0.000000 0.051912
127.000000 79.501000 5.000000 5.000000 4.000000 108.413406 -45.528793 2071.346540 429.523587 12.580001 0.000000 0.168132
129.000000 62.832000 1.000000 6.000000 4.000000 66.710875 -15.905386 1281.699881 1422.726015 15.930999 0.000000 0.087346
130.000000 71.121000 3.000000 6.000000 4.000000 86.124208 -29.373029 1580.793340 1024.674311 14.068713 0.000000 0.112417
131.000000 69.356000 5.000000 6.000000 4.000000 98.694009 -43.194152 1985.500890 715.249232 14.422625 0.000000 0.118011
133.000000 50.910000 1.000000 7.000000 4.000000 59.487310 -18.057135 1325.896169 1608.166254 19.663863 0.000000 0.082270
134.000000 56.346000 2.000000 7.000000 4.000000 69.088650 -23.771543 1449.063930 1390.365295 17.763484 0.000000 0.106524
135.000000 59.501000 3.000000 7.000000 4.000000 77.456859 -29.666849 1588.082336 1216.583039 16.818821 0.000000 0.116675
136.000000 60.662000 4.000000 7.000000 4.000000 84.483849 -35.623593 1746.221572 1068.871270 16.494450 0.000000 0.109302
137.000000 60.285000 5.000000 7.000000 4.000000 90.193646 -41.514721 1927.717835 936.141952 16.595471 0.000000 0.119179
138.000000 58.841000 6.000000 7.000000 4.000000 94.701274 -47.221283 2138.158465 810.676584 17.000894 0.000000 0.190953
141.000000 50.096000 3.000000 8.000000 4.000000 70.209516 -29.886291 1593.554035 1387.690567 19.978746 0.000000 0.121911
142.000000 52.399000 5.000000 8.000000 4.000000 82.793118 -40.250615 1886.170183 1119.320725 19.095762 0.000000 0.135161
143.000000 50.789000 7.000000 8.000000 4.000000 91.421285 -50.136134 2263.884429 899.337636 19.697336 0.000000 0.260215
145.000000 45.651000 5.000000 9.000000 4.000000 76.352197 -39.265606 1854.858269 1278.544390 21.920755 0.000000 0.152172
146.000000 45.854000 6.000000 9.000000 4.000000 81.221907 -43.771583 2006.104892 1171.157898 21.821632 0.000000 0.177049
149.000000 110.030000 -1.000000 1.000000 5.000000 81.876271 44.271215 -74.256473 1155.559809 9.093754 0.000000 0.174965
150.000000 131.558000 0.000000 1.000000 5.000000 104.838937 41.237726 31.523079 561.799149 7.602730 0.000000 0.083363
151.000000 140.845000 1.000000 1.000000 5.000000 126.185604 36.471376 179.415935 -38.057738 7.099037 0.000000 0.119711
154.000000 72.951000 -2.000000 2.000000 5.000000 56.324579 34.604235 232.396886 1812.263578 13.722005 0.000000 0.205885
155.000000 98.856000 -1.000000 2.000000 5.000000 77.059453 30.753726 334.577430 1228.774933 10.123171 0.000000 0.119774
156.000000 118.356000 0.000000 2.000000 5.000000 97.789119 25.502833 461.568636 777.880545 8.452202 0.000000 0.115841
157.000000 127.885000 1.000000 2.000000 5.000000 116.741856 18.078697 623.655675 370.531499 7.819828 0.000000 0.090565
158.000000 128.002000 2.000000 2.000000 5.000000 132.416979 7.268751 837.720132 -50.343600 7.810818 0.000000 0.038330
160.000000 62.881000 -2.000000 3.000000 5.000000 52.188497 24.645468 481.200483 1859.913559 15.921305 0.000000 0.157730
161.000000 84.406000 -1.000000 3.000000 5.000000 70.520796 19.901297 585.359346 1345.875181 11.858131 0.000000 0.107957
162.000000 101.259000 0.000000 3.000000 5.000000 88.634734 13.859428 709.452764 967.420399 9.881391 0.000000 0.156098
163.000000 110.739000 1.000000 3.000000 5.000000 105.110499 6.108853 859.809114 648.722228 9.032623 0.000000 0.160097
164.000000 112.837000 2.000000 3.000000 5.000000 118.773260 -3.761045 1045.752423 348.680489 8.862469 0.000000 0.116673
165.000000 109.485000 3.000000 3.000000 5.000000 128.922114 -15.901101 1281.612856 37.273772 9.132279 0.000000 0.037397
166.000000 103.029000 4.000000 3.000000 5.000000 135.390732 -29.768235 1590.607387 -315.939716 9.703561 0.000000 0.120524
167.000000 52.693000 -2.000000 4.000000 5.000000 47.676950 16.563156 654.896208 1963.574854 19.001520 0.000000 0.159108
168.000000 70.070000 -1.000000 4.000000 5.000000 63.678021 11.557753 754.895436 1484.471428 14.286177 0.000000 0.068655
169.000000 84.226000 0.000000 4.000000 5.000000 79.389978 5.535679 870.688167 1143.562549 11.881902 0.000000 0.143412
170.000000 93.230000 1.000000 4.000000 5.000000 93.764889 -1.667719 1006.336747 870.145036 10.731384 0.000000 0.171843
171.000000 96.764000 2.000000 4.000000 5.000000 105.950174 -10.136638 1167.427378 628.512590 10.336928 0.000000 0.151188
172.000000 95.851000 3.000000 4.000000 5.000000 115.462648 -19.770249 1361.858589 396.394016 10.433478 0.000000 0.086869
173.000000 92.016000 4.000000 4.000000 5.000000 122.220412 -30.190358 1601.175785 156.240485 10.866912 0.000000 0.025939
174.000000 86.631000 5.000000 4.000000 5.000000 126.478513 -40.766988 1902.950680 -109.728087 11.541500 0.000000 0.186658
175.000000 57.553000 -1.000000 5.000000 5.000000 57.305149 5.193978 877.163607 1634.680364 17.395145 0.000000 0.024818
176.000000 77.511000 1.000000 5.000000 5.000000 83.660265 -6.946031 1106.123347 1061.463707 12.910173 0.000000 0.154270
177.000000 81.805000 2.000000 5.000000 5.000000 94.675263 -14.196524 1247.274838 850.207529 12.229707 0.000000 0.155938
178.000000 82.630000 3.000000 5.000000 5.000000 103.680380 -22.107231 1412.196023 658.229176 12.105351 0.000000 0.116608
179.000000 80.896000 4.000000 5.000000 5.000000 110.587078 -30.438993 1607.443099 472.094983 12.363032 0.000000 0.040350
181.000000 47.288000 -1.000000 6.000000 5.000000 51.685033 0.292080 969.513259 1791.473647 21.173152 0.000000 0.069372
182.000000 56.994000 0.000000 6.000000 5.000000 63.728791 -4.931773 1067.872245 1474.239167 17.564125 0.000000 0.056324
183.000000 64.309000 1.000000 6.000000 5.000000 74.991303 -10.704602 1178.457448 1234.677916 15.563149 0.000000 0.122474
184.000000 68.837000 2.000000 6.000000 5.000000 85.022840 -16.982636 1303.699550 1039.004898 14.536386 0.000000 0.143364
185.000000 70.731000 3.000000 6.000000 5.000000 93.538288 -23.666924 1446.719289 868.337775 14.144432 0.000000 0.126799
186.000000 70.498000 4.000000 6.000000 5.000000 100.436605 -30.602854 1611.591035 710.671206 14.189135 0.000000 0.079655
187.000000 68.756000 5.000000 6.000000 5.000000 105.774515 -37.595957 1803.737192 557.267789 14.547042 0.000000 0.048561
188.000000 66.069000 6.000000 6.000000 5.000000 109.716962 -44.442110 2030.535968 400.732194 15.137230 0.000000 0.151171
190.000000 47.157000 0.000000 7.000000 5.000000 57.545736 -8.327980 1132.551179 1632.762356 21.229840 0.000000 0.038579
191.000000 53.572000 1.000000 7.000000 5.000000 67.654152 -13.495094 1233.297918 1395.989204 18.684562 0.000000 0.088526
192.000000 58.008000 2.000000 7.000000 5.000000 76.836296 -19.004366 1345.689590 1207.234776 17.252604 0.000000 0.122841
193.000000 60.470000 3.000000 7.000000 5.000000 84.864354 -24.780311 1471.869025 1047.541900 16.547302 0.000000 0.124855
194.000000 61.219000 4.000000 7.000000 5.000000 91.633854 -30.718982 1614.539157 905.289081 16.342467 0.000000 0.100873
195.000000 60.638000 5.000000 7.000000 5.000000 97.151691 -36.697050 1777.158822 772.573162 16.496961 0.000000 0.071213
196.000000 59.123000 6.000000 7.000000 5.000000 101.507434 -42.586254 1964.226866 643.387545 16.918157 0.000000 0.107115
197.000000 57.014000 7.000000 7.000000 5.000000 104.840304 -48.269323 2181.704801 512.564808 17.542744 0.000000 0.218083
199.000000 49.126000 2.000000 8.000000 5.000000 69.898017 -20.534830 1378.155856 1361.637694 20.374062 0.000000 0.103499
200.000000 51.824000 3.000000 8.000000 5.000000 77.449821 -25.614401 1491.006478 1206.710854 19.310582 0.000000 0.117900
201.000000 53.167000 4.000000 8.000000 5.000000 84.012447 -30.805581 1616.742267 1072.430181 18.820302 0.000000 0.111416
202.000000 53.382000 5.000000 8.000000 5.000000 89.564858 -36.025430 1757.703661 951.107194 18.741978 0.000000 0.095551
203.000000 52.736000 6.000000 8.000000 5.000000 94.149220 -41.188245 1916.834443 837.247253 18.969661 0.000000 0.103949
204.000000 51.480000 7.000000 8.000000 5.000000 97.850362 -46.213775 2097.889562 726.542778 19.430865 0.000000 0.168590
205.000000 49.827000 8.000000 8.000000 5.000000 100.776137 -51.034181 2305.735194 615.250749 20.074321 0.000000 0.281432
207.000000 46.287000 4.000000 9.000000 5.000000 77.404919 -30.872644 1618.451090 1221.182286 21.619947 0.000000 0.117343
208.000000 47.021000 5.000000 9.000000 5.000000 82.896213 -35.504701 1742.846484 1105.767321 21.279874 0.000000 0.113203
209.000000 46.994000 6.000000 9.000000 5.000000 87.580051 -40.098456 1881.274376 1000.462919 21.289882 0.000000 0.116835
210.000000 46.386000 7.000000 9.000000 5.000000 91.505025 -44.596782 2036.251110 901.287045 21.567219 0.000000 0.152118
214.000000 76.497000 -2.000000 1.000000 6.000000 66.982127 47.949800 -218.241770 1623.694470 13.082929 0.000000 0.312851
215.000000 96.378000 -1.000000 1.000000 6.000000 86.289892 46.391793 -154.896216 1042.187700 10.381047 0.000000 0.189168
216.000000 110.863000 0.000000 1.000000 6.000000 105.615966 44.233626 -72.880168 521.140236 9.021734 0.000000 0.131043
217.000000 118.014000 1.000000 1.000000 6.000000 123.838470 41.057686 37.487509 -15.918605 8.472713 0.000000 0.168609
220.000000 89.311000 -1.000000 2.000000 6.000000 82.579345 34.306309 240.628139 1110.702942 11.203754 0.000000 0.113489
221.000000 102.859000 0.000000 2.000000 6.000000 100.504239 30.285684 346.425109 709.897811 9.725055 0.000000 0.083717
222.000000 110.071000 1.000000 2.000000 6.000000 117.204606 24.756433 478.674999 331.758893 9.085231 0.000000 0.052149
223.000000 111.195000 2.000000 2.000000 6.000000 131.756467 16.864915 648.716575 -63.029540 8.991438 0.000000 0.030256
225.000000 63.566000 -2.000000 3.000000 6.000000 60.786301 28.044850 401.643039 1622.930727 15.747688 0.000000 0.132126
226.000000 79.443000 -1.000000 3.000000 6.000000 77.191664 24.133825 492.787558 1209.129106 12.597148 0.000000 0.122165
227.000000 98.833000 1.000000 3.000000 6.000000 108.237194 12.893345 728.627264 577.185252 10.120140 0.000000 0.140128
228.000000 100.942000 2.000000 3.000000 6.000000 121.131553 4.782687 884.948554 288.657724 9.906478 0.000000 0.104697
229.000000 94.635000 4.000000 3.000000 6.000000 138.788646 -18.140984 1327.639529 -352.231917 10.563882 0.000000 0.060858
231.000000 68.776000 -1.000000 4.000000 6.000000 71.154732 15.941303 667.570499 1323.041580 14.553097 0.000000 0.108289
232.000000 86.442000 1.000000 4.000000 6.000000 98.762310 4.540155 889.534778 774.583544 11.572997 0.000000 0.170055
233.000000 88.940000 3.000000 4.000000 6.000000 119.725149 -11.637308 1196.661940 313.568907 11.243523 0.000000 0.098071
234.000000 81.955000 5.000000 4.000000 6.000000 131.621583 -32.078644 1649.599235 -187.622169 12.199244 0.000000 0.113409
235.000000 47.374000 -2.000000 5.000000 6.000000 52.115777 13.811823 710.401256 1803.330622 21.133969 0.000000 0.098612
236.000000 58.664000 -1.000000 5.000000 6.000000 65.176560 9.450049 795.854567 1445.701456 17.063626 0.000000 0.073211
237.000000 67.969000 0.000000 5.000000 6.000000 77.918995 4.397212 892.236349 1172.044394 14.724343 0.000000 0.138268
238.000000 74.450000 1.000000 5.000000 6.000000 89.766414 -1.425653 1001.786252 945.389264 13.439418 0.000000 0.168685
239.000000 77.884000 2.000000 5.000000 6.000000 100.234158 -8.059371 1127.400773 744.743231 12.844200 0.000000 0.164270
240.000000 78.601000 3.000000 5.000000 6.000000 109.000830 -15.470846 1272.893124 556.451089 12.724808 0.000000 0.128797
241.000000 77.238000 4.000000 5.000000 6.000000 115.931627 -23.517949 1443.387048 370.234640 12.947512 0.000000 0.064078
242.000000 74.487000 5.000000 5.000000 6.000000 121.064223 -31.938298 1645.932751 176.998139 13.424401 0.000000 0.033200
243.000000 70.937000 6.000000 5.000000 6.000000 124.572370 -40.384808 1890.506246 -32.756136 14.095309 0.000000 0.165427
245.000000 49.755000 -1.000000 6.000000 6.000000 59.627625 4.302967 894.016970 1573.543718 20.120906 0.000000 0.026743
246.000000 63.679000 1.000000 6.000000 6.000000 81.650457 -5.811935 1084.552497 1099.781135 15.715085 0.000000 0.149575
247.000000 67.023000 5.000000 6.000000 6.000000 111.541268 -31.846057 1643.529094 440.852933 14.921842 0.000000 0.025561
248.000000 61.751000 7.000000 6.000000 6.000000 118.359593 -45.690292 2077.545909 109.304694 16.193463 0.000000 0.220074
249.000000 49.052000 0.000000 7.000000 6.000000 64.862023 -4.273573 1055.427752 1447.451415 20.407380 0.000000 0.064225
250.000000 54.407000 1.000000 7.000000 6.000000 74.505056 -9.136735 1148.102244 1243.214980 18.395734 0.000000 0.121065
251.000000 58.057000 2.000000 7.000000 6.000000 83.295128 -14.384585 1251.036755 1071.623346 17.236085 0.000000 0.144810
252.000000 60.034000 3.000000 7.000000 6.000000 91.031936 -19.966895 1366.034965 920.373247 16.665682 0.000000 0.140574
253.000000 60.556000 4.000000 7.000000 6.000000 97.611478 -25.802100 1495.349641 781.245120 16.519747 0.000000 0.112007
254.000000 59.933000 5.000000 7.000000 6.000000 103.020758 -31.780807 1641.831689 648.208698 16.689699 0.000000 0.064077
255.000000 58.485000 6.000000 7.000000 6.000000 107.319896 -37.776174 1809.142790 516.361571 17.101084 0.000000 0.048516
256.000000 56.499000 7.000000 7.000000 6.000000 110.618947 -43.659252 2002.065670 381.246010 17.701140 0.000000 0.139820
259.000000 46.606000 1.000000 8.000000 6.000000 68.280262 -11.727665 1198.431852 1378.879906 21.477166 0.000000 0.090325
260.000000 52.336000 3.000000 8.000000 6.000000 83.677944 -21.389435 1396.566188 1069.064047 19.119892 0.000000 0.132149
261.000000 53.422000 5.000000 8.000000 6.000000 95.432608 -31.732214 1640.569138 820.652047 18.726122 0.000000 0.088422
262.000000 51.453000 7.000000 8.000000 6.000000 103.519369 -42.127750 1948.453799 592.075475 19.439347 0.000000 0.100349
264.000000 47.060000 4.000000 9.000000 6.000000 83.363236 -27.061817 1524.862826 1081.627887 21.262846 0.000000 0.118970
265.000000 47.577000 5.000000 9.000000 6.000000 88.688212 -31.694621 1639.593309 969.966065 21.029275 0.000000 0.103090
266.000000 46.730000 7.000000 9.000000 6.000000 97.046442 -40.933250 1908.409154 764.901195 21.406737 0.000000 0.093862
267.000000 45.667000 8.000000 9.000000 6.000000 100.181725 -45.422015 2067.267210 665.594396 21.903490 0.000000 0.153315
269.000000 71.206000 -2.000000 1.000000 7.000000 72.672702 49.213812 -272.506758 1455.040674 14.053768 0.000000 0.303324
270.000000 85.307000 -1.000000 1.000000 7.000000 89.424780 48.019331 -221.157219 957.155077 11.727620 0.000000 0.209416
271.000000 95.666000 0.000000 1.000000 7.000000 106.081359 46.424816 -156.200999 490.870231 10.454775 0.000000 0.174225
272.000000 101.307000 1.000000 1.000000 7.000000 121.935777 44.193252 -71.403836 5.332193 9.870220 0.000000 0.211040
274.000000 52.545000 -3.000000 2.000000 7.000000 55.178413 41.481025 23.410517 1940.293141 19.050503 0.000000 0.294819
275.000000 67.411000 -2.000000 2.000000 7.000000 70.601448 39.559532 85.891645 1432.583044 14.846337 0.000000 0.175044
276.000000 80.618000 -1.000000 2.000000 7.000000 86.519125 37.134516 159.985339 1023.120799 12.410800 0.000000 0.106238
277.000000 90.494000 0.000000 2.000000 7.000000 102.248555 33.991571 249.260688 659.185531 11.053363 0.000000 0.057543
278.000000 96.141000 1.000000 2.000000 7.000000 117.094123 29.787336 358.916326 306.544427 10.401573 0.000000 0.014325
279.000000 97.669000 2.000000 2.000000 7.000000 130.459626 23.954341 496.830264 -63.444826 10.236823 0.000000 0.041968
282.000000 48.435000 -3.000000 3.000000 7.000000 52.962836 33.553740 261.163701 1915.528929 20.668860 0.000000 0.221724
283.000000 61.781000 -2.000000 3.000000 7.000000 67.353028 30.903468 330.762690 1464.351951 16.200879 0.000000 0.131003
284.000000 73.724000 -1.000000 3.000000 7.000000 82.089153 27.651669 411.090502 1109.839836 13.573085 0.000000 0.120939
285.000000 82.887000 0.000000 3.000000 7.000000 96.550702 23.597473 504.835123 806.129012 12.069508 0.000000 0.126408
286.000000 88.486000 1.000000 3.000000 7.000000 110.100087 18.462300 615.664280 525.758849 11.302960 0.000000 0.115637
287.000000 90.529000 2.000000 3.000000 7.000000 122.177817 11.873117 748.716590 248.998188 11.045743 0.000000 0.086042
288.000000 89.627000 3.000000 3.000000 7.000000 132.343980 3.380652 911.421062 -41.573556 11.155195 0.000000 0.041990
289.000000 86.649000 4.000000 3.000000 7.000000 140.270700 -7.407696 1114.933222 -364.954285 11.537385 0.000000 0.022163
291.000000 55.275000 -2.000000 4.000000 7.000000 63.433008 23.425682 508.672989 1527.537150 18.109514 0.000000 0.104174
292.000000 65.803000 -1.000000 4.000000 7.000000 76.865834 19.729338 589.008986 1207.799909 15.208751 0.000000 0.125498
293.000000 74.121000 0.000000 4.000000 7.000000 89.982235 15.294517 680.669911 941.345966 13.498867 0.000000 0.154459
294.000000 79.574000 1.000000 4.000000 7.000000 102.239347 9.947754 786.232058 703.959412 12.570973 0.000000 0.159648
295.000000 82.083000 2.000000 4.000000 7.000000 113.164342 3.502850 909.117278 479.630410 12.184147 0.000000 0.140085
296.000000 82.049000 3.000000 4.000000 7.000000 122.403773 -4.196440 1053.970879 256.027068 12.187216 0.000000 0.098428
297.000000 80.112000 4.000000 4.000000 7.000000 129.740670 -13.190895 1227.262102 21.901709 12.480526 0.000000 0.040797
298.000000 76.930000 5.000000 4.000000 7.000000 135.100873 -23.288826 1438.276738 -234.898849 12.995718 0.000000 0.067434
300.000000 48.680000 -2.000000 5.000000 7.000000 59.274431 17.105048 643.784848 1610.312201 20.564508 0.000000 0.078356
301.000000 57.815000 -1.000000 5.000000 7.000000 71.436172 13.244904 721.667368 1312.334381 17.312170 0.000000 0.108889
302.000000 65.246000 0.000000 5.000000 7.000000 83.281847 8.765347 809.047341 1069.279447 15.337160 0.000000 0.153207
303.000000 70.445000 1.000000 5.000000 7.000000 94.370869 3.574042 907.774832 858.573798 14.202248 0.000000 0.171634
304.000000 73.284000 2.000000 5.000000 7.000000 104.323038 -2.405510 1020.213791 665.952729 13.649321 0.000000 0.164077
305.000000 73.994000 3.000000 5.000000 7.000000 112.861685 -9.205817 1149.433784 481.282269 13.516180 0.000000 0.132901
306.000000 73.014000 4.000000 5.000000 7.000000 119.831602 -16.777658 1299.494505 296.371401 13.695775 0.000000 0.079967
307.000000 70.841000 5.000000 5.000000 7.000000 125.198869 -24.956072 1475.880009 103.603287 14.114603 0.000000 0.021605
308.000000 67.921000 6.000000 5.000000 7.000000 129.040528 -33.455550 1686.183459 -105.161814 14.720521 0.000000 0.107545
310.000000 50.358000 -1.000000 6.000000 7.000000 66.175264 7.966039 824.387204 1420.888228 19.877798 0.000000 0.077639
311.000000 56.929000 0.000000 6.000000 7.000000 76.884852 3.620649 906.895868 1192.263018 17.580161 0.000000 0.134210
312.000000 61.792000 1.000000 6.000000 7.000000 86.954726 -1.265338 998.773078 998.273003 16.193459 0.000000 0.164389
313.000000 64.801000 2.000000 6.000000 7.000000 96.084203 -6.714440 1101.710521 825.485158 15.438580 0.000000 0.168551
314.000000 66.069000 3.000000 6.000000 7.000000 104.054406 -12.714178 1217.833261 664.791295 15.139873 0.000000 0.149343
315.000000 65.880000 4.000000 6.000000 7.000000 110.742829 -19.202027 1349.848015 509.368696 15.181273 0.000000 0.108456
316.000000 64.589000 5.000000 6.000000 7.000000 116.121622 -26.056437 1501.256775 353.514141 15.483013 0.000000 0.046309
317.000000 62.543000 6.000000 6.000000 7.000000 120.245081 -33.101667 1676.672047 191.865059 15.988461 0.000000 0.039357
318.000000 60.032000 7.000000 6.000000 7.000000 123.230651 -40.130231 1882.294941 18.757025 16.656299 0.000000 0.151274
320.000000 53.974000 1.000000 7.000000 7.000000 80.187854 -5.015428 1069.455587 1127.858716 18.541322 0.000000 0.145386
321.000000 57.016000 2.000000 7.000000 7.000000 88.610248 -9.962134 1164.046375 967.511179 17.549268 0.000000 0.160360
322.000000 58.655000 3.000000 7.000000 7.000000 96.089695 -15.290506 1269.249107 821.959197 17.056103 0.000000 0.152717
323.000000 59.066000 4.000000 7.000000 7.000000 102.523128 -20.944536 1386.955708 685.022197 16.935182 0.000000 0.124578
324.000000 58.492000 5.000000 7.000000 7.000000 107.879473 -26.836500 1519.536244 551.883764 17.099384 0.000000 0.077164
325.000000 57.191000 6.000000 7.000000 7.000000 112.189912 -32.851719 1670.000166 418.421270 17.486805 0.000000 0.017179
326.000000 53.298000 8.000000 7.000000 7.000000 118.019762 -44.732963 2041.308249 134.755089 18.761964 0.000000 0.197968
328.000000 47.116000 1.000000 8.000000 7.000000 74.118765 -7.983255 1125.942539 1250.206028 21.242593 0.000000 0.119726
329.000000 50.089000 2.000000 8.000000 7.000000 81.924365 -12.482710 1213.267969 1097.409742 19.978757 0.000000 0.144253
330.000000 51.943000 3.000000 8.000000 7.000000 88.963672 -17.255343 1309.308301 961.386995 19.262699 0.000000 0.147120
331.000000 52.777000 4.000000 8.000000 7.000000 95.147361 -22.255154 1415.436644 836.242738 18.955679 0.000000 0.130832
332.000000 52.753000 5.000000 8.000000 7.000000 100.440416 -27.418149 1533.330563 717.581445 18.962162 0.000000 0.097422
333.000000 52.056000 6.000000 8.000000 7.000000 104.855639 -32.665786 1665.061402 601.873875 19.214216 0.000000 0.051847
334.000000 50.866000 7.000000 8.000000 7.000000 108.443333 -37.911427 1813.217034 486.047848 19.662214 0.000000 0.049874
335.000000 49.341000 8.000000 8.000000 7.000000 111.279634 -43.068629 1981.073577 367.190133 20.269054 0.000000 0.131704
336.000000 47.606000 9.000000 8.000000 7.000000 113.455301 -48.059390 2172.840480 242.292672 21.006449 0.000000 0.245466
338.000000 45.992000 3.000000 9.000000 7.000000 82.620271 -18.799944 1341.399284 1088.255152 21.757513 0.000000 0.135928
339.000000 47.105000 4.000000 9.000000 7.000000 88.554566 -23.275761 1437.985863 970.564180 21.240955 0.000000 0.130113
340.000000 47.482000 5.000000 9.000000 7.000000 93.748677 -27.868458 1544.110095 861.229342 21.069807 0.000000 0.108974
341.000000 47.254000 6.000000 9.000000 7.000000 98.202278 -32.522071 1661.258079 757.006962 21.169365 0.000000 0.076998
342.000000 46.556000 7.000000 9.000000 7.000000 101.945052 -37.176003 1791.241566 655.232381 21.485021 0.000000 0.055835
343.000000 45.513000 8.000000 9.000000 7.000000 105.028480 -41.769638 1936.292334 553.557813 21.975929 0.000000 0.095906
347.000000 65.895000 -2.000000 1.000000 8.000000 76.998155 50.242301 -318.749575 1329.588230 15.185346 0.000000 0.303052
348.000000 76.317000 -1.000000 1.000000 8.000000 91.757364 49.305951 -276.570456 890.353929 13.108449 0.000000 0.231832
349.000000 84.071000 0.000000 1.000000 8.000000 106.378738 48.092640 -224.239628 467.391158 11.896605 0.000000 0.211776
352.000000 51.759000 -3.000000 2.000000 8.000000 61.373750 42.996000 -28.520197 1744.190435 19.338274 0.000000 0.267887
353.000000 73.075000 -1.000000 2.000000 8.000000 89.441995 39.429007 90.008997 954.570982 13.691113 0.000000 0.104056
354.000000 85.095000 1.000000 2.000000 8.000000 116.739482 33.658577 258.324616 289.536139 11.751810 0.000000 0.021581
356.000000 48.471000 -3.000000 3.000000 8.000000 59.340935 35.579786 205.023166 1725.473615 20.651244 0.000000 0.195471
357.000000 58.942000 -2.000000 3.000000 8.000000 72.464030 33.329500 267.213269 1348.046436 16.979481 0.000000 0.130974
358.000000 68.129000 -1.000000 3.000000 8.000000 85.778313 30.600911 338.458248 1033.302290 14.686624 0.000000 0.112637
359.000000 75.199000 0.000000 3.000000 8.000000 98.839081 27.240788 420.890959 752.750413 13.302626 0.000000 0.104997
360.000000 79.696000 1.000000 3.000000 8.000000 111.200550 23.034678 517.371184 487.350812 12.549282 0.000000 0.089488
361.000000 81.619000 2.000000 3.000000 8.000000 122.467377 17.684853 631.824175 222.217816 12.251422 0.000000 0.064244
362.000000 81.329000 3.000000 3.000000 8.000000 132.314516 10.794764 769.787812 -56.502461 12.293251 0.000000 0.034473
363.000000 79.371000 4.000000 3.000000 8.000000 140.473880 1.897877 939.335557 -364.153277 12.595157 0.000000 0.006844
365.000000 62.190000 -1.000000 4.000000 8.000000 81.287316 23.008364 517.954755 1120.195409 16.090740 0.000000 0.129209
366.000000 73.155000 1.000000 4.000000 8.000000 104.669825 14.621441 694.216196 649.815164 13.673284 0.000000 0.144374
367.000000 75.594000 3.000000 4.000000 8.000000 123.966132 2.421802 929.479626 215.307456 13.227606 0.000000 0.091686
368.000000 71.933000 5.000000 4.000000 8.000000 137.230713 -14.797841 1259.325834 -262.457622 13.898114 0.000000 0.037564
369.000000 48.490000 -2.000000 5.000000 8.000000 65.121094 20.037319 582.466824 1472.275955 20.643170 0.000000 0.094274
370.000000 55.913000 -1.000000 5.000000 8.000000 76.435633 16.621371 653.705571 1211.997947 17.899273 0.000000 0.126816
371.000000 61.916000 0.000000 5.000000 8.000000 87.455604 12.659503 733.245857 990.019297 16.160609 0.000000 0.156675
372.000000 66.159000 1.000000 5.000000 8.000000 97.843294 8.057841 822.628544 791.259029 15.121149 0.000000 0.167183
373.000000 68.567000 2.000000 5.000000 8.000000 107.300818 2.723491 923.800980 605.375701 14.587642 0.000000 0.157972
374.000000 69.295000 3.000000 5.000000 8.000000 115.595875 -3.416807 1039.260502 424.503329 14.432043 0.000000 0.130649
375.000000 68.649000 4.000000 5.000000 8.000000 122.573337 -10.385909 1172.263356 241.932977 14.566154 0.000000 0.086942
376.000000 66.982000 5.000000 5.000000 8.000000 128.158062 -18.116807 1327.136678 51.202722 14.927243 0.000000 0.033918
377.000000 64.630000 6.000000 5.000000 8.000000 132.355187 -26.420542 1509.758160 -154.691606 15.469468 0.000000 0.069346
380.000000 49.776000 -1.000000 6.000000 8.000000 71.564166 11.298436 759.965736 1306.873861 20.108096 0.000000 0.109215
381.000000 59.238000 1.000000 6.000000 8.000000 91.163606 2.919593 920.108284 919.110384 16.890241 0.000000 0.170063
382.000000 62.888000 3.000000 6.000000 8.000000 107.608601 -7.639685 1119.367144 596.342223 15.904730 0.000000 0.151721
383.000000 61.779000 5.000000 6.000000 8.000000 119.669991 -20.343752 1374.067949 287.048415 16.186651 0.000000 0.064172
384.000000 57.939000 7.000000 6.000000 8.000000 127.167431 -34.368650 1711.089389 -47.570019 17.257158 0.000000 0.103118
386.000000 48.954000 0.000000 7.000000 8.000000 76.118726 3.057280 917.514797 1207.361732 20.444325 0.000000 0.130976
387.000000 52.728000 1.000000 7.000000 8.000000 84.872078 -1.151344 996.630760 1037.604920 18.977949 0.000000 0.160074
388.000000 55.297000 2.000000 7.000000 8.000000 92.947027 -5.773559 1083.824194 885.309084 18.093313 0.000000 0.168991
389.000000 56.697000 3.000000 7.000000 8.000000 100.189641 -10.804343 1180.398666 744.053727 17.643857 0.000000 0.159625
390.000000 57.063000 4.000000 7.000000 8.000000 106.499945 -16.212851 1287.954191 608.984329 17.528440 0.000000 0.133382
391.000000 56.584000 5.000000 7.000000 8.000000 111.833187 -21.937068 1408.476576 476.130707 17.675007 0.000000 0.090956
392.000000 55.462000 6.000000 7.000000 8.000000 116.195452 -27.883062 1544.461161 341.957161 18.030838 0.000000 0.032226
393.000000 53.888000 7.000000 7.000000 8.000000 119.635652 -33.931078 1699.087443 203.023268 18.556468 0.000000 0.044329
394.000000 52.020000 8.000000 7.000000 8.000000 122.235297 -39.948500 1876.470801 55.680890 19.221771 0.000000 0.141198
397.000000 46.805000 1.000000 8.000000 8.000000 79.076775 -4.425512 1058.298422 1149.335265 21.381694 0.000000 0.141778
398.000000 50.921000 3.000000 8.000000 8.000000 93.403576 -13.250495 1228.443474 875.238168 19.647627 0.000000 0.158076
399.000000 51.583000 5.000000 8.000000 8.000000 104.657525 -23.131803 1434.784695 634.881258 19.390987 0.000000 0.109006
400.000000 49.866000 7.000000 8.000000 8.000000 112.658695 -33.605876 1690.247325 401.521774 20.055470 0.000000 0.015559
401.000000 46.875000 9.000000 8.000000 8.000000 117.751590 -44.010375 2014.742021 153.607168 21.332918 0.000000 0.181994
402.000000 45.660000 3.000000 9.000000 8.000000 87.249838 -15.191343 1267.248071 994.573224 21.914259 0.000000 0.149959
403.000000 46.599000 4.000000 9.000000 8.000000 93.030698 -19.546697 1357.123279 880.530655 21.469706 0.000000 0.141632
404.000000 46.892000 5.000000 9.000000 8.000000 98.120746 -24.060149 1455.551593 772.810362 21.333280 0.000000 0.119261
405.000000 46.648000 6.000000 9.000000 8.000000 102.512233 -28.682019 1563.814967 668.743467 21.443197 0.000000 0.084264
406.000000 45.979000 7.000000 9.000000 8.000000 106.224236 -33.354700 1683.465015 566.053777 21.753156 0.000000 0.042530
408.000000 60.972000 -2.000000 1.000000 9.000000 80.385128 51.094973 -358.626695 1231.318186 16.410592 0.000000 0.308039
409.000000 68.939000 -1.000000 1.000000 9.000000 93.556481 50.347641 -323.598244 836.171482 14.510858 0.000000 0.254235
410.000000 74.950000 0.000000 1.000000 9.000000 106.578387 49.402553 -280.847320 448.614356 13.344302 0.000000 0.244330
413.000000 50.040000 -3.000000 2.000000 9.000000 66.340025 44.289054 -74.910239 1599.768455 20.000999 0.000000 0.253754
414.000000 58.946000 -2.000000 2.000000 9.000000 78.932450 42.952624 -26.998078 1228.638453 16.975485 0.000000 0.171668
415.000000 66.617000 -1.000000 2.000000 9.000000 91.681281 41.322173 28.714142 898.934276 15.017662 0.000000 0.108792
416.000000 72.465000 0.000000 2.000000 9.000000 104.244734 39.292456 94.299973 587.943668 13.802802 0.000000 0.061120
417.000000 76.188000 1.000000 2.000000 9.000000 116.292065 36.703955 172.639395 277.747547 13.125740 0.000000 0.054867
418.000000 77.807000 2.000000 2.000000 9.000000 127.538794 33.305716 267.853083 -48.560871 12.850482 0.000000 0.093167
421.000000 55.755000 -2.000000 3.000000 9.000000 76.518273 35.407218 209.913379 1257.582860 17.948636 0.000000 0.129111
422.000000 62.976000 -1.000000 3.000000 9.000000 88.624924 33.096682 273.461401 971.839245 15.887155 0.000000 0.102173
423.000000 72.262000 1.000000 3.000000 9.000000 111.835580 26.811029 431.064568 457.792214 13.840041 0.000000 0.063303
424.000000 74.041000 2.000000 3.000000 9.000000 122.333053 22.443554 530.426068 203.894391 13.505252 0.000000 0.041618
425.000000 72.879000 4.000000 3.000000 9.000000 139.900662 9.654008 791.914720 -355.531463 13.717360 0.000000 0.030472
427.000000 51.786000 -2.000000 4.000000 9.000000 73.421739 28.623377 387.615500 1306.022984 19.325896 0.000000 0.119269
428.000000 58.461000 -1.000000 4.000000 9.000000 84.762900 25.856855 453.380792 1050.628478 17.116064 0.000000 0.125301
429.000000 63.737000 0.000000 4.000000 9.000000 95.847595 22.575689 527.517648 821.623191 15.695998 0.000000 0.131471
430.000000 67.361000 1.000000 4.000000 9.000000 106.380143 18.650374 611.733207 607.100801 14.848679 0.000000 0.126485
431.000000 69.304000 2.000000 4.000000 9.000000 116.094423 13.920639 708.232618 397.908092 14.429929 0.000000 0.109001
432.000000 69.728000 3.000000 4.000000 9.000000 124.768099 8.199410 819.914934 186.127853 14.340215 0.000000 0.080535
433.000000 68.911000 4.000000 4.000000 9.000000 132.224096 1.295005 950.669354 -35.998713 14.508612 0.000000 0.043470
434.000000 67.171000 5.000000 4.000000 9.000000 138.326833 -6.931031 1105.837413 -277.047161 14.883212 0.000000 0.016990
437.000000 47.429000 -2.000000 5.000000 9.000000 69.924560 22.651827 525.839243 1367.222573 21.103174 0.000000 0.109094
438.000000 53.511000 -1.000000 5.000000 9.000000 80.459977 19.625117 591.217124 1133.038314 18.701157 0.000000 0.133567
439.000000 58.424000 0.000000 5.000000 9.000000 90.729304 16.122305 663.889672 926.738475 17.125428 0.000000 0.153059
440.000000 61.943000 1.000000 5.000000 9.000000 100.471825 12.054828 745.149897 737.582308 16.149489 0.000000 0.158041
441.000000 64.021000 2.000000 5.000000 9.000000 109.453668 7.326601 836.615589 557.714003 15.622694 0.000000 0.147932
442.000000 64.765000 3.000000 5.000000 9.000000 117.483180 1.844564 940.338118 380.827911 15.440947 0.000000 0.123870
443.000000 64.386000 4.000000 5.000000 9.000000 124.417595 -4.460420 1058.958125 201.320066 15.530014 0.000000 0.087353
444.000000 63.138000 5.000000 5.000000 9.000000 130.164764 -11.600102 1195.933480 13.653678 15.835531 0.000000 0.042341
445.000000 61.272000 6.000000 5.000000 9.000000 134.685242 -19.487991 1355.881943 -188.225079 16.316772 0.000000 0.044310
448.000000 48.491000 -1.000000 6.000000 9.000000 76.009921 14.323329 700.189265 1217.755278 20.639238 0.000000 0.126913
449.000000 56.395000 1.000000 6.000000 9.000000 94.503435 6.744958 847.708218 855.638077 17.740330 0.000000 0.169408
450.000000 58.560000 2.000000 6.000000 9.000000 102.828982 2.199235 933.667343 695.718677 17.081745 0.000000 0.166854
451.000000 59.597000 4.000000 6.000000 9.000000 116.842123 -8.588041 1137.544419 390.154784 16.780241 0.000000 0.118435
452.000000 58.815000 5.000000 6.000000 9.000000 122.347829 -14.815696 1259.684675 235.894431 17.001638 0.000000 0.074783
453.000000 55.640000 7.000000 6.000000 9.000000 130.258830 -28.515002 1559.745061 -96.263349 17.969447 0.000000 0.069935
455.000000 47.798000 0.000000 7.000000 9.000000 80.384768 6.329689 855.611470 1124.454227 20.937001 0.000000 0.146456
456.000000 51.001000 1.000000 7.000000 9.000000 88.722883 2.447055 929.004394 965.016363 19.619078 0.000000 0.167317
457.000000 53.200000 2.000000 7.000000 9.000000 96.467209 -1.841799 1009.609902 818.932624 18.805297 0.000000 0.172058
458.000000 54.425000 3.000000 7.000000 9.000000 103.484017 -6.548233 1098.546144 681.227425 18.379300 0.000000 0.161898
459.000000 54.780000 4.000000 7.000000 9.000000 109.678824 -11.663506 1197.174994 547.964079 18.257977 0.000000 0.137869
460.000000 54.410000 5.000000 7.000000 9.000000 114.998401 -17.151580 1307.172276 415.795372 18.380386 0.000000 0.100621
461.000000 53.473000 6.000000 7.000000 9.000000 119.429377 -22.944223 1430.623767 281.647259 18.700821 0.000000 0.050737
462.000000 52.122000 7.000000 7.000000 9.000000 122.994627 -28.941289 1570.158723 142.465667 19.184331 0.000000 0.022461
463.000000 50.489000 8.000000 7.000000 9.000000 125.747937 -35.018208 1729.139222 -5.020539 19.803736 0.000000 0.099790
466.000000 45.938000 1.000000 8.000000 9.000000 83.268458 -1.066130 995.029430 1068.058252 21.783633 0.000000 0.156079
467.000000 48.123000 2.000000 8.000000 9.000000 90.497542 -5.078772 1070.654768 931.616661 20.791581 0.000000 0.167691
468.000000 49.492000 3.000000 8.000000 9.000000 97.104228 -9.405937 1153.293944 805.031748 20.213887 0.000000 0.164579
469.000000 50.110000 4.000000 8.000000 9.000000 103.009073 -14.031062 1243.970148 684.691249 19.961918 0.000000 0.147877
470.000000 50.083000 5.000000 8.000000 9.000000 108.166557 -18.919908 1343.915762 567.657785 19.970637 0.000000 0.118295
471.000000 49.532000 6.000000 8.000000 9.000000 112.563697 -24.019173 1454.628702 451.385804 20.191239 0.000000 0.076068
472.000000 48.577000 7.000000 8.000000 9.000000 116.216499 -29.257871 1577.948005 333.514989 20.586388 0.000000 0.020872
473.000000 47.332000 8.000000 8.000000 9.000000 119.165034 -34.552040 1716.156798 211.701151 21.127033 0.000000 0.048354
474.000000 45.889000 9.000000 8.000000 9.000000 121.467647 -39.812264 1872.124955 83.457454 21.790230 0.000000 0.133676
475.000000 45.700000 4.000000 9.000000 9.000000 96.857343 -15.903985 1281.671417 806.415459 21.890769 0.000000 0.150574
476.000000 45.946000 5.000000 9.000000 9.000000 101.861508 -20.302693 1373.190864 699.969707 21.771259 0.000000 0.128674
480.000000 56.543000 -2.000000 1.000000 10.000000 83.103052 51.813063 -393.367906 1151.581695 17.695195 0.000000 0.316041
481.000000 62.805000 -1.000000 1.000000 10.000000 94.984195 51.207732 -364.010100 791.176243 15.927739 0.000000 0.275604
482.000000 67.595000 0.000000 1.000000 10.000000 106.717723 50.457578 -328.681548 433.237475 14.796112 0.000000 0.272677
485.000000 47.919000 -3.000000 2.000000 10.000000 70.389970 45.404549 -116.601432 1487.169171 20.884523 0.000000 0.246503
486.000000 61.092000 -1.000000 2.000000 10.000000 93.443323 42.907600 -25.420442 852.584195 16.375258 0.000000 0.119330
487.000000 68.887000 1.000000 2.000000 10.000000 115.822326 39.149453 98.775789 269.410966 14.516882 0.000000 0.085555
489.000000 45.839000 -3.000000 3.000000 10.000000 68.756211 38.865354 107.614041 1478.376607 21.833719 0.000000 0.177138
490.000000 52.558000 -2.000000 3.000000 10.000000 79.791908 37.202156 157.984343 1184.328421 19.038959 0.000000 0.126579
491.000000 58.349000 -1.000000 3.000000 10.000000 90.869439 35.228491 214.956086 921.004417 17.146175 0.000000 0.092713
492.000000 62.875000 0.000000 3.000000 10.000000 101.745219 32.854792 279.918035 674.615476 15.908942 0.000000 0.065003
493.000000 65.956000 1.000000 3.000000 10.000000 112.182506 29.956995 354.677875 434.485651 15.163107 0.000000 0.038313
494.000000 67.586000 2.000000 3.000000 10.000000 121.969570 26.361113 441.633055 191.291572 14.795102 0.000000 0.021155
495.000000 67.904000 3.000000 3.000000 10.000000 130.926560 21.822041 544.032663 -64.220166 14.723852 0.000000 0.035855
496.000000 67.140000 4.000000 3.000000 10.000000 138.898730 15.999269 666.392440 -342.437793 14.889929 0.000000 0.052019
499.000000 54.861000 -1.000000 4.000000 10.000000 87.537115 28.342738 394.439241 993.598874 18.237889 0.000000 0.117311
500.000000 62.212000 1.000000 4.000000 10.000000 107.591707 22.126847 537.374638 572.620468 16.077254 0.000000 0.107359
501.000000 64.476000 3.000000 4.000000 10.000000 125.065490 13.190583 722.744086 165.063805 15.508182 0.000000 0.066824
502.000000 62.741000 5.000000 4.000000 10.000000 138.673422 0.120419 972.737934 -282.977239 15.934118 0.000000 0.006497
504.000000 45.895000 -2.000000 5.000000 10.000000 73.902230 24.988280 473.383747 1283.688647 21.806488 0.000000 0.117280
505.000000 50.929000 -1.000000 5.000000 10.000000 83.730287 22.300598 533.566422 1068.807408 19.647827 0.000000 0.133330
506.000000 57.963000 1.000000 5.000000 10.000000 102.472922 15.607183 674.347781 693.810743 17.257530 0.000000 0.145971
507.000000 59.781000 2.000000 5.000000 10.000000 110.999804 11.430055 757.393415 519.493975 16.730209 0.000000 0.135338
508.000000 60.529000 3.000000 5.000000 10.000000 118.745680 6.570663 851.026941 346.726818 16.521212 0.000000 0.113987
509.000000 60.355000 4.000000 5.000000 10.000000 125.585495 0.936251 957.411080 170.758196 16.567020 0.000000 0.083181
510.000000 57.978000 6.000000 5.000000 10.000000 136.205338 -12.848759 1220.491450 -210.388872 17.243551 0.000000 0.027920
513.000000 46.822000 -1.000000 6.000000 10.000000 79.695267 17.066718 644.572893 1145.702002 21.373445 0.000000 0.135402
514.000000 53.492000 1.000000 6.000000 10.000000 97.160391 10.225312 780.853172 803.606088 18.702161 0.000000 0.164426
515.000000 56.309000 3.000000 6.000000 10.000000 112.349570 1.459004 947.586868 498.347854 17.761635 0.000000 0.143875
516.000000 55.845000 5.000000 6.000000 10.000000 124.310120 -9.559843 1156.265721 196.179678 17.905303 0.000000 0.079573
517.000000 53.257000 7.000000 6.000000 10.000000 132.605329 -22.689655 1424.995340 -131.924115 18.772990 0.000000 0.047706
519.000000 46.281000 0.000000 7.000000 10.000000 83.943314 9.349760 797.790120 1056.737374 21.621499 0.000000 0.154278
520.000000 49.023000 1.000000 7.000000 10.000000 91.888253 5.780766 866.039047 905.335179 20.409387 0.000000 0.169131
521.000000 50.927000 2.000000 7.000000 10.000000 99.316661 1.822503 940.752955 764.339308 19.643262 0.000000 0.170929
522.000000 52.020000 3.000000 7.000000 10.000000 106.113115 -2.548036 1022.896123 629.768992 19.228150 0.000000 0.160487
523.000000 52.379000 4.000000 7.000000 10.000000 112.190475 -7.339705 1113.634632 498.354187 19.094259 0.000000 0.138611
524.000000 52.115000 5.000000 7.000000 10.000000 117.491800 -12.539743 1214.392068 367.225396 19.189148 0.000000 0.105942
525.000000 51.352000 6.000000 7.000000 10.000000 121.990324 -18.106616 1326.924760 233.682965 19.472653 0.000000 0.063352
526.000000 50.212000 7.000000 7.000000 10.000000 125.688299 -23.965690 1453.425027 95.002985 19.913489 0.000000 0.023085
527.000000 48.804000 8.000000 7.000000 10.000000 128.614987 -30.010644 1596.665420 -51.751141 20.486930 0.000000 0.070171
528.000000 47.220000 9.000000 7.000000 10.000000 130.823431 -36.112405 1760.204283 -209.939527 21.173171 0.000000 0.153900
530.000000 47.820000 3.000000 8.000000 10.000000 100.171082 -5.744590 1083.274480 746.930220 20.919470 0.000000 0.167226
531.000000 48.385000 5.000000 8.000000 10.000000 111.054616 -14.824435 1259.860322 512.405749 20.670506 0.000000 0.124301
532.000000 47.102000 7.000000 8.000000 10.000000 119.176636 -24.917027 1474.987983 278.377665 21.230117 0.000000 0.039343
535.000000 57.639000 -1.000000 1.000000 11.000000 96.143565 51.929600 -399.110380 753.122983 17.354796 0.000000 0.295538
539.000000 45.676000 -3.000000 2.000000 11.000000 73.744310 46.376013 -154.273282 1395.872926 21.909010 0.000000 0.243601
540.000000 51.428000 -2.000000 2.000000 11.000000 84.285632 45.405854 -116.651154 1094.402754 19.455156 0.000000 0.181005
541.000000 56.344000 -1.000000 2.000000 11.000000 94.861190 44.252751 -73.580178 813.203489 17.754709 0.000000 0.133518
542.000000 60.180000 0.000000 2.000000 11.000000 105.280375 42.860834 -23.784196 539.852166 16.620002 0.000000 0.107479
543.000000 62.812000 1.000000 2.000000 11.000000 115.362793 41.149643 34.445207 263.429966 15.920920 0.000000 0.113739
544.000000 64.242000 2.000000 2.000000 11.000000 124.951965 38.999531 103.448653 -27.004037 15.564406 0.000000 0.144956
547.000000 49.508000 -2.000000 3.000000 11.000000 82.478170 38.765463 110.704833 1123.263944 20.211105 0.000000 0.124758
548.000000 54.234000 -1.000000 3.000000 11.000000 92.673401 37.065747 162.016050 878.018172 18.446408 0.000000 0.086467
549.000000 57.963000 0.000000 3.000000 11.000000 102.689959 35.043274 220.158534 644.982308 17.256840 0.000000 0.052012
550.000000 60.573000 1.000000 3.000000 11.000000 112.348870 32.603299 286.593786 415.736426 16.510397 0.000000 0.017743
551.000000 62.060000 2.000000 3.000000 11.000000 121.489724 29.613985 363.232219 182.651769 16.112602 0.000000 0.017295
552.000000 62.512000 3.000000 3.000000 11.000000 129.975379 25.889648 452.619865 -61.994094 15.994051 0.000000 0.049387
553.000000 62.085000 4.000000 3.000000 11.000000 137.688140 21.167892 558.226698 -326.889387 16.102616 0.000000 0.072325
556.000000 47.013000 -2.000000 4.000000 11.000000 80.065607 32.635475 285.741786 1164.851164 21.285071 0.000000 0.117319
557.000000 51.499000 -1.000000 4.000000 11.000000 89.784103 30.523322 340.423976 945.708050 19.427778 0.000000 0.107480
558.000000 55.086000 0.000000 4.000000 11.000000 99.304454 28.052797 401.451385 741.189311 18.159647 0.000000 0.099572
559.000000 57.661000 1.000000 4.000000 11.000000 108.454458 25.136243 469.996469 544.256512 17.345731 0.000000 0.087893
560.000000 59.211000 2.000000 4.000000 11.000000 117.077076 21.660972 547.539502 348.968933 16.889371 0.000000 0.071440
561.000000 59.805000 3.000000 4.000000 11.000000 125.035499 17.483973 635.976689 149.824941 16.719517 0.000000 0.051924
562.000000 59.573000 4.000000 4.000000 11.000000 132.212231 12.429655 737.777296 -58.776556 16.782776 0.000000 0.032778
563.000000 58.675000 5.000000 4.000000 11.000000 138.503619 6.297801 856.217816 -283.071310 17.038245 0.000000 0.017267
566.000000 48.345000 -1.000000 5.000000 11.000000 86.414800 24.688897 480.212606 1015.220108 20.696722 0.000000 0.128744
567.000000 51.764000 0.000000 5.000000 11.000000 95.395282 21.938935 541.482668 831.413692 19.326658 0.000000 0.134407
568.000000 54.288000 1.000000 5.000000 11.000000 104.006374 18.762051 609.394843 657.455685 18.425413 0.000000 0.132137
569.000000 55.894000 2.000000 5.000000 11.000000 112.101478 15.075306 685.091108 488.351905 17.893411 0.000000 0.121143
570.000000 56.633000 3.000000 5.000000 11.000000 119.553203 10.784320 769.991143 319.770122 17.657411 0.000000 0.102032
571.000000 56.612000 4.000000 5.000000 11.000000 126.255108 5.789030 865.882207 147.634701 17.662340 0.000000 0.075894
572.000000 55.961000 5.000000 5.000000 11.000000 132.120755 -0.002467 975.046337 -32.214943 17.865989 0.000000 0.044187
573.000000 54.824000 6.000000 5.000000 11.000000 137.082701 -6.647946 1100.444296 -224.365189 18.235467 0.000000 0.017411
574.000000 53.332000 7.000000 5.000000 11.000000 141.094571 -14.132130 1245.988174 -434.228499 18.744759 0.000000 0.052627
577.000000 48.204000 0.000000 6.000000 11.000000 91.203663 16.660756 652.899619 917.395061 20.756124 0.000000 0.151975
578.000000 50.657000 1.000000 6.000000 11.000000 99.282721 13.382918 718.929611 760.172951 19.747950 0.000000 0.156512
579.000000 52.304000 2.000000 6.000000 11.000000 106.874422 9.666357 791.676035 609.819524 19.123432 0.000000 0.150933
580.000000 53.178000 3.000000 6.000000 11.000000 113.865134 5.454956 872.218574 462.669140 18.806603 0.000000 0.135779
581.000000 53.361000 4.000000 6.000000 11.000000 120.162646 0.698323 961.881429 315.474325 18.740313 0.000000 0.111820
582.000000 52.959000 5.000000 6.000000 11.000000 125.697141 -4.637557 1062.306694 165.145451 18.880737 0.000000 0.080007
583.000000 52.091000 6.000000 6.000000 11.000000 130.421491 -10.555393 1175.555842 8.526375 19.193711 0.000000 0.043175
584.000000 50.873000 7.000000 6.000000 11.000000 134.312292 -17.009568 1304.252734 -157.829784 19.652205 0.000000 0.033428
585.000000 49.407000 8.000000 6.000000 11.000000 137.372162 -23.892945 1451.789440 -337.918913 20.234555 0.000000 0.087086
588.000000 46.944000 1.000000 7.000000 11.000000 94.494572 8.857799 807.268894 855.375190 21.311858 0.000000 0.167035
589.000000 48.611000 2.000000 7.000000 11.000000 101.620735 5.218800 876.693463 718.741219 20.578149 0.000000 0.166703
590.000000 49.599000 3.000000 7.000000 11.000000 108.199764 1.183266 952.769334 587.061894 20.165974 0.000000 0.156258
591.000000 49.966000 4.000000 7.000000 11.000000 114.152898 -3.270378 1036.500455 457.570000 20.015709 0.000000 0.136350
592.000000 49.797000 5.000000 7.000000 11.000000 119.423219 -8.148215 1129.103520 327.773889 20.081613 0.000000 0.107590
593.000000 49.189000 6.000000 7.000000 11.000000 123.976014 -13.433144 1232.067489 195.284170 20.328011 0.000000 0.070866
594.000000 48.240000 7.000000 7.000000 11.000000 127.798730 -19.077843 1347.234248 57.661768 20.726668 0.000000 0.032232
595.000000 47.039000 8.000000 7.000000 11.000000 130.900781 -25.001115 1476.909765 -87.733833 21.254948 0.000000 0.049749
596.000000 45.663000 9.000000 7.000000 11.000000 133.312895 -31.090548 1624.020082 -243.916400 21.894487 0.000000 0.116893
597.000000 46.024000 3.000000 8.000000 11.000000 102.702026 -2.281327 1017.877115 698.214188 21.734411 0.000000 0.166763
598.000000 46.548000 4.000000 8.000000 11.000000 108.356855 -6.423148 1096.166068 581.608502 21.487548 0.000000 0.151546
599.000000 46.586000 5.000000 8.000000 11.000000 113.407147 -10.880397 1181.879737 466.557577 21.467746 0.000000 0.127195
600.000000 46.217000 6.000000 8.000000 11.000000 117.825332 -15.630621 1276.126912 351.111267 21.637588 0.000000 0.094091
601.000000 45.520000 7.000000 8.000000 11.000000 121.603243 -20.632472 1380.248723 233.389188 21.967449 0.000000 0.053033
607.000000 52.237000 -1.000000 2.000000 12.000000 96.023855 45.407201 -116.702500 779.225226 19.150123 0.000000 0.149525
608.000000 57.689000 1.000000 2.000000 12.000000 114.927753 42.812223 -22.086010 259.098048 17.334871 0.000000 0.139599
610.000000 46.665000 -2.000000 3.000000 12.000000 84.714446 40.137323 67.477157 1071.243146 21.441101 0.000000 0.124574
611.000000 50.584000 -1.000000 3.000000 12.000000 94.147905 38.662448 113.883256 841.038029 19.776771 0.000000 0.084758
612.000000 55.945000 1.000000 3.000000 12.000000 112.401079 34.851210 225.528436 400.396487 17.876318 0.000000 0.019980
613.000000 57.298000 2.000000 3.000000 12.000000 120.958535 32.341628 293.499999 176.810725 17.451786 0.000000 0.034772
614.000000 57.629000 4.000000 3.000000 12.000000 136.400220 25.395116 464.050338 -310.122669 17.347776 0.000000 0.091755
616.000000 48.408000 -1.000000 4.000000 12.000000 91.628955 32.446303 290.742167 904.730107 20.667468 0.000000 0.097371
617.000000 53.642000 1.000000 4.000000 12.000000 109.070528 27.753100 408.659842 520.552320 18.644914 0.000000 0.068734
618.000000 55.657000 3.000000 4.000000 12.000000 124.798050 21.177141 558.026894 138.838755 17.965460 0.000000 0.037168
619.000000 54.972000 5.000000 4.000000 12.000000 137.995115 11.636141 753.360902 -279.218623 18.186024 0.000000 0.030943
621.000000 45.853000 -1.000000 5.000000 12.000000 88.640778 26.826802 430.692546 969.617588 21.820475 0.000000 0.121539
622.000000 48.756000 0.000000 5.000000 12.000000 97.071244 24.380969 487.202253 794.416816 20.518263 0.000000 0.122237
623.000000 50.930000 1.000000 5.000000 12.000000 105.189372 21.566395 549.595008 626.794894 19.639372 0.000000 0.117327
624.000000 52.361000 2.000000 5.000000 12.000000 112.877709 18.310064 618.839956 462.629097 19.100332 0.000000 0.106002
625.000000 53.083000 3.000000 5.000000 12.000000 120.032494 14.525938 696.131481 298.240765 18.838262 0.000000 0.088749
626.000000 53.172000 4.000000 5.000000 12.000000 126.564493 10.116722 782.958676 130.099808 18.804894 0.000000 0.066581
627.000000 52.725000 5.000000 5.000000 12.000000 132.397649 4.980676 881.202216 -45.435507 18.962560 0.000000 0.040608
628.000000 51.850000 6.000000 5.000000 12.000000 137.467109 -0.972611 993.272134 -232.385329 19.281433 0.000000 0.012637
629.000000 50.649000 7.000000 5.000000 12.000000 141.718902 -7.793426 1122.308162 -435.463509 19.737589 0.000000 0.027979
632.000000 47.958000 1.000000 6.000000 12.000000 100.986393 16.243991 661.411298 723.366742 20.858418 0.000000 0.146630
633.000000 50.208000 5.000000 6.000000 12.000000 126.630353 -0.083386 976.566388 140.787470 19.915076 0.000000 0.077244
634.000000 48.544000 7.000000 6.000000 12.000000 135.483951 -11.574948 1195.441108 -176.355098 20.594868 0.000000 0.024711
635.000000 46.333000 2.000000 7.000000 12.000000 103.483962 8.354136 816.946925 680.155386 21.589201 0.000000 0.160215
636.000000 47.234000 3.000000 7.000000 12.000000 109.847959 4.643433 887.582201 551.212878 21.174887 0.000000 0.149910
637.000000 47.608000 4.000000 7.000000 12.000000 115.668634 0.528985 965.062796 423.717995 21.006198 0.000000 0.131753
638.000000 47.521000 5.000000 7.000000 12.000000 120.891627 -4.009145 1050.434458 295.485143 21.042796 0.000000 0.106309
639.000000 47.048000 6.000000 7.000000 12.000000 125.478622 -8.973986 1144.967377 164.386160 21.252720 0.000000 0.074377
640.000000 46.267000 7.000000 7.000000 12.000000 129.407582 -14.343771 1250.219807 28.229335 21.610314 0.000000 0.039469
646.000000 48.659000 -1.000000 2.000000 13.000000 96.992718 46.408053 -155.538484 749.542329 20.557555 0.000000 0.166164
647.000000 51.360000 0.000000 2.000000 13.000000 105.876163 45.408593 -116.755551 504.979686 19.473806 0.000000 0.153351
648.000000 53.316000 1.000000 2.000000 13.000000 114.522578 44.213806 -72.155175 255.945331 18.756606 0.000000 0.163341
649.000000 54.526000 2.000000 2.000000 13.000000 122.836816 42.761655 -20.322301 -5.088650 18.338176 0.000000 0.190619
652.000000 47.344000 -1.000000 3.000000 13.000000 95.371106 40.060878 69.931356 808.785039 21.129829 0.000000 0.087786
653.000000 49.991000 0.000000 3.000000 13.000000 104.000912 38.556160 117.153089 597.816725 20.007896 0.000000 0.055214
654.000000 51.934000 1.000000 3.000000 13.000000 112.380887 36.778809 170.449691 387.663419 19.256875 0.000000 0.039362
655.000000 53.166000 2.000000 3.000000 13.000000 120.413228 34.651918 231.074007 172.977053 18.808293 0.000000 0.055271
656.000000 53.728000 3.000000 3.000000 13.000000 128.013544 32.069163 300.648819 -51.795979 18.609554 0.000000 0.084157
657.000000 53.694000 4.000000 3.000000 13.000000 135.109975 28.881202 381.314270 -292.903085 18.619591 0.000000 0.110415
660.000000 45.589000 -1.000000 4.000000 13.000000 93.162630 34.151128 244.892439 869.138082 21.944695 0.000000 0.088199
661.000000 48.165000 0.000000 4.000000 13.000000 101.466838 32.251504 295.869391 682.844234 20.767730 0.000000 0.069289
662.000000 50.087000 1.000000 4.000000 13.000000 109.510161 30.040475 352.587042 500.474459 19.968230 0.000000 0.050532
663.000000 51.345000 2.000000 4.000000 13.000000 117.194559 27.443163 416.072974 317.866941 19.476627 0.000000 0.033035
664.000000 51.972000 3.000000 4.000000 13.000000 124.433189 24.362713 487.615580 131.001290 19.239460 0.000000 0.024941
665.000000 52.033000 4.000000 4.000000 13.000000 131.149920 20.674369 568.852411 -64.303438 19.214967 0.000000 0.033502
666.000000 51.612000 5.000000 4.000000 13.000000 137.276136 16.220152 661.897060 -272.705576 19.370051 0.000000 0.044793
670.000000 45.989000 0.000000 5.000000 13.000000 98.439327 26.564474 436.866423 762.464018 21.752039 0.000000 0.109346
671.000000 47.881000 1.000000 5.000000 13.000000 106.107870 24.064143 494.358434 600.599062 20.889562 0.000000 0.102088
672.000000 49.164000 2.000000 5.000000 13.000000 113.415277 21.182514 557.910817 441.131030 20.342202 0.000000 0.090375
673.000000 49.861000 3.000000 5.000000 13.000000 120.276693 17.843643 628.535147 280.898221 20.055327 0.000000 0.074673
674.000000 50.029000 4.000000 5.000000 13.000000 126.617781 13.958309 707.481393 116.818130 19.986246 0.000000 0.056099
675.000000 49.739000 5.000000 5.000000 13.000000 132.373375 9.426325 796.312542 -54.314660 20.101112 0.000000 0.035980
676.000000 49.072000 6.000000 5.000000 13.000000 137.485244 4.144546 897.009126 -236.040031 20.372746 0.000000 0.015063
677.000000 48.110000 7.000000 5.000000 13.000000 141.900369 -1.975202 1012.118637 -432.483267 20.779073 0.000000 0.009280
680.000000 46.728000 2.000000 6.000000 13.000000 109.289188 15.816030 670.114161 549.493343 21.404045 0.000000 0.128228
681.000000 47.495000 3.000000 6.000000 13.000000 115.784192 12.390241 738.553531 408.666661 21.056292 0.000000 0.114862
682.000000 47.771000 4.000000 6.000000 13.000000 121.777583 8.501024 814.127073 266.845322 20.932655 0.000000 0.095942
683.000000 47.617000 5.000000 6.000000 13.000000 127.211332 4.091454 898.011634 121.624391 20.998355 0.000000 0.072172
684.000000 47.104000 6.000000 6.000000 13.000000 132.037559 -0.886704 991.657960 -29.494221 21.225453 0.000000 0.044580
685.000000 46.303000 7.000000 6.000000 13.000000 136.218358 -6.460429 1096.875311 -189.246665 21.591251 0.000000 0.019700
690.000000 45.522000 -1.000000 2.000000 14.000000 97.811332 47.283543 -190.696961 723.344902 21.974258 0.000000 0.182743
691.000000 49.545000 1.000000 2.000000 14.000000 114.148284 45.410032 -116.810393 253.650859 20.184564 0.000000 0.185169
693.000000 46.732000 0.000000 3.000000 14.000000 104.463646 39.982153 72.453030 578.687291 21.403201 0.000000 0.068017
694.000000 48.432000 1.000000 3.000000 14.000000 112.314982 38.446441 120.518333 376.961363 20.649138 0.000000 0.059970
695.000000 49.555000 2.000000 3.000000 14.000000 119.874803 36.627788 174.863133 170.600933 20.178854 0.000000 0.075501
696.000000 50.128000 3.000000 3.000000 14.000000 127.075175 34.444986 236.804012 -45.167150 19.945932 0.000000 0.102122
697.000000 50.205000 4.000000 3.000000 14.000000 133.858319 31.785233 308.053258 -275.705266 19.913554 0.000000 0.128324
700.000000 46.931000 1.000000 4.000000 14.000000 109.822225 32.050828 301.128346 483.270326 21.310858 0.000000 0.034443
701.000000 48.689000 3.000000 4.000000 14.000000 123.993891 27.122471 423.699625 125.522551 20.536523 0.000000 0.021245
702.000000 48.568000 5.000000 4.000000 14.000000 136.435665 20.151604 580.032675 -264.420621 20.584505 0.000000 0.058712
704.000000 46.274000 2.000000 5.000000 14.000000 113.777379 23.738047 501.687171 422.978184 21.612451 0.000000 0.074581
705.000000 46.942000 3.000000 5.000000 14.000000 120.353622 20.786801 566.437849 266.828907 21.302169 0.000000 0.060201
706.000000 47.165000 4.000000 5.000000 14.000000 126.491994 17.362150 638.490483 106.809156 21.199853 0.000000 0.045228
707.000000 46.994000 5.000000 5.000000 14.000000 132.137376 13.371610 719.154046 -59.916837 21.274912 0.000000 0.031913
708.000000 46.494000 6.000000 5.000000 14.000000 137.239332 8.712149 810.070265 -236.479748 21.502473 0.000000 0.022022
709.000000 45.727000 7.000000 5.000000 14.000000 141.749887 3.279558 913.326524 -426.506806 21.862108 0.000000 0.013880
712.000000 46.260000 1.000000 2.000000 15.000000 113.803805 46.442105 -156.884734 251.990348 21.617577 0.000000 0.205276
716.000000 46.379000 2.000000 3.000000 15.000000 119.354726 38.333124 123.983226 169.293183 21.560978 0.000000 0.094937
717.000000 47.101000 4.000000 3.000000 15.000000 132.666051 34.229972 242.727807 -258.820916 21.226120 0.000000 0.145472
719.000000 45.757000 3.000000 4.000000 15.000000 123.514999 29.525888 365.419873 121.827760 21.852771 0.000000 0.029336
720.000000 45.959000 4.000000 4.000000 15.000000 129.729672 26.790477 431.549153 -61.058961 21.754664 0.000000 0.053417
721.000000 45.808000 5.000000 4.000000 15.000000 135.533722 23.530529 506.331852 -254.984350 21.824751 0.000000 0.072629
#UB matrix in q= (UB) B0 G* 
#[[-0.714575405 -0.019646694 -0.698556408]
# [-0.589579962 -0.521120541  0.617762151]
# [-0.376533478  0.854017285  0.361059147]]
#B0 matrix in q= UB (B0) G*
#[[ 0.19670273 -0.          0.03056101]
# [ 0.          0.19187965 -0.        ]
# [ 0.          0.          0.18806537]]
#UBB0 matrix in q= (UB B0) G* i.e. recip. basis vectors are columns in LT frame: astar = UBB0[:,0], bstar = UBB0[:,1], cstar = UBB0[:,2]. (abcstar as columns on xyzlab1, xlab1 = ui, ui = unit vector along incident beam)
#[[-0.14055893 -0.0037698  -0.15321241]
# [-0.11597199 -0.09999243  0.09816151]
# [-0.07406516  0.16386854  0.05639548]]
#Euler angles phi theta psi (deg)
#[203.809  68.865  48.565]
#deviatoric strain in direct crystal frame (10-3 unit)
#[[-5.15  0.15  0.89]
# [ 0.15 -5.64 -0.09]
# [ 0.89 -0.09 10.78]]
#deviatoric strain in sample2 frame (10-3 unit)
#[[-3.49 -3.15 -4.32]
# [-3.16  0.3   6.95]
# [-4.33  6.94  3.19]]
#new lattice parameters
#[ 5.1505     5.209041   5.3182069 90.008374  99.1742999 89.9825648]
#CCDLabel
#sCMOS
#DetectorParameters
#[79.0, 975.0, 941.0, 0.0, 0.0]
#pixelsize
#0.0734
#Frame dimensions
#[2018, 2016]
#
