#Strain and Orientation Refinement from experimental file: /home/micha/LaueProjects/DepthEffects/testZrO2_105.cor
#File created at Wed Jun 28 14:24:46 2023 with indexingSpotsSet.py
#Number of indexed spots: 517
#Element
#ZrO2
#grainIndex
#G_0
#Mean Deviation(pixel): 0.117
##spot_index intensity h k l 2theta Chi Xexp Yexp Energy GrainIndex PixDev
0.000000 45.464000 5.000000 3.000000 -14.000000 101.702243 -11.936637 1202.529669 713.139178 21.994860 0.000000 0.153863
1.000000 46.297000 3.000000 4.000000 -14.000000 104.076815 2.614400 925.854696 670.835319 21.598423 0.000000 0.161790
2.000000 46.874000 2.000000 2.000000 -7.000000 106.962737 -3.679656 1044.217080 612.030901 10.665582 0.000000 0.155230
3.000000 46.968000 5.000000 4.000000 -14.000000 109.111561 -10.235625 1169.346857 562.025190 21.287805 0.000000 0.140556
4.000000 46.607000 3.000000 2.000000 -7.000000 110.489394 -16.892119 1301.841499 520.681892 10.726008 0.000000 0.116979
5.000000 45.843000 7.000000 4.000000 -14.000000 111.112275 -23.472455 1442.370940 487.937504 21.809020 0.000000 0.083886
6.000000 46.316000 2.000000 5.000000 -14.000000 107.141369 11.464667 756.716572 602.279466 21.588173 0.000000 0.143050
7.000000 47.331000 3.000000 5.000000 -14.000000 110.882776 5.335665 874.479434 528.586896 21.123704 0.000000 0.142830
8.000000 47.871000 4.000000 5.000000 -14.000000 113.932644 -1.289414 999.225573 463.197231 20.884200 0.000000 0.135186
9.000000 47.939000 5.000000 5.000000 -14.000000 116.194382 -8.278146 1131.595124 405.953868 20.853854 0.000000 0.119033
10.000000 47.562000 6.000000 5.000000 -14.000000 117.619622 -15.441955 1272.308931 356.767119 21.018309 0.000000 0.093309
11.000000 46.791000 7.000000 5.000000 -14.000000 118.217235 -22.562040 1422.181672 315.615094 21.364491 0.000000 0.056883
12.000000 45.687000 8.000000 5.000000 -14.000000 118.050772 -29.427347 1582.137650 282.546110 21.880469 0.000000 0.008920
13.000000 45.491000 1.000000 6.000000 -14.000000 108.770297 20.374144 575.282526 550.811552 21.978425 0.000000 0.107902
14.000000 46.889000 1.000000 3.000000 -7.000000 113.291550 14.730170 692.033654 461.917077 10.660928 0.000000 0.114143
15.000000 47.853000 3.000000 6.000000 -14.000000 117.245848 8.404766 815.975214 380.753763 20.891005 0.000000 0.114380
16.000000 48.360000 2.000000 3.000000 -7.000000 120.487229 1.448060 947.792575 307.134892 10.335286 0.000000 0.107058
17.000000 48.415000 5.000000 6.000000 -14.000000 122.897603 -6.007265 1088.261065 240.933553 20.646612 0.000000 0.090989
18.000000 48.041000 3.000000 3.000000 -7.000000 124.408349 -13.744661 1238.261236 182.083363 10.403192 0.000000 0.065346
19.000000 47.286000 7.000000 6.000000 -14.000000 125.015672 -21.492338 1398.797338 130.580578 21.138224 0.000000 0.032122
20.000000 46.208000 4.000000 3.000000 -7.000000 124.782046 -28.976383 1571.019832 86.487765 10.815720 0.000000 0.037192
21.000000 45.687000 1.000000 7.000000 -14.000000 114.201008 24.018028 495.397062 411.418925 21.882221 0.000000 0.066925
22.000000 47.009000 2.000000 7.000000 -14.000000 118.937564 18.349640 618.014930 314.054396 21.265288 0.000000 0.075366
23.000000 47.920000 3.000000 7.000000 -14.000000 123.118397 11.871538 748.747561 223.534377 20.859717 0.000000 0.077923
24.000000 48.399000 4.000000 7.000000 -14.000000 126.579842 4.598696 888.428067 139.680996 20.651967 0.000000 0.072699
25.000000 48.450000 5.000000 7.000000 -14.000000 129.178467 -3.350344 1038.007642 62.367437 20.629629 0.000000 0.058814
26.000000 48.095000 6.000000 7.000000 -14.000000 130.818385 -11.735085 1198.577258 -8.480780 20.781312 0.000000 0.038323
27.000000 47.375000 2.000000 2.000000 -4.000000 131.475635 -20.218524 1371.394309 -72.883213 6.027582 0.000000 0.035654
28.000000 46.345000 8.000000 7.000000 -14.000000 131.206911 -28.439754 1557.915615 -130.800392 21.565652 0.000000 0.080267
29.000000 45.500000 1.000000 8.000000 -14.000000 119.100323 27.967815 403.499459 262.718647 21.969899 0.000000 0.015906
30.000000 46.743000 1.000000 4.000000 -7.000000 124.045823 22.349996 532.482012 154.709765 10.692216 0.000000 0.031251
31.000000 47.600000 3.000000 8.000000 -14.000000 128.463208 15.787738 670.688197 52.486650 20.997832 0.000000 0.038414
32.000000 48.055000 2.000000 4.000000 -7.000000 132.172665 8.239607 819.144082 -44.158199 10.399009 0.000000 0.036338
33.000000 48.109000 5.000000 8.000000 -14.000000 135.002455 -0.214735 979.033791 -135.394070 20.773871 0.000000 0.025994
34.000000 47.783000 3.000000 4.000000 -7.000000 136.821304 -9.324946 1151.731149 -221.351492 10.457568 0.000000 0.025121
35.000000 47.113000 7.000000 8.000000 -14.000000 137.574788 -18.677728 1338.839259 -302.120692 21.212338 0.000000 0.061127
37.000000 46.161000 2.000000 9.000000 -14.000000 128.593761 26.749210 432.521625 -20.944981 21.652243 0.000000 0.046078
38.000000 46.966000 3.000000 9.000000 -14.000000 133.251691 20.202385 578.949948 -137.912579 21.279787 0.000000 0.040043
39.000000 47.399000 4.000000 9.000000 -14.000000 137.234054 12.457552 737.227735 -250.736853 21.084359 0.000000 0.029001
40.000000 47.461000 5.000000 9.000000 -14.000000 140.340044 3.516814 908.853984 -359.697260 21.055927 0.000000 0.007952
44.000000 46.086000 3.000000 10.000000 -14.000000 137.462322 25.153889 469.591953 -354.911528 21.684914 0.000000 0.096936
50.000000 46.443000 3.000000 2.000000 -13.000000 91.221693 -2.946172 1030.392316 918.016786 21.535997 0.000000 0.168548
51.000000 47.055000 4.000000 2.000000 -13.000000 93.895465 -9.150082 1148.359459 866.766594 21.254432 0.000000 0.164719
52.000000 47.076000 5.000000 2.000000 -13.000000 95.829160 -15.470331 1272.882717 826.989832 21.244139 0.000000 0.152385
53.000000 46.554000 6.000000 2.000000 -13.000000 97.016255 -21.755804 1404.524252 798.379125 21.481346 0.000000 0.131629
54.000000 45.570000 7.000000 2.000000 -13.000000 97.499258 -27.860233 1543.912391 780.741851 21.944978 0.000000 0.104196
55.000000 45.887000 1.000000 3.000000 -13.000000 91.564119 11.394499 758.088539 911.020009 21.796596 0.000000 0.159788
56.000000 47.632000 2.000000 3.000000 -13.000000 95.734486 5.600678 869.455559 832.398802 20.996417 0.000000 0.167886
57.000000 48.797000 3.000000 3.000000 -13.000000 99.276501 -0.641751 987.055724 765.192266 20.493680 0.000000 0.168758
58.000000 49.351000 4.000000 3.000000 -13.000000 102.071366 -7.224092 1111.427396 708.983285 20.262742 0.000000 0.161246
59.000000 49.304000 5.000000 3.000000 -13.000000 104.047576 -13.991102 1243.172777 663.466737 20.280822 0.000000 0.144518
60.000000 48.710000 6.000000 3.000000 -13.000000 105.192157 -20.759134 1382.967654 628.443984 20.527620 0.000000 0.118067
61.000000 47.647000 7.000000 3.000000 -13.000000 105.550470 -27.344376 1531.572998 603.820034 20.984980 0.000000 0.082534
62.000000 46.212000 8.000000 3.000000 -13.000000 105.214530 -33.591158 1689.848819 589.603271 21.636622 0.000000 0.047376
64.000000 47.652000 1.000000 4.000000 -13.000000 98.792499 14.475064 697.151060 769.067376 20.985972 0.000000 0.151024
65.000000 49.340000 2.000000 4.000000 -13.000000 103.205251 8.506189 814.027888 685.644441 20.266654 0.000000 0.157235
66.000000 50.450000 3.000000 4.000000 -13.000000 106.954893 1.974931 937.886454 612.675091 19.819362 0.000000 0.156097
67.000000 50.954000 4.000000 4.000000 -13.000000 109.902120 -5.010992 1069.371606 549.846872 19.622252 0.000000 0.146231
68.000000 50.865000 5.000000 4.000000 -13.000000 111.956478 -12.276623 1209.210133 496.945150 19.655759 0.000000 0.126483
69.000000 50.233000 6.000000 4.000000 -13.000000 113.093130 -19.598726 1358.224195 453.851103 19.902305 0.000000 0.095753
70.000000 49.137000 7.000000 4.000000 -13.000000 113.356482 -26.743655 1517.347510 420.542099 20.346054 0.000000 0.053200
71.000000 47.668000 8.000000 4.000000 -13.000000 112.848477 -33.509671 1687.644927 397.094517 20.972701 0.000000 0.015382
72.000000 45.924000 9.000000 4.000000 -13.000000 111.706285 -39.756035 1870.336296 383.689264 21.769295 0.000000 0.080403
73.000000 46.650000 0.000000 5.000000 -13.000000 100.368880 23.266050 512.230284 726.635241 21.435586 0.000000 0.117360
74.000000 48.762000 1.000000 5.000000 -13.000000 105.530358 17.871887 627.949528 626.738291 20.505565 0.000000 0.127930
75.000000 50.375000 2.000000 5.000000 -13.000000 110.192241 11.764304 750.850136 536.673241 19.847470 0.000000 0.133573
76.000000 51.426000 3.000000 5.000000 -13.000000 114.172104 4.958496 881.622015 456.109229 19.440341 0.000000 0.131875
77.000000 51.891000 4.000000 5.000000 -13.000000 117.307194 -2.449752 1021.046364 384.803648 19.265320 0.000000 0.121185
78.000000 51.781000 5.000000 5.000000 -13.000000 119.482012 -10.269875 1170.011294 322.600549 19.305392 0.000000 0.100098
79.000000 51.144000 6.000000 5.000000 -13.000000 120.652672 -18.231856 1329.530766 269.431196 19.545164 0.000000 0.067297
80.000000 50.054000 7.000000 5.000000 -13.000000 120.857212 -26.035421 1500.767703 225.316872 19.970679 0.000000 0.022812
81.000000 48.597000 8.000000 5.000000 -13.000000 120.205535 -33.413988 1685.062384 190.374209 20.569250 0.000000 0.044338
82.000000 46.866000 9.000000 5.000000 -13.000000 118.853035 -40.182244 1883.967601 164.823428 21.329320 0.000000 0.123466
83.000000 47.267000 0.000000 6.000000 -13.000000 106.314603 26.971017 427.286285 587.526562 21.153641 0.000000 0.080474
84.000000 49.272000 1.000000 6.000000 -13.000000 111.713136 21.608485 548.680562 480.006944 20.291070 0.000000 0.091124
85.000000 50.798000 2.000000 6.000000 -13.000000 116.627247 15.418034 678.174660 381.247119 19.679877 0.000000 0.097981
86.000000 51.789000 3.000000 6.000000 -13.000000 120.859317 8.371837 816.607229 290.961891 19.301884 0.000000 0.097621
87.000000 52.223000 4.000000 6.000000 -13.000000 124.221029 0.535690 964.936832 208.941553 19.140625 0.000000 0.088072
88.000000 52.110000 5.000000 6.000000 -13.000000 126.565019 -7.895613 1124.264177 135.052017 19.181147 0.000000 0.068127
89.000000 51.495000 6.000000 6.000000 -13.000000 127.818952 -16.600108 1295.859478 69.236913 19.409843 0.000000 0.039324
90.000000 50.444000 7.000000 6.000000 -13.000000 128.006767 -25.188264 1481.196390 11.521900 19.814302 0.000000 0.036253
91.000000 49.036000 8.000000 6.000000 -13.000000 127.243380 -33.300046 1681.994436 -37.978431 20.383181 0.000000 0.094929
92.000000 47.357000 9.000000 6.000000 -13.000000 125.703942 -40.685108 1900.272520 -79.050505 21.106092 0.000000 0.181921
94.000000 47.376000 0.000000 7.000000 -13.000000 111.679173 30.954354 329.463628 442.087115 21.102697 0.000000 0.029599
95.000000 49.260000 1.000000 7.000000 -13.000000 117.294941 25.701713 456.974908 324.621451 20.293859 0.000000 0.041173
96.000000 50.692000 2.000000 7.000000 -13.000000 122.458990 19.508446 593.685650 214.712982 19.718936 0.000000 0.052539
97.000000 51.623000 3.000000 7.000000 -13.000000 126.962501 12.284816 740.628670 112.077267 19.361997 0.000000 0.056163
98.000000 52.033000 4.000000 7.000000 -13.000000 130.591334 4.039241 898.997400 16.490143 19.208525 0.000000 0.049971
99.000000 51.932000 5.000000 7.000000 -13.000000 133.159397 -5.053609 1070.178374 -72.211886 19.245265 0.000000 0.034973
100.000000 51.357000 6.000000 7.000000 -13.000000 134.553848 -14.621846 1255.791928 -154.129600 19.460088 0.000000 0.032151
101.000000 50.369000 7.000000 7.000000 -13.000000 134.773230 -24.157372 1457.743647 -229.297078 19.841876 0.000000 0.075088
105.000000 47.061000 0.000000 8.000000 -13.000000 116.441029 35.205854 215.593206 285.942756 21.242024 0.000000 0.042467
106.000000 48.816000 1.000000 8.000000 -13.000000 122.247414 30.157242 349.656595 155.684277 20.476481 0.000000 0.027305
107.000000 50.151000 2.000000 8.000000 -13.000000 127.651508 24.069052 494.247815 31.524654 19.929809 0.000000 0.027778
108.000000 51.023000 3.000000 8.000000 -13.000000 132.439869 16.770232 650.657654 -86.882315 19.587922 0.000000 0.028411
109.000000 51.415000 4.000000 8.000000 -13.000000 136.375555 8.174273 820.396904 -199.846005 19.437917 0.000000 0.019630
110.000000 51.334000 5.000000 8.000000 -13.000000 139.228382 -1.609665 1005.245321 -307.641066 19.467951 0.000000 0.008296
111.000000 50.813000 6.000000 8.000000 -13.000000 140.830124 -12.180226 1207.314267 -410.508805 19.667139 0.000000 0.046742
115.000000 46.406000 0.000000 9.000000 -13.000000 120.595252 39.702208 81.373221 113.837251 21.539939 0.000000 0.128244
116.000000 48.031000 1.000000 9.000000 -13.000000 126.558171 34.964371 222.367628 -32.886342 20.809623 0.000000 0.106958
117.000000 49.270000 2.000000 9.000000 -13.000000 132.182389 29.117619 375.508720 -175.410429 20.285072 0.000000 0.090396
118.000000 50.085000 3.000000 9.000000 -13.000000 137.259053 21.895218 542.436811 -314.241604 19.953732 0.000000 0.072882
132.000000 46.238000 2.000000 1.000000 -12.000000 80.962380 -0.062819 976.180045 1112.192869 21.635644 0.000000 0.149486
133.000000 47.569000 3.000000 1.000000 -12.000000 84.299420 -6.280999 1093.462725 1049.088286 21.029218 0.000000 0.156882
134.000000 48.161000 4.000000 1.000000 -12.000000 86.893599 -12.687588 1217.308413 1000.872572 20.769298 0.000000 0.155243
135.000000 48.041000 5.000000 1.000000 -12.000000 88.699418 -19.127734 1348.283854 966.863385 20.819905 0.000000 0.144535
136.000000 47.290000 6.000000 1.000000 -12.000000 89.732305 -25.441726 1487.022982 946.568697 21.149876 0.000000 0.126241
137.000000 46.022000 7.000000 1.000000 -12.000000 90.060348 -31.487738 1634.237179 939.670616 21.732081 0.000000 0.106010
138.000000 47.740000 1.000000 2.000000 -12.000000 85.575909 8.596411 812.294757 1025.217694 20.952907 0.000000 0.156567
139.000000 49.746000 1.000000 1.000000 -6.000000 89.809040 2.441940 929.100655 944.590439 10.053338 0.000000 0.167118
140.000000 51.016000 3.000000 2.000000 -12.000000 93.327451 -4.128103 1052.680376 878.261108 19.604845 0.000000 0.169183
141.000000 51.515000 2.000000 1.000000 -6.000000 96.009593 -10.970776 1183.640758 825.585444 9.706745 0.000000 0.161584
142.000000 51.276000 5.000000 2.000000 -12.000000 97.798650 -17.901435 1322.663356 786.092256 19.502999 0.000000 0.143772
143.000000 50.385000 3.000000 1.000000 -6.000000 98.710242 -24.720922 1470.516307 759.470773 9.923706 0.000000 0.116252
144.000000 48.962000 7.000000 2.000000 -12.000000 98.824186 -31.248332 1628.068529 745.562950 20.423872 0.000000 0.083741
145.000000 47.142000 4.000000 1.000000 -6.000000 98.264025 -37.346803 1796.306807 744.360329 10.606087 0.000000 0.070959
146.000000 47.830000 0.000000 1.000000 -4.000000 88.696506 17.446393 636.752512 966.671128 6.970703 0.000000 0.146044
147.000000 50.436000 1.000000 3.000000 -12.000000 93.786252 11.669571 752.706219 868.268676 19.829663 0.000000 0.159853
148.000000 52.388000 2.000000 3.000000 -12.000000 98.289914 5.274524 875.637870 783.512279 19.089492 0.000000 0.167086
149.000000 53.591000 1.000000 1.000000 -4.000000 102.017775 -1.660280 1006.196891 711.781342 6.219842 0.000000 0.165526
150.000000 54.016000 4.000000 3.000000 -12.000000 104.824004 -8.981699 1145.115875 652.612204 18.511582 0.000000 0.153731
151.000000 53.697000 5.000000 3.000000 -12.000000 106.633932 -16.471192 1293.224339 605.688184 18.620789 0.000000 0.130620
152.000000 52.720000 2.000000 1.000000 -4.000000 107.457752 -23.878519 1451.465298 570.833957 6.321706 0.000000 0.095625
153.000000 51.208000 7.000000 3.000000 -12.000000 107.384164 -30.969189 1620.915367 548.014033 19.524984 0.000000 0.051814
154.000000 49.294000 8.000000 3.000000 -12.000000 106.556612 -37.564933 1802.809284 537.335369 20.282922 0.000000 0.048041
155.000000 47.111000 3.000000 1.000000 -4.000000 105.142491 -43.561697 1998.570053 539.054359 7.074434 0.000000 0.123136
156.000000 46.704000 -1.000000 4.000000 -12.000000 90.325459 26.077034 448.263727 934.193344 21.414816 0.000000 0.119982
157.000000 49.749000 0.000000 1.000000 -3.000000 96.101125 20.950867 562.907946 817.811651 5.025582 0.000000 0.133751
158.000000 52.273000 1.000000 4.000000 -12.000000 101.492666 15.093643 684.721626 714.349839 19.129815 0.000000 0.145606
159.000000 54.145000 1.000000 2.000000 -6.000000 106.280059 8.486864 814.399007 623.196066 9.233453 0.000000 0.151046
160.000000 55.279000 3.000000 4.000000 -12.000000 110.248571 1.185521 952.726949 543.879560 18.086741 0.000000 0.147536
161.000000 55.649000 2.000000 2.000000 -6.000000 113.222629 -6.656171 1100.600917 476.062578 8.982742 0.000000 0.133291
162.000000 55.289000 5.000000 4.000000 -12.000000 115.101219 -14.783835 1259.044385 419.536145 18.081902 0.000000 0.106728
163.000000 54.281000 3.000000 2.000000 -6.000000 115.881092 -22.881388 1429.232555 374.219482 9.208511 0.000000 0.066215
164.000000 52.744000 7.000000 4.000000 -12.000000 115.655412 -30.639538 1612.521565 340.163252 18.953838 0.000000 0.010694
165.000000 50.805000 4.000000 2.000000 -6.000000 114.587326 -37.820776 1810.484694 317.556966 9.838532 0.000000 0.065305
166.000000 48.594000 9.000000 4.000000 -12.000000 112.871289 -44.290347 2024.957639 306.741144 20.572920 0.000000 0.160906
168.000000 47.970000 -1.000000 5.000000 -12.000000 96.865922 29.819348 358.117702 791.626099 20.846901 0.000000 0.093165
169.000000 50.888000 0.000000 5.000000 -12.000000 102.914764 24.775775 478.234341 669.184468 19.649498 0.000000 0.103773
170.000000 53.294000 1.000000 5.000000 -12.000000 108.595796 18.903341 606.431977 558.230777 18.760727 0.000000 0.114948
171.000000 55.068000 2.000000 5.000000 -12.000000 113.676839 12.136030 743.554484 458.270252 18.154970 0.000000 0.120450
172.000000 56.132000 3.000000 5.000000 -12.000000 117.918853 4.485521 890.567473 368.925819 17.809372 0.000000 0.117005
173.000000 56.465000 4.000000 5.000000 -12.000000 121.111209 -3.910951 1048.581062 289.934404 17.703472 0.000000 0.102465
174.000000 56.097000 5.000000 5.000000 -12.000000 123.116016 -12.767087 1218.877963 221.146475 17.818898 0.000000 0.075147
175.000000 55.106000 6.000000 5.000000 -12.000000 123.905369 -21.683401 1402.948375 162.528979 18.139113 0.000000 0.035254
176.000000 53.598000 7.000000 5.000000 -12.000000 123.570307 -30.244337 1602.533711 114.172071 18.649185 0.000000 0.038249
177.000000 51.696000 8.000000 5.000000 -12.000000 122.293321 -38.125024 1819.681859 76.300268 19.335598 0.000000 0.116673
178.000000 49.519000 9.000000 5.000000 -12.000000 120.299344 -45.146641 2056.817710 49.288997 20.186092 0.000000 0.223178
180.000000 45.456000 -1.000000 3.000000 -6.000000 96.368086 37.921261 136.486149 788.730469 10.999811 0.000000 0.077458
181.000000 48.573000 -1.000000 6.000000 -12.000000 102.786603 33.810795 254.190078 647.018272 20.585589 0.000000 0.054568
182.000000 51.328000 0.000000 2.000000 -4.000000 109.071292 28.928246 380.161158 515.856773 6.492949 0.000000 0.056598
183.000000 53.590000 1.000000 6.000000 -12.000000 115.022002 23.127897 515.302079 394.707115 18.654951 0.000000 0.068615
184.000000 55.253000 1.000000 3.000000 -6.000000 120.401150 16.281246 660.651912 283.130383 9.045988 0.000000 0.076990
185.000000 56.249000 1.000000 2.000000 -4.000000 124.948787 8.329853 817.412880 180.783488 5.923404 0.000000 0.076363
186.000000 56.559000 2.000000 3.000000 -6.000000 128.415334 -0.637917 986.983688 87.417673 8.835941 0.000000 0.064402
187.000000 56.211000 5.000000 6.000000 -12.000000 130.613667 -10.320898 1171.001369 2.879808 17.780916 0.000000 0.041777
188.000000 53.838000 7.000000 6.000000 -12.000000 131.080059 -29.761925 1590.450078 -139.816430 18.564141 0.000000 0.090574
191.000000 45.688000 -2.000000 7.000000 -12.000000 101.482672 41.871858 10.250188 647.387332 21.885697 0.000000 0.099397
192.000000 48.606000 -1.000000 7.000000 -12.000000 108.054527 38.034623 133.058862 495.564767 20.569279 0.000000 0.052717
193.000000 51.174000 0.000000 7.000000 -12.000000 114.530840 33.402979 265.234378 352.614701 19.535126 0.000000 0.015262
194.000000 53.278000 1.000000 7.000000 -12.000000 120.722639 27.785150 407.890865 218.008260 18.762210 0.000000 0.012844
195.000000 54.824000 2.000000 7.000000 -12.000000 126.395808 20.977860 562.326436 91.289132 18.231542 0.000000 0.029243
196.000000 55.755000 3.000000 7.000000 -12.000000 131.276758 12.820709 730.062806 -27.930539 17.925930 0.000000 0.033384
197.000000 56.053000 4.000000 7.000000 -12.000000 135.076639 3.302423 912.895601 -139.972512 17.829771 0.000000 0.024729
198.000000 55.741000 5.000000 7.000000 -12.000000 137.546089 -7.304316 1112.958893 -245.092947 17.928871 0.000000 0.021461
199.000000 54.879000 6.000000 7.000000 -12.000000 138.555113 -18.389140 1332.808883 -343.480826 18.210291 0.000000 0.065284
202.000000 45.471000 -1.000000 4.000000 -6.000000 105.990265 45.957714 -137.890481 497.344397 10.994096 0.000000 0.173296
203.000000 48.175000 -1.000000 8.000000 -12.000000 112.660206 42.462101 -9.933082 331.902923 20.751836 0.000000 0.129299
204.000000 50.545000 0.000000 4.000000 -6.000000 119.277703 38.178251 128.701264 173.357168 9.888311 0.000000 0.097205
205.000000 52.484000 1.000000 8.000000 -12.000000 125.671964 32.873982 279.407088 21.094691 19.044262 0.000000 0.076839
206.000000 53.913000 1.000000 4.000000 -6.000000 131.622724 26.267022 443.832828 -125.464082 9.269068 0.000000 0.063695
207.000000 54.781000 3.000000 8.000000 -12.000000 136.854736 18.064951 623.941381 -266.874893 18.243102 0.000000 0.049311
208.000000 55.074000 2.000000 4.000000 -6.000000 141.046286 8.086006 822.088829 -403.679083 9.072674 0.000000 0.025165
212.000000 47.381000 -1.000000 9.000000 -12.000000 116.614403 47.052101 -181.290577 149.453950 21.098022 0.000000 0.243056
213.000000 49.553000 0.000000 3.000000 -4.000000 123.317541 43.212890 -36.163367 -29.706370 6.723752 0.000000 0.207973
225.000000 45.744000 0.000000 1.000000 -11.000000 73.275131 11.585275 754.356755 1271.138981 21.872508 0.000000 0.116840
226.000000 48.844000 1.000000 1.000000 -11.000000 78.164658 5.554292 870.335227 1167.606486 20.482392 0.000000 0.138631
227.000000 51.149000 2.000000 1.000000 -11.000000 82.439522 -0.962808 993.087933 1083.872918 19.558056 0.000000 0.153753
228.000000 52.526000 3.000000 1.000000 -11.000000 85.917507 -7.841395 1123.226246 1018.544253 19.043862 0.000000 0.159005
229.000000 52.943000 4.000000 1.000000 -11.000000 88.479891 -14.902865 1261.437391 970.555936 18.892694 0.000000 0.153308
230.000000 52.463000 5.000000 1.000000 -11.000000 90.092340 -21.937984 1408.496580 939.129987 19.064388 0.000000 0.137043
231.000000 51.225000 6.000000 1.000000 -11.000000 90.805348 -28.742074 1565.281566 923.744670 19.524493 0.000000 0.113657
232.000000 49.405000 7.000000 1.000000 -11.000000 90.734947 -35.148357 1732.790170 924.114516 20.243292 0.000000 0.096749
233.000000 47.186000 8.000000 1.000000 -11.000000 90.032951 -41.047062 1912.161545 940.179255 21.195014 0.000000 0.116893
234.000000 46.052000 -1.000000 2.000000 -11.000000 76.569287 20.363814 575.503329 1215.153262 21.724086 0.000000 0.122847
235.000000 49.805000 0.000000 2.000000 -11.000000 82.262638 14.806731 690.495504 1092.258214 20.085447 0.000000 0.142339
236.000000 52.914000 1.000000 2.000000 -11.000000 87.515898 8.587840 812.459444 988.222264 18.903590 0.000000 0.159736
237.000000 55.176000 2.000000 2.000000 -11.000000 92.086883 1.753576 942.048997 901.762442 18.127150 0.000000 0.169288
238.000000 56.464000 3.000000 2.000000 -11.000000 95.761687 -5.572097 1080.002412 831.885506 17.712183 0.000000 0.168351
239.000000 56.753000 4.000000 2.000000 -11.000000 98.395383 -13.185561 1227.156410 777.854203 17.620877 0.000000 0.155518
240.000000 56.115000 5.000000 2.000000 -11.000000 99.941447 -20.828713 1384.463170 739.163708 17.820515 0.000000 0.130246
241.000000 54.695000 6.000000 2.000000 -11.000000 100.456827 -28.237490 1553.010958 715.526722 18.282647 0.000000 0.094332
242.000000 52.678000 7.000000 2.000000 -11.000000 100.080394 -35.193147 1734.049331 706.866358 18.982412 0.000000 0.064107
243.000000 50.254000 8.000000 2.000000 -11.000000 98.995613 -41.553569 1929.020179 713.316412 19.897996 0.000000 0.096388
244.000000 47.594000 9.000000 2.000000 -11.000000 97.393397 -47.256563 2139.596203 735.229159 21.010174 0.000000 0.186312
245.000000 49.119000 -1.000000 3.000000 -11.000000 84.694553 23.951806 496.887290 1050.365798 20.364337 0.000000 0.127575
246.000000 52.836000 0.000000 3.000000 -11.000000 90.769732 18.371152 617.566313 925.763266 18.929704 0.000000 0.144487
247.000000 55.883000 1.000000 3.000000 -11.000000 96.386598 12.006537 746.098240 817.834790 17.895949 0.000000 0.158564
248.000000 58.065000 2.000000 3.000000 -11.000000 101.275589 4.871127 883.275361 725.634152 17.221944 0.000000 0.164533
249.000000 59.265000 3.000000 3.000000 -11.000000 105.187746 -2.925356 1030.000258 648.443248 16.872002 0.000000 0.159606
250.000000 59.462000 4.000000 3.000000 -11.000000 107.943226 -11.158690 1187.305687 585.753532 16.815003 0.000000 0.141906
251.000000 58.731000 5.000000 3.000000 -11.000000 109.472754 -19.511500 1356.378919 537.254827 17.023691 0.000000 0.109940
252.000000 57.216000 6.000000 3.000000 -11.000000 109.832089 -27.638396 1538.591767 502.830974 17.474087 0.000000 0.063300
253.000000 55.100000 7.000000 3.000000 -11.000000 109.180642 -35.246034 1735.537884 482.562240 18.145015 0.000000 0.029798
254.000000 52.572000 8.000000 3.000000 -11.000000 107.735447 -42.146066 1949.079501 476.734878 19.017701 0.000000 0.104994
255.000000 49.803000 9.000000 3.000000 -11.000000 105.722926 -48.262286 2181.406489 485.858701 20.075444 0.000000 0.218054
257.000000 47.169000 -2.000000 4.000000 -11.000000 85.609406 32.555192 287.866477 1039.043885 21.205077 0.000000 0.108008
258.000000 51.221000 -1.000000 4.000000 -11.000000 92.226341 27.836856 406.649307 893.681773 19.525598 0.000000 0.111146
259.000000 54.818000 0.000000 4.000000 -11.000000 98.651247 22.304072 533.490183 763.998179 18.242402 0.000000 0.124865
260.000000 57.742000 1.000000 4.000000 -11.000000 104.623170 15.859205 669.237863 649.069511 17.316896 0.000000 0.137095
261.000000 59.815000 2.000000 4.000000 -11.000000 109.849925 8.462614 814.864641 548.173442 16.715340 0.000000 0.141577
262.000000 60.930000 3.000000 4.000000 -11.000000 114.045591 0.186869 971.489674 460.773803 16.408110 0.000000 0.134941
263.000000 61.072000 4.000000 4.000000 -11.000000 116.985403 -8.737013 1140.407801 386.511716 16.369085 0.000000 0.114789
264.000000 60.311000 5.000000 4.000000 -11.000000 118.562899 -17.923706 1323.125416 325.202706 16.575147 0.000000 0.078899
265.000000 58.783000 6.000000 4.000000 -11.000000 118.821103 -26.915674 1521.405522 276.839901 17.005761 0.000000 0.025086
266.000000 56.661000 7.000000 4.000000 -11.000000 117.936097 -35.309430 1737.324798 241.603866 17.642624 0.000000 0.051279
267.000000 54.125000 8.000000 4.000000 -11.000000 116.161047 -42.848315 1973.346611 219.880115 18.469368 0.000000 0.151605
270.000000 48.540000 -2.000000 5.000000 -11.000000 92.173440 36.532206 177.647508 890.164570 20.603285 0.000000 0.088834
271.000000 52.409000 -1.000000 5.000000 -11.000000 99.066177 32.017231 302.006548 738.446507 19.080149 0.000000 0.076123
272.000000 55.820000 0.000000 5.000000 -11.000000 105.797634 26.622637 435.499994 600.373241 17.912255 0.000000 0.084431
273.000000 58.577000 1.000000 5.000000 -11.000000 112.106531 20.191944 579.172627 475.191428 17.067664 0.000000 0.096652
274.000000 60.520000 2.000000 5.000000 -11.000000 117.686107 12.609372 734.234875 362.308326 16.518155 0.000000 0.102420
275.000000 61.557000 3.000000 5.000000 -11.000000 122.214623 3.875022 902.097000 261.283702 16.238698 0.000000 0.097013
276.000000 61.674000 4.000000 5.000000 -11.000000 125.412269 -5.804538 1084.412115 171.826754 16.207016 0.000000 0.077740
277.000000 60.935000 5.000000 5.000000 -11.000000 127.116460 -15.975815 1283.130803 93.798223 16.403216 0.000000 0.044331
278.000000 59.461000 6.000000 5.000000 -11.000000 127.340279 -26.026974 1500.571186 27.218266 16.809482 0.000000 0.036310
279.000000 57.411000 7.000000 5.000000 -11.000000 126.270325 -35.386813 1739.509768 -27.718892 17.409804 0.000000 0.111143
282.000000 49.164000 -2.000000 6.000000 -11.000000 98.050080 40.706853 49.016874 740.193359 20.339230 0.000000 0.091056
283.000000 52.794000 -1.000000 6.000000 -11.000000 105.152449 36.478442 179.210663 578.519279 18.938864 0.000000 0.044623
284.000000 55.975000 0.000000 6.000000 -11.000000 112.137162 31.330022 319.830123 428.405629 17.860643 0.000000 0.024566
285.000000 58.535000 1.000000 6.000000 -11.000000 118.753646 25.040912 472.179787 289.167112 17.077671 0.000000 0.038671
286.000000 60.338000 2.000000 6.000000 -11.000000 124.692342 17.396050 637.791306 160.240106 16.565964 0.000000 0.050756
287.000000 61.303000 3.000000 6.000000 -11.000000 129.602138 8.274484 818.475121 41.177126 16.304067 0.000000 0.050389
288.000000 61.418000 4.000000 6.000000 -11.000000 133.140590 -2.202119 1016.386920 -68.354922 16.272730 0.000000 0.036386
289.000000 60.737000 5.000000 6.000000 -11.000000 135.065319 -13.536167 1234.114055 -168.572373 16.454631 0.000000 0.031013
290.000000 59.368000 6.000000 6.000000 -11.000000 135.333419 -24.908326 1474.789282 -259.567635 16.834141 0.000000 0.084238
293.000000 45.531000 -3.000000 7.000000 -11.000000 96.080560 48.196505 -228.621876 768.997095 21.962364 0.000000 0.213205
294.000000 49.158000 -2.000000 7.000000 -11.000000 103.217445 45.046940 -103.059266 583.210109 20.339744 0.000000 0.150779
295.000000 52.514000 -1.000000 7.000000 -11.000000 110.458549 41.190545 33.089280 407.431773 19.037653 0.000000 0.099967
296.000000 55.442000 0.000000 7.000000 -11.000000 117.634100 36.409174 181.221399 240.838736 18.030442 0.000000 0.063663
297.000000 57.793000 1.000000 7.000000 -11.000000 124.515297 30.421769 342.992086 82.689193 17.295131 0.000000 0.045072
298.000000 59.453000 2.000000 7.000000 -11.000000 130.804972 22.899083 520.375797 -67.688388 16.811067 0.000000 0.038746
299.000000 60.351000 3.000000 7.000000 -11.000000 136.136830 13.543136 715.747434 -210.905146 16.559635 0.000000 0.029116
300.000000 60.478000 4.000000 7.000000 -11.000000 140.105684 2.288428 931.989286 -347.520657 16.524016 0.000000 0.004062
304.000000 48.648000 -2.000000 8.000000 -11.000000 107.681446 49.510217 -285.633796 412.586718 20.551372 0.000000 0.261063
305.000000 51.718000 -1.000000 8.000000 -11.000000 114.988527 46.106807 -143.701210 217.489023 19.329251 0.000000 0.212161
306.000000 54.386000 0.000000 8.000000 -11.000000 122.284816 41.817235 12.099129 28.577845 18.379149 0.000000 0.174802
307.000000 56.527000 1.000000 8.000000 -11.000000 129.372627 36.316565 183.904069 -155.133447 17.681191 0.000000 0.146187
319.000000 45.654000 3.000000 -1.000000 -10.000000 65.501383 -13.498998 1233.375482 1445.398694 21.918436 0.000000 0.086024
320.000000 46.255000 4.000000 -1.000000 -10.000000 68.013702 -20.186661 1370.714717 1403.991749 21.632106 0.000000 0.106177
321.000000 45.912000 5.000000 -1.000000 -10.000000 69.715516 -26.710709 1516.571704 1386.323682 21.792293 0.000000 0.120637
322.000000 48.471000 1.000000 0.000000 -10.000000 68.940646 2.254284 932.631685 1355.751399 20.643881 0.000000 0.095097
323.000000 51.113000 2.000000 0.000000 -10.000000 73.236960 -4.616549 1061.909473 1266.250185 19.575190 0.000000 0.119294
324.000000 52.611000 3.000000 0.000000 -10.000000 76.673599 -11.770355 1199.268466 1201.424839 19.016233 0.000000 0.132318
325.000000 52.940000 4.000000 0.000000 -10.000000 79.140765 -18.994908 1345.490850 1159.357684 18.896781 0.000000 0.133589
326.000000 52.213000 2.000000 0.000000 -4.000000 80.632403 -26.065301 1501.463123 1138.656984 7.663576 0.000000 0.126227
327.000000 50.637000 6.000000 0.000000 -10.000000 81.235355 -32.783814 1668.194079 1138.377542 19.754555 0.000000 0.120155
328.000000 48.456000 7.000000 0.000000 -10.000000 81.097347 -39.008703 1846.836652 1157.966959 20.643249 0.000000 0.135763
329.000000 45.903000 8.000000 0.000000 -10.000000 80.389450 -44.663201 2038.714617 1197.232172 21.790909 0.000000 0.189864
330.000000 46.307000 -1.000000 1.000000 -10.000000 68.311284 17.899525 627.376269 1390.837492 21.607987 0.000000 0.099485
331.000000 50.813000 0.000000 1.000000 -10.000000 74.190734 11.892815 748.330185 1252.433555 19.690189 0.000000 0.120489
332.000000 54.524000 1.000000 1.000000 -10.000000 79.578175 5.207618 876.905265 1139.781288 18.348259 0.000000 0.143647
333.000000 57.146000 2.000000 1.000000 -10.000000 84.188667 -2.067002 1013.845239 1050.612395 17.504857 0.000000 0.158040
334.000000 58.509000 3.000000 1.000000 -10.000000 87.787041 -9.752724 1159.993864 983.200743 17.095898 0.000000 0.160027
335.000000 58.601000 4.000000 1.000000 -10.000000 90.239685 -17.594760 1316.312325 936.276539 17.067831 0.000000 0.148582
336.000000 57.561000 5.000000 1.000000 -10.000000 91.541284 -25.306023 1483.900396 908.966134 17.375558 0.000000 0.125104
337.000000 55.621000 6.000000 1.000000 -10.000000 91.803885 -32.626570 1664.022357 900.751994 17.980830 0.000000 0.098655
338.000000 53.053000 7.000000 1.000000 -10.000000 91.215931 -39.370135 1858.138943 911.449371 18.850995 0.000000 0.102405
339.000000 50.110000 8.000000 1.000000 -10.000000 89.992616 -45.439838 2067.947049 941.197678 19.958011 0.000000 0.166776
340.000000 47.003000 9.000000 1.000000 -10.000000 88.336733 -50.816205 2295.429463 990.465876 21.277656 0.000000 0.277178
341.000000 45.892000 -1.000000 1.000000 -5.000000 71.053362 26.861861 429.865284 1355.166089 10.900772 0.000000 0.116899
342.000000 50.975000 -1.000000 2.000000 -10.000000 77.643597 21.577210 549.360094 1194.548178 19.625753 0.000000 0.123869
343.000000 55.545000 0.000000 1.000000 -5.000000 84.007603 15.491280 676.693584 1058.237810 9.004527 0.000000 0.144580
344.000000 59.250000 1.000000 2.000000 -10.000000 89.832338 8.577233 812.663219 944.185135 16.881271 0.000000 0.162493
345.000000 61.799000 1.000000 1.000000 -5.000000 94.789711 0.895412 958.178433 850.804662 8.091750 0.000000 0.170414
346.000000 63.031000 3.000000 2.000000 -10.000000 98.597900 -7.373549 1114.280998 776.909206 15.865936 0.000000 0.165107
347.000000 62.947000 2.000000 1.000000 -5.000000 101.087403 -15.928530 1282.170003 721.663728 7.943088 0.000000 0.144829
348.000000 61.695000 5.000000 2.000000 -10.000000 102.242535 -24.400175 1463.232711 684.555422 16.207898 0.000000 0.109229
349.000000 59.520000 3.000000 1.000000 -5.000000 102.195427 -32.439674 1659.082989 665.377874 8.399905 0.000000 0.065587
350.000000 56.702000 7.000000 2.000000 -10.000000 101.176399 -39.796070 1871.609533 664.228258 17.634800 0.000000 0.075053
351.000000 53.503000 4.000000 1.000000 -5.000000 99.449019 -46.344668 2103.036984 681.517570 9.344636 0.000000 0.168271
352.000000 50.142000 9.000000 2.000000 -10.000000 97.258530 -52.068706 2356.004088 717.995009 19.942584 0.000000 0.303129
354.000000 49.344000 -2.000000 3.000000 -10.000000 79.350306 30.780445 333.897620 1176.573505 20.272848 0.000000 0.117737
355.000000 54.398000 -1.000000 3.000000 -10.000000 86.388084 25.600313 459.318963 1016.335062 18.387409 0.000000 0.123421
356.000000 58.893000 0.000000 3.000000 -10.000000 93.205585 19.511348 593.624280 877.048147 16.981980 0.000000 0.140829
357.000000 62.493000 1.000000 3.000000 -10.000000 99.466824 12.428901 737.792146 757.223688 16.002147 0.000000 0.155134
358.000000 64.924000 2.000000 3.000000 -10.000000 104.804263 4.359425 892.950337 655.719759 15.401420 0.000000 0.159280
359.000000 66.041000 3.000000 3.000000 -10.000000 108.882817 -4.536990 1060.405389 571.705481 15.139843 0.000000 0.149605
360.000000 65.850000 4.000000 3.000000 -10.000000 111.481115 -13.916230 1241.679478 504.638245 15.182884 0.000000 0.123523
361.000000 64.498000 5.000000 3.000000 -10.000000 112.555899 -23.301405 1438.556825 454.252897 15.500546 0.000000 0.078790
362.000000 62.225000 6.000000 3.000000 -10.000000 112.249994 -32.213871 1653.142620 420.562539 16.066643 0.000000 0.019475
363.000000 59.304000 7.000000 3.000000 -10.000000 110.835919 -40.305408 1887.938596 403.871470 16.858218 0.000000 0.085441
364.000000 55.994000 8.000000 3.000000 -10.000000 108.630885 -47.411699 2145.941012 404.801864 17.855058 0.000000 0.207901
366.000000 46.530000 -3.000000 4.000000 -10.000000 79.626276 39.116533 99.803555 1194.944880 21.498151 0.000000 0.140997
367.000000 51.679000 -1.000000 2.000000 -5.000000 86.965515 34.960509 222.475660 1010.618668 9.677018 0.000000 0.103687
368.000000 56.561000 -1.000000 4.000000 -10.000000 94.380373 29.974468 354.240539 845.824655 17.681312 0.000000 0.098316
369.000000 60.863000 0.000000 2.000000 -5.000000 101.602876 23.984664 496.148071 699.127564 8.214761 0.000000 0.111157
370.000000 64.277000 1.000000 4.000000 -10.000000 108.287530 16.830797 649.416238 569.391320 15.555159 0.000000 0.124009
371.000000 66.559000 1.000000 2.000000 -5.000000 114.035927 8.431284 815.466163 455.749647 7.510258 0.000000 0.127409
372.000000 67.579000 3.000000 4.000000 -10.000000 118.455648 -1.115986 995.966316 357.587520 14.792748 0.000000 0.116644
373.000000 67.346000 2.000000 2.000000 -5.000000 121.254078 -11.444486 1192.888766 274.532689 7.421553 0.000000 0.088453
374.000000 65.996000 5.000000 4.000000 -10.000000 122.335357 -21.941875 1408.581532 206.457266 15.146330 0.000000 0.040635
375.000000 63.749000 3.000000 2.000000 -5.000000 121.837822 -31.935610 1645.862650 153.490210 7.840062 0.000000 0.040763
376.000000 60.860000 7.000000 4.000000 -10.000000 120.076224 -40.925192 1908.143982 116.042533 16.424742 0.000000 0.143477
379.000000 48.064000 -3.000000 5.000000 -10.000000 86.201390 43.224512 -36.574448 1039.069904 20.808951 0.000000 0.153191
380.000000 52.966000 -2.000000 5.000000 -10.000000 93.800136 39.380365 91.539444 848.510363 18.881080 0.000000 0.092868
381.000000 57.569000 -1.000000 5.000000 -10.000000 101.507930 34.690062 230.014664 674.497586 17.369152 0.000000 0.057036
382.000000 64.768000 1.000000 5.000000 -10.000000 116.151699 21.845584 543.519400 371.638276 15.435119 0.000000 0.070827
383.000000 66.880000 2.000000 5.000000 -10.000000 122.334676 13.232492 721.913442 241.100089 14.946135 0.000000 0.077990
384.000000 67.820000 3.000000 5.000000 -10.000000 127.172526 3.057040 917.519311 123.698247 14.737889 0.000000 0.070621
385.000000 67.596000 4.000000 5.000000 -10.000000 130.280810 -8.348984 1132.954212 19.085188 14.786033 0.000000 0.046784
386.000000 64.202000 6.000000 5.000000 -10.000000 130.866249 -31.584229 1636.732356 -152.130352 15.567406 0.000000 0.106095
389.000000 48.775000 -3.000000 6.000000 -10.000000 92.040779 47.463314 -198.060290 884.271485 20.503456 0.000000 0.203227
390.000000 53.347000 -1.000000 3.000000 -5.000000 99.803189 44.004525 -64.529581 682.451554 9.371965 0.000000 0.131724
391.000000 57.603000 -1.000000 6.000000 -10.000000 107.711189 39.717648 80.883118 494.146520 17.356717 0.000000 0.072465
392.000000 61.300000 0.000000 3.000000 -5.000000 115.537335 34.335015 239.837601 318.263272 8.154064 0.000000 0.028223
393.000000 64.205000 1.000000 6.000000 -10.000000 122.967818 27.516699 414.317901 153.861393 15.568418 0.000000 0.017230
394.000000 66.142000 1.000000 3.000000 -5.000000 129.593747 18.889830 606.715529 0.137585 7.555613 0.000000 0.028121
395.000000 67.016000 3.000000 6.000000 -10.000000 134.925579 8.198116 819.939748 -143.585378 14.913112 0.000000 0.023689
396.000000 66.833000 2.000000 3.000000 -5.000000 138.471122 -4.386736 1057.565704 -277.865261 7.476577 0.000000 0.015228
397.000000 65.692000 5.000000 6.000000 -10.000000 139.909923 -17.967602 1324.036498 -403.142279 15.212626 0.000000 0.070719
400.000000 48.798000 -3.000000 7.000000 -10.000000 97.135421 51.791134 -392.290655 723.168543 20.491485 0.000000 0.304810
401.000000 52.996000 -2.000000 7.000000 -10.000000 104.966780 48.783708 -253.735881 504.329832 18.866003 0.000000 0.234496
402.000000 56.873000 -1.000000 7.000000 -10.000000 112.978539 45.004902 -101.478457 295.520183 17.577623 0.000000 0.178565
403.000000 60.223000 0.000000 7.000000 -10.000000 120.977514 40.163979 66.620087 95.505781 16.598032 0.000000 0.138052
404.000000 62.852000 1.000000 7.000000 -10.000000 128.690720 33.848355 253.167619 -96.896318 15.901999 0.000000 0.110537
405.000000 64.615000 2.000000 7.000000 -10.000000 135.741665 25.511114 461.377678 -282.848541 15.466970 0.000000 0.087466
417.000000 48.496000 2.000000 -1.000000 -9.000000 61.766165 -8.514651 1136.134627 1525.363338 20.635411 0.000000 0.056460
418.000000 50.172000 3.000000 -1.000000 -9.000000 65.195344 -15.894334 1281.475416 1458.197193 19.944574 0.000000 0.089446
419.000000 50.489000 4.000000 -1.000000 -9.000000 67.648172 -23.212917 1436.587573 1422.540617 19.817796 0.000000 0.111313
420.000000 49.621000 5.000000 -1.000000 -9.000000 69.145455 -30.242631 1602.490779 1415.613495 20.163281 0.000000 0.130603
421.000000 47.851000 6.000000 -1.000000 -9.000000 69.802156 -36.806168 1780.351706 1435.529264 20.908126 0.000000 0.160776
422.000000 45.488000 7.000000 -1.000000 -9.000000 69.784064 -42.795760 1971.511492 1481.133323 21.993699 0.000000 0.215220
423.000000 51.496000 -1.000000 1.000000 -9.000000 68.693654 18.916392 606.158062 1384.731718 19.430351 0.000000 0.101868
424.000000 57.115000 0.000000 1.000000 -9.000000 75.305346 12.272998 740.861190 1229.854708 17.517163 0.000000 0.124612
425.000000 61.632000 1.000000 1.000000 -9.000000 81.301406 4.774497 885.103483 1106.242535 16.231701 0.000000 0.149178
426.000000 64.608000 2.000000 1.000000 -9.000000 86.288307 -3.452607 1039.935428 1010.948362 15.482371 0.000000 0.162040
427.000000 65.827000 3.000000 1.000000 -9.000000 89.957997 -12.142243 1206.567632 941.807085 15.194575 0.000000 0.159007
428.000000 65.339000 4.000000 1.000000 -9.000000 92.171639 -20.918848 1386.402546 897.306508 15.306939 0.000000 0.139302
429.000000 63.424000 5.000000 1.000000 -9.000000 92.989069 -29.384375 1581.074025 876.501877 15.768509 0.000000 0.107369
430.000000 60.477000 6.000000 1.000000 -9.000000 92.627990 -37.218413 1792.497112 878.964448 16.536630 0.000000 0.090854
431.000000 56.902000 7.000000 1.000000 -9.000000 91.382029 -44.235022 2022.931253 904.758747 17.575323 0.000000 0.145900
432.000000 53.044000 8.000000 1.000000 -9.000000 89.543542 -50.379336 2275.061354 954.446228 18.854025 0.000000 0.263953
434.000000 50.654000 -2.000000 2.000000 -9.000000 71.458447 28.776090 383.886970 1352.851735 19.751495 0.000000 0.120767
435.000000 56.999000 -1.000000 2.000000 -9.000000 78.906105 23.065856 516.679485 1170.379136 17.550827 0.000000 0.124134
436.000000 62.679000 0.000000 2.000000 -9.000000 86.112268 16.346923 659.312479 1017.224212 15.958653 0.000000 0.146072
437.000000 67.159000 1.000000 2.000000 -9.000000 92.643989 8.563770 812.921871 890.737316 14.892458 0.000000 0.164359
438.000000 70.013000 2.000000 2.000000 -9.000000 98.042036 -0.203642 978.825406 788.930414 14.284002 0.000000 0.169658
439.000000 71.040000 3.000000 2.000000 -9.000000 101.926815 -9.678596 1158.560555 710.380519 14.076362 0.000000 0.157838
440.000000 70.310000 4.000000 2.000000 -9.000000 104.110450 -19.395702 1353.932302 654.166370 14.221675 0.000000 0.126614
441.000000 68.115000 5.000000 2.000000 -9.000000 104.652132 -28.815376 1567.073973 619.832549 14.679409 0.000000 0.076917
442.000000 64.864000 6.000000 2.000000 -9.000000 103.817957 -37.488466 1800.525456 607.378103 15.415008 0.000000 0.053171
443.000000 60.973000 7.000000 2.000000 -9.000000 101.974398 -45.160334 2057.334892 617.269166 16.398832 0.000000 0.147371
444.000000 56.796000 8.000000 2.000000 -9.000000 99.483228 -51.768758 2341.192511 650.477485 17.605310 0.000000 0.296501
446.000000 48.048000 -1.000000 1.000000 -3.000000 72.531792 37.753731 141.531817 1369.379100 6.940477 0.000000 0.158076
447.000000 54.542000 -2.000000 3.000000 -9.000000 80.376314 33.170520 271.483421 1159.027761 18.340199 0.000000 0.117444
448.000000 60.801000 -1.000000 3.000000 -9.000000 88.350448 27.633147 411.533865 975.985845 16.450267 0.000000 0.116288
449.000000 70.633000 1.000000 3.000000 -9.000000 103.166598 12.973768 727.036864 682.623745 14.156878 0.000000 0.148282
450.000000 73.315000 2.000000 3.000000 -9.000000 109.028773 3.689162 905.603617 569.026666 13.637681 0.000000 0.149818
451.000000 73.359000 4.000000 3.000000 -9.000000 115.480477 -17.502498 1314.405875 403.185316 13.627639 0.000000 0.094858
452.000000 71.076000 5.000000 3.000000 -9.000000 115.833324 -28.107860 1549.877385 350.255440 14.065099 0.000000 0.030662
453.000000 63.754000 7.000000 3.000000 -9.000000 112.188900 -46.279712 2100.479473 305.838719 15.680785 0.000000 0.198049
455.000000 50.691000 -3.000000 4.000000 -9.000000 80.202370 42.109393 2.172934 1191.533749 19.732852 0.000000 0.164419
456.000000 56.961000 -2.000000 4.000000 -9.000000 88.429023 37.858087 138.391514 978.386661 17.558673 0.000000 0.104169
457.000000 62.928000 -1.000000 4.000000 -9.000000 96.823124 32.617734 286.211628 788.105412 15.891449 0.000000 0.080688
458.000000 68.143000 0.000000 4.000000 -9.000000 105.042447 26.123502 447.181324 618.843842 14.673242 0.000000 0.089935
459.000000 72.161000 1.000000 4.000000 -9.000000 112.620853 18.103651 623.136893 469.164496 13.854618 0.000000 0.104044
460.000000 74.640000 2.000000 4.000000 -9.000000 118.997939 8.389240 816.273225 337.998691 13.393144 0.000000 0.106517
461.000000 75.428000 3.000000 4.000000 -9.000000 123.614016 -2.884767 1029.235838 224.624414 13.252187 0.000000 0.090386
462.000000 74.593000 4.000000 4.000000 -9.000000 126.081692 -15.091877 1265.242788 128.661461 13.399962 0.000000 0.052265
463.000000 72.384000 5.000000 4.000000 -9.000000 126.360300 -27.204560 1528.248405 50.084935 13.808749 0.000000 0.036486
464.000000 69.152000 6.000000 4.000000 -9.000000 124.781322 -38.239645 1823.166643 -10.739724 14.454268 0.000000 0.137068
466.000000 46.277000 -4.000000 5.000000 -9.000000 78.961145 49.719383 -294.993345 1265.760497 21.614771 0.000000 0.295317
467.000000 52.167000 -3.000000 5.000000 -9.000000 87.029616 46.626874 -164.219176 1022.323071 19.171817 0.000000 0.200706
468.000000 58.051000 -2.000000 5.000000 -9.000000 95.509730 42.800570 -21.679327 799.502719 17.226311 0.000000 0.120230
469.000000 63.586000 -1.000000 5.000000 -9.000000 104.200339 37.993981 134.288819 595.409856 15.724597 0.000000 0.055432
470.000000 68.379000 0.000000 5.000000 -9.000000 112.789870 31.876558 305.676630 408.481119 14.620467 0.000000 0.017640
471.000000 72.050000 1.000000 5.000000 -9.000000 120.836534 24.040559 494.889699 237.440697 13.873914 0.000000 0.035377
472.000000 74.313000 2.000000 5.000000 -9.000000 127.766832 14.089589 704.861455 81.274298 13.450123 0.000000 0.046785
473.000000 75.041000 3.000000 5.000000 -9.000000 132.930754 1.904748 939.206345 -60.785007 13.318656 0.000000 0.037462
474.000000 74.290000 4.000000 5.000000 -9.000000 135.775723 -11.931540 1202.429631 -189.258701 13.452789 0.000000 0.029046
475.000000 72.268000 5.000000 5.000000 -9.000000 136.120964 -26.011871 1500.219857 -304.410706 13.828955 0.000000 0.098205
478.000000 52.645000 -1.000000 2.000000 -3.000000 92.976306 51.256683 -366.355358 851.583269 6.331790 0.000000 0.291396
479.000000 58.047000 -2.000000 6.000000 -9.000000 101.579866 47.940624 -217.857632 611.790801 17.225539 0.000000 0.208546
480.000000 63.073000 -1.000000 6.000000 -9.000000 110.435553 43.705014 -53.709361 386.252527 15.850487 0.000000 0.142704
481.000000 70.694000 1.000000 6.000000 -9.000000 127.717275 30.831349 332.601437 -28.364131 14.138395 0.000000 0.072026
482.000000 72.741000 2.000000 6.000000 -9.000000 135.209776 20.991788 562.026328 -220.276347 13.739153 0.000000 0.054807
494.000000 50.354000 1.000000 -1.000000 -8.000000 56.540282 -2.514997 1022.274278 1652.981746 19.875595 0.000000 0.012062
495.000000 53.868000 2.000000 -1.000000 -8.000000 61.177193 -10.601093 1176.444257 1543.540080 18.577403 0.000000 0.059325
496.000000 55.490000 3.000000 -1.000000 -8.000000 64.695286 -18.825256 1341.929948 1478.629671 18.033039 0.000000 0.095014
497.000000 55.287000 4.000000 -1.000000 -8.000000 67.008666 -26.857197 1520.024635 1452.881676 18.098061 0.000000 0.120803
498.000000 53.611000 5.000000 -1.000000 -8.000000 68.203933 -34.409872 1712.226485 1462.688335 18.662712 0.000000 0.151161
499.000000 50.935000 6.000000 -1.000000 -8.000000 68.481594 -41.291982 1920.280797 1505.795862 19.642101 0.000000 0.204590
500.000000 47.710000 7.000000 -1.000000 -8.000000 68.081093 -47.418820 2146.233155 1581.050682 20.969536 0.000000 0.293886
501.000000 49.267000 -1.000000 0.000000 -8.000000 57.214901 15.928090 667.838943 1661.906059 20.313185 0.000000 0.078024
502.000000 56.072000 0.000000 0.000000 -4.000000 63.980294 8.677190 810.742323 1472.485479 8.923335 0.000000 0.067290
503.000000 61.539000 1.000000 0.000000 -8.000000 70.085762 0.573165 964.232809 1330.935133 16.259620 0.000000 0.101999
504.000000 65.013000 1.000000 0.000000 -4.000000 75.071962 -8.170575 1129.532189 1230.886347 7.694684 0.000000 0.127320
505.000000 66.204000 3.000000 0.000000 -8.000000 78.616960 -17.194609 1308.057771 1167.825144 15.111032 0.000000 0.134279
506.000000 62.673000 5.000000 0.000000 -8.000000 81.263762 -34.390408 1711.689446 1141.425691 15.960546 0.000000 0.121086
507.000000 59.016000 3.000000 0.000000 -4.000000 80.803935 -41.909652 1941.030952 1175.138678 8.474652 0.000000 0.157751
508.000000 54.829000 7.000000 0.000000 -8.000000 79.584278 -48.516112 2192.218933 1239.670677 18.243184 0.000000 0.255601
511.000000 50.026000 -2.000000 1.000000 -8.000000 61.356824 26.500488 438.368011 1597.885914 20.002948 0.000000 0.124760
512.000000 57.955000 -1.000000 1.000000 -8.000000 69.143735 20.181902 579.386747 1377.879233 17.264698 0.000000 0.104600
513.000000 65.150000 0.000000 1.000000 -8.000000 76.691238 12.754960 731.361518 1202.040625 15.356381 0.000000 0.129249
514.000000 70.756000 1.000000 1.000000 -8.000000 83.447114 4.218064 895.620725 1064.970504 14.137986 0.000000 0.155169
515.000000 74.096000 2.000000 1.000000 -8.000000 88.847312 -5.240446 1073.716566 962.746924 13.499319 0.000000 0.165124
516.000000 74.904000 3.000000 1.000000 -8.000000 92.483769 -15.202556 1267.474239 892.620404 13.352464 0.000000 0.154199
517.000000 73.394000 4.000000 1.000000 -8.000000 94.243575 -25.094833 1479.054729 852.814827 13.626431 0.000000 0.122600
518.000000 70.115000 5.000000 1.000000 -8.000000 94.324166 -34.366704 1711.035741 842.406104 14.263260 0.000000 0.086722
519.000000 65.727000 6.000000 1.000000 -8.000000 93.118857 -42.652277 1966.517239 861.262480 15.215172 0.000000 0.121977
520.000000 60.822000 7.000000 1.000000 -8.000000 91.063404 -49.814156 2249.260777 910.038939 16.442422 0.000000 0.247802
522.000000 48.195000 -3.000000 2.000000 -8.000000 63.554450 36.202940 187.186853 1604.433059 20.761099 0.000000 0.184495
523.000000 56.401000 -1.000000 1.000000 -4.000000 71.869187 31.117712 325.283911 1352.663283 8.869248 0.000000 0.126651
524.000000 64.513000 -1.000000 2.000000 -8.000000 80.404904 24.932482 474.659002 1141.645969 15.506112 0.000000 0.123055
525.000000 77.251000 1.000000 2.000000 -8.000000 96.123864 8.546115 813.261017 824.227334 12.945931 0.000000 0.164457
526.000000 80.918000 3.000000 2.000000 -8.000000 105.854885 -12.720869 1217.965360 627.633788 12.356986 0.000000 0.143646
527.000000 75.439000 5.000000 2.000000 -8.000000 107.054377 -34.337204 1710.222717 541.144635 13.253474 0.000000 0.036858
528.000000 65.363000 7.000000 2.000000 -8.000000 102.276038 -51.371806 2321.890693 565.840451 15.297102 0.000000 0.289864
530.000000 52.636000 -3.000000 3.000000 -8.000000 72.589401 40.832386 44.905544 1387.071154 19.006235 0.000000 0.184940
531.000000 60.768000 -2.000000 3.000000 -8.000000 81.479744 36.095931 190.269775 1140.549441 16.460793 0.000000 0.120366
532.000000 68.677000 -1.000000 3.000000 -8.000000 90.634857 30.194964 348.708399 927.201614 14.563059 0.000000 0.104780
533.000000 75.618000 0.000000 3.000000 -8.000000 99.586581 22.822578 522.068387 743.777222 13.224343 0.000000 0.120936
534.000000 80.820000 1.000000 3.000000 -8.000000 107.681651 13.703314 712.561789 587.837829 12.371440 0.000000 0.135853
535.000000 83.707000 2.000000 3.000000 -8.000000 114.159240 2.773435 922.860624 457.648038 11.943392 0.000000 0.133712
536.000000 84.084000 3.000000 3.000000 -8.000000 118.349044 -9.557631 1156.222994 352.111992 11.889032 0.000000 0.107012
537.000000 82.172000 4.000000 3.000000 -8.000000 119.947007 -22.311056 1416.663094 270.750558 12.165090 0.000000 0.049903
538.000000 78.496000 5.000000 3.000000 -8.000000 119.171126 -34.299487 1709.184052 213.719413 12.734729 0.000000 0.047224
539.000000 73.686000 6.000000 3.000000 -8.000000 116.626104 -44.700551 2040.102458 181.873614 13.566392 0.000000 0.189504
541.000000 47.897000 -1.000000 1.000000 -2.000000 71.966559 49.066614 -266.046097 1475.819797 5.221513 0.000000 0.318410
542.000000 55.432000 -3.000000 4.000000 -8.000000 80.681870 45.664169 -126.540720 1193.695782 18.044626 0.000000 0.208979
543.000000 63.169000 -1.000000 2.000000 -4.000000 89.974485 41.395733 26.261400 941.638920 7.916099 0.000000 0.120737
544.000000 70.577000 -1.000000 4.000000 -8.000000 99.583184 35.953633 194.356432 716.517784 14.168372 0.000000 0.062817
545.000000 81.752000 1.000000 4.000000 -8.000000 117.799026 19.841474 586.629921 337.745792 12.228086 0.000000 0.073704
546.000000 84.696000 3.000000 4.000000 -8.000000 129.680633 -5.417618 1077.073686 44.050985 11.800948 0.000000 0.054058
547.000000 79.455000 5.000000 4.000000 -8.000000 130.470421 -34.249563 1707.810675 -169.922158 12.578911 0.000000 0.131698
549.000000 56.752000 -3.000000 5.000000 -8.000000 87.736211 50.639457 -337.143352 1008.088085 17.622493 0.000000 0.284944
550.000000 63.882000 -2.000000 5.000000 -8.000000 97.247932 46.950933 -177.204455 740.476177 15.653340 0.000000 0.186249
551.000000 70.607000 -1.000000 5.000000 -8.000000 107.125687 42.150302 0.775745 493.676764 14.160094 0.000000 0.106734
552.000000 76.368000 0.000000 5.000000 -8.000000 116.993469 35.755142 200.032331 265.423592 13.089945 0.000000 0.051962
553.000000 80.622000 1.000000 5.000000 -8.000000 126.276139 27.083518 424.623023 53.784463 12.397618 0.000000 0.033111
554.000000 82.980000 2.000000 5.000000 -8.000000 134.162097 15.342179 679.707411 -142.892794 12.044077 0.000000 0.028830
555.000000 83.311000 3.000000 5.000000 -8.000000 139.653062 0.162460 971.948208 -326.022092 11.995483 0.000000 0.003578
564.000000 46.742000 3.000000 -2.000000 -7.000000 48.657489 -23.633864 1445.979151 1974.660777 21.412357 0.000000 0.171509
565.000000 46.940000 4.000000 -2.000000 -7.000000 51.240039 -31.598950 1637.113473 1955.545151 21.320259 0.000000 0.209397
566.000000 45.633000 5.000000 -2.000000 -7.000000 52.819399 -38.923014 1844.174029 1990.340894 21.929393 0.000000 0.271965
567.000000 49.845000 0.000000 -1.000000 -7.000000 49.204884 4.667049 887.135645 1872.962269 20.080283 0.000000 0.093103
568.000000 56.303000 1.000000 -1.000000 -7.000000 55.333189 -4.040297 1051.022534 1687.193962 17.775959 0.000000 0.024715
569.000000 60.391000 2.000000 -1.000000 -7.000000 60.332543 -13.235851 1228.153150 1570.828349 16.571114 0.000000 0.065583
570.000000 61.732000 3.000000 -1.000000 -7.000000 63.878713 -22.472038 1420.200428 1512.135559 16.209639 0.000000 0.105142
571.000000 60.607000 4.000000 -1.000000 -7.000000 65.934209 -31.289671 1629.131455 1503.491742 16.509237 0.000000 0.140188
572.000000 57.711000 5.000000 -1.000000 -7.000000 66.707113 -39.342641 1857.275094 1540.154319 17.336619 0.000000 0.193403
573.000000 53.812000 6.000000 -1.000000 -7.000000 66.523512 -46.455358 2107.409155 1619.542214 18.592071 0.000000 0.286176
575.000000 45.518000 -3.000000 1.000000 -7.000000 52.027858 34.425203 237.350315 1959.410205 21.985733 0.000000 0.245402
576.000000 55.712000 -2.000000 1.000000 -7.000000 60.666272 28.746252 384.616335 1630.838489 17.961586 0.000000 0.140700
577.000000 66.194000 -1.000000 1.000000 -7.000000 69.677273 21.798113 544.554114 1370.315659 15.115589 0.000000 0.107786
578.000000 75.720000 0.000000 1.000000 -7.000000 78.460099 13.385784 718.872725 1166.891939 13.212196 0.000000 0.134372
579.000000 82.842000 1.000000 1.000000 -7.000000 86.189172 3.477086 909.603055 1012.823911 12.074727 0.000000 0.161382
580.000000 86.460000 2.000000 1.000000 -7.000000 92.017843 -7.629757 1119.177288 902.740666 11.568064 0.000000 0.165958
581.000000 86.311000 3.000000 1.000000 -7.000000 95.406234 -19.234549 1350.533176 833.119992 11.587102 0.000000 0.142224
582.000000 82.999000 4.000000 1.000000 -7.000000 96.355262 -30.431454 1607.252602 801.972081 12.048860 0.000000 0.094970
583.000000 77.600000 5.000000 1.000000 -7.000000 95.342180 -40.484797 1893.748359 808.674344 12.886947 0.000000 0.095548
584.000000 71.189000 6.000000 1.000000 -7.000000 93.034728 -49.054587 2215.519921 853.930085 14.047616 0.000000 0.227670
586.000000 52.825000 -3.000000 2.000000 -7.000000 62.731009 39.357073 92.271546 1658.502624 18.941478 0.000000 0.221366
587.000000 63.419000 -2.000000 2.000000 -7.000000 72.251564 34.036626 248.028866 1356.711914 15.775239 0.000000 0.137032
588.000000 74.090000 -1.000000 2.000000 -7.000000 82.201024 27.335966 418.627214 1106.945684 13.501330 0.000000 0.119676
589.000000 83.573000 0.000000 2.000000 -7.000000 91.936926 18.909923 606.293846 902.524677 11.967379 0.000000 0.142987
590.000000 90.467000 1.000000 2.000000 -7.000000 100.532838 8.521951 813.725159 738.648390 11.053834 0.000000 0.161118
591.000000 89.484000 4.000000 2.000000 -7.000000 111.041618 -29.811598 1591.688910 463.802018 11.172704 0.000000 0.042242
592.000000 83.633000 5.000000 2.000000 -7.000000 109.214179 -41.289799 1920.208167 441.780979 11.954324 0.000000 0.095366
596.000000 57.902000 -3.000000 3.000000 -7.000000 72.448868 44.544963 -84.333003 1418.635034 17.277287 0.000000 0.232313
597.000000 68.275000 -2.000000 3.000000 -7.000000 82.625420 39.737364 80.256981 1122.149264 14.650289 0.000000 0.134158
598.000000 78.501000 -1.000000 3.000000 -7.000000 93.295827 33.507438 262.415401 866.666784 12.739700 0.000000 0.088229
599.000000 87.414000 0.000000 3.000000 -7.000000 103.835707 25.348900 465.113743 647.684275 11.438764 0.000000 0.098076
600.000000 86.680000 5.000000 3.000000 -7.000000 122.277860 -42.348789 1956.029083 21.148949 11.531732 0.000000 0.183631
603.000000 60.788000 -3.000000 4.000000 -7.000000 80.967039 49.918794 -303.991786 1206.740475 16.454341 0.000000 0.290944
604.000000 70.465000 -2.000000 4.000000 -7.000000 91.537146 45.773531 -130.755176 899.591844 14.192359 0.000000 0.173194
605.000000 79.809000 -1.000000 4.000000 -7.000000 102.662549 40.260832 63.500289 624.120166 12.528496 0.000000 0.078700
606.000000 87.820000 0.000000 4.000000 -7.000000 113.794417 32.744625 282.847001 376.759323 11.383688 0.000000 0.011156
611.000000 78.762000 -1.000000 5.000000 -7.000000 110.207087 47.471604 -198.401038 354.940203 12.693239 0.000000 0.220064
612.000000 85.741000 0.000000 5.000000 -7.000000 121.671600 41.026916 38.503605 60.836975 11.657987 0.000000 0.156908
613.000000 90.664000 1.000000 5.000000 -7.000000 132.568786 31.550240 314.147162 -219.106763 11.023475 0.000000 0.116509
617.000000 47.148000 1.000000 -1.000000 -3.000000 41.426288 -18.601002 1337.233991 2227.912299 10.614801 0.000000 0.227927
618.000000 49.320000 3.000000 -2.000000 -6.000000 45.287365 -27.895724 1544.765647 2146.647402 20.293270 0.000000 0.233152
621.000000 55.233000 0.000000 -1.000000 -6.000000 46.764108 4.058489 898.634018 1955.521241 18.122086 0.000000 0.124012
622.000000 63.637000 1.000000 -1.000000 -6.000000 53.682136 -6.036368 1088.813853 1736.544545 15.727567 0.000000 0.044655
623.000000 68.339000 2.000000 -1.000000 -6.000000 59.068803 -16.650626 1296.893055 1614.171265 14.643846 0.000000 0.078580
624.000000 68.931000 3.000000 -1.000000 -6.000000 62.532011 -27.089696 1525.523395 1569.465239 14.516705 0.000000 0.125432
625.000000 66.224000 4.000000 -1.000000 -6.000000 64.165718 -36.722670 1777.907666 1591.118836 15.109006 0.000000 0.181601
626.000000 61.548000 5.000000 -1.000000 -6.000000 64.389146 -45.176627 2057.950646 1672.887151 16.256013 0.000000 0.278267
629.000000 49.428000 -2.000000 0.000000 -6.000000 45.693234 25.986067 450.380151 2109.716259 20.249009 0.000000 0.234997
630.000000 62.454000 -1.000000 0.000000 -6.000000 54.895447 18.140526 622.369999 1737.131172 16.024635 0.000000 0.100131
631.000000 83.922000 1.000000 0.000000 -6.000000 71.892162 -2.285461 1017.954888 1293.230349 11.922539 0.000000 0.112328
632.000000 88.080000 2.000000 0.000000 -6.000000 77.606156 -14.181920 1246.982966 1184.952429 11.358400 0.000000 0.133980
633.000000 82.058000 4.000000 0.000000 -6.000000 81.215218 -36.994629 1785.887746 1149.248566 12.190004 0.000000 0.126729
634.000000 75.008000 5.000000 0.000000 -6.000000 80.055856 -46.416507 2105.872542 1214.709094 13.335520 0.000000 0.216587
637.000000 62.619000 -2.000000 1.000000 -6.000000 59.668221 31.605040 312.728831 1680.404522 15.980215 0.000000 0.165602
638.000000 77.022000 -1.000000 1.000000 -6.000000 70.310934 23.930177 497.373687 1362.357103 12.990239 0.000000 0.111649
639.000000 90.195000 0.000000 1.000000 -6.000000 80.793695 14.246773 701.720595 1120.978461 11.091296 0.000000 0.139758
640.000000 85.636000 5.000000 1.000000 -6.000000 95.689976 -47.979989 2169.506670 780.797041 11.677288 0.000000 0.201968
643.000000 58.051000 -3.000000 2.000000 -6.000000 61.497117 43.228827 -36.727119 1743.128574 17.236142 0.000000 0.281665
644.000000 86.596000 -1.000000 2.000000 -6.000000 84.366440 30.533191 340.174115 1064.259934 11.550878 0.000000 0.112770
646.000000 77.349000 -2.000000 3.000000 -6.000000 83.725007 44.350769 -77.175084 1106.505407 12.931151 0.000000 0.177000
656.000000 61.344000 0.000000 -1.000000 -5.000000 43.371946 3.232835 914.207056 2082.082068 16.317143 0.000000 0.171879
657.000000 72.697000 1.000000 -1.000000 -5.000000 51.304609 -8.752804 1140.711464 1813.290807 13.767726 0.000000 0.075744
658.000000 77.903000 2.000000 -1.000000 -5.000000 57.079285 -21.212485 1392.736881 1688.483888 12.846220 0.000000 0.105068
659.000000 76.803000 3.000000 -1.000000 -5.000000 60.275278 -33.033703 1674.854117 1674.014869 13.028851 0.000000 0.169011
660.000000 71.496000 4.000000 -1.000000 -5.000000 61.294425 -43.399828 1992.794791 1752.187592 13.994778 0.000000 0.271155
664.000000 71.006000 -2.000000 1.000000 -5.000000 58.159210 35.345251 211.664298 1760.428213 14.092681 0.000000 0.207492
667.000000 82.772000 -2.000000 2.000000 -5.000000 72.551161 42.599488 -14.685588 1400.579609 12.086257 0.000000 0.205217
670.000000 88.223000 -2.000000 3.000000 -5.000000 84.579135 50.293602 -321.108198 1100.872638 11.336804 0.000000 0.285939
676.000000 67.429000 0.000000 -1.000000 -4.000000 38.353303 2.049335 936.487064 2302.091894 14.845192 0.000000 0.251403
677.000000 83.537000 1.000000 -1.000000 -4.000000 47.637226 -12.642862 1216.425809 1946.899909 11.981568 0.000000 0.128110
678.000000 88.690000 2.000000 -1.000000 -4.000000 53.754904 -27.515420 1535.651557 1830.662836 11.283830 0.000000 0.160219
679.000000 84.152000 3.000000 -1.000000 -4.000000 56.434755 -40.770291 1903.058834 1883.975961 11.890983 0.000000 0.268204
683.000000 83.840000 -1.000000 0.000000 -4.000000 50.253912 22.259693 534.463806 1908.091294 11.937538 0.000000 0.160469
685.000000 80.933000 -2.000000 1.000000 -4.000000 55.751223 40.395824 59.137029 1903.188771 12.364200 0.000000 0.285520
#UB matrix in q= (UB) B0 G* 
#[[-0.288533349 -0.758144233  0.583297781]
# [-0.928885183  0.369894625  0.021308547]
# [-0.232208576 -0.536365408 -0.81191206 ]]
#B0 matrix in q= UB (B0) G*
#[[ 0.19670273 -0.          0.03056101]
# [ 0.          0.19187965 -0.        ]
# [ 0.          0.          0.18806537]]
#UBB0 matrix in q= (UB B0) G* i.e. recip. basis vectors are columns in LT frame: astar = UBB0[:,0], bstar = UBB0[:,1], cstar = UBB0[:,2]. (abcstar as columns on xyzlab1, xlab1 = ui, ui = unit vector along incident beam)
#[[-0.0567553  -0.14547245  0.10088024]
# [-0.18271425  0.07097525 -0.02438027]
# [-0.04567606 -0.10291761 -0.15978907]]
#Euler angles phi theta psi (deg)
#[336.601 144.218  87.913]
#deviatoric strain in direct crystal frame (10-3 unit)
#[[ 2.38  0.24 -0.41]
# [ 0.24  2.67 -1.02]
# [-0.41 -1.02 -5.05]]
#deviatoric strain in sample2 frame (10-3 unit)
#[[ 2.58  0.11 -1.67]
# [ 0.11  2.26  0.14]
# [-1.66  0.14 -4.84]]
#new lattice parameters
#[ 5.1505     5.2130774  5.3172143 90.065329  99.2550158 89.9730261]
#CCDLabel
#sCMOS
#DetectorParameters
#[79.0, 975.0, 941.0, 0.0, 0.0]
#pixelsize
#0.0734
#Frame dimensions
#[2018, 2016]
#
