#Strain and Orientation Refinement from experimental file: /home/micha/LaueProjects/DepthEffects/testZrO2_88.cor
#File created at Wed Jun 28 14:23:46 2023 with indexingSpotsSet.py
#Number of indexed spots: 517
#Element
#ZrO2
#grainIndex
#G_0
#Mean Deviation(pixel): 0.115
##spot_index intensity h k l 2theta Chi Xexp Yexp Energy GrainIndex PixDev
71.000000 114.207000 4.000000 -2.000000 1.000000 81.531377 51.430274 -374.712632 1198.031787 8.764138 0.000000 0.316394
72.000000 104.496000 5.000000 -2.000000 1.000000 90.928545 50.468449 -329.185445 913.593782 9.577062 0.000000 0.262695
73.000000 94.581000 6.000000 -2.000000 1.000000 97.664036 49.673486 -292.932722 717.196454 10.579928 0.000000 0.236397
74.000000 85.648000 7.000000 -2.000000 1.000000 102.693836 49.005671 -263.382451 571.430619 11.682384 0.000000 0.223955
75.000000 77.900000 8.000000 -2.000000 1.000000 106.577812 48.436902 -238.833177 458.060584 12.843539 0.000000 0.218786
76.000000 71.247000 9.000000 -2.000000 1.000000 109.660078 47.946758 -218.114416 366.931183 14.042194 0.000000 0.217447
77.000000 65.532000 10.000000 -2.000000 1.000000 112.161768 47.520048 -200.394516 291.852818 15.266261 0.000000 0.218095
78.000000 60.599000 11.000000 -2.000000 1.000000 114.230638 47.145245 -185.066329 228.799269 16.508343 0.000000 0.219739
79.000000 56.315000 12.000000 -2.000000 1.000000 115.968798 46.813449 -171.676242 175.019822 17.763661 0.000000 0.221838
80.000000 52.570000 13.000000 -2.000000 1.000000 117.448896 46.517677 -159.878530 128.561706 19.028987 0.000000 0.224105
84.000000 186.482000 2.000000 -1.000000 1.000000 70.928834 40.234218 64.358463 1428.409942 5.368617 0.000000 0.182073
85.000000 166.949000 3.000000 -1.000000 1.000000 88.838948 40.410564 58.659528 969.648097 5.994899 0.000000 0.111954
86.000000 142.850000 4.000000 -1.000000 1.000000 99.259216 40.539927 54.459940 710.112931 7.004969 0.000000 0.081906
87.000000 122.789000 5.000000 -1.000000 1.000000 105.971697 40.638874 51.236786 535.049672 8.148475 0.000000 0.076267
88.000000 106.957000 6.000000 -1.000000 1.000000 110.627002 40.717004 48.684991 406.484076 9.353920 0.000000 0.085263
89.000000 94.439000 7.000000 -1.000000 1.000000 114.034814 40.780261 46.614580 307.127629 10.593147 0.000000 0.098939
90.000000 84.399000 8.000000 -1.000000 1.000000 116.633087 40.832522 44.901079 227.639576 11.852818 0.000000 0.112772
91.000000 76.211000 9.000000 -1.000000 1.000000 118.677712 40.876425 43.459522 162.409729 13.125800 0.000000 0.125397
92.000000 69.428000 10.000000 -1.000000 1.000000 120.327634 40.913827 42.229928 107.817602 14.407934 0.000000 0.136555
93.000000 63.726000 11.000000 -1.000000 1.000000 121.686557 40.946072 41.168751 61.401738 15.696630 0.000000 0.146330
94.000000 58.874000 12.000000 -1.000000 1.000000 122.824928 40.974158 40.243605 21.420799 16.990189 0.000000 0.154892
95.000000 54.697000 13.000000 -1.000000 1.000000 123.792230 40.998840 39.429910 -13.396528 18.287455 0.000000 0.162417
96.000000 51.065000 14.000000 -1.000000 1.000000 124.624218 41.020703 38.708670 -44.002548 19.587609 0.000000 0.169063
97.000000 47.881000 15.000000 -1.000000 1.000000 125.347355 41.040203 38.064975 -71.126063 20.890058 0.000000 0.174965
98.000000 166.055000 4.000000 1.000000 1.000000 124.664202 -0.815912 990.327835 196.657477 6.023786 0.000000 0.090728
99.000000 138.398000 5.000000 1.000000 1.000000 128.318193 5.446051 872.387375 86.582104 7.227147 0.000000 0.065857
100.000000 118.125000 6.000000 1.000000 1.000000 130.502275 10.260553 780.169560 6.743202 8.467233 0.000000 0.044583
101.000000 102.806000 7.000000 1.000000 1.000000 131.892400 14.028213 706.086713 -54.124063 9.728706 0.000000 0.029918
102.000000 90.893000 8.000000 1.000000 1.000000 132.822602 17.032882 645.268279 -102.206730 11.003726 0.000000 0.026774
103.000000 81.393000 9.000000 1.000000 1.000000 133.470718 19.472545 594.444522 -141.221865 12.287868 0.000000 0.034274
104.000000 73.656000 10.000000 1.000000 1.000000 133.937489 21.486064 551.338778 -173.552301 13.578444 0.000000 0.045424
105.000000 67.242000 11.000000 1.000000 1.000000 134.283022 23.172230 514.317048 -200.802737 14.873729 0.000000 0.056889
106.000000 61.841000 12.000000 1.000000 1.000000 134.544785 24.602545 482.176178 -224.096650 16.172563 0.000000 0.067753
107.000000 57.235000 13.000000 1.000000 1.000000 134.747017 25.829696 454.010638 -244.245764 17.474138 0.000000 0.077803
108.000000 53.261000 14.000000 1.000000 1.000000 134.905914 26.893179 429.125852 -261.852073 18.777876 0.000000 0.087030
109.000000 49.799000 15.000000 1.000000 1.000000 135.032597 27.823083 406.980147 -277.371968 20.083347 0.000000 0.095486
110.000000 46.756000 16.000000 1.000000 1.000000 135.134893 28.642678 387.144877 -291.158048 21.390232 0.000000 0.103244
112.000000 179.854000 3.000000 2.000000 1.000000 114.310463 -35.741292 1749.572696 341.980118 5.562390 0.000000 0.031594
113.000000 154.593000 4.000000 2.000000 1.000000 124.230707 -26.081307 1501.835768 125.684940 6.470389 0.000000 0.020479
114.000000 132.868000 5.000000 2.000000 1.000000 130.016540 -17.598463 1316.388871 -7.016018 7.527736 0.000000 0.031482
115.000000 115.421000 6.000000 2.000000 1.000000 133.465685 -10.391025 1172.362701 -96.150281 8.665245 0.000000 0.030145
116.000000 101.528000 7.000000 2.000000 1.000000 135.563424 -4.371298 1057.273997 -159.875270 9.850746 0.000000 0.023270
117.000000 90.366000 8.000000 2.000000 1.000000 136.858711 0.628257 963.197802 -207.562159 11.067254 0.000000 0.015252
118.000000 81.276000 9.000000 2.000000 1.000000 137.664905 4.787320 884.860907 -244.513280 12.304953 0.000000 0.011836
119.000000 73.765000 10.000000 2.000000 1.000000 138.165664 8.267017 818.618355 -273.943594 13.557773 0.000000 0.017500
120.000000 67.474000 11.000000 2.000000 1.000000 138.471529 11.200921 761.870013 -297.910688 14.821761 0.000000 0.026791
121.000000 62.139000 12.000000 2.000000 1.000000 138.650745 13.695804 712.711237 -317.789931 16.094233 0.000000 0.036599
122.000000 57.564000 13.000000 2.000000 1.000000 138.746455 15.835703 669.714909 -334.534136 17.373299 0.000000 0.046164
123.000000 53.602000 14.000000 2.000000 1.000000 138.786521 17.686475 631.790605 -348.823434 18.657593 0.000000 0.055263
124.000000 50.139000 15.000000 2.000000 1.000000 138.789285 19.299823 598.090838 -361.155828 19.946102 0.000000 0.063835
125.000000 47.089000 16.000000 2.000000 1.000000 138.767021 20.716550 567.946967 -371.904030 21.238057 0.000000 0.071874
127.000000 135.392000 4.000000 3.000000 1.000000 117.247093 -44.861819 2046.115326 159.043148 7.388581 0.000000 0.188100
128.000000 121.492000 5.000000 3.000000 1.000000 125.629108 -36.969940 1785.160938 -24.488790 8.232956 0.000000 0.118675
129.000000 108.514000 6.000000 3.000000 1.000000 131.189082 -29.499764 1583.932154 -141.155279 9.216963 0.000000 0.082720
130.000000 97.225000 7.000000 3.000000 1.000000 134.876002 -22.645901 1424.030056 -220.169558 10.286679 0.000000 0.061075
131.000000 87.630000 8.000000 3.000000 1.000000 137.318917 -16.504713 1293.909203 -276.299039 11.412777 0.000000 0.045320
132.000000 79.511000 9.000000 3.000000 1.000000 138.932307 -11.089637 1185.958387 -317.687442 12.577943 0.000000 0.032117
133.000000 72.620000 10.000000 3.000000 1.000000 139.989420 -6.359550 1094.956396 -349.135676 13.771291 0.000000 0.020377
134.000000 66.735000 11.000000 3.000000 1.000000 140.671019 -2.245454 1017.202193 -373.627909 14.985638 0.000000 0.010470
135.000000 61.671000 12.000000 3.000000 1.000000 141.097374 1.330661 949.999200 -393.100827 16.216049 0.000000 0.007889
136.000000 57.280000 13.000000 3.000000 1.000000 141.349113 4.444847 891.336187 -408.857204 17.459025 0.000000 0.015265
137.000000 53.444000 14.000000 3.000000 1.000000 141.480770 7.165932 839.682549 -421.800372 18.712013 0.000000 0.024224
138.000000 50.070000 15.000000 3.000000 1.000000 141.529584 9.553706 793.852832 -432.573175 19.973108 0.000000 0.033043
139.000000 47.081000 16.000000 3.000000 1.000000 141.521225 11.658930 752.914633 -441.643509 21.240859 0.000000 0.041472
145.000000 76.433000 9.000000 4.000000 1.000000 137.434436 -25.930871 1498.337254 -362.063506 13.084532 0.000000 0.101912
146.000000 70.426000 10.000000 4.000000 1.000000 139.381001 -20.659165 1380.821345 -400.132232 14.200432 0.000000 0.079297
147.000000 65.152000 11.000000 4.000000 1.000000 140.756483 -15.855460 1280.686127 -428.735654 15.349665 0.000000 0.061033
186.000000 54.766000 9.000000 -4.000000 2.000000 86.645853 50.925413 -350.580664 1041.073228 18.275002 0.000000 0.284777
187.000000 49.726000 11.000000 -4.000000 2.000000 94.556948 50.052924 -310.086405 807.398731 20.124323 0.000000 0.247206
190.000000 73.369000 5.000000 -3.000000 2.000000 69.330544 47.727976 -208.992835 1544.644373 13.645164 0.000000 0.301197
191.000000 71.578000 6.000000 -3.000000 2.000000 78.045297 47.301421 -191.426970 1277.042305 13.984686 0.000000 0.242236
192.000000 68.296000 7.000000 -3.000000 2.000000 84.878049 46.928425 -176.297485 1082.266267 14.655206 0.000000 0.205894
193.000000 64.513000 8.000000 -3.000000 2.000000 90.342365 46.599524 -163.130367 931.639767 15.512930 0.000000 0.182672
194.000000 60.698000 9.000000 -3.000000 2.000000 94.792695 46.307354 -151.567074 810.365775 16.486819 0.000000 0.168044
195.000000 57.057000 10.000000 -3.000000 2.000000 98.476682 46.046099 -141.331396 709.894622 17.537742 0.000000 0.159381
196.000000 53.674000 11.000000 -3.000000 2.000000 101.570414 45.811108 -132.207106 624.867856 18.642367 0.000000 0.154907
197.000000 50.569000 12.000000 -3.000000 2.000000 104.201500 45.598618 -124.022513 551.716214 19.785923 0.000000 0.153337
198.000000 47.738000 13.000000 -3.000000 2.000000 106.464164 45.405550 -116.639560 487.947736 20.958599 0.000000 0.153731
199.000000 90.592000 3.000000 -2.000000 2.000000 56.603364 40.119629 68.045698 1868.937760 11.053580 0.000000 0.278594
200.000000 89.381000 5.000000 -2.000000 2.000000 81.211931 40.329730 61.275505 1159.263865 11.199003 0.000000 0.138829
201.000000 77.275000 7.000000 -2.000000 2.000000 94.673577 40.479861 56.411901 825.323102 12.950363 0.000000 0.093521
202.000000 66.123000 9.000000 -2.000000 2.000000 102.947171 40.592490 52.748906 615.149067 15.132292 0.000000 0.076500
203.000000 57.199000 11.000000 -2.000000 2.000000 108.493751 40.680108 49.890799 466.301746 17.491466 0.000000 0.079683
204.000000 50.170000 13.000000 -2.000000 2.000000 112.453731 40.750213 47.598547 353.856756 19.940699 0.000000 0.091909
205.000000 113.757000 2.000000 -1.000000 2.000000 51.883467 26.162791 446.265477 1881.815492 8.803951 0.000000 0.186849
206.000000 121.462000 3.000000 -1.000000 2.000000 71.513718 27.936156 404.261645 1348.298981 8.242947 0.000000 0.112695
207.000000 114.291000 4.000000 -1.000000 2.000000 84.300841 29.344860 369.903272 1064.223856 8.758024 0.000000 0.113126
208.000000 103.923000 5.000000 -1.000000 2.000000 93.076159 30.489611 341.277066 873.877529 9.630241 0.000000 0.100235
209.000000 93.834000 6.000000 -1.000000 2.000000 99.396713 31.437535 317.058990 732.240054 10.664449 0.000000 0.080861
210.000000 84.899000 7.000000 -1.000000 2.000000 104.136093 32.234967 296.303628 620.539370 11.785771 0.000000 0.060230
211.000000 77.205000 8.000000 -1.000000 2.000000 107.808124 32.914863 278.317878 529.162819 12.959316 0.000000 0.040778
212.000000 70.622000 9.000000 -1.000000 2.000000 110.730182 33.501270 262.582047 452.501782 14.166632 0.000000 0.024308
213.000000 64.976000 10.000000 -1.000000 2.000000 113.107168 34.012129 248.698807 386.980284 15.397043 0.000000 0.015675
214.000000 60.106000 11.000000 -1.000000 2.000000 115.076562 34.461087 236.359185 330.169478 16.643944 0.000000 0.021302
215.000000 55.877000 12.000000 -1.000000 2.000000 116.733715 34.858707 225.319298 280.340492 17.903030 0.000000 0.032665
216.000000 52.180000 13.000000 -1.000000 2.000000 118.146681 35.213286 215.384066 236.217719 19.171375 0.000000 0.044367
217.000000 48.923000 14.000000 -1.000000 2.000000 119.365245 35.531430 206.395592 196.832962 20.446918 0.000000 0.055399
218.000000 46.038000 15.000000 -1.000000 2.000000 120.426621 35.818464 198.224701 161.434357 21.728171 0.000000 0.065592
220.000000 150.467000 2.000000 0.000000 2.000000 66.768604 7.233647 838.390232 1406.705182 6.654958 0.000000 0.072821
221.000000 144.556000 3.000000 0.000000 2.000000 84.732101 11.535475 755.331392 1042.282419 6.924754 0.000000 0.151637
222.000000 129.164000 4.000000 0.000000 2.000000 95.921775 14.946051 687.693722 825.453337 7.748199 0.000000 0.155614
223.000000 113.994000 5.000000 0.000000 2.000000 103.358232 17.698232 631.547278 672.722176 8.778001 0.000000 0.138582
224.000000 100.992000 6.000000 0.000000 2.000000 108.584296 19.956178 584.192911 555.997456 9.907103 0.000000 0.116020
225.000000 90.201000 7.000000 0.000000 2.000000 112.426036 21.836594 543.715422 462.476422 11.091582 0.000000 0.093056
226.000000 81.268000 8.000000 0.000000 2.000000 115.353726 23.423655 508.718212 385.199548 12.310093 0.000000 0.071476
227.000000 73.823000 9.000000 0.000000 2.000000 117.650753 24.779087 478.158877 319.930937 13.551011 0.000000 0.051898
228.000000 67.557000 10.000000 0.000000 2.000000 119.496483 25.948914 451.243621 263.885619 14.807464 0.000000 0.034638
229.000000 62.228000 11.000000 0.000000 2.000000 121.009280 26.968014 427.357306 215.128478 16.075130 0.000000 0.020497
230.000000 57.650000 12.000000 0.000000 2.000000 122.270068 27.863218 406.015871 172.258292 17.351154 0.000000 0.013450
231.000000 53.682000 13.000000 0.000000 2.000000 123.335877 28.655456 386.833183 134.227571 18.633574 0.000000 0.018581
232.000000 50.212000 14.000000 0.000000 2.000000 124.247956 29.361272 369.497467 100.233155 19.920999 0.000000 0.028424
233.000000 47.154000 15.000000 0.000000 2.000000 125.036829 29.993890 353.754224 69.646349 21.212412 0.000000 0.038585
234.000000 129.015000 1.000000 1.000000 2.000000 46.612416 -22.108758 1412.229446 2039.101352 7.763373 0.000000 0.221753
235.000000 158.390000 2.000000 1.000000 2.000000 75.048196 -14.347807 1250.300569 1237.675553 6.321024 0.000000 0.119215
236.000000 149.979000 3.000000 1.000000 2.000000 92.365379 -7.790988 1122.261521 896.127178 6.673380 0.000000 0.168071
237.000000 133.437000 4.000000 1.000000 2.000000 103.165138 -2.313425 1018.481039 689.042909 7.499149 0.000000 0.168375
238.000000 117.454000 5.000000 1.000000 2.000000 110.239661 2.252695 932.661572 543.847796 8.518473 0.000000 0.152846
239.000000 103.826000 6.000000 1.000000 2.000000 115.102941 6.071869 860.511769 433.914795 9.635769 0.000000 0.132826
240.000000 92.546000 7.000000 1.000000 2.000000 118.588566 9.286703 799.006519 346.674191 10.809492 0.000000 0.112367
241.000000 83.232000 8.000000 1.000000 2.000000 121.175879 12.013985 745.952002 275.209238 12.018679 0.000000 0.092987
242.000000 75.485000 9.000000 1.000000 2.000000 123.153581 14.346854 699.718500 215.305553 13.251605 0.000000 0.075255
243.000000 68.979000 10.000000 1.000000 2.000000 124.703133 16.358806 659.070038 164.204197 14.501203 0.000000 0.059417
244.000000 63.456000 11.000000 1.000000 2.000000 125.942975 18.107722 623.052246 120.001002 15.762955 0.000000 0.045704
245.000000 58.721000 12.000000 1.000000 2.000000 126.953005 19.639315 590.916478 81.327641 17.033843 0.000000 0.034598
246.000000 54.622000 13.000000 1.000000 2.000000 127.788701 20.989890 562.067215 47.169133 18.311770 0.000000 0.027155
247.000000 51.044000 14.000000 1.000000 2.000000 128.489568 22.188482 536.024821 16.753069 19.595235 0.000000 0.024812
248.000000 47.895000 15.000000 1.000000 2.000000 129.084376 23.258485 512.398659 -10.520912 20.883137 0.000000 0.027507
250.000000 140.412000 2.000000 2.000000 2.000000 75.550126 -33.357215 1683.532738 1273.045954 7.129772 0.000000 0.122097
251.000000 138.790000 3.000000 2.000000 2.000000 93.164935 -26.266358 1506.151665 874.634012 7.210996 0.000000 0.119147
252.000000 127.335000 4.000000 2.000000 2.000000 104.813718 -19.827771 1363.079178 638.416890 7.858115 0.000000 0.127525
253.000000 114.278000 5.000000 2.000000 2.000000 112.643122 -14.094630 1245.239196 478.095428 8.754819 0.000000 0.124580
254.000000 102.253000 6.000000 2.000000 2.000000 118.045471 -9.053445 1146.497564 360.394874 9.783512 0.000000 0.115400
255.000000 91.854000 7.000000 2.000000 2.000000 121.876640 -4.650922 1062.559407 269.463244 10.890448 0.000000 0.103507
256.000000 75.554000 9.000000 2.000000 2.000000 126.740033 2.526274 927.513475 136.802940 13.238812 0.000000 0.078005
257.000000 63.758000 11.000000 2.000000 2.000000 129.540289 8.006123 823.619412 43.754338 15.687622 0.000000 0.054617
258.000000 54.980000 13.000000 2.000000 2.000000 131.270639 12.255120 741.212894 -25.597523 18.191792 0.000000 0.036148
259.000000 48.248000 15.000000 2.000000 2.000000 132.401442 15.611886 674.252532 -79.490624 20.729706 0.000000 0.026663
261.000000 115.010000 2.000000 3.000000 2.000000 71.978570 -47.261224 2139.786259 1456.951911 8.704427 0.000000 0.269974
262.000000 119.881000 3.000000 3.000000 2.000000 89.460597 -40.927062 1908.205516 954.411419 8.348539 0.000000 0.111869
263.000000 114.874000 4.000000 3.000000 2.000000 102.041940 -34.775854 1722.371512 661.477390 8.710668 0.000000 0.055768
264.000000 106.319000 5.000000 3.000000 2.000000 111.021764 -28.932675 1569.947461 468.393601 9.410204 0.000000 0.053821
265.000000 97.170000 6.000000 3.000000 2.000000 117.467731 -23.485697 1442.666620 330.950083 10.295150 0.000000 0.061174
266.000000 88.579000 7.000000 3.000000 2.000000 122.147018 -18.483659 1334.781738 227.820451 11.292887 0.000000 0.064366
267.000000 80.899000 8.000000 3.000000 2.000000 125.588056 -13.940988 1242.173164 147.412695 12.364339 0.000000 0.063419
268.000000 74.164000 9.000000 3.000000 2.000000 128.151764 -9.846644 1161.810782 82.864984 13.486612 0.000000 0.059704
269.000000 68.294000 10.000000 3.000000 2.000000 130.085850 -6.173333 1091.416155 29.846577 14.645404 0.000000 0.054328
270.000000 63.177000 11.000000 3.000000 2.000000 131.562051 -2.885150 1029.243052 -14.515901 15.831317 0.000000 0.048071
271.000000 58.702000 12.000000 3.000000 2.000000 132.700880 0.056927 973.930631 -52.206856 17.037925 0.000000 0.041498
272.000000 54.771000 13.000000 3.000000 2.000000 133.587990 2.691532 924.402675 -84.642540 18.260683 0.000000 0.035071
273.000000 51.299000 14.000000 3.000000 2.000000 134.285039 5.054916 879.796882 -112.861842 19.496285 0.000000 0.029250
274.000000 48.217000 15.000000 3.000000 2.000000 134.836965 7.179993 839.414228 -137.644762 20.742271 0.000000 0.024603
275.000000 45.467000 16.000000 3.000000 2.000000 135.276917 9.096030 802.682071 -159.588738 21.996771 0.000000 0.021837
277.000000 100.562000 3.000000 4.000000 2.000000 84.107600 -51.534139 2329.743429 1119.571223 9.952885 0.000000 0.303943
278.000000 100.375000 4.000000 4.000000 2.000000 97.027422 -46.199212 2097.318391 749.315199 9.969400 0.000000 0.160434
279.000000 95.993000 5.000000 4.000000 2.000000 106.865744 -40.905813 1907.506494 509.264062 10.422889 0.000000 0.078656
280.000000 83.491000 7.000000 4.000000 2.000000 119.947029 -30.780683 1616.108429 219.257126 11.981356 0.000000 0.012335
281.000000 71.588000 9.000000 4.000000 2.000000 127.502953 -21.680850 1402.892863 52.162371 13.972044 0.000000 0.028053
282.000000 61.823000 11.000000 4.000000 2.000000 131.958092 -13.837828 1240.116826 -55.599935 16.177971 0.000000 0.031849
283.000000 54.042000 13.000000 4.000000 2.000000 134.641913 -7.242306 1111.775061 -130.472745 18.506572 0.000000 0.027099
284.000000 47.826000 15.000000 4.000000 2.000000 136.287829 -1.755448 1007.986199 -185.327362 20.911707 0.000000 0.019138
287.000000 85.210000 5.000000 5.000000 2.000000 101.621765 -50.022359 2258.694579 596.468451 11.742696 0.000000 0.244943
288.000000 81.778000 6.000000 5.000000 2.000000 109.739839 -45.436258 2067.810447 390.604685 12.233907 0.000000 0.162376
289.000000 77.396000 7.000000 5.000000 2.000000 116.157883 -40.890529 1907.003987 241.731651 12.925430 0.000000 0.110867
290.000000 72.738000 8.000000 5.000000 2.000000 121.224178 -36.440426 1769.685356 129.976688 13.752257 0.000000 0.079322
291.000000 68.161000 9.000000 5.000000 2.000000 125.225166 -32.134393 1651.058756 43.565206 14.674764 0.000000 0.060680
292.000000 63.840000 10.000000 5.000000 2.000000 128.389193 -28.011411 1547.550809 -24.878598 15.667424 0.000000 0.049870
293.000000 59.844000 11.000000 5.000000 2.000000 130.895732 -24.099765 1456.444409 -80.185818 16.713047 0.000000 0.043202
294.000000 56.190000 12.000000 5.000000 2.000000 132.885021 -20.417137 1375.636738 -125.638841 17.799636 0.000000 0.038320
295.000000 52.865000 13.000000 5.000000 2.000000 134.466459 -16.971699 1303.474952 -163.537269 18.918564 0.000000 0.033977
296.000000 49.848000 14.000000 5.000000 2.000000 135.725417 -13.763781 1238.641934 -195.534744 20.063466 0.000000 0.029622
297.000000 47.109000 15.000000 5.000000 2.000000 136.728615 -10.787726 1180.075171 -222.847431 21.229546 0.000000 0.025066
299.000000 70.959000 7.000000 6.000000 2.000000 111.582595 -48.881262 2207.965060 293.580788 14.098853 0.000000 0.247039
300.000000 64.217000 9.000000 6.000000 2.000000 121.866168 -40.879008 1906.625337 56.118810 15.576690 0.000000 0.147335
301.000000 57.406000 11.000000 6.000000 2.000000 128.693577 -33.167669 1678.440149 -88.869645 17.423365 0.000000 0.098057
302.000000 51.325000 13.000000 6.000000 2.000000 133.221262 -25.987537 1499.654020 -184.232426 19.486637 0.000000 0.070803
303.000000 46.114000 15.000000 6.000000 2.000000 136.223028 -19.483753 1355.792368 -250.481511 21.687917 0.000000 0.052745
309.000000 54.667000 11.000000 7.000000 2.000000 125.711122 -40.870012 1906.329778 -82.164226 18.296947 0.000000 0.176583
310.000000 52.032000 12.000000 7.000000 2.000000 128.672116 -37.384819 1797.437336 -143.119303 19.222889 0.000000 0.148781
311.000000 49.509000 13.000000 7.000000 2.000000 131.140518 -33.981755 1700.471109 -192.905956 20.201562 0.000000 0.126993
312.000000 47.126000 14.000000 7.000000 2.000000 133.196576 -30.680976 1613.573529 -234.070973 21.222971 0.000000 0.109487
321.000000 52.415000 6.000000 -4.000000 3.000000 62.167185 45.828508 -132.880043 1756.509234 19.102560 0.000000 0.319191
322.000000 52.783000 7.000000 -4.000000 3.000000 69.881928 45.598635 -124.023149 1504.475541 18.966999 0.000000 0.258915
323.000000 51.926000 8.000000 -4.000000 3.000000 76.269806 45.391322 -116.097503 1315.466581 19.278031 0.000000 0.219224
324.000000 50.407000 9.000000 -4.000000 3.000000 81.614735 45.203409 -108.963571 1166.166483 19.857130 0.000000 0.191324
325.000000 48.563000 10.000000 -4.000000 3.000000 86.134272 45.032297 -102.508364 1043.910425 20.609735 0.000000 0.170987
326.000000 46.590000 11.000000 -4.000000 3.000000 89.994513 44.875833 -96.639421 941.145458 21.481082 0.000000 0.156013
328.000000 61.781000 5.000000 -3.000000 3.000000 61.942234 40.160286 66.738858 1691.635970 16.207124 0.000000 0.235165
329.000000 60.691000 7.000000 -3.000000 3.000000 78.134711 40.299710 62.245442 1237.497020 16.493863 0.000000 0.150611
330.000000 58.345000 8.000000 -3.000000 3.000000 83.998264 40.358130 60.357144 1089.496467 17.155201 0.000000 0.128688
331.000000 52.881000 10.000000 -3.000000 3.000000 92.889409 40.457888 57.125100 869.604992 18.925008 0.000000 0.098872
332.000000 50.180000 11.000000 -3.000000 3.000000 96.320494 40.500814 55.731408 784.221750 19.942198 0.000000 0.088922
334.000000 65.970000 3.000000 -2.000000 3.000000 46.462422 31.334704 319.709586 2138.347925 15.181707 0.000000 0.296351
335.000000 73.355000 4.000000 -2.000000 3.000000 60.766695 32.108139 299.628792 1652.108432 13.650852 0.000000 0.163141
336.000000 74.091000 5.000000 -2.000000 3.000000 71.583100 32.771839 282.124143 1367.229920 13.512797 0.000000 0.127544
337.000000 71.776000 6.000000 -2.000000 3.000000 79.908558 33.347464 266.729783 1170.306082 13.946518 0.000000 0.114344
338.000000 68.227000 7.000000 -2.000000 3.000000 86.449000 33.851359 253.085797 1021.423614 14.670318 0.000000 0.102975
339.000000 64.314000 8.000000 -2.000000 3.000000 91.690129 34.296080 240.909710 902.558327 15.561443 0.000000 0.090554
340.000000 60.439000 9.000000 -2.000000 3.000000 95.966782 34.691427 229.976728 804.186286 16.557839 0.000000 0.077564
341.000000 56.776000 10.000000 -2.000000 3.000000 99.513061 35.045158 220.105727 720.696856 17.624760 0.000000 0.064825
342.000000 53.391000 11.000000 -2.000000 3.000000 102.495680 35.363493 211.149138 648.511329 18.741235 0.000000 0.053080
343.000000 50.295000 12.000000 -2.000000 3.000000 105.035676 35.651473 202.985526 585.205499 19.893859 0.000000 0.043070
344.000000 47.478000 13.000000 -2.000000 3.000000 107.222591 35.913231 195.514044 529.058683 21.073660 0.000000 0.035721
346.000000 85.332000 3.000000 -1.000000 3.000000 57.235258 20.393719 574.864039 1680.008192 11.736098 0.000000 0.104819
347.000000 88.167000 4.000000 -1.000000 3.000000 70.921358 22.156266 536.730500 1342.930081 11.356153 0.000000 0.103722
348.000000 85.190000 5.000000 -1.000000 3.000000 80.954397 23.654551 503.557763 1128.063353 11.750748 0.000000 0.123100
349.000000 80.149000 6.000000 -1.000000 3.000000 88.504036 24.942202 474.436920 971.999057 12.488110 0.000000 0.125374
350.000000 74.646000 7.000000 -1.000000 3.000000 94.335962 26.059655 448.668320 850.158417 13.407102 0.000000 0.117878
351.000000 69.330000 8.000000 -1.000000 3.000000 98.949541 27.037856 425.704627 750.705239 14.433907 0.000000 0.105740
352.000000 64.433000 9.000000 -1.000000 3.000000 102.676190 27.900832 405.111509 667.075205 15.529936 0.000000 0.091662
353.000000 60.012000 10.000000 -1.000000 3.000000 105.741233 28.667477 386.539906 595.248737 16.673051 0.000000 0.077047
354.000000 56.053000 11.000000 -1.000000 3.000000 108.301755 29.352835 369.706083 532.579082 17.849648 0.000000 0.062616
355.000000 52.517000 12.000000 -1.000000 3.000000 110.469928 29.969015 354.377030 477.225075 19.050899 0.000000 0.048738
356.000000 49.355000 13.000000 -1.000000 3.000000 112.327640 30.525864 340.359613 427.850314 20.270833 0.000000 0.035587
357.000000 46.520000 14.000000 -1.000000 3.000000 113.935875 31.031466 327.492393 383.451650 21.505259 0.000000 0.023249
359.000000 97.833000 2.000000 1.000000 3.000000 55.546507 -11.882891 1201.475133 1695.601712 10.237061 0.000000 0.070789
360.000000 106.283000 3.000000 1.000000 3.000000 73.247097 -7.186348 1110.707058 1267.552511 9.420520 0.000000 0.112928
361.000000 103.412000 4.000000 1.000000 3.000000 85.758870 -3.082461 1032.959589 1020.930594 9.679800 0.000000 0.161355
362.000000 96.558000 5.000000 1.000000 3.000000 94.745245 0.499403 965.618534 851.653389 10.365012 0.000000 0.173582
363.000000 88.856000 6.000000 1.000000 3.000000 101.362949 3.629676 906.725620 724.270471 11.261983 0.000000 0.169907
364.000000 81.485000 7.000000 1.000000 3.000000 106.364340 6.373152 854.784913 622.991849 12.279517 0.000000 0.159182
365.000000 74.821000 8.000000 1.000000 3.000000 110.236170 8.786839 808.633981 539.517194 13.372212 0.000000 0.145477
366.000000 68.927000 9.000000 1.000000 3.000000 113.298455 10.919634 767.355860 468.962071 14.514920 0.000000 0.130768
367.000000 63.751000 10.000000 1.000000 3.000000 115.766478 12.812879 730.217511 408.208916 15.692585 0.000000 0.116040
368.000000 59.210000 11.000000 1.000000 3.000000 117.788619 14.501271 696.625906 355.143425 16.895645 0.000000 0.101796
369.000000 55.214000 12.000000 1.000000 3.000000 119.469561 16.013844 666.096125 308.263297 18.117732 0.000000 0.088282
370.000000 51.685000 13.000000 1.000000 3.000000 120.884772 17.374888 638.227793 266.461298 19.354446 0.000000 0.075627
371.000000 48.553000 14.000000 1.000000 3.000000 122.089748 18.604759 612.687427 228.897076 20.602642 0.000000 0.063896
372.000000 45.759000 15.000000 1.000000 3.000000 123.126034 19.720562 589.195024 194.917401 21.860021 0.000000 0.053154
374.000000 94.670000 2.000000 2.000000 3.000000 58.849850 -26.375825 1508.711204 1667.139401 10.577894 0.000000 0.130758
375.000000 102.897000 3.000000 2.000000 3.000000 75.936902 -21.190504 1392.261831 1230.161664 9.729631 0.000000 0.117858
376.000000 101.122000 4.000000 2.000000 3.000000 88.412756 -16.449423 1292.779722 972.096591 9.898243 0.000000 0.150079
377.000000 95.278000 5.000000 2.000000 3.000000 97.543120 -12.154491 1206.808368 795.210958 10.503595 0.000000 0.161718
378.000000 88.268000 6.000000 2.000000 3.000000 104.322268 -8.287285 1131.770423 663.310819 11.336336 0.000000 0.160731
379.000000 81.329000 7.000000 2.000000 3.000000 109.449334 -4.817229 1065.704896 559.587689 12.302484 0.000000 0.153333
380.000000 74.922000 8.000000 2.000000 3.000000 113.400822 -1.707959 1007.093300 475.020523 13.353576 0.000000 0.142846
381.000000 69.175000 9.000000 2.000000 3.000000 116.501283 1.078320 954.741501 404.254326 14.462089 0.000000 0.131020
382.000000 64.080000 10.000000 2.000000 3.000000 118.974342 3.578143 907.697503 343.866224 15.611230 0.000000 0.118801
383.000000 59.579000 11.000000 2.000000 3.000000 120.976591 5.825342 865.193039 291.541646 16.790174 0.000000 0.106701
384.000000 55.599000 12.000000 2.000000 3.000000 122.619613 7.850405 826.601284 245.645051 17.991626 0.000000 0.095003
385.000000 52.070000 13.000000 2.000000 3.000000 123.984299 9.680339 791.405740 204.979360 19.210494 0.000000 0.083868
386.000000 48.930000 14.000000 2.000000 3.000000 125.130265 11.338807 759.176984 168.642966 20.443114 0.000000 0.073385
387.000000 46.123000 15.000000 2.000000 3.000000 126.102127 12.846405 729.555063 135.940543 21.686781 0.000000 0.063622
389.000000 84.683000 2.000000 3.000000 3.000000 59.182734 -38.380718 1827.470745 1760.030259 11.824515 0.000000 0.229796
390.000000 94.069000 4.000000 3.000000 3.000000 88.084883 -28.562546 1560.902313 981.975544 10.640116 0.000000 0.114518
391.000000 90.322000 5.000000 3.000000 3.000000 97.587933 -24.043396 1455.174193 784.000676 11.079721 0.000000 0.123356
392.000000 79.054000 7.000000 3.000000 3.000000 110.358304 -15.927058 1282.140098 525.677620 12.656051 0.000000 0.126496
393.000000 73.402000 8.000000 3.000000 3.000000 114.662613 -12.339406 1210.445654 435.124241 13.629722 0.000000 0.121993
394.000000 63.424000 10.000000 3.000000 3.000000 120.736581 -6.051681 1089.104725 297.426933 15.772254 0.000000 0.107635
395.000000 59.164000 11.000000 3.000000 3.000000 122.902297 -3.313242 1037.308321 243.486899 16.907318 0.000000 0.099286
396.000000 51.940000 13.000000 3.000000 3.000000 126.112132 1.462484 947.521446 155.547730 19.257962 0.000000 0.082202
397.000000 48.882000 14.000000 3.000000 3.000000 127.313216 3.543195 908.356527 119.120052 20.462474 0.000000 0.073874
400.000000 82.287000 3.000000 4.000000 3.000000 73.382933 -43.180869 1985.031548 1381.493208 12.165934 0.000000 0.199843
401.000000 84.746000 4.000000 4.000000 3.000000 85.798361 -38.714829 1837.731775 1042.335702 11.810646 0.000000 0.111691
402.000000 83.203000 5.000000 4.000000 3.000000 95.609865 -34.366898 1711.041099 812.924413 12.027724 0.000000 0.079597
403.000000 79.627000 6.000000 4.000000 3.000000 103.320555 -30.180069 1600.917105 646.207935 12.566245 0.000000 0.076009
404.000000 75.208000 7.000000 4.000000 3.000000 109.387997 -26.187453 1504.309706 518.904380 13.303256 0.000000 0.079723
405.000000 70.596000 8.000000 4.000000 3.000000 114.185837 -22.411728 1418.874256 418.119739 14.171418 0.000000 0.082681
406.000000 66.116000 9.000000 4.000000 3.000000 118.005080 -18.865727 1342.778752 336.106243 15.130760 0.000000 0.083396
407.000000 61.917000 10.000000 4.000000 3.000000 121.067884 -15.553777 1274.570984 267.911301 16.156054 0.000000 0.082075
408.000000 58.054000 11.000000 4.000000 3.000000 123.542750 -12.473423 1213.084970 210.211605 17.230594 0.000000 0.079213
409.000000 54.532000 12.000000 4.000000 3.000000 125.557540 -9.617191 1157.373745 160.688227 18.342877 0.000000 0.075260
410.000000 51.335000 13.000000 4.000000 3.000000 127.209661 -6.974192 1106.660244 117.670225 19.484723 0.000000 0.070577
411.000000 48.437000 14.000000 4.000000 3.000000 128.573756 -4.531459 1060.300837 79.920782 20.650156 0.000000 0.065434
412.000000 45.808000 15.000000 4.000000 3.000000 129.707403 -2.274989 1017.757860 46.503318 21.834712 0.000000 0.060044
416.000000 75.051000 4.000000 5.000000 3.000000 82.545459 -46.863841 2123.699221 1146.969111 13.336635 0.000000 0.210171
417.000000 75.277000 5.000000 5.000000 3.000000 92.457499 -42.888564 1974.754117 877.954419 13.294455 0.000000 0.120590
418.000000 73.397000 6.000000 5.000000 3.000000 100.520382 -38.967792 1845.564611 683.925391 13.633218 0.000000 0.065115
419.000000 70.399000 7.000000 5.000000 3.000000 107.052864 -35.136059 1732.444676 537.298215 14.212447 0.000000 0.034535
420.000000 66.906000 8.000000 5.000000 3.000000 112.345145 -31.423216 1632.571586 422.552875 14.953174 0.000000 0.028099
421.000000 63.285000 9.000000 5.000000 3.000000 116.642254 -27.853357 1543.747154 330.285243 15.807598 0.000000 0.034837
422.000000 59.739000 10.000000 5.000000 3.000000 120.143498 -24.444369 1464.234057 254.463098 16.745087 0.000000 0.041945
423.000000 56.370000 11.000000 5.000000 3.000000 123.008064 -21.208053 1392.641074 191.038243 17.745107 0.000000 0.046677
424.000000 53.224000 12.000000 5.000000 3.000000 125.362075 -18.150669 1327.840990 137.192214 18.793376 0.000000 0.049099
425.000000 50.315000 13.000000 5.000000 3.000000 127.305206 -15.273747 1268.910804 90.901937 19.879654 0.000000 0.049685
426.000000 47.637000 14.000000 5.000000 3.000000 128.916290 -12.575013 1215.087492 50.677400 20.996407 0.000000 0.048881
429.000000 67.456000 5.000000 6.000000 3.000000 88.800021 -49.756880 2246.679763 975.897261 14.836429 0.000000 0.246515
430.000000 65.157000 7.000000 6.000000 3.000000 103.884829 -42.660089 1966.788538 579.212872 15.356364 0.000000 0.101149
431.000000 62.716000 8.000000 6.000000 3.000000 109.581670 -39.165961 1851.739979 447.186749 15.952661 0.000000 0.059896
432.000000 57.086000 10.000000 6.000000 3.000000 118.238400 -32.407624 1658.238023 256.334963 17.523605 0.000000 0.014828
433.000000 54.255000 11.000000 6.000000 3.000000 121.506279 -29.182932 1576.099853 185.369613 18.437362 0.000000 0.013875
434.000000 48.953000 13.000000 6.000000 3.000000 126.507426 -23.112920 1434.365296 74.844539 20.432534 0.000000 0.026027
435.000000 46.539000 14.000000 6.000000 3.000000 128.414724 -20.284249 1372.797001 31.058557 21.492213 0.000000 0.029608
439.000000 60.650000 6.000000 7.000000 3.000000 93.283219 -52.078531 2356.492634 840.537271 16.500049 0.000000 0.297960
440.000000 59.876000 7.000000 7.000000 3.000000 100.311740 -48.872816 2207.598259 643.274721 16.711403 0.000000 0.215491
441.000000 58.339000 8.000000 7.000000 3.000000 106.288732 -45.665509 2076.592263 490.971351 17.150236 0.000000 0.156551
442.000000 56.354000 9.000000 7.000000 3.000000 111.357243 -42.476599 1960.433619 370.371546 17.752889 0.000000 0.114323
443.000000 54.141000 10.000000 7.000000 3.000000 115.650191 -39.325397 1856.733636 272.876025 18.477429 0.000000 0.084394
444.000000 51.844000 11.000000 7.000000 3.000000 119.285649 -36.229857 1763.589943 192.680503 19.295107 0.000000 0.063802
445.000000 49.555000 12.000000 7.000000 3.000000 122.365802 -33.206018 1679.468719 125.736707 20.185560 0.000000 0.050393
446.000000 47.329000 13.000000 7.000000 3.000000 124.977753 -30.267606 1603.119568 69.142170 21.133954 0.000000 0.042327
450.000000 54.002000 8.000000 8.000000 3.000000 102.763415 -51.068203 2307.352451 553.018710 18.528550 0.000000 0.274677
451.000000 52.685000 9.000000 8.000000 3.000000 108.068058 -48.146669 2176.516991 414.756787 18.989936 0.000000 0.214897
452.000000 51.058000 10.000000 8.000000 3.000000 112.643241 -45.227584 2059.878711 303.521416 19.593762 0.000000 0.170325
453.000000 49.262000 11.000000 8.000000 3.000000 116.583947 -42.326003 1955.245695 212.510520 20.307189 0.000000 0.137022
454.000000 47.393000 12.000000 8.000000 3.000000 119.976078 -39.456442 1860.855159 136.967605 21.106752 0.000000 0.112157
455.000000 45.519000 13.000000 8.000000 3.000000 122.895600 -36.632466 1775.273329 73.477839 21.975237 0.000000 0.093629
459.000000 46.610000 11.000000 9.000000 3.000000 113.599952 -47.539779 2151.207499 244.457948 21.463435 0.000000 0.224882
462.000000 46.596000 7.000000 -4.000000 4.000000 64.385256 40.179648 66.115960 1616.389202 21.488134 0.000000 0.218628
463.000000 45.877000 9.000000 -4.000000 4.000000 76.473907 40.284048 62.751130 1280.404086 21.820615 0.000000 0.157301
465.000000 51.115000 5.000000 -3.000000 4.000000 54.945055 34.140833 245.174809 1853.413360 19.591574 0.000000 0.224646
466.000000 53.109000 6.000000 -3.000000 4.000000 64.033796 34.533501 234.356495 1577.272658 18.853629 0.000000 0.165162
467.000000 53.146000 7.000000 -3.000000 4.000000 71.491736 34.885944 224.559177 1380.228430 18.838174 0.000000 0.138181
468.000000 52.081000 8.000000 -3.000000 4.000000 77.672086 35.204019 215.644830 1228.869490 19.221138 0.000000 0.122975
469.000000 50.434000 9.000000 -3.000000 4.000000 82.848594 35.492502 207.499237 1106.858138 19.847054 0.000000 0.111399
470.000000 48.511000 10.000000 -3.000000 4.000000 87.230368 35.755327 200.027064 1005.160810 20.632033 0.000000 0.100822
471.000000 46.492000 11.000000 -3.000000 4.000000 90.976852 35.995760 193.148117 918.317114 21.526821 0.000000 0.090598
473.000000 60.413000 5.000000 -2.000000 4.000000 62.801832 27.103189 424.156789 1562.326019 16.575127 0.000000 0.120333
474.000000 59.351000 7.000000 -2.000000 4.000000 78.546885 28.678806 386.263459 1189.548509 16.866898 0.000000 0.114482
475.000000 54.596000 9.000000 -2.000000 4.000000 89.071231 29.945432 354.967205 961.136536 18.332543 0.000000 0.107989
476.000000 49.379000 11.000000 -2.000000 4.000000 96.477512 30.984898 328.683198 798.459566 20.266365 0.000000 0.090938
477.000000 60.147000 3.000000 -1.000000 4.000000 46.260317 15.499237 676.532617 2009.825172 16.653012 0.000000 0.201984
478.000000 67.285000 4.000000 -1.000000 4.000000 59.812427 17.291596 639.944837 1596.742424 14.883565 0.000000 0.077308
479.000000 68.774000 5.000000 -1.000000 4.000000 70.333861 18.863990 607.257680 1347.484460 14.558750 0.000000 0.099381
480.000000 67.384000 6.000000 -1.000000 4.000000 78.592803 20.252583 577.878944 1172.470160 14.856642 0.000000 0.123886
481.000000 64.665000 7.000000 -1.000000 4.000000 85.174044 21.486444 551.330533 1038.656727 15.479430 0.000000 0.133408
482.000000 61.429000 8.000000 -1.000000 4.000000 90.502078 22.589096 527.222237 930.784582 16.293097 0.000000 0.133355
483.000000 58.089000 9.000000 -1.000000 4.000000 94.881525 23.579710 505.232423 840.704393 17.228424 0.000000 0.127809
484.000000 54.846000 10.000000 -1.000000 4.000000 98.531931 24.474024 485.093606 763.593351 18.246051 0.000000 0.119209
485.000000 51.789000 11.000000 -1.000000 4.000000 101.613335 25.285052 466.581513 696.370472 19.321944 0.000000 0.108997
486.000000 48.952000 12.000000 -1.000000 4.000000 104.244056 26.023627 449.506696 636.948071 20.440596 0.000000 0.098034
487.000000 46.341000 13.000000 -1.000000 4.000000 106.512878 26.698825 433.708025 583.844232 21.591557 0.000000 0.086836
488.000000 70.212000 3.000000 0.000000 4.000000 53.601528 4.650407 887.450324 1737.089060 14.264732 0.000000 0.067438
489.000000 74.992000 5.000000 0.000000 4.000000 76.876273 9.513918 794.621318 1195.430996 13.350342 0.000000 0.128423
490.000000 68.564000 7.000000 0.000000 4.000000 90.937421 13.335711 719.866399 922.901056 14.597789 0.000000 0.158075
491.000000 60.676000 9.000000 0.000000 4.000000 99.989621 16.392853 658.375242 743.388226 16.492680 0.000000 0.148365
492.000000 53.601000 11.000000 0.000000 4.000000 106.184687 18.880781 606.905415 610.855764 18.667328 0.000000 0.127551
493.000000 47.670000 13.000000 0.000000 4.000000 110.643044 20.937691 563.191709 506.857933 20.988146 0.000000 0.104435
494.000000 62.822000 2.000000 1.000000 4.000000 42.559298 -10.486697 1174.220885 2133.041777 15.944767 0.000000 0.248217
495.000000 75.621000 3.000000 1.000000 4.000000 59.191881 -6.831723 1103.944747 1587.396432 13.243373 0.000000 0.030220
496.000000 79.306000 4.000000 1.000000 4.000000 71.981638 -3.550424 1041.779775 1291.763818 12.625370 0.000000 0.106018
497.000000 78.185000 5.000000 1.000000 4.000000 81.805460 -0.606759 986.398318 1096.000378 12.804042 0.000000 0.150718
498.000000 74.856000 6.000000 1.000000 4.000000 89.427208 2.035489 936.747484 951.766973 13.371358 0.000000 0.168475
499.000000 70.692000 7.000000 1.000000 4.000000 95.426740 4.410696 891.981561 838.449700 14.157293 0.000000 0.172201
500.000000 66.368000 8.000000 1.000000 4.000000 100.223486 6.550356 851.413444 745.613115 15.078380 0.000000 0.168423
501.000000 62.195000 9.000000 1.000000 4.000000 104.117152 8.482692 814.479120 667.317041 16.088842 0.000000 0.160601
502.000000 58.304000 10.000000 1.000000 4.000000 107.322696 10.232627 780.711286 599.878237 17.161478 0.000000 0.150655
503.000000 54.736000 11.000000 1.000000 4.000000 109.995949 11.821980 749.719470 540.859670 18.279110 0.000000 0.139688
504.000000 51.491000 12.000000 1.000000 4.000000 112.251434 13.269743 721.174868 488.565028 19.430354 0.000000 0.128347
505.000000 48.548000 13.000000 1.000000 4.000000 114.174538 14.592408 694.798629 441.764917 20.607366 0.000000 0.117017
506.000000 45.881000 14.000000 1.000000 4.000000 115.829844 15.804273 670.352718 399.538714 21.804569 0.000000 0.105929
507.000000 75.815000 3.000000 2.000000 4.000000 62.556832 -18.073679 1326.240026 1528.936938 13.208377 0.000000 0.079096
508.000000 78.161000 5.000000 2.000000 4.000000 84.767352 -10.924886 1182.746473 1041.388246 12.807104 0.000000 0.153207
509.000000 70.956000 7.000000 2.000000 4.000000 98.366379 -4.927494 1067.791266 782.124791 14.103837 0.000000 0.171476
510.000000 62.595000 9.000000 2.000000 4.000000 107.052019 0.072890 973.630776 610.874742 15.985099 0.000000 0.161614
511.000000 55.164000 11.000000 2.000000 4.000000 112.884552 4.246133 895.090556 485.447007 18.136340 0.000000 0.143053
512.000000 48.957000 13.000000 2.000000 4.000000 116.982153 7.746934 828.581442 387.975514 20.434372 0.000000 0.122522
513.000000 61.683000 2.000000 3.000000 4.000000 48.706031 -32.365783 1657.135843 2060.220270 16.236499 0.000000 0.267909
514.000000 71.994000 3.000000 3.000000 4.000000 63.863300 -28.301969 1554.572472 1540.829214 13.908457 0.000000 0.123396
515.000000 75.720000 4.000000 3.000000 4.000000 76.079384 -24.440628 1464.149275 1234.024733 13.221519 0.000000 0.116099
516.000000 75.425000 5.000000 3.000000 4.000000 85.801391 -20.799318 1383.831191 1025.520015 13.271008 0.000000 0.137029
517.000000 72.979000 6.000000 3.000000 4.000000 93.527568 -17.386608 1312.013939 871.474609 13.713979 0.000000 0.150297
518.000000 69.534000 7.000000 3.000000 4.000000 99.697434 -14.203574 1247.415761 751.275378 14.391813 0.000000 0.155258
519.000000 65.740000 8.000000 3.000000 4.000000 104.663945 -11.245494 1189.000256 653.850169 15.221049 0.000000 0.154624
520.000000 61.940000 9.000000 3.000000 4.000000 108.699229 -8.503493 1135.920347 572.661427 16.153582 0.000000 0.150495
521.000000 58.305000 10.000000 3.000000 4.000000 112.009793 -5.965977 1087.476941 503.565638 17.159734 0.000000 0.144250
522.000000 54.909000 11.000000 3.000000 4.000000 114.751817 -3.619792 1043.087966 443.788213 18.220205 0.000000 0.136775
523.000000 51.776000 12.000000 3.000000 4.000000 117.043782 -1.451116 1002.264869 391.388056 19.321896 0.000000 0.128631
524.000000 48.905000 13.000000 3.000000 4.000000 118.976152 0.553909 964.594557 344.957987 20.455608 0.000000 0.120181
525.000000 46.281000 14.000000 3.000000 4.000000 120.618555 2.408743 929.725374 303.447454 21.614690 0.000000 0.111662
526.000000 66.000000 3.000000 4.000000 4.000000 63.670809 -37.106652 1789.191410 1608.850730 15.171001 0.000000 0.187077
527.000000 70.862000 5.000000 4.000000 4.000000 85.267605 -29.736881 1589.825957 1043.613031 14.125281 0.000000 0.112919
528.000000 66.791000 7.000000 4.000000 4.000000 99.581701 -22.960328 1430.980573 743.679307 14.982512 0.000000 0.124960
529.000000 60.383000 9.000000 4.000000 4.000000 109.103294 -16.872624 1301.441559 551.461702 16.569766 0.000000 0.127145
530.000000 54.037000 11.000000 4.000000 4.000000 115.584444 -11.490235 1193.783522 415.146634 18.513770 0.000000 0.120498
531.000000 48.423000 13.000000 4.000000 4.000000 120.118672 -6.776584 1102.894218 312.232637 20.658673 0.000000 0.109651
533.000000 59.339000 3.000000 5.000000 4.000000 62.579726 -44.437337 2030.360085 1723.028352 16.873518 0.000000 0.285550
534.000000 63.861000 4.000000 5.000000 4.000000 74.026230 -40.941133 1908.668647 1348.858203 15.676125 0.000000 0.171934
535.000000 65.365000 5.000000 5.000000 4.000000 83.654563 -37.501447 1800.912831 1091.866354 15.313122 0.000000 0.113947
536.000000 64.869000 6.000000 5.000000 4.000000 91.673927 -34.140953 1704.828500 902.997079 15.428271 0.000000 0.091233
537.000000 63.164000 7.000000 5.000000 4.000000 98.326243 -30.879142 1618.616792 757.466631 15.842861 0.000000 0.087256
538.000000 60.800000 8.000000 5.000000 4.000000 103.843269 -27.731845 1540.830448 641.356234 16.457373 0.000000 0.089535
539.000000 58.130000 9.000000 5.000000 4.000000 108.428506 -24.711065 1470.291910 546.218584 17.211990 0.000000 0.092348
540.000000 55.371000 10.000000 5.000000 4.000000 112.252766 -21.825066 1406.033288 466.613227 18.068593 0.000000 0.093959
541.000000 52.649000 11.000000 5.000000 4.000000 115.456065 -19.078672 1347.251688 398.867694 19.001744 0.000000 0.094104
542.000000 50.035000 12.000000 5.000000 4.000000 118.151810 -16.473696 1293.275490 340.406715 19.993813 0.000000 0.092948
543.000000 47.563000 13.000000 5.000000 4.000000 120.431394 -14.009435 1243.538571 289.366664 21.032199 0.000000 0.090751
545.000000 59.622000 5.000000 6.000000 4.000000 81.413184 -44.080262 2017.282990 1167.236892 16.788241 0.000000 0.173705
546.000000 59.059000 7.000000 6.000000 4.000000 96.280031 -37.820002 1810.461391 791.059269 16.944436 0.000000 0.074242
547.000000 55.398000 9.000000 6.000000 4.000000 106.907915 -31.809310 1642.572859 556.011884 18.061043 0.000000 0.051377
548.000000 50.860000 11.000000 6.000000 4.000000 114.507029 -26.155722 1503.569693 394.369632 19.670289 0.000000 0.057802
549.000000 46.386000 13.000000 6.000000 4.000000 119.990488 -20.927450 1386.587755 275.969669 21.565747 0.000000 0.063367
552.000000 54.070000 5.000000 7.000000 4.000000 78.881866 -49.588723 2239.137299 1267.275146 18.512533 0.000000 0.279210
553.000000 54.997000 6.000000 7.000000 4.000000 86.858896 -46.682862 2116.451504 1027.095256 18.198169 0.000000 0.191135
554.000000 54.797000 7.000000 7.000000 4.000000 93.756101 -43.786920 2006.657558 843.123060 18.262673 0.000000 0.128159
555.000000 53.834000 8.000000 7.000000 4.000000 99.691657 -40.915493 1907.824878 697.756910 18.587787 0.000000 0.082522
556.000000 52.386000 9.000000 7.000000 4.000000 104.787605 -38.082442 1818.390031 580.040213 19.099833 0.000000 0.049537
557.000000 50.657000 10.000000 7.000000 4.000000 109.159553 -35.300517 1737.073418 482.797859 19.750514 0.000000 0.026983
558.000000 48.786000 11.000000 7.000000 4.000000 112.911822 -32.581058 1662.817661 401.135551 20.506849 0.000000 0.016756
559.000000 46.867000 12.000000 7.000000 4.000000 116.135866 -29.933782 1594.741366 331.600985 21.345553 0.000000 0.020254
561.000000 50.605000 7.000000 8.000000 4.000000 90.996880 -48.867214 2207.355049 912.529362 19.776232 0.000000 0.221805
562.000000 49.259000 9.000000 8.000000 4.000000 102.287282 -43.541659 1997.853430 617.605940 20.313102 0.000000 0.114012
563.000000 46.533000 11.000000 8.000000 4.000000 110.847633 -38.302385 1825.078748 418.706574 21.500006 0.000000 0.051739
566.000000 46.635000 8.000000 9.000000 4.000000 94.225401 -50.721579 2290.985529 815.397124 21.458498 0.000000 0.260648
567.000000 46.139000 9.000000 9.000000 4.000000 99.582391 -48.254527 2181.077673 668.102547 21.687183 0.000000 0.201060
568.000000 46.105000 7.000000 -3.000000 5.000000 65.215821 30.455108 342.149584 1517.498688 21.717695 0.000000 0.132041
569.000000 46.070000 8.000000 -3.000000 5.000000 71.602388 30.940479 329.817959 1358.377683 21.731741 0.000000 0.120625
570.000000 48.975000 5.000000 -2.000000 5.000000 55.117197 22.772453 523.176339 1754.788465 20.449045 0.000000 0.133929
571.000000 50.967000 6.000000 -2.000000 5.000000 63.934411 23.727381 501.926249 1516.081198 19.646932 0.000000 0.101190
572.000000 51.170000 7.000000 -2.000000 5.000000 71.238848 24.591783 482.420696 1343.054333 19.566575 0.000000 0.106971
573.000000 50.325000 8.000000 -2.000000 5.000000 77.338776 25.377606 464.453324 1208.611898 19.892881 0.000000 0.115755
574.000000 48.899000 9.000000 -2.000000 5.000000 82.479399 26.094839 447.849085 1099.218167 20.470869 0.000000 0.119891
575.000000 47.179000 10.000000 -2.000000 5.000000 86.852045 26.751889 432.458524 1007.288814 21.215433 0.000000 0.119563
576.000000 51.532000 4.000000 -1.000000 5.000000 50.810156 13.826717 710.104545 1844.672329 19.436043 0.000000 0.130664
577.000000 55.303000 5.000000 -1.000000 5.000000 61.308832 15.364967 679.247059 1551.872339 18.108090 0.000000 0.066927
578.000000 56.237000 6.000000 -1.000000 5.000000 69.860051 16.750795 651.055907 1353.210094 17.804454 0.000000 0.096182
579.000000 55.537000 7.000000 -1.000000 5.000000 76.875290 18.004381 625.199813 1204.871938 18.026614 0.000000 0.121663
580.000000 53.951000 8.000000 -1.000000 5.000000 82.685769 19.142746 601.400197 1087.234295 18.554392 0.000000 0.134730
581.000000 51.928000 9.000000 -1.000000 5.000000 87.548454 20.180291 579.421098 990.093917 19.275486 0.000000 0.139207
582.000000 49.728000 10.000000 -1.000000 5.000000 91.660022 21.129245 559.061324 907.559765 20.126610 0.000000 0.138211
583.000000 47.500000 11.000000 -1.000000 5.000000 95.170760 22.000028 540.148276 835.954297 21.069386 0.000000 0.133781
584.000000 54.825000 3.000000 1.000000 5.000000 48.715973 -6.598627 1099.505360 1892.318099 18.269569 0.000000 0.136942
585.000000 61.055000 4.000000 1.000000 5.000000 61.100649 -3.865134 1047.716405 1536.484898 16.402403 0.000000 0.027239
586.000000 63.068000 5.000000 1.000000 5.000000 71.105261 -1.367728 1000.697487 1309.492478 15.876252 0.000000 0.100635
587.000000 62.605000 6.000000 1.000000 5.000000 79.197229 0.914562 957.818603 1146.394218 15.991303 0.000000 0.141233
588.000000 60.805000 7.000000 1.000000 5.000000 85.786042 3.002007 918.556011 1020.410699 16.462525 0.000000 0.161252
589.000000 58.354000 8.000000 1.000000 5.000000 91.200716 4.913649 882.470741 918.358180 17.152023 0.000000 0.169317
590.000000 55.647000 9.000000 1.000000 5.000000 95.695948 6.667042 849.192103 832.917519 17.984949 0.000000 0.170243
591.000000 52.901000 10.000000 1.000000 5.000000 99.466183 8.278144 818.404916 759.653599 18.917166 0.000000 0.166835
592.000000 50.232000 11.000000 1.000000 5.000000 102.659565 9.761341 789.839485 695.693210 19.920961 0.000000 0.160790
593.000000 47.698000 12.000000 1.000000 5.000000 105.389437 11.129512 763.263688 639.074431 20.978057 0.000000 0.153167
594.000000 56.425000 3.000000 2.000000 5.000000 52.220902 -15.976683 1283.148459 1808.748543 17.750201 0.000000 0.120657
595.000000 62.019000 4.000000 2.000000 5.000000 64.267161 -12.917750 1221.855240 1473.214723 16.146317 0.000000 0.067560
596.000000 63.767000 5.000000 2.000000 5.000000 74.082991 -10.076621 1166.264136 1252.744721 15.701235 0.000000 0.116593
597.000000 63.201000 6.000000 2.000000 5.000000 82.069653 -7.443374 1115.614812 1092.203395 15.839490 0.000000 0.149259
598.000000 61.361000 7.000000 2.000000 5.000000 88.595678 -5.005960 1069.276360 967.486331 16.312539 0.000000 0.166039
599.000000 58.889000 8.000000 2.000000 5.000000 93.966949 -2.751209 1026.720884 866.275907 16.995476 0.000000 0.172792
600.000000 56.163000 9.000000 2.000000 5.000000 98.425933 -0.665575 987.503300 781.558130 17.818654 0.000000 0.173336
601.000000 53.398000 10.000000 2.000000 5.000000 102.161041 1.264338 951.245711 709.006387 18.740174 0.000000 0.170022
602.000000 50.707000 11.000000 2.000000 5.000000 105.317757 3.051420 917.625189 645.782070 19.733315 0.000000 0.164319
603.000000 48.150000 12.000000 2.000000 5.000000 108.008516 4.707845 886.364134 589.929455 20.780233 0.000000 0.157160
604.000000 45.752000 13.000000 2.000000 5.000000 110.320637 6.244951 857.222587 540.046601 21.868557 0.000000 0.149152
605.000000 55.408000 3.000000 3.000000 5.000000 54.336236 -24.737914 1470.903201 1791.404600 18.074831 0.000000 0.150007
606.000000 60.672000 4.000000 3.000000 5.000000 66.019938 -21.533961 1399.700696 1455.672435 16.503943 0.000000 0.094572
607.000000 62.510000 5.000000 3.000000 5.000000 75.683492 -18.503175 1335.189354 1230.647256 16.015972 0.000000 0.119015
608.000000 62.183000 6.000000 3.000000 5.000000 83.638650 -15.647475 1276.468312 1065.608698 16.097961 0.000000 0.144073
609.000000 60.599000 7.000000 3.000000 5.000000 90.194638 -12.965090 1222.791481 937.248089 16.516744 0.000000 0.158777
610.000000 58.352000 8.000000 3.000000 5.000000 95.621838 -10.451424 1173.535671 833.266842 17.151076 0.000000 0.165460
611.000000 55.807000 9.000000 3.000000 5.000000 100.142981 -8.099840 1128.176288 746.509446 17.931673 0.000000 0.166752
612.000000 53.180000 10.000000 3.000000 5.000000 103.936306 -5.902338 1086.268578 672.496765 18.816071 0.000000 0.164523
613.000000 50.594000 11.000000 3.000000 5.000000 107.142631 -3.850115 1047.432993 608.260882 19.776795 0.000000 0.160019
614.000000 48.114000 12.000000 3.000000 5.000000 109.872764 -1.933995 1011.343665 551.743740 20.795277 0.000000 0.154067
615.000000 45.771000 13.000000 3.000000 5.000000 112.213998 -0.144757 977.719241 501.464266 21.858522 0.000000 0.147219
616.000000 52.598000 3.000000 4.000000 5.000000 55.288008 -32.584519 1662.909232 1825.876144 19.039327 0.000000 0.202177
617.000000 57.681000 4.000000 4.000000 5.000000 66.571595 -29.396433 1581.372392 1476.312237 17.358935 0.000000 0.122773
618.000000 59.790000 5.000000 4.000000 5.000000 76.079962 -26.327316 1507.576382 1238.626699 16.744123 0.000000 0.115352
619.000000 59.895000 6.000000 4.000000 5.000000 84.031785 -23.387207 1440.468825 1063.591125 16.712414 0.000000 0.128808
620.000000 58.756000 7.000000 4.000000 5.000000 90.668498 -20.582619 1379.179837 927.585478 17.034409 0.000000 0.140777
621.000000 56.904000 8.000000 4.000000 5.000000 96.216275 -17.916896 1322.984112 817.792588 17.587090 0.000000 0.147814
622.000000 54.687000 9.000000 4.000000 5.000000 100.871088 -15.390660 1271.272083 726.613389 18.298560 0.000000 0.150592
623.000000 52.323000 10.000000 4.000000 5.000000 104.796013 -13.002305 1223.527727 649.230220 19.123987 0.000000 0.150240
624.000000 49.943000 11.000000 4.000000 5.000000 108.123938 -10.748480 1179.311275 582.423937 20.033965 0.000000 0.147690
625.000000 47.624000 12.000000 4.000000 5.000000 110.962079 -8.624534 1138.245636 523.950553 21.008403 0.000000 0.143636
626.000000 48.847000 3.000000 5.000000 5.000000 55.395440 -39.407454 1859.312599 1902.122329 20.500477 0.000000 0.274010
627.000000 53.765000 4.000000 5.000000 5.000000 66.233918 -36.347632 1766.995149 1529.428541 18.622610 0.000000 0.167229
628.000000 56.752000 6.000000 5.000000 5.000000 83.481049 -30.449538 1607.709618 1083.665964 17.637725 0.000000 0.112588
629.000000 56.131000 7.000000 5.000000 5.000000 90.201951 -27.635517 1538.522853 936.717825 17.830818 0.000000 0.116288
630.000000 54.759000 8.000000 5.000000 5.000000 95.891562 -24.923582 1475.137713 818.530501 18.275944 0.000000 0.121814
631.000000 52.955000 9.000000 5.000000 5.000000 100.714362 -22.319745 1416.853822 720.859482 18.896869 0.000000 0.125740
632.000000 48.833000 11.000000 5.000000 5.000000 108.310872 -17.449420 1313.309971 567.641944 20.489104 0.000000 0.127420
633.000000 46.739000 12.000000 5.000000 5.000000 111.306654 -15.184733 1267.114748 506.040355 21.406166 0.000000 0.125822
634.000000 49.502000 4.000000 6.000000 5.000000 65.312712 -42.368271 1956.699279 1610.642102 20.226184 0.000000 0.235839
635.000000 52.121000 5.000000 6.000000 5.000000 74.385859 -39.529842 1863.170438 1330.985470 19.207164 0.000000 0.157766
636.000000 53.141000 6.000000 6.000000 5.000000 82.250010 -36.735664 1778.287678 1123.775624 18.836088 0.000000 0.115695
637.000000 53.023000 7.000000 6.000000 5.000000 89.023117 -33.997637 1700.905063 963.136396 18.876200 0.000000 0.097869
638.000000 52.141000 8.000000 6.000000 5.000000 94.838706 -31.326166 1630.070595 834.340067 19.193567 0.000000 0.093733
639.000000 50.779000 9.000000 6.000000 5.000000 99.828474 -28.730011 1564.986852 728.364181 19.706724 0.000000 0.095117
640.000000 49.138000 10.000000 6.000000 5.000000 104.113340 -26.216215 1504.980840 639.358289 20.363277 0.000000 0.097692
641.000000 47.357000 11.000000 6.000000 5.000000 107.799884 -23.790119 1449.480636 563.353170 21.127993 0.000000 0.099755
642.000000 45.526000 12.000000 6.000000 5.000000 110.979809 -21.455447 1397.997097 497.554696 21.976309 0.000000 0.100805
643.000000 48.011000 5.000000 7.000000 5.000000 72.836606 -44.874945 2046.606233 1410.083596 20.851544 0.000000 0.225740
644.000000 49.369000 6.000000 7.000000 5.000000 80.579567 -42.240286 1952.303906 1182.207599 20.275588 0.000000 0.156352
645.000000 49.684000 7.000000 7.000000 5.000000 87.355076 -39.632417 1866.414254 1005.558503 20.144878 0.000000 0.110861
646.000000 49.254000 8.000000 7.000000 5.000000 93.257470 -37.061532 1787.859609 864.235523 20.318846 0.000000 0.083450
647.000000 48.318000 9.000000 7.000000 5.000000 98.387556 -34.536945 1715.738832 748.353699 20.710463 0.000000 0.070024
648.000000 47.059000 10.000000 7.000000 5.000000 102.843359 -32.066923 1649.292588 651.436065 21.262964 0.000000 0.066067
649.000000 45.609000 11.000000 7.000000 5.000000 106.715228 -29.658575 1587.876509 569.055832 21.937744 0.000000 0.066940
650.000000 45.647000 6.000000 8.000000 5.000000 78.662080 -47.016807 2129.863309 1257.530948 21.929099 0.000000 0.229933
651.000000 46.306000 7.000000 8.000000 5.000000 85.387179 -44.566820 2035.141629 1062.890806 21.614586 0.000000 0.164256
652.000000 46.262000 8.000000 8.000000 5.000000 91.327697 -42.131576 1948.584470 907.363416 21.633190 0.000000 0.116028
653.000000 45.710000 9.000000 8.000000 5.000000 96.557525 -39.719631 1869.179836 780.149636 21.892335 0.000000 0.080964
654.000000 46.863000 6.000000 -1.000000 6.000000 62.281344 14.054845 705.555126 1523.966107 21.368918 0.000000 0.063026
655.000000 47.512000 7.000000 -1.000000 6.000000 69.486090 15.283147 680.899460 1358.471689 21.074231 0.000000 0.093635
656.000000 47.144000 8.000000 -1.000000 6.000000 75.580985 16.412604 657.972075 1229.481250 21.236382 0.000000 0.118625
657.000000 46.164000 9.000000 -1.000000 6.000000 80.770789 17.453907 636.597402 1124.325363 21.685234 0.000000 0.133382
658.000000 48.479000 5.000000 0.000000 6.000000 58.388408 5.548187 870.450994 1606.558836 20.658436 0.000000 0.025693
659.000000 50.301000 7.000000 0.000000 6.000000 73.792782 8.784610 808.676853 1257.552767 19.904753 0.000000 0.114581
660.000000 49.512000 8.000000 0.000000 6.000000 79.711332 10.214537 781.062161 1139.522378 20.219450 0.000000 0.138769
661.000000 46.572000 10.000000 0.000000 6.000000 89.022857 12.758171 731.298118 959.821996 21.492128 0.000000 0.157203
662.000000 47.501000 4.000000 1.000000 6.000000 52.435437 -4.091269 1051.984873 1770.913115 21.085396 0.000000 0.080521
663.000000 51.025000 5.000000 1.000000 6.000000 62.258655 -1.923099 1011.138745 1507.377243 19.626147 0.000000 0.033914
664.000000 52.283000 6.000000 1.000000 6.000000 70.473062 0.083974 973.422552 1322.705782 19.151343 0.000000 0.096569
665.000000 52.100000 7.000000 1.000000 6.000000 77.353493 1.942850 938.489811 1182.636628 19.216207 0.000000 0.133394
666.000000 51.051000 8.000000 1.000000 6.000000 83.143746 3.665849 906.043359 1070.677534 19.608829 0.000000 0.154089
667.000000 49.515000 9.000000 1.000000 6.000000 88.047468 5.264546 875.826881 977.847723 20.215405 0.000000 0.164660
668.000000 47.730000 10.000000 1.000000 6.000000 92.229782 6.749688 847.618122 898.800171 20.969351 0.000000 0.168718
669.000000 45.847000 11.000000 1.000000 6.000000 95.822758 8.131159 821.223414 830.127459 21.829116 0.000000 0.168513
670.000000 52.087000 5.000000 2.000000 6.000000 65.166730 -9.456362 1154.267304 1445.937974 19.225039 0.000000 0.065777
671.000000 52.835000 7.000000 2.000000 6.000000 80.035750 -5.064648 1070.387367 1130.828509 18.947756 0.000000 0.143687
672.000000 50.110000 9.000000 2.000000 6.000000 90.609162 -1.230767 998.123364 929.553892 19.974093 0.000000 0.170335
673.000000 46.356000 11.000000 2.000000 6.000000 98.295469 2.116770 935.218637 783.965418 21.588583 0.000000 0.173017
674.000000 48.753000 4.000000 3.000000 6.000000 57.655753 -19.384327 1353.692145 1663.526418 20.541504 0.000000 0.095549
675.000000 51.750000 5.000000 3.000000 6.000000 67.072263 -16.797480 1299.900744 1416.549280 19.349174 0.000000 0.086825
676.000000 52.554000 7.000000 3.000000 6.000000 81.793179 -12.032936 1204.420139 1099.714456 19.048411 0.000000 0.144413
677.000000 51.508000 8.000000 3.000000 6.000000 87.506978 -9.848988 1161.856138 988.561663 19.433234 0.000000 0.159863
678.000000 48.231000 10.000000 3.000000 6.000000 96.516702 -5.853215 1085.336031 817.409578 20.749840 0.000000 0.171254
679.000000 46.364000 11.000000 3.000000 6.000000 100.083333 -4.029493 1050.818576 749.131501 21.584168 0.000000 0.170992
680.000000 50.278000 5.000000 4.000000 6.000000 68.052836 -23.728793 1448.105404 1414.747387 19.915067 0.000000 0.102773
681.000000 51.401000 7.000000 4.000000 6.000000 82.667628 -18.763733 1340.640401 1087.268309 19.475113 0.000000 0.136665
682.000000 49.237000 9.000000 4.000000 6.000000 93.326433 -14.246967 1248.283270 876.458007 20.327071 0.000000 0.158020
683.000000 45.908000 11.000000 4.000000 6.000000 101.176740 -10.169133 1168.057355 724.948039 21.797892 0.000000 0.162327
684.000000 48.008000 5.000000 5.000000 6.000000 68.263797 -30.101754 1598.949984 1436.988421 20.856032 0.000000 0.122856
685.000000 49.362000 6.000000 5.000000 6.000000 76.047867 -27.557279 1536.651603 1242.613889 20.281426 0.000000 0.115177
686.000000 49.577000 7.000000 5.000000 6.000000 82.769759 -25.096903 1479.102144 1091.779601 20.191249 0.000000 0.123684
687.000000 49.015000 8.000000 5.000000 6.000000 88.563264 -22.725135 1425.778536 970.266573 20.420527 0.000000 0.133637
688.000000 47.952000 9.000000 5.000000 6.000000 93.558078 -20.444955 1376.231808 869.576801 20.871561 0.000000 0.141012
689.000000 46.584000 10.000000 5.000000 6.000000 97.872003 -18.257960 1330.074414 784.298814 21.482804 0.000000 0.145384
690.000000 47.294000 7.000000 6.000000 6.000000 82.248169 -30.927911 1619.861151 1111.797094 21.165492 0.000000 0.112770
#UB matrix in q= (UB) B0 G* 
#[[-0.9259286   -0.277454802  0.255746667]
# [ 0.249717657 -0.959409776 -0.136731427]
# [ 0.283367815 -0.062788478  0.958095394]]
#B0 matrix in q= UB (B0) G*
#[[ 0.19670273 -0.          0.03056101]
# [ 0.          0.19187965 -0.        ]
# [ 0.          0.          0.18806537]]
#UBB0 matrix in q= (UB B0) G* i.e. recip. basis vectors are columns in LT frame: astar = UBB0[:,0], bstar = UBB0[:,1], cstar = UBB0[:,2]. (abcstar as columns on xyzlab1, xlab1 = ui, ui = unit vector along incident beam)
#[[-0.18213269 -0.05323793  0.01979978]
# [ 0.04912015 -0.18409121 -0.01808282]
# [ 0.05573922 -0.01204783  0.18884457]]
#Euler angles phi theta psi (deg)
#[ 77.54   16.87  118.095]
#deviatoric strain in direct crystal frame (10-3 unit)
#[[ 1.72  0.24 -0.18]
# [ 0.24  0.97  0.01]
# [-0.18  0.01 -2.69]]
#deviatoric strain in sample2 frame (10-3 unit)
#[[-1.02  0.35 -2.14]
# [ 0.35  0.85  0.25]
# [-2.15  0.25  0.17]]
#new lattice parameters
#[ 5.1505     5.2076669  5.3115427 90.0037883 99.2511705 89.9728048]
#CCDLabel
#sCMOS
#DetectorParameters
#[79.0, 975.0, 941.0, 0.0, 0.0]
#pixelsize
#0.0734
#Frame dimensions
#[2018, 2016]
#
