#Strain and Orientation Refinement from experimental file: /home/micha/LaueProjects/DepthEffects/testZrO2_42.cor
#File created at Wed Jun 28 14:20:51 2023 with indexingSpotsSet.py
#Number of indexed spots: 528
#Element
#ZrO2
#grainIndex
#G_0
#Mean Deviation(pixel): 0.113
##spot_index intensity h k l 2theta Chi Xexp Yexp Energy GrainIndex PixDev
8.000000 46.663000 1.000000 2.000000 -1.000000 46.891399 31.010762 328.021964 2116.494208 7.147112 0.000000 0.262932
11.000000 51.959000 2.000000 7.000000 -3.000000 57.261725 40.612522 52.096144 1852.550387 19.252874 0.000000 0.284670
12.000000 47.652000 3.000000 7.000000 -3.000000 54.104557 32.681990 284.509011 1866.501550 20.994619 0.000000 0.215762
15.000000 50.506000 2.000000 8.000000 -3.000000 62.751302 41.472147 23.707623 1680.775113 19.804853 0.000000 0.257608
16.000000 47.092000 3.000000 8.000000 -3.000000 59.876389 34.105498 246.143350 1695.219516 21.242662 0.000000 0.192323
19.000000 48.462000 2.000000 9.000000 -3.000000 67.176697 42.203849 -1.055816 1552.463852 20.638838 0.000000 0.240350
20.000000 45.740000 1.000000 3.000000 -1.000000 64.569345 35.331139 212.062648 1568.302360 7.289545 0.000000 0.179372
22.000000 47.636000 1.000000 10.000000 -3.000000 72.510397 49.629091 -290.943195 1464.579129 20.994173 0.000000 0.346824
23.000000 46.208000 2.000000 10.000000 -3.000000 70.808270 42.834012 -22.846858 1451.865481 21.644393 0.000000 0.228682
29.000000 56.248000 3.000000 4.000000 -2.000000 41.031179 20.123191 580.638167 2258.182316 17.789635 0.000000 0.249771
31.000000 79.214000 1.000000 5.000000 -2.000000 61.374398 45.114981 -105.622794 1773.436044 12.627521 0.000000 0.326245
32.000000 71.262000 2.000000 5.000000 -2.000000 57.145147 33.421258 264.741592 1773.790935 14.038297 0.000000 0.202136
33.000000 60.750000 3.000000 5.000000 -2.000000 51.721137 23.412318 508.971123 1866.563871 16.469516 0.000000 0.157973
34.000000 50.032000 4.000000 5.000000 -2.000000 46.018105 15.222353 682.126368 2017.477397 19.999275 0.000000 0.162914
35.000000 74.230000 1.000000 6.000000 -2.000000 68.217564 45.813332 -132.293089 1558.080907 13.473935 0.000000 0.291768
36.000000 60.793000 3.000000 6.000000 -2.000000 59.739475 26.113681 447.410171 1640.326771 16.455898 0.000000 0.133692
37.000000 52.247000 2.000000 3.000000 -1.000000 54.421070 18.329380 618.437322 1752.104438 9.574713 0.000000 0.108576
39.000000 68.705000 1.000000 7.000000 -2.000000 73.286171 46.368457 -153.975126 1409.374568 14.556179 0.000000 0.272349
40.000000 64.641000 2.000000 7.000000 -2.000000 70.133092 36.878494 167.526941 1427.192404 15.472806 0.000000 0.167864
41.000000 58.807000 3.000000 7.000000 -2.000000 65.882390 28.362560 393.958446 1488.578522 17.009744 0.000000 0.130177
42.000000 52.114000 4.000000 7.000000 -2.000000 61.049196 20.990356 562.057182 1578.710125 19.196284 0.000000 0.103604
44.000000 63.433000 1.000000 8.000000 -2.000000 77.176238 46.820241 -171.948686 1299.031946 15.764870 0.000000 0.260955
45.000000 60.416000 1.000000 4.000000 -1.000000 74.430352 38.155860 129.381740 1322.380689 8.276821 0.000000 0.160487
46.000000 55.999000 3.000000 8.000000 -2.000000 70.692109 30.258384 347.112657 1377.554747 17.860985 0.000000 0.129224
47.000000 50.758000 2.000000 4.000000 -1.000000 66.345009 23.285556 511.796075 1454.259065 9.853724 0.000000 0.110888
49.000000 58.652000 1.000000 9.000000 -2.000000 80.248929 47.195039 -187.090255 1213.201008 17.049210 0.000000 0.254346
50.000000 56.354000 2.000000 9.000000 -2.000000 77.835693 39.227232 96.343646 1240.494109 17.745591 0.000000 0.155493
51.000000 52.952000 3.000000 9.000000 -2.000000 74.535295 31.874914 305.719460 1291.645189 18.887462 0.000000 0.127213
52.000000 48.815000 4.000000 9.000000 -2.000000 70.636088 25.279499 466.709113 1359.321639 20.490030 0.000000 0.116620
54.000000 54.395000 1.000000 10.000000 -2.000000 82.733760 47.510960 -200.020284 1144.171384 18.382399 0.000000 0.250765
55.000000 52.606000 1.000000 5.000000 -1.000000 80.593388 40.138125 67.451356 1174.235692 9.504452 0.000000 0.152381
56.000000 49.939000 3.000000 10.000000 -2.000000 77.662730 33.267544 268.879235 1222.543434 20.025864 0.000000 0.124206
57.000000 46.638000 2.000000 5.000000 -1.000000 74.161465 27.023841 426.036427 1283.766683 10.722494 0.000000 0.118942
59.000000 50.630000 1.000000 11.000000 -2.000000 84.782735 47.780852 -211.190314 1087.253161 19.748958 0.000000 0.249157
60.000000 49.208000 2.000000 11.000000 -2.000000 82.868020 40.921710 41.970585 1119.227499 20.320769 0.000000 0.150886
61.000000 47.082000 3.000000 11.000000 -2.000000 80.249108 34.478427 235.879946 1165.371705 21.240099 0.000000 0.120843
63.000000 47.298000 1.000000 12.000000 -2.000000 86.500152 48.014080 -220.936796 1039.402448 21.139325 0.000000 0.248851
64.000000 46.148000 1.000000 6.000000 -1.000000 84.773837 41.602692 19.330783 1072.653349 10.833581 0.000000 0.150759
66.000000 73.617000 3.000000 3.000000 -1.000000 44.202003 6.605468 850.364413 2055.095902 13.592583 0.000000 0.154820
68.000000 79.703000 3.000000 4.000000 -1.000000 57.157001 12.094284 744.374804 1651.539113 12.552758 0.000000 0.065675
69.000000 60.762000 4.000000 4.000000 -1.000000 48.655241 3.946192 900.753827 1890.289023 16.467820 0.000000 0.092529
70.000000 46.106000 5.000000 4.000000 -1.000000 41.440018 -2.027914 1013.110026 2160.862657 21.703584 0.000000 0.183275
71.000000 78.338000 3.000000 5.000000 -1.000000 66.320842 16.538529 655.399680 1433.363059 12.769477 0.000000 0.095401
72.000000 63.736000 4.000000 5.000000 -1.000000 58.459186 8.469760 814.727446 1608.893255 15.697187 0.000000 0.049341
73.000000 51.150000 5.000000 5.000000 -1.000000 51.298130 2.295899 931.848709 1804.024773 19.561818 0.000000 0.059122
74.000000 84.501000 2.000000 6.000000 -1.000000 79.567396 29.921251 355.572023 1169.645919 11.834830 0.000000 0.116425
75.000000 74.128000 3.000000 6.000000 -1.000000 72.950578 20.169722 579.646454 1292.635527 13.493085 0.000000 0.115249
76.000000 63.149000 4.000000 6.000000 -1.000000 65.937009 12.334175 739.657324 1432.971134 15.841093 0.000000 0.087389
77.000000 52.896000 5.000000 6.000000 -1.000000 59.192078 6.117630 859.642354 1586.477730 18.913814 0.000000 0.042470
79.000000 81.854000 1.000000 7.000000 -1.000000 87.782848 42.727590 -19.135790 997.725307 12.215039 0.000000 0.153613
80.000000 76.502000 2.000000 7.000000 -1.000000 83.482482 32.221924 296.646018 1086.346543 13.071154 0.000000 0.109770
81.000000 69.110000 3.000000 7.000000 -1.000000 77.879096 23.169768 514.371759 1192.427638 14.471335 0.000000 0.121100
82.000000 60.849000 4.000000 7.000000 -1.000000 71.704581 15.645302 673.575695 1310.546668 16.438138 0.000000 0.111607
83.000000 52.664000 5.000000 7.000000 -1.000000 65.516183 9.491340 795.057343 1437.931187 18.995387 0.000000 0.081649
85.000000 73.369000 1.000000 8.000000 -1.000000 90.046897 43.618071 -50.588702 939.783129 13.627001 0.000000 0.159134
86.000000 69.539000 2.000000 8.000000 -1.000000 86.427411 34.087412 246.638806 1022.138733 14.379156 0.000000 0.102940
87.000000 64.123000 3.000000 8.000000 -1.000000 81.641207 25.677194 457.542078 1116.470217 15.595537 0.000000 0.119258
88.000000 57.837000 4.000000 8.000000 -1.000000 76.220284 18.496054 614.959397 1219.336585 17.292621 0.000000 0.122824
89.000000 51.329000 5.000000 8.000000 -1.000000 70.613411 12.471774 736.947519 1328.893212 19.487672 0.000000 0.107085
91.000000 66.393000 1.000000 9.000000 -1.000000 91.809639 44.340173 -76.785903 893.453821 15.058298 0.000000 0.165993
92.000000 63.554000 2.000000 9.000000 -1.000000 88.712355 35.627478 203.667978 970.763399 15.732324 0.000000 0.097866
93.000000 59.482000 3.000000 9.000000 -1.000000 84.582692 27.796513 407.618108 1056.381794 16.811154 0.000000 0.113643
94.000000 54.627000 4.000000 9.000000 -1.000000 79.812663 20.964652 562.611012 1148.121513 18.307348 0.000000 0.126030
95.000000 49.431000 5.000000 9.000000 -1.000000 74.758478 15.110318 684.385581 1244.762793 20.233990 0.000000 0.121260
97.000000 60.581000 1.000000 10.000000 -1.000000 93.219691 44.937351 -98.943145 855.469547 16.502618 0.000000 0.173354
98.000000 58.415000 2.000000 10.000000 -1.000000 90.531065 36.918697 166.346041 928.521670 17.115785 0.000000 0.095309
99.000000 55.281000 3.000000 10.000000 -1.000000 86.931734 29.606702 363.413215 1007.355764 18.087811 0.000000 0.106510
100.000000 51.472000 4.000000 10.000000 -1.000000 82.715197 23.115554 515.576213 1090.596706 19.428586 0.000000 0.124463
101.000000 47.291000 5.000000 10.000000 -1.000000 78.163444 17.453141 636.613222 1177.452006 21.148367 0.000000 0.127985
103.000000 55.676000 1.000000 11.000000 -1.000000 94.372574 45.439340 -117.928052 823.710090 17.956130 0.000000 0.180735
104.000000 53.983000 2.000000 11.000000 -1.000000 92.009746 38.015829 133.627801 893.060968 18.520550 0.000000 0.095306
105.000000 51.521000 3.000000 11.000000 -1.000000 88.842647 31.167861 323.997908 966.411762 19.407246 0.000000 0.099193
106.000000 48.485000 4.000000 11.000000 -1.000000 85.094607 25.001342 473.085047 1042.923463 20.624208 0.000000 0.120127
108.000000 51.488000 1.000000 12.000000 -1.000000 95.332357 45.867158 -134.376402 796.731194 19.416370 0.000000 0.187881
109.000000 50.136000 2.000000 12.000000 -1.000000 93.233635 38.958924 104.710937 862.800086 19.940868 0.000000 0.097482
110.000000 48.167000 3.000000 12.000000 -1.000000 90.422402 32.526164 288.633767 931.588929 20.757825 0.000000 0.092516
111.000000 45.713000 4.000000 12.000000 -1.000000 87.071256 26.664763 434.509466 1002.617205 21.873829 0.000000 0.114285
113.000000 47.874000 1.000000 13.000000 -1.000000 96.143558 46.236073 -148.764724 773.510864 20.881682 0.000000 0.194665
114.000000 46.776000 2.000000 13.000000 -1.000000 94.262137 39.777875 78.969326 836.629758 21.372885 0.000000 0.101298
116.000000 149.958000 2.000000 2.000000 0.000000 61.439878 -4.683106 1063.168006 1528.805662 6.671483 0.000000 0.044727
117.000000 87.308000 3.000000 2.000000 0.000000 44.784823 -13.156353 1226.577688 2054.639096 11.460836 0.000000 0.152474
118.000000 194.577000 1.000000 3.000000 0.000000 94.395862 22.965872 518.896591 851.139258 5.138296 0.000000 0.119766
119.000000 143.937000 2.000000 3.000000 0.000000 76.934215 5.434928 872.598223 1191.912076 6.948684 0.000000 0.133342
120.000000 69.345000 4.000000 3.000000 0.000000 49.548927 -10.902743 1182.315049 1875.522251 14.429116 0.000000 0.090351
121.000000 49.186000 5.000000 3.000000 0.000000 40.661535 -15.022978 1263.854859 2238.348915 20.344179 0.000000 0.212167
123.000000 154.007000 1.000000 4.000000 0.000000 98.293866 29.036909 377.493658 761.547438 6.491268 0.000000 0.082520
124.000000 127.243000 2.000000 4.000000 0.000000 85.727031 12.979537 726.922745 1023.524834 7.858875 0.000000 0.147865
125.000000 98.813000 3.000000 4.000000 0.000000 72.737901 2.383317 930.203845 1275.737014 10.122713 0.000000 0.116181
126.000000 56.897000 5.000000 4.000000 0.000000 52.205859 -9.593731 1156.920416 1787.522375 17.585334 0.000000 0.059965
127.000000 126.531000 1.000000 5.000000 0.000000 100.374607 33.034441 275.126137 705.960244 7.900440 0.000000 0.057549
128.000000 110.982000 2.000000 5.000000 0.000000 91.014005 18.640058 611.949049 920.895469 9.009354 0.000000 0.137718
129.000000 92.456000 3.000000 5.000000 0.000000 80.407578 8.200103 819.901656 1124.774040 10.817011 0.000000 0.142880
130.000000 74.871000 4.000000 5.000000 0.000000 70.315052 0.741671 961.067029 1326.082428 13.360289 0.000000 0.103696
131.000000 48.069000 6.000000 5.000000 0.000000 53.896135 -8.739155 1140.448986 1735.178679 20.814671 0.000000 0.043029
132.000000 107.057000 1.000000 6.000000 0.000000 101.624391 35.840657 197.590472 667.874210 9.337322 0.000000 0.053800
133.000000 60.151000 5.000000 6.000000 0.000000 68.743352 -0.282229 980.301677 1359.696816 16.630106 0.000000 0.094651
134.000000 92.642000 1.000000 7.000000 0.000000 102.440572 37.909915 136.828607 640.056472 10.789897 0.000000 0.066170
135.000000 86.115000 2.000000 7.000000 0.000000 96.679808 26.343647 442.041664 800.341424 11.609348 0.000000 0.100413
136.000000 77.431000 3.000000 7.000000 0.000000 89.520305 16.925025 647.483241 950.419197 12.913569 0.000000 0.142472
137.000000 67.937000 4.000000 7.000000 0.000000 81.918918 9.483835 795.202261 1095.934422 14.720474 0.000000 0.145569
138.000000 58.668000 5.000000 7.000000 0.000000 74.513657 3.640079 906.529410 1239.809383 17.048871 0.000000 0.124156
139.000000 50.222000 6.000000 7.000000 0.000000 67.642846 -0.981438 993.438005 1383.740133 19.918521 0.000000 0.087896
140.000000 81.584000 1.000000 8.000000 0.000000 103.007488 39.495017 87.928671 618.806455 12.252219 0.000000 0.083335
141.000000 70.744000 3.000000 8.000000 0.000000 92.302103 20.208173 578.826480 894.893865 14.133210 0.000000 0.132168
142.000000 56.344000 5.000000 8.000000 0.000000 79.095156 7.126650 840.432053 1149.970422 17.750252 0.000000 0.139806
143.000000 72.850000 1.000000 9.000000 0.000000 103.420225 40.746318 47.726035 602.023438 13.721009 0.000000 0.100406
144.000000 69.507000 2.000000 9.000000 0.000000 99.478149 31.225598 322.515615 730.871267 14.382428 0.000000 0.067770
145.000000 59.417000 4.000000 9.000000 0.000000 88.682908 16.006840 666.238527 966.743891 16.828941 0.000000 0.144434
146.000000 53.664000 5.000000 9.000000 0.000000 82.762610 10.224386 780.871135 1079.886715 18.635536 0.000000 0.146654
147.000000 65.786000 1.000000 10.000000 0.000000 103.732006 41.758318 14.089852 588.422026 15.194311 0.000000 0.116094
148.000000 59.724000 3.000000 10.000000 0.000000 96.008959 25.304739 466.129111 815.682169 16.739524 0.000000 0.106805
149.000000 59.959000 1.000000 11.000000 0.000000 103.974607 42.593188 -14.467198 577.169705 16.670885 0.000000 0.130187
150.000000 58.008000 2.000000 11.000000 0.000000 101.071135 34.551597 233.855492 685.301281 17.232752 0.000000 0.052910
151.000000 55.248000 3.000000 11.000000 0.000000 97.277674 27.307173 419.312438 786.311225 18.095131 0.000000 0.094191
152.000000 51.899000 4.000000 11.000000 0.000000 92.880392 20.942223 563.094112 883.016228 19.264963 0.000000 0.129190
153.000000 48.191000 5.000000 11.000000 0.000000 88.147863 15.435120 677.829263 977.106572 20.749407 0.000000 0.145443
154.000000 55.072000 1.000000 12.000000 0.000000 104.168014 43.293412 -39.014793 567.702646 18.149907 0.000000 0.142776
155.000000 45.618000 5.000000 12.000000 0.000000 90.145068 17.629779 632.963555 938.140617 21.918749 0.000000 0.140688
156.000000 50.918000 1.000000 13.000000 0.000000 104.325349 43.888965 -60.341945 559.624955 19.630809 0.000000 0.154024
157.000000 49.672000 2.000000 13.000000 0.000000 102.072196 36.948410 165.472465 652.964634 20.124212 0.000000 0.058809
158.000000 47.900000 3.000000 13.000000 0.000000 99.120965 30.543502 339.913004 740.361786 20.870118 0.000000 0.072250
159.000000 45.707000 4.000000 13.000000 0.000000 95.642377 24.754423 478.720789 823.904905 21.873440 0.000000 0.110041
160.000000 47.342000 1.000000 14.000000 0.000000 104.455541 44.401580 -79.043385 552.650241 21.113185 0.000000 0.164103
161.000000 152.848000 2.000000 1.000000 1.000000 56.790541 -38.453899 1829.710100 1840.697542 6.544819 0.000000 0.228848
164.000000 174.361000 2.000000 2.000000 1.000000 81.177080 -23.777489 1449.197309 1123.555731 5.735480 0.000000 0.122441
165.000000 107.691000 3.000000 2.000000 1.000000 60.401007 -26.822166 1519.198106 1626.104734 9.289416 0.000000 0.115584
166.000000 69.495000 4.000000 2.000000 1.000000 46.822019 -28.465973 1558.552763 2089.821672 14.397165 0.000000 0.212077
168.000000 160.784000 2.000000 3.000000 1.000000 94.912374 -10.843977 1181.170409 846.812988 6.218338 0.000000 0.159267
169.000000 114.146000 3.000000 3.000000 1.000000 75.692480 -17.297596 1310.178801 1228.496963 8.762219 0.000000 0.120917
170.000000 80.981000 4.000000 3.000000 1.000000 61.411053 -20.980283 1387.725771 1569.192201 12.353522 0.000000 0.086597
171.000000 58.612000 5.000000 3.000000 1.000000 50.823383 -23.342982 1439.483026 1896.261783 17.070166 0.000000 0.140810
173.000000 169.465000 1.000000 4.000000 1.000000 119.483733 14.796602 690.699073 311.593276 5.897057 0.000000 0.077087
174.000000 139.944000 2.000000 4.000000 1.000000 102.142081 -0.381871 982.173501 709.430407 7.143376 0.000000 0.161589
175.000000 109.451000 3.000000 4.000000 1.000000 85.956614 -8.867618 1142.920032 1018.001241 9.136393 0.000000 0.155417
176.000000 83.927000 4.000000 4.000000 1.000000 72.518764 -14.071482 1244.777000 1290.452773 11.917982 0.000000 0.111808
177.000000 64.404000 5.000000 4.000000 1.000000 61.758460 -17.535891 1315.095660 1547.283980 15.533209 0.000000 0.074498
178.000000 49.949000 6.000000 4.000000 1.000000 53.185473 -19.991593 1366.560245 1798.252314 20.030641 0.000000 0.103905
180.000000 138.222000 1.000000 5.000000 1.000000 118.635274 22.511562 528.929833 304.852453 7.229996 0.000000 0.042283
181.000000 120.841000 2.000000 5.000000 1.000000 105.920346 7.746954 828.581065 631.168436 8.272035 0.000000 0.146880
182.000000 100.809000 3.000000 5.000000 1.000000 92.710500 -1.652110 1006.043294 890.024379 9.918344 0.000000 0.166768
183.000000 81.998000 4.000000 5.000000 1.000000 80.737396 -7.850310 1123.396891 1118.189269 12.196532 0.000000 0.144567
184.000000 66.086000 5.000000 5.000000 1.000000 70.481883 -12.151938 1206.758190 1331.263539 15.135915 0.000000 0.103353
185.000000 53.305000 6.000000 5.000000 1.000000 61.886749 -15.279551 1269.027955 1537.077985 18.767649 0.000000 0.067915
187.000000 116.062000 1.000000 6.000000 1.000000 117.528728 27.689664 410.180517 307.478049 8.610573 0.000000 0.011664
188.000000 105.092000 2.000000 6.000000 1.000000 107.911387 14.010274 706.444697 582.464598 9.511202 0.000000 0.125850
189.000000 91.561000 3.000000 6.000000 1.000000 97.172517 4.411856 891.959640 805.154362 10.919241 0.000000 0.164150
190.000000 77.794000 4.000000 6.000000 1.000000 86.764345 -2.343469 1019.046338 1001.897024 12.854247 0.000000 0.160660
191.000000 65.213000 5.000000 6.000000 1.000000 77.336243 -7.230645 1111.552468 1184.776716 15.336796 0.000000 0.133990
192.000000 54.398000 6.000000 6.000000 1.000000 69.070971 -10.881536 1181.901920 1360.158390 18.388549 0.000000 0.096404
194.000000 99.737000 1.000000 7.000000 1.000000 116.466905 31.350436 319.304448 313.548244 10.020088 0.000000 0.021215
195.000000 92.403000 2.000000 7.000000 1.000000 108.960644 18.876339 606.998615 550.211953 10.817030 0.000000 0.103202
196.000000 82.955000 3.000000 7.000000 1.000000 100.163745 9.472904 795.413323 745.379530 12.051253 0.000000 0.154274
197.000000 72.787000 4.000000 7.000000 1.000000 91.195722 2.480424 928.376413 918.514180 13.737332 0.000000 0.165184
198.000000 62.935000 5.000000 7.000000 1.000000 82.694841 -2.778108 1027.227349 1079.137324 15.890499 0.000000 0.152163
199.000000 53.987000 6.000000 7.000000 1.000000 74.948778 -6.813684 1103.601036 1232.482402 18.526676 0.000000 0.124859
200.000000 46.178000 7.000000 7.000000 1.000000 68.038127 -9.979430 1164.381324 1381.685774 21.662521 0.000000 0.090776
202.000000 87.294000 1.000000 8.000000 1.000000 115.523317 34.055274 247.518655 320.716098 11.448498 0.000000 0.045538
203.000000 82.155000 2.000000 8.000000 1.000000 109.498965 22.714458 524.457197 527.841823 12.166158 0.000000 0.081023
204.000000 75.344000 3.000000 8.000000 1.000000 102.205752 13.698925 712.649123 701.367144 13.267986 0.000000 0.140841
205.000000 67.715000 4.000000 8.000000 1.000000 94.482670 6.684363 848.862273 856.043869 14.765262 0.000000 0.162644
206.000000 59.988000 5.000000 8.000000 1.000000 86.889953 1.223223 952.018419 999.492626 16.669713 0.000000 0.160787
207.000000 52.656000 6.000000 8.000000 1.000000 79.741974 -3.076595 1032.849068 1136.062558 18.993534 0.000000 0.143721
208.000000 45.989000 7.000000 8.000000 1.000000 73.182264 -6.513975 1097.894186 1268.429786 21.749411 0.000000 0.117173
210.000000 77.533000 1.000000 9.000000 1.000000 114.703862 36.126863 189.379487 328.000557 12.889923 0.000000 0.067100
211.000000 73.791000 2.000000 9.000000 1.000000 109.752137 25.793583 454.847710 511.759212 13.544998 0.000000 0.060313
212.000000 68.738000 3.000000 9.000000 1.000000 103.625465 17.244621 640.912522 667.831046 14.542625 0.000000 0.125877
213.000000 62.911000 4.000000 9.000000 1.000000 96.949378 10.343271 778.564371 807.645802 15.891792 0.000000 0.155892
214.000000 56.807000 5.000000 9.000000 1.000000 90.191523 4.805173 884.523191 937.389568 17.601804 0.000000 0.162964
215.000000 50.809000 6.000000 9.000000 1.000000 83.653401 0.340454 968.604542 1060.712215 19.682298 0.000000 0.154671
217.000000 69.690000 1.000000 10.000000 1.000000 113.995619 37.760335 141.333341 334.990480 14.340694 0.000000 0.085967
218.000000 66.878000 2.000000 10.000000 1.000000 109.842626 28.305093 395.351824 499.860747 14.945110 0.000000 0.041773
219.000000 63.032000 3.000000 10.000000 1.000000 104.629209 20.240482 578.137187 641.570196 15.858592 0.000000 0.110514
220.000000 58.503000 4.000000 10.000000 1.000000 98.824227 13.532031 715.968142 769.143948 17.088469 0.000000 0.146696
221.000000 53.634000 5.000000 10.000000 1.000000 92.809184 8.006466 823.612838 887.667626 18.642305 0.000000 0.160878
222.000000 48.713000 6.000000 10.000000 1.000000 86.855722 3.455547 910.009144 1000.231934 20.527905 0.000000 0.159888
224.000000 63.260000 1.000000 11.000000 1.000000 113.382112 39.079395 100.961890 341.526446 15.798404 0.000000 0.102520
225.000000 61.090000 2.000000 11.000000 1.000000 109.839105 30.385234 343.914697 490.849342 16.360974 0.000000 0.026715
226.000000 58.098000 3.000000 11.000000 1.000000 105.349242 22.792076 522.742680 620.542356 17.205085 0.000000 0.095412
227.000000 54.519000 4.000000 11.000000 1.000000 100.267500 16.319412 659.873651 737.849904 18.336827 0.000000 0.136159
228.000000 50.591000 5.000000 11.000000 1.000000 94.902246 10.867650 768.368542 847.000678 19.762469 0.000000 0.156000
229.000000 46.533000 6.000000 11.000000 1.000000 89.490268 6.290894 856.349147 950.633517 21.488462 0.000000 0.161048
231.000000 57.899000 1.000000 12.000000 1.000000 112.847966 40.165776 66.562253 347.563585 17.261407 0.000000 0.117116
232.000000 56.186000 2.000000 12.000000 1.000000 109.781239 32.132041 299.002839 483.890319 17.788828 0.000000 0.019340
233.000000 53.813000 3.000000 12.000000 1.000000 105.871982 24.983214 473.499573 603.388700 18.574765 0.000000 0.080970
234.000000 50.940000 4.000000 12.000000 1.000000 101.392207 18.765722 609.317926 711.957891 19.624359 0.000000 0.124981
235.000000 47.738000 5.000000 12.000000 1.000000 96.590717 13.427990 718.034832 813.150116 20.942890 0.000000 0.149318
237.000000 53.364000 1.000000 13.000000 1.000000 112.380072 41.075445 36.900641 353.109133 18.728537 0.000000 0.130061
238.000000 51.986000 2.000000 13.000000 1.000000 109.692501 33.617102 259.448627 478.427279 19.226019 0.000000 0.024035
239.000000 50.072000 3.000000 13.000000 1.000000 106.255033 26.879997 429.437123 589.173288 19.962471 0.000000 0.067477
240.000000 47.733000 4.000000 13.000000 1.000000 102.278757 20.922481 563.519217 690.212028 20.942293 0.000000 0.113616
242.000000 49.479000 1.000000 14.000000 1.000000 111.967619 41.847909 11.061237 358.192951 20.198950 0.000000 0.141606
243.000000 48.353000 2.000000 14.000000 1.000000 109.587047 34.893532 224.347333 474.078136 20.670623 0.000000 0.034665
244.000000 46.786000 3.000000 14.000000 1.000000 106.537552 28.534576 389.778633 577.232462 21.364469 0.000000 0.055212
246.000000 46.116000 1.000000 15.000000 1.000000 111.601790 42.511805 -11.650035 362.853326 21.672016 0.000000 0.151958
251.000000 163.684000 2.000000 2.000000 2.000000 91.139227 -42.059720 1946.132963 912.172275 6.108033 0.000000 0.113300
252.000000 110.890000 3.000000 2.000000 2.000000 70.949297 -39.745035 1869.986748 1424.372183 9.019303 0.000000 0.166705
254.000000 199.867000 2.000000 6.000000 4.000000 130.972255 -25.299079 1483.740806 -92.850948 9.998143 0.000000 0.048413
255.000000 155.657000 2.000000 3.000000 2.000000 105.372137 -28.678173 1563.721095 603.728819 6.421629 0.000000 0.071705
256.000000 115.645000 3.000000 3.000000 2.000000 85.514765 -30.158126 1600.365624 1038.643997 8.646633 0.000000 0.107078
257.000000 85.326000 4.000000 3.000000 2.000000 70.536500 -30.987663 1621.387456 1384.688353 11.722088 0.000000 0.118097
258.000000 63.718000 5.000000 3.000000 2.000000 59.201873 -31.518101 1635.021790 1693.576255 15.699905 0.000000 0.150189
259.000000 48.481000 6.000000 3.000000 2.000000 50.485384 -31.886440 1644.580816 1986.451877 20.636308 0.000000 0.208183
260.000000 166.202000 1.000000 4.000000 2.000000 133.791730 -6.544867 1098.482083 -97.599569 6.011483 0.000000 0.024859
261.000000 139.184000 2.000000 4.000000 2.000000 113.277385 -16.309707 1289.928410 458.563637 7.180803 0.000000 0.107084
262.000000 111.205000 3.000000 4.000000 2.000000 95.584900 -21.030761 1388.813791 828.243867 8.990355 0.000000 0.132327
263.000000 68.251000 5.000000 4.000000 2.000000 69.642476 -25.566540 1489.901206 1383.710367 14.655449 0.000000 0.106701
265.000000 139.266000 1.000000 5.000000 2.000000 132.996166 6.826650 846.151919 -69.691468 7.174261 0.000000 0.033784
266.000000 122.281000 2.000000 5.000000 2.000000 117.236918 -5.795052 1084.232077 384.137036 8.172888 0.000000 0.114931
267.000000 103.015000 3.000000 5.000000 2.000000 102.232870 -12.742637 1218.395148 701.758166 9.704016 0.000000 0.148511
268.000000 84.817000 4.000000 5.000000 2.000000 89.113154 -17.021085 1304.489340 958.423837 11.789094 0.000000 0.145640
269.000000 69.209000 5.000000 5.000000 2.000000 78.025771 -19.891076 1364.423504 1183.749659 14.450736 0.000000 0.124025
270.000000 56.472000 6.000000 5.000000 2.000000 68.767744 -21.940354 1408.548321 1391.815326 17.712806 0.000000 0.100737
271.000000 46.313000 7.000000 5.000000 2.000000 61.044983 -23.473316 1442.390171 1590.221393 21.600500 0.000000 0.097424
273.000000 118.578000 1.000000 6.000000 2.000000 131.070083 15.916471 668.074970 -34.313180 8.426181 0.000000 0.037398
274.000000 107.435000 2.000000 6.000000 2.000000 118.977168 2.710951 924.037076 344.293086 9.301977 0.000000 0.107816
275.000000 94.003000 3.000000 6.000000 2.000000 106.508198 -5.475771 1078.176015 620.557291 10.633549 0.000000 0.151381
276.000000 67.899000 5.000000 6.000000 2.000000 84.623515 -14.575055 1254.853325 1045.662262 14.727873 0.000000 0.145618
277.000000 47.989000 7.000000 6.000000 2.000000 68.009181 -19.363251 1353.247289 1401.710354 20.844496 0.000000 0.096029
279.000000 102.635000 1.000000 7.000000 2.000000 128.966187 22.204245 535.679405 0.759463 9.735283 0.000000 0.045105
280.000000 95.009000 2.000000 7.000000 2.000000 119.535080 9.455507 795.749198 322.792484 10.518465 0.000000 0.093853
281.000000 85.431000 3.000000 7.000000 2.000000 109.212418 0.756821 960.782375 565.900376 11.700008 0.000000 0.145910
282.000000 75.213000 4.000000 7.000000 2.000000 99.110705 -5.298936 1074.824651 767.658542 13.292005 0.000000 0.163611
283.000000 65.324000 5.000000 7.000000 2.000000 89.760424 -9.667494 1158.345958 945.565256 15.307043 0.000000 0.159317
284.000000 56.316000 6.000000 7.000000 2.000000 81.355358 -12.932791 1222.152671 1108.890928 17.758232 0.000000 0.141392
285.000000 48.415000 7.000000 7.000000 2.000000 73.913368 -15.450820 1272.488169 1263.022413 20.659224 0.000000 0.116453
286.000000 90.155000 1.000000 8.000000 2.000000 126.997277 26.712515 433.385790 33.141467 11.083255 0.000000 0.057213
287.000000 77.729000 3.000000 8.000000 2.000000 110.896752 6.042995 861.060268 527.776892 12.858760 0.000000 0.135721
288.000000 62.148000 5.000000 8.000000 2.000000 93.742731 -5.186609 1072.696819 870.303612 16.088003 0.000000 0.165703
289.000000 47.964000 7.000000 8.000000 2.000000 78.880073 -11.755800 1198.983209 1157.081657 20.851755 0.000000 0.135957
291.000000 80.203000 1.000000 9.000000 2.000000 125.244427 30.064848 351.975928 62.283998 12.458849 0.000000 0.071130
292.000000 76.218000 2.000000 9.000000 2.000000 119.129644 19.062082 603.097204 306.415433 13.111670 0.000000 0.059547
293.000000 70.972000 3.000000 9.000000 2.000000 111.922708 10.511417 775.298795 500.443733 14.082669 0.000000 0.123028
294.000000 64.997000 4.000000 9.000000 2.000000 104.332998 3.947364 900.731706 665.341844 15.379594 0.000000 0.155494
295.000000 58.774000 5.000000 9.000000 2.000000 96.829704 -1.126878 996.170989 812.068794 17.010452 0.000000 0.166727
296.000000 52.673000 6.000000 9.000000 2.000000 89.686249 -5.108936 1071.225910 946.917337 18.983508 0.000000 0.163419
297.000000 46.935000 7.000000 9.000000 2.000000 83.040565 -8.288671 1131.797015 1073.765723 21.307309 0.000000 0.150148
298.000000 72.123000 1.000000 10.000000 2.000000 123.709716 32.639057 285.646885 88.279866 13.854776 0.000000 0.085177
299.000000 65.094000 3.000000 10.000000 2.000000 112.522951 14.294898 700.758103 480.418484 15.354287 0.000000 0.109153
300.000000 55.430000 5.000000 10.000000 2.000000 99.228755 2.533128 927.384463 765.952937 18.035937 0.000000 0.164028
301.000000 45.550000 7.000000 10.000000 2.000000 86.520289 -5.052025 1070.148388 1006.701684 21.953325 0.000000 0.159271
303.000000 65.457000 1.000000 11.000000 2.000000 122.370923 34.670308 230.563409 111.429389 15.266103 0.000000 0.098604
304.000000 63.124000 2.000000 11.000000 2.000000 118.086568 25.339644 465.326612 305.492244 15.831568 0.000000 0.025938
305.000000 59.985000 3.000000 11.000000 2.000000 112.846698 17.513288 635.371265 465.493917 16.661887 0.000000 0.094884
306.000000 56.274000 4.000000 11.000000 2.000000 107.073157 11.080624 764.217427 604.161085 17.762447 0.000000 0.136773
307.000000 52.234000 5.000000 11.000000 2.000000 101.100789 5.823937 865.219700 728.728403 19.138784 0.000000 0.158802
308.000000 48.076000 6.000000 11.000000 2.000000 95.168265 1.515567 946.523623 843.616528 20.796582 0.000000 0.166695
309.000000 59.876000 1.000000 12.000000 2.000000 121.200857 36.310170 184.089096 132.076906 16.689375 0.000000 0.111132
310.000000 55.533000 3.000000 12.000000 2.000000 112.990103 20.268011 577.549641 454.219331 17.997292 0.000000 0.080693
311.000000 49.242000 5.000000 12.000000 2.000000 102.568635 8.780056 808.764439 698.192953 20.301193 0.000000 0.151894
313.000000 55.143000 1.000000 13.000000 2.000000 120.173886 37.659764 144.351910 150.550320 18.122098 0.000000 0.122693
314.000000 53.657000 2.000000 13.000000 2.000000 116.985043 29.667160 361.909923 310.276343 18.624946 0.000000 0.009538
315.000000 51.639000 3.000000 13.000000 2.000000 113.015663 22.642176 526.052093 445.611906 19.354629 0.000000 0.066863
316.000000 49.202000 4.000000 13.000000 2.000000 108.520264 16.592321 654.299809 564.788535 20.315108 0.000000 0.114561
317.000000 46.472000 5.000000 13.000000 2.000000 103.725383 11.436539 757.266636 672.797352 21.510436 0.000000 0.143894
318.000000 51.083000 1.000000 14.000000 2.000000 119.267791 38.788723 109.985891 167.141347 19.562426 0.000000 0.133309
319.000000 48.213000 3.000000 14.000000 2.000000 112.964415 24.702858 479.894901 438.988457 20.729571 0.000000 0.053569
321.000000 47.567000 1.000000 15.000000 2.000000 118.463940 39.746366 79.970972 182.101962 21.008966 0.000000 0.143047
322.000000 46.559000 2.000000 15.000000 2.000000 115.979210 32.798255 281.422070 317.075446 21.464733 0.000000 0.033672
326.000000 104.189000 3.000000 2.000000 3.000000 77.066199 -50.875050 2298.202111 1332.707267 9.597856 0.000000 0.316235
329.000000 139.721000 2.000000 3.000000 3.000000 109.130497 -44.978254 2050.477613 413.214935 7.153299 0.000000 0.157859
330.000000 84.132000 4.000000 3.000000 3.000000 76.888569 -40.355528 1889.558693 1269.968968 11.886695 0.000000 0.148074
331.000000 65.101000 5.000000 3.000000 3.000000 65.675583 -39.240138 1854.060441 1569.168926 15.364280 0.000000 0.185905
333.000000 129.805000 2.000000 4.000000 3.000000 118.665195 -32.785710 1668.244473 241.103213 7.698711 0.000000 0.026725
334.000000 106.612000 3.000000 4.000000 3.000000 101.456210 -33.087907 1676.303765 680.664354 9.376329 0.000000 0.058730
335.000000 85.916000 4.000000 4.000000 3.000000 87.276843 -33.263601 1681.014823 1002.223901 11.638076 0.000000 0.097210
336.000000 68.930000 5.000000 4.000000 3.000000 75.723860 -33.378475 1684.105306 1268.962619 14.508936 0.000000 0.116944
337.000000 55.523000 6.000000 4.000000 3.000000 66.308387 -33.459449 1686.288697 1507.086203 18.015340 0.000000 0.137733
339.000000 117.367000 2.000000 5.000000 3.000000 124.091683 -21.108339 1390.487382 160.126074 8.513932 0.000000 0.036152
340.000000 100.362000 3.000000 5.000000 3.000000 108.583994 -24.386032 1462.912394 543.673942 9.959205 0.000000 0.086872
341.000000 84.030000 4.000000 5.000000 3.000000 95.218727 -26.336744 1507.796858 831.309166 11.897707 0.000000 0.110636
342.000000 69.697000 5.000000 5.000000 3.000000 83.913683 -27.627882 1538.340134 1070.532244 14.347415 0.000000 0.114627
343.000000 57.721000 6.000000 5.000000 3.000000 74.415346 -28.544738 1560.468726 1282.736003 17.327192 0.000000 0.112272
344.000000 47.959000 7.000000 5.000000 3.000000 66.431784 -29.229135 1577.238994 1479.013767 20.856839 0.000000 0.116728
345.000000 115.650000 1.000000 6.000000 3.000000 140.816760 -0.664494 987.482999 -379.544407 8.638389 0.000000 0.016128
346.000000 105.205000 2.000000 6.000000 3.000000 126.750909 -10.759295 1179.521752 122.883984 9.497916 0.000000 0.058319
347.000000 80.158000 4.000000 6.000000 3.000000 101.111206 -19.759458 1361.629718 716.396222 12.471257 0.000000 0.129205
348.000000 68.430000 5.000000 6.000000 3.000000 90.429555 -22.095693 1411.943553 932.291103 14.611624 0.000000 0.131545
349.000000 49.342000 7.000000 6.000000 3.000000 73.204056 -25.044044 1477.891884 1299.582205 20.270443 0.000000 0.110607
350.000000 101.742000 1.000000 7.000000 3.000000 138.991795 9.423499 796.367082 -313.709084 9.819472 0.000000 0.046052
351.000000 94.315000 2.000000 7.000000 3.000000 127.717317 -2.066808 1013.841594 108.083666 10.594474 0.000000 0.063513
352.000000 85.162000 3.000000 7.000000 3.000000 116.232924 -9.072638 1146.867279 403.909709 11.735340 0.000000 0.114553
353.000000 75.429000 4.000000 7.000000 3.000000 105.390833 -13.662984 1236.635709 636.096231 13.252266 0.000000 0.139870
354.000000 65.967000 5.000000 7.000000 3.000000 95.528970 -16.865511 1301.295650 832.132823 15.155832 0.000000 0.145787
355.000000 57.281000 6.000000 7.000000 3.000000 86.733826 -19.213466 1350.088988 1006.044261 17.457017 0.000000 0.138689
356.000000 49.590000 7.000000 7.000000 3.000000 78.968888 -21.003107 1388.217633 1165.749094 20.167220 0.000000 0.124300
358.000000 90.316000 1.000000 8.000000 3.000000 136.791192 16.675283 652.602270 -255.083642 11.062002 0.000000 0.066099
359.000000 84.896000 2.000000 8.000000 3.000000 127.721258 5.029455 880.278882 105.289498 11.769871 0.000000 0.059957
360.000000 78.042000 3.000000 8.000000 3.000000 118.000187 -2.743884 1026.582960 368.062815 12.805642 0.000000 0.113705
361.000000 70.502000 4.000000 8.000000 3.000000 108.449760 -8.118032 1128.524965 578.291457 14.177526 0.000000 0.143343
362.000000 62.899000 5.000000 8.000000 3.000000 99.477076 -11.992475 1203.625675 757.324015 15.894009 0.000000 0.154056
363.000000 55.660000 6.000000 8.000000 3.000000 91.255454 -14.893687 1261.252790 916.592696 17.963867 0.000000 0.151380
364.000000 49.030000 7.000000 8.000000 3.000000 83.828865 -17.136845 1306.869136 1062.780997 20.396174 0.000000 0.139790
365.000000 80.903000 1.000000 9.000000 3.000000 134.597254 21.982528 540.530629 -203.474096 12.349359 0.000000 0.081300
366.000000 76.847000 2.000000 9.000000 3.000000 127.211862 10.767437 770.319778 109.049254 13.002624 0.000000 0.052212
367.000000 65.726000 4.000000 9.000000 3.000000 110.606710 -3.142630 1034.093193 535.694210 15.207136 0.000000 0.141687
368.000000 59.603000 5.000000 9.000000 3.000000 102.513043 -7.504186 1116.776834 700.070755 16.772094 0.000000 0.157164
369.000000 47.928000 7.000000 9.000000 3.000000 87.899966 -13.466923 1232.738331 981.582390 20.863289 0.000000 0.151877
371.000000 73.087000 1.000000 10.000000 3.000000 132.554055 25.971772 450.712447 -158.110972 13.670424 0.000000 0.094084
372.000000 69.982000 2.000000 10.000000 3.000000 126.449718 15.416023 678.215317 116.375823 14.278408 0.000000 0.043020
373.000000 65.929000 3.000000 10.000000 3.000000 119.438061 7.381077 835.575233 328.521795 15.157940 0.000000 0.098962
374.000000 61.263000 4.000000 10.000000 3.000000 112.106526 1.282801 950.898715 503.709812 16.314670 0.000000 0.136584
375.000000 56.303000 5.000000 10.000000 3.000000 104.837670 -3.405384 1039.045165 655.369281 17.754409 0.000000 0.156396
376.000000 51.314000 6.000000 10.000000 3.000000 97.860035 -7.076366 1108.608716 791.276486 19.483128 0.000000 0.163006
377.000000 46.491000 7.000000 10.000000 3.000000 91.297273 -10.006490 1164.905431 916.250227 21.506970 0.000000 0.159943
379.000000 66.533000 1.000000 11.000000 3.000000 130.703486 29.052184 377.118223 -118.135872 15.017473 0.000000 0.105472
380.000000 64.106000 2.000000 11.000000 3.000000 125.581039 19.211933 599.943321 125.574808 15.587301 0.000000 0.034467
381.000000 60.909000 3.000000 11.000000 3.000000 119.566510 11.374352 758.482347 318.179121 16.407188 0.000000 0.088446
382.000000 57.171000 4.000000 11.000000 3.000000 113.131215 5.200064 877.048334 479.328276 17.481931 0.000000 0.129235
383.000000 53.123000 5.000000 11.000000 3.000000 106.612566 0.315856 969.066619 619.880810 18.816455 0.000000 0.152849
384.000000 48.968000 6.000000 11.000000 3.000000 100.232619 -3.591575 1042.555801 746.329107 20.415809 0.000000 0.163514
385.000000 60.981000 1.000000 12.000000 3.000000 129.045903 31.489540 315.716255 -82.757698 16.384973 0.000000 0.115899
386.000000 59.050000 2.000000 12.000000 3.000000 124.685904 22.344379 532.605349 135.661785 16.922213 0.000000 0.028759
387.000000 53.458000 4.000000 12.000000 3.000000 113.813560 8.661104 811.051514 460.514062 18.695978 0.000000 0.120466
388.000000 50.126000 5.000000 12.000000 3.000000 107.964533 3.682126 905.736326 591.305351 19.940855 0.000000 0.147355
390.000000 56.233000 1.000000 13.000000 3.000000 127.566154 33.459553 263.708505 -51.293333 17.768861 0.000000 0.125556
391.000000 54.670000 2.000000 13.000000 3.000000 123.806943 24.958702 474.059874 146.056886 18.277943 0.000000 0.028027
392.000000 52.589000 3.000000 13.000000 3.000000 119.269235 17.742292 630.635111 307.647215 19.002913 0.000000 0.065401
393.000000 50.104000 4.000000 13.000000 3.000000 114.249503 11.719980 751.718733 445.853199 19.947357 0.000000 0.110849
394.000000 47.338000 5.000000 13.000000 3.000000 108.991573 6.721772 848.149834 568.015424 21.114939 0.000000 0.140524
396.000000 52.134000 1.000000 14.000000 3.000000 126.244564 35.081304 219.092268 -23.167976 19.166081 0.000000 0.134542
397.000000 50.852000 2.000000 14.000000 3.000000 122.965749 27.165017 422.690345 156.417595 19.650591 0.000000 0.032313
398.000000 49.139000 3.000000 14.000000 3.000000 118.975063 20.291748 577.042862 305.577540 20.337183 0.000000 0.053727
399.000000 47.079000 4.000000 14.000000 3.000000 114.508108 14.428236 698.089148 434.340690 21.228999 0.000000 0.100772
400.000000 48.567000 1.000000 15.000000 3.000000 125.061453 36.437611 180.396330 2.097339 20.574293 0.000000 0.142917
401.000000 47.501000 2.000000 15.000000 3.000000 122.172159 29.046676 377.253611 166.543853 21.037174 0.000000 0.039600
407.000000 99.318000 3.000000 3.000000 4.000000 93.717266 -52.251736 2365.140312 826.777035 10.065716 0.000000 0.309443
408.000000 79.762000 4.000000 3.000000 4.000000 80.948967 -48.708673 2200.494134 1200.818518 12.536578 0.000000 0.249668
409.000000 63.892000 5.000000 3.000000 4.000000 70.429586 -46.295642 2101.106145 1494.776689 15.653336 0.000000 0.254369
410.000000 51.439000 6.000000 3.000000 4.000000 61.795681 -44.552059 2034.595466 1750.988218 19.445442 0.000000 0.278437
412.000000 98.766000 3.000000 4.000000 4.000000 104.254667 -44.070289 2016.920022 560.426358 10.120408 0.000000 0.128507
413.000000 67.346000 5.000000 4.000000 4.000000 80.136771 -40.711245 1901.126702 1187.873568 14.848580 0.000000 0.138736
414.000000 45.867000 7.000000 4.000000 4.000000 63.261098 -39.019103 1847.160252 1638.915259 21.807880 0.000000 0.195987
415.000000 108.947000 2.000000 5.000000 4.000000 126.755044 -36.244838 1764.022523 -55.722595 9.171403 0.000000 0.120690
416.000000 94.729000 3.000000 5.000000 4.000000 112.022071 -35.668610 1747.502127 405.141057 10.550484 0.000000 0.028601
417.000000 80.787000 4.000000 5.000000 4.000000 99.204045 -35.321819 1737.674324 727.253360 12.374129 0.000000 0.058658
418.000000 68.218000 5.000000 5.000000 4.000000 88.212820 -35.090199 1731.157263 982.042380 14.656971 0.000000 0.092679
419.000000 57.426000 6.000000 5.000000 4.000000 78.847184 -34.924552 1726.519152 1199.799046 17.414298 0.000000 0.114218
420.000000 48.406000 7.000000 5.000000 4.000000 70.872017 -34.800207 1723.049784 1395.594661 20.662078 0.000000 0.132457
422.000000 89.023000 3.000000 6.000000 4.000000 117.451474 -27.398246 1532.856157 311.233479 11.225805 0.000000 0.028440
423.000000 67.271000 5.000000 6.000000 4.000000 94.757918 -29.539347 1584.914116 838.033179 14.861824 0.000000 0.096155
424.000000 49.632000 7.000000 6.000000 4.000000 77.494912 -30.624124 1612.130469 1218.398375 20.149811 0.000000 0.112063
426.000000 91.150000 2.000000 7.000000 4.000000 133.081964 -15.263022 1268.694320 -102.344415 10.961379 0.000000 0.021086
427.000000 82.792000 3.000000 7.000000 4.000000 121.047989 -19.579664 1357.820768 253.304618 12.070153 0.000000 0.058362
428.000000 73.895000 4.000000 7.000000 4.000000 109.956254 -22.297282 1416.360803 518.608080 13.525953 0.000000 0.093328
429.000000 65.178000 5.000000 7.000000 4.000000 99.954681 -24.157804 1457.753399 733.966284 15.337794 0.000000 0.112488
430.000000 57.085000 6.000000 7.000000 4.000000 91.049345 -25.508856 1488.570263 919.156653 17.515007 0.000000 0.118913
431.000000 49.832000 7.000000 7.000000 4.000000 83.173430 -26.533453 1512.405387 1085.015150 20.067254 0.000000 0.117384
433.000000 76.656000 3.000000 8.000000 4.000000 123.285118 -12.436505 1212.357637 217.428496 13.035932 0.000000 0.073121
434.000000 62.448000 5.000000 8.000000 4.000000 104.015037 -19.027175 1346.168927 656.823393 16.007337 0.000000 0.125852
435.000000 49.282000 7.000000 8.000000 4.000000 87.987387 -22.565656 1422.261319 981.957977 20.289544 0.000000 0.130015
437.000000 75.934000 2.000000 9.000000 4.000000 133.640488 0.776816 960.406720 -85.486796 13.157762 0.000000 0.030830
438.000000 70.911000 3.000000 9.000000 4.000000 124.556237 -6.075446 1089.556181 195.540014 14.091879 0.000000 0.078475
439.000000 65.276000 4.000000 9.000000 4.000000 115.624176 -10.797286 1180.261278 415.463656 15.310559 0.000000 0.113626
440.000000 59.428000 5.000000 9.000000 4.000000 107.146616 -14.205983 1247.463907 598.454722 16.819909 0.000000 0.133982
441.000000 53.672000 6.000000 9.000000 4.000000 99.266232 -16.765771 1299.250918 757.605604 18.626210 0.000000 0.142371
442.000000 48.218000 7.000000 9.000000 4.000000 92.034135 -18.751343 1340.380820 900.630227 20.735927 0.000000 0.141743
443.000000 72.729000 1.000000 10.000000 4.000000 140.183285 17.223234 641.352942 -410.652801 13.736470 0.000000 0.089995
444.000000 65.669000 3.000000 10.000000 4.000000 125.163336 -0.505894 984.503408 182.759346 15.216617 0.000000 0.077980
445.000000 56.339000 5.000000 10.000000 4.000000 109.535311 -9.728744 1159.530124 553.545506 17.741150 0.000000 0.137564
446.000000 46.825000 7.000000 10.000000 4.000000 95.415231 -15.113442 1265.677398 835.316112 21.351853 0.000000 0.150433
448.000000 66.569000 1.000000 11.000000 4.000000 138.125108 21.815022 544.185644 -352.216918 15.007863 0.000000 0.105828
449.000000 64.117000 2.000000 11.000000 4.000000 132.092249 11.805481 750.042946 -52.251484 15.583025 0.000000 0.035433
450.000000 60.948000 3.000000 11.000000 4.000000 125.326103 4.324468 893.610781 176.026923 16.395031 0.000000 0.073859
451.000000 57.276000 4.000000 11.000000 4.000000 118.305957 -1.301129 999.445759 361.181379 17.448185 0.000000 0.112608
452.000000 53.315000 5.000000 11.000000 4.000000 111.338645 -5.608652 1080.695676 518.511281 18.746894 0.000000 0.137654
453.000000 49.253000 6.000000 11.000000 4.000000 104.610615 -8.977530 1145.035611 656.953724 20.295674 0.000000 0.151285
454.000000 61.260000 1.000000 12.000000 4.000000 136.190687 25.391081 464.143201 -300.954423 16.308919 0.000000 0.118300
455.000000 56.724000 3.000000 12.000000 4.000000 125.198713 8.497431 814.196083 173.367419 17.616131 0.000000 0.067535
456.000000 50.428000 5.000000 12.000000 4.000000 112.685421 -1.842212 1009.617655 490.865440 19.819643 0.000000 0.135166
458.000000 56.658000 1.000000 13.000000 4.000000 134.408222 28.234347 397.065090 -255.667283 17.634012 0.000000 0.128667
459.000000 55.051000 2.000000 13.000000 4.000000 130.012418 19.335376 597.340904 -16.523188 18.149894 0.000000 0.040562
460.000000 52.950000 3.000000 13.000000 4.000000 124.886881 12.102454 744.214285 173.474189 18.871737 0.000000 0.059955
461.000000 50.465000 4.000000 13.000000 4.000000 119.359921 6.281289 856.531765 331.874118 19.802802 0.000000 0.101372
462.000000 47.715000 5.000000 13.000000 4.000000 113.678481 1.585710 945.205014 468.841084 20.946420 0.000000 0.130816
463.000000 52.644000 1.000000 14.000000 4.000000 132.780797 30.538583 340.037564 -215.396616 18.978855 0.000000 0.137636
464.000000 49.577000 3.000000 14.000000 4.000000 124.462034 15.224704 682.078944 175.465315 20.155632 0.000000 0.051778
466.000000 49.122000 1.000000 15.000000 4.000000 131.300404 32.438075 290.959176 -179.370646 20.340121 0.000000 0.145616
467.000000 48.014000 2.000000 15.000000 4.000000 127.956874 24.634487 481.450157 17.344436 20.810464 0.000000 0.050779
468.000000 46.558000 3.000000 15.000000 4.000000 123.971964 17.939806 626.540479 178.735551 21.463009 0.000000 0.043517
469.000000 46.012000 1.000000 16.000000 4.000000 129.954724 34.027585 248.276158 -146.963669 21.715194 0.000000 0.152856
476.000000 76.417000 4.000000 4.000000 5.000000 93.288887 -49.881040 2252.282449 845.016865 13.082453 0.000000 0.245438
477.000000 64.394000 5.000000 4.000000 5.000000 83.162468 -47.394546 2145.237621 1131.643609 15.527811 0.000000 0.215379
478.000000 54.146000 6.000000 4.000000 5.000000 74.471181 -45.569289 2072.897708 1368.208796 18.469696 0.000000 0.221302
479.000000 45.618000 7.000000 4.000000 5.000000 67.033581 -44.175066 2020.739511 1576.954647 21.925472 0.000000 0.239548
481.000000 87.738000 3.000000 5.000000 5.000000 113.213700 -45.828880 2082.894458 278.539375 11.390610 0.000000 0.192687
482.000000 76.178000 4.000000 5.000000 5.000000 101.451546 -43.593111 1999.694464 639.963901 13.121935 0.000000 0.117899
483.000000 56.027000 6.000000 5.000000 5.000000 82.181750 -40.944123 1908.767081 1136.648943 17.847690 0.000000 0.133139
484.000000 47.925000 7.000000 5.000000 5.000000 74.427146 -40.096633 1881.215832 1333.121733 20.867911 0.000000 0.155516
486.000000 83.808000 3.000000 6.000000 5.000000 119.383785 -37.950309 1814.391039 172.420044 11.923848 0.000000 0.092209
487.000000 74.182000 4.000000 6.000000 5.000000 107.928438 -37.187513 1791.582161 503.896504 13.473738 0.000000 0.039294
488.000000 64.949000 5.000000 6.000000 5.000000 97.751964 -36.667688 1776.301234 758.338839 15.391974 0.000000 0.062656
489.000000 56.526000 6.000000 6.000000 5.000000 88.788726 -36.290752 1765.349315 969.233693 17.688503 0.000000 0.091034
490.000000 49.083000 7.000000 6.000000 5.000000 80.926538 -36.004930 1757.115067 1153.472540 20.373630 0.000000 0.111742
491.000000 86.436000 2.000000 7.000000 5.000000 135.632648 -28.953443 1570.456893 -316.499727 11.558696 0.000000 0.108326
492.000000 79.044000 3.000000 7.000000 5.000000 123.769489 -30.103149 1598.985003 109.111601 12.641688 0.000000 0.035562
493.000000 71.150000 4.000000 7.000000 5.000000 112.912468 -30.821558 1617.149141 411.263266 14.046859 0.000000 0.023419
494.000000 63.338000 5.000000 7.000000 5.000000 103.113307 -31.312888 1629.728821 647.528474 15.781984 0.000000 0.062812
495.000000 55.993000 6.000000 7.000000 5.000000 94.349513 -31.670063 1638.956264 844.814158 17.855094 0.000000 0.087124
496.000000 49.319000 7.000000 7.000000 5.000000 86.553339 -31.941408 1646.013884 1017.389483 20.274480 0.000000 0.101298
498.000000 79.920000 2.000000 8.000000 5.000000 137.492582 -19.319326 1352.320492 -303.332948 12.500767 0.000000 0.051267
499.000000 74.041000 3.000000 8.000000 5.000000 126.712603 -22.569377 1422.343295 71.820973 13.495458 0.000000 0.022563
500.000000 67.605000 4.000000 8.000000 5.000000 116.637088 -24.646889 1468.831828 347.048409 14.782521 0.000000 0.051513
501.000000 61.065000 5.000000 8.000000 5.000000 107.377492 -26.085943 1501.943731 565.972062 16.368385 0.000000 0.081077
502.000000 54.749000 6.000000 8.000000 5.000000 98.961101 -27.140431 1526.726340 750.280825 18.259666 0.000000 0.099502
503.000000 48.860000 7.000000 8.000000 5.000000 91.364327 -27.945837 1545.971375 911.982757 20.463181 0.000000 0.108748
505.000000 73.835000 2.000000 9.000000 5.000000 138.155372 -10.701213 1178.391517 -282.156362 13.530971 0.000000 0.016106
506.000000 69.138000 3.000000 9.000000 5.000000 128.544493 -15.568338 1274.865731 50.852817 14.452213 0.000000 0.035873
507.000000 63.892000 4.000000 9.000000 5.000000 119.338386 -18.789182 1341.173714 302.011687 15.641068 0.000000 0.070419
508.000000 58.440000 5.000000 9.000000 5.000000 110.711658 -21.064960 1389.551348 504.909616 17.102937 0.000000 0.096745
509.000000 53.050000 6.000000 9.000000 5.000000 102.738977 -22.753513 1426.405247 677.143061 18.843370 0.000000 0.112940
510.000000 47.909000 7.000000 9.000000 5.000000 95.436563 -24.054073 1455.414698 828.826187 20.868066 0.000000 0.120510
512.000000 68.290000 2.000000 10.000000 5.000000 138.024928 -3.268646 1036.467822 -257.341755 14.629667 0.000000 0.007723
513.000000 64.510000 3.000000 10.000000 5.000000 129.555288 -9.228985 1149.880438 40.367281 15.488860 0.000000 0.045404
514.000000 60.219000 4.000000 10.000000 5.000000 121.232601 -13.336003 1230.139401 270.248294 16.594773 0.000000 0.081195
515.000000 51.090000 6.000000 10.000000 5.000000 105.802131 -18.551209 1336.192998 619.701412 19.565282 0.000000 0.123193
516.000000 46.630000 7.000000 10.000000 5.000000 98.855698 -20.296368 1373.055777 762.208324 21.439436 0.000000 0.130989
518.000000 63.302000 2.000000 11.000000 5.000000 137.404018 3.007124 918.459617 -231.240159 15.782643 0.000000 0.022809
519.000000 60.232000 3.000000 11.000000 5.000000 129.980603 -3.594260 1042.606445 36.723920 16.588730 0.000000 0.049694
520.000000 56.702000 4.000000 11.000000 5.000000 122.505293 -8.334706 1132.680229 247.864359 17.623667 0.000000 0.086210
521.000000 52.903000 5.000000 11.000000 5.000000 115.220493 -11.859468 1201.015699 423.007327 18.891424 0.000000 0.112797
522.000000 49.007000 6.000000 11.000000 5.000000 108.263660 -14.564165 1254.634955 574.014372 20.396063 0.000000 0.129824
524.000000 58.841000 2.000000 12.000000 5.000000 136.501739 8.257982 818.791662 -205.130261 16.979368 0.000000 0.034107
525.000000 56.325000 3.000000 12.000000 5.000000 130.001255 1.355725 949.528122 37.588812 17.739489 0.000000 0.050265
526.000000 53.400000 4.000000 12.000000 5.000000 123.308446 -3.798022 1046.450058 232.223019 18.713004 0.000000 0.087200
527.000000 50.212000 5.000000 12.000000 5.000000 116.666650 -7.734160 1121.174172 395.502777 19.903373 0.000000 0.114923
528.000000 46.894000 6.000000 12.000000 5.000000 110.225683 -10.811746 1180.542800 537.286567 21.314128 0.000000 0.133308
531.000000 54.860000 2.000000 13.000000 5.000000 135.454619 12.646789 733.496716 -179.701278 18.211869 0.000000 0.043112
532.000000 52.778000 3.000000 13.000000 5.000000 129.750380 5.677281 868.002549 41.430920 18.931815 0.000000 0.048437
533.000000 50.337000 4.000000 13.000000 5.000000 123.762380 0.286721 969.613932 221.497708 19.851657 0.000000 0.085387
534.000000 47.648000 5.000000 13.000000 5.000000 117.720694 -3.937546 1049.082997 374.098714 20.974433 0.000000 0.114363
537.000000 51.305000 2.000000 14.000000 5.000000 134.348385 16.329161 659.674804 -155.310128 19.473997 0.000000 0.050863
538.000000 49.566000 3.000000 14.000000 5.000000 129.323167 9.442280 796.004542 47.226968 20.158533 0.000000 0.045217
539.000000 47.514000 4.000000 14.000000 5.000000 123.960015 3.948194 900.716047 214.398231 21.031071 0.000000 0.081632
541.000000 48.125000 2.000000 15.000000 5.000000 133.235197 19.438827 595.156944 -132.123405 20.760939 0.000000 0.057952
542.000000 46.661000 3.000000 15.000000 5.000000 128.786284 12.724846 731.956132 54.282748 21.414030 0.000000 0.041394
544.000000 46.233000 1.000000 16.000000 5.000000 135.533715 29.739242 360.115218 -321.864327 21.609780 0.000000 0.153096
548.000000 71.013000 4.000000 5.000000 6.000000 102.412414 -50.936512 2301.105558 565.103107 14.075699 0.000000 0.278920
549.000000 62.045000 5.000000 5.000000 6.000000 92.969847 -48.401417 2187.319793 856.894591 16.112893 0.000000 0.211463
550.000000 53.924000 6.000000 5.000000 6.000000 84.589324 -46.513277 2109.704027 1089.131528 18.542335 0.000000 0.194631
551.000000 46.784000 7.000000 5.000000 6.000000 77.200964 -45.055382 2053.376998 1287.122683 21.375044 0.000000 0.200719
552.000000 61.932000 5.000000 6.000000 6.000000 99.633551 -43.298961 1989.211572 689.978280 16.140815 0.000000 0.113436
553.000000 47.923000 7.000000 6.000000 6.000000 83.586703 -41.108417 1914.189829 1101.562707 20.865257 0.000000 0.129442
555.000000 74.549000 3.000000 7.000000 6.000000 124.743040 -39.976004 1877.350268 -33.089827 13.403575 0.000000 0.158513
556.000000 67.681000 4.000000 7.000000 6.000000 114.498208 -38.883038 1842.934032 310.942665 14.766196 0.000000 0.078207
557.000000 60.814000 5.000000 7.000000 6.000000 105.165540 -38.124007 1819.650968 570.164307 16.436266 0.000000 0.048892
558.000000 54.270000 6.000000 7.000000 6.000000 96.740485 -37.566330 1802.851046 780.516932 18.420767 0.000000 0.067284
559.000000 48.239000 7.000000 7.000000 6.000000 89.177356 -37.139343 1790.157356 960.386507 20.726892 0.000000 0.090823
560.000000 70.648000 3.000000 8.000000 6.000000 128.443783 -32.535114 1661.602759 -72.448918 14.143027 0.000000 0.090622
561.000000 59.029000 5.000000 8.000000 6.000000 109.666574 -32.959858 1672.882082 482.552936 16.932023 0.000000 0.024903
562.000000 47.915000 7.000000 8.000000 6.000000 94.008596 -33.186023 1678.932300 850.876582 20.865315 0.000000 0.081841
564.000000 61.834000 4.000000 9.000000 6.000000 121.804424 -26.821397 1519.179950 193.092354 16.160731 0.000000 0.016143
565.000000 56.845000 5.000000 9.000000 6.000000 113.260389 -27.888792 1544.598942 417.562806 17.581643 0.000000 0.044698
566.000000 47.121000 7.000000 9.000000 6.000000 98.137400 -29.285430 1578.628338 764.552711 21.215526 0.000000 0.089880
568.000000 62.674000 3.000000 10.000000 6.000000 132.566122 -18.474513 1334.590732 -101.241690 15.941734 0.000000 0.025537
569.000000 54.457000 5.000000 10.000000 6.000000 116.077547 -22.984490 1431.515998 368.827336 18.352010 0.000000 0.064256
570.000000 46.000000 7.000000 10.000000 6.000000 101.632415 -25.471640 1487.712242 695.578477 21.731397 0.000000 0.102011
572.000000 61.832000 2.000000 11.000000 6.000000 141.340861 -7.084514 1108.764125 -414.750813 16.156954 0.000000 0.012341
573.000000 58.915000 3.000000 11.000000 6.000000 133.443733 -12.200833 1207.719431 -101.914678 16.958640 0.000000 0.020643
574.000000 55.581000 4.000000 11.000000 6.000000 125.691858 -15.735762 1278.257677 137.731631 17.978083 0.000000 0.050069
575.000000 51.999000 5.000000 11.000000 6.000000 118.244532 -18.306356 1331.082760 331.997348 19.218877 0.000000 0.077771
576.000000 48.320000 6.000000 11.000000 6.000000 111.188474 -20.252649 1372.122449 496.287843 20.684695 0.000000 0.098832
578.000000 49.560000 5.000000 12.000000 6.000000 119.877151 -13.896650 1241.289120 304.030585 20.164079 0.000000 0.086225
580.000000 54.178000 2.000000 13.000000 6.000000 139.990688 4.798190 884.655279 -345.763749 18.439819 0.000000 0.032699
581.000000 52.149000 3.000000 13.000000 6.000000 133.760666 -1.513692 1003.441145 -90.071481 19.158826 0.000000 0.029219
582.000000 49.789000 4.000000 13.000000 6.000000 127.392392 -6.203211 1091.984002 113.492188 20.069207 0.000000 0.062410
583.000000 47.196000 5.000000 13.000000 6.000000 121.077198 -9.780414 1160.529436 282.754938 21.173744 0.000000 0.090809
585.000000 49.161000 3.000000 14.000000 6.000000 133.466632 2.925447 919.998037 -80.505749 20.323726 0.000000 0.032082
587.000000 47.874000 2.000000 15.000000 6.000000 137.906599 13.342169 719.738265 -283.484009 20.868515 0.000000 0.056926
594.000000 51.435000 6.000000 5.000000 7.000000 86.251626 -51.587975 2332.360115 1054.491062 19.438930 0.000000 0.301600
596.000000 58.580000 5.000000 6.000000 7.000000 100.645476 -49.326802 2227.492167 630.590678 17.063743 0.000000 0.233292
597.000000 52.204000 6.000000 6.000000 7.000000 92.728917 -47.391197 2145.100380 865.221565 19.150653 0.000000 0.190723
598.000000 46.356000 7.000000 6.000000 7.000000 85.584561 -45.881517 2084.932841 1060.383380 21.569217 0.000000 0.180783
600.000000 63.868000 4.000000 7.000000 7.000000 115.012471 -46.234250 2098.693124 215.018978 15.647225 0.000000 0.210902
601.000000 57.904000 5.000000 7.000000 7.000000 106.313084 -44.440694 2030.483775 499.812223 17.261466 0.000000 0.139228
602.000000 52.148000 6.000000 7.000000 7.000000 98.359665 -43.099490 1982.160394 724.393552 19.169662 0.000000 0.111386
604.000000 61.787000 4.000000 8.000000 7.000000 119.580647 -40.428060 1891.907510 138.421483 16.173208 0.000000 0.129916
605.000000 56.583000 5.000000 8.000000 7.000000 111.036743 -39.470917 1861.311347 404.768118 17.663461 0.000000 0.072543
606.000000 51.465000 6.000000 8.000000 7.000000 103.178929 -38.758867 1839.091370 617.803030 19.422687 0.000000 0.056584
607.000000 46.593000 7.000000 8.000000 7.000000 95.996307 -38.208612 1822.222052 797.123533 21.456189 0.000000 0.071567
609.000000 63.647000 3.000000 9.000000 7.000000 132.012336 -34.725911 1720.981825 -238.626860 15.697841 0.000000 0.141951
610.000000 59.340000 4.000000 9.000000 7.000000 123.162757 -34.588128 1717.156601 86.696879 16.839621 0.000000 0.075052
611.000000 54.837000 5.000000 9.000000 7.000000 114.900131 -34.490890 1714.464613 334.845778 18.224880 0.000000 0.025109
612.000000 50.333000 6.000000 9.000000 7.000000 107.245292 -34.418595 1712.467244 535.994424 19.858036 0.000000 0.030055
613.000000 45.974000 7.000000 9.000000 7.000000 100.194503 -34.362737 1710.926366 706.531418 21.743617 0.000000 0.057790
615.000000 60.373000 3.000000 10.000000 7.000000 134.261068 -27.790392 1542.234966 -244.637122 16.548745 0.000000 0.088662
616.000000 56.716000 4.000000 10.000000 7.000000 125.887874 -28.834069 1567.531451 52.024914 17.617895 0.000000 0.039768
617.000000 52.839000 5.000000 10.000000 7.000000 118.000981 -29.574937 1585.797656 282.965884 18.913106 0.000000 0.009011
618.000000 48.902000 6.000000 10.000000 7.000000 110.631047 -30.127915 1599.606753 472.489309 20.438199 0.000000 0.039935
620.000000 57.154000 3.000000 11.000000 7.000000 135.708716 -21.165168 1391.714463 -242.060604 17.480549 0.000000 0.051923
621.000000 54.049000 4.000000 11.000000 7.000000 127.888804 -23.275345 1437.976610 29.265345 18.486718 0.000000 0.023767
622.000000 50.717000 5.000000 11.000000 7.000000 120.441566 -24.791817 1472.131260 244.280359 19.703853 0.000000 0.032612
623.000000 47.287000 6.000000 11.000000 7.000000 113.414453 -25.932775 1498.381480 422.738614 21.135294 0.000000 0.057819
626.000000 54.066000 3.000000 12.000000 7.000000 136.522001 -14.991629 1263.223643 -234.044345 18.478832 0.000000 0.026632
627.000000 51.425000 4.000000 12.000000 7.000000 129.293206 -17.999924 1324.707631 14.952845 19.429867 0.000000 0.026404
628.000000 48.559000 5.000000 12.000000 7.000000 122.321843 -20.199413 1370.986668 215.393264 20.578664 0.000000 0.049049
629.000000 45.576000 6.000000 12.000000 7.000000 115.674056 -21.873085 1407.080346 383.479516 21.928166 0.000000 0.072291
632.000000 51.150000 3.000000 13.000000 7.000000 136.850087 -9.352150 1152.255996 -222.613192 19.532407 0.000000 0.010915
633.000000 48.896000 4.000000 13.000000 7.000000 130.217480 -13.068370 1224.835259 6.700341 20.434778 0.000000 0.033856
634.000000 46.427000 5.000000 13.000000 7.000000 123.734877 -15.841500 1280.402749 193.878724 21.523262 0.000000 0.060050
637.000000 48.423000 3.000000 14.000000 7.000000 136.818869 -4.275053 1055.455717 -209.093567 20.632465 0.000000 0.010911
638.000000 46.491000 4.000000 14.000000 7.000000 130.763275 -8.513656 1136.115519 2.832880 21.491566 0.000000 0.039635
640.000000 47.311000 2.000000 15.000000 7.000000 141.870732 6.265472 856.832467 -438.445419 21.116029 0.000000 0.044258
641.000000 45.889000 3.000000 15.000000 7.000000 136.529686 0.251666 970.272462 -194.366010 21.771971 0.000000 0.018732
647.000000 54.834000 5.000000 7.000000 8.000000 106.760988 -50.179779 2265.881864 434.812222 18.227577 0.000000 0.270101
648.000000 49.808000 6.000000 7.000000 8.000000 99.352057 -48.209378 2179.166263 675.016458 20.069401 0.000000 0.205481
650.000000 53.919000 5.000000 8.000000 8.000000 111.663669 -45.495183 2070.060861 331.102812 18.535440 0.000000 0.178395
652.000000 56.602000 4.000000 9.000000 8.000000 123.606582 -41.839794 1938.664090 -19.072560 17.653808 0.000000 0.180920
653.000000 52.576000 5.000000 9.000000 8.000000 115.771145 -40.718968 1901.379236 255.395269 19.007778 0.000000 0.112124
654.000000 48.526000 6.000000 9.000000 8.000000 108.461026 -39.875277 1874.132877 472.809319 20.596725 0.000000 0.071192
656.000000 50.953000 5.000000 10.000000 8.000000 119.151050 -35.915838 1754.560639 199.760884 19.612527 0.000000 0.064462
659.000000 52.233000 4.000000 11.000000 8.000000 129.176354 -30.697875 1614.002789 -78.995525 19.129208 0.000000 0.078027
660.000000 49.164000 5.000000 11.000000 8.000000 121.880470 -31.152702 1625.613223 158.770689 20.325449 0.000000 0.031880
661.000000 45.999000 6.000000 11.000000 8.000000 114.997618 -31.495296 1634.432453 352.469718 21.726258 0.000000 0.006929
662.000000 52.432000 3.000000 12.000000 8.000000 138.210795 -23.652809 1446.403247 -373.666942 19.054126 0.000000 0.082558
663.000000 47.295000 5.000000 12.000000 8.000000 124.040099 -26.493206 1511.461189 128.624036 21.127882 0.000000 0.018239
665.000000 49.864000 3.000000 13.000000 8.000000 138.996806 -17.605368 1316.531649 -357.829714 20.035375 0.000000 0.049497
666.000000 47.735000 4.000000 13.000000 8.000000 132.242857 -20.133174 1369.574549 -100.002362 20.930940 0.000000 0.029524
668.000000 47.418000 3.000000 14.000000 8.000000 139.335631 -12.013811 1204.044576 -339.938517 21.068781 0.000000 0.024795
676.000000 47.183000 6.000000 8.000000 9.000000 104.809297 -48.973416 2211.975308 507.495898 21.184089 0.000000 0.232760
678.000000 50.193000 5.000000 9.000000 9.000000 116.024214 -46.471422 2108.045160 177.976138 19.910241 0.000000 0.221921
681.000000 48.909000 5.000000 10.000000 9.000000 119.652220 -41.877596 1939.944234 118.087067 20.431604 0.000000 0.154249
682.000000 45.662000 6.000000 10.000000 9.000000 112.850492 -40.921852 1908.034084 340.752879 21.887322 0.000000 0.101160
684.000000 50.238000 4.000000 11.000000 9.000000 129.677878 -37.770361 1808.968011 -188.521369 19.888623 0.000000 0.163522
685.000000 47.434000 5.000000 11.000000 9.000000 122.657090 -37.243769 1793.248470 74.452096 21.066303 0.000000 0.104205
686.000000 48.316000 4.000000 12.000000 9.000000 131.868685 -32.425208 1658.701538 -201.816415 20.679268 0.000000 0.114846
687.000000 45.845000 5.000000 12.000000 9.000000 125.099896 -32.630035 1664.114145 42.809021 21.795566 0.000000 0.067587
690.000000 46.378000 4.000000 13.000000 9.000000 133.512688 -27.188720 1527.872286 -207.747508 21.542899 0.000000 0.078660
697.000000 45.603000 5.000000 11.000000 10.000000 122.880905 -42.955226 1977.089340 -9.662904 21.911874 0.000000 0.195648
#UB matrix in q= (UB) B0 G* 
#[[ 0.063842997 -0.796391779 -0.599440958]
# [-0.556871679  0.470370849 -0.684222004]
# [ 0.828141295  0.378026384 -0.414112964]]
#B0 matrix in q= UB (B0) G*
#[[ 0.19670273 -0.          0.03056101]
# [ 0.          0.19187965 -0.        ]
# [ 0.          0.          0.18806537]]
#UBB0 matrix in q= (UB B0) G* i.e. recip. basis vectors are columns in LT frame: astar = UBB0[:,0], bstar = UBB0[:,1], cstar = UBB0[:,2]. (abcstar as columns on xyzlab1, xlab1 = ui, ui = unit vector along incident beam)
#[[ 0.01255809 -0.15281138 -0.11078298]
# [-0.10953818  0.0902546  -0.14569702]
# [ 0.16289766  0.07253557 -0.05257148]]
#Euler angles phi theta psi (deg)
#[114.54  114.443 138.727]
#deviatoric strain in direct crystal frame (10-3 unit)
#[[-0.55 -0.22  0.02]
# [-0.22  0.27  0.89]
# [ 0.02  0.89  0.28]]
#deviatoric strain in sample2 frame (10-3 unit)
#[[ 0.55  0.09 -0.88]
# [ 0.09 -0.42 -0.16]
# [-0.88 -0.16 -0.13]]
#new lattice parameters
#[ 5.1505     5.2158847  5.3201098 89.9429841 99.224027  90.0249318]
#CCDLabel
#sCMOS
#DetectorParameters
#[79.0, 975.0, 941.0, 0.0, 0.0]
#pixelsize
#0.0734
#Frame dimensions
#[2018, 2016]
#
