#Strain and Orientation Refinement from experimental file: /home/micha/LaueProjects/DepthEffects/testZrO2_49.cor
#File created at Wed Jun 28 14:21:18 2023 with indexingSpotsSet.py
#Number of indexed spots: 544
#Element
#ZrO2
#grainIndex
#G_0
#Mean Deviation(pixel): 0.118
##spot_index intensity h k l 2theta Chi Xexp Yexp Energy GrainIndex PixDev
16.000000 45.459000 -8.000000 5.000000 -13.000000 135.435335 14.611439 694.416865 -188.298069 21.988915 0.000000 0.035118
17.000000 47.020000 -7.000000 5.000000 -13.000000 134.978921 22.060126 538.834488 -219.459619 21.259369 0.000000 0.063560
18.000000 48.424000 -6.000000 5.000000 -13.000000 133.750936 29.769373 359.364249 -246.009834 20.642984 0.000000 0.111710
22.000000 46.155000 -6.000000 6.000000 -13.000000 127.085369 29.283315 371.423890 8.241416 21.659832 0.000000 0.055315
23.000000 47.137000 -5.000000 6.000000 -13.000000 124.928768 35.946167 194.570437 12.559005 21.209210 0.000000 0.107273
24.000000 47.822000 -4.000000 6.000000 -13.000000 122.001129 42.439388 -9.149405 29.644382 20.906020 0.000000 0.183337
34.000000 47.110000 -9.000000 4.000000 -12.000000 138.428223 0.458137 966.393767 -272.501642 21.217915 0.000000 0.011070
35.000000 49.223000 -2.000000 1.000000 -3.000000 139.389884 8.125105 821.339463 -327.014019 5.076651 0.000000 0.028186
36.000000 51.270000 -7.000000 4.000000 -12.000000 139.650047 16.682949 652.445336 -381.550722 19.495826 0.000000 0.063680
40.000000 47.289000 -8.000000 5.000000 -12.000000 132.885632 10.849316 768.725624 -76.844878 21.139072 0.000000 0.033283
41.000000 49.106000 -7.000000 5.000000 -12.000000 132.677673 18.186817 621.406826 -103.582809 20.356857 0.000000 0.034989
42.000000 50.767000 -6.000000 5.000000 -12.000000 131.692473 25.918552 451.948842 -124.901986 19.690761 0.000000 0.064602
43.000000 52.186000 -5.000000 5.000000 -12.000000 129.806360 33.782654 254.955563 -138.148080 19.155962 0.000000 0.120546
46.000000 46.728000 -7.000000 6.000000 -12.000000 125.961796 19.283140 598.442613 113.709888 21.394899 0.000000 0.038996
47.000000 48.138000 -2.000000 2.000000 -4.000000 124.697507 25.960857 450.966112 112.173678 6.922755 0.000000 0.022207
48.000000 49.305000 -5.000000 6.000000 -12.000000 122.667872 32.736057 283.074481 120.575874 20.277230 0.000000 0.053929
49.000000 50.140000 -2.000000 3.000000 -6.000000 119.813050 39.422514 90.213401 142.633877 9.970223 0.000000 0.118353
50.000000 50.548000 -1.000000 2.000000 -4.000000 116.114018 45.848013 -133.634942 183.571226 6.593385 0.000000 0.211060
53.000000 46.300000 -5.000000 7.000000 -12.000000 115.889350 31.943174 303.940048 325.409996 21.595626 0.000000 0.005338
54.000000 46.906000 -4.000000 7.000000 -12.000000 113.029877 37.841609 138.887964 361.644914 21.317377 0.000000 0.059834
55.000000 47.118000 -3.000000 7.000000 -12.000000 109.449512 43.567956 -48.793976 416.446985 21.222535 0.000000 0.135321
56.000000 46.863000 -2.000000 7.000000 -12.000000 105.165271 49.022157 -264.102387 496.143497 21.339084 0.000000 0.237627
63.000000 47.956000 -10.000000 3.000000 -11.000000 138.811646 -15.495338 1273.388518 -335.337445 20.843347 0.000000 0.041022
64.000000 50.584000 -9.000000 3.000000 -11.000000 141.199759 -8.880717 1143.172090 -413.870943 19.759891 0.000000 0.023910
69.000000 46.485000 -10.000000 4.000000 -11.000000 133.588159 -9.684399 1158.672735 -98.328267 21.504421 0.000000 0.030264
70.000000 48.903000 -9.000000 4.000000 -11.000000 135.267667 -3.445165 1039.795112 -147.364672 20.440602 0.000000 0.026017
71.000000 51.348000 -8.000000 4.000000 -11.000000 136.518347 3.814321 903.242404 -196.424655 19.467166 0.000000 0.021478
72.000000 53.754000 -7.000000 4.000000 -11.000000 137.125974 12.074879 744.756045 -244.513479 18.595631 0.000000 0.033430
73.000000 56.032000 -6.000000 4.000000 -11.000000 136.850413 21.151074 558.589946 -290.095932 17.839559 0.000000 0.070749
77.000000 46.951000 -9.000000 5.000000 -11.000000 129.251098 0.634601 963.078603 61.542367 21.292144 0.000000 0.063319
78.000000 49.130000 -8.000000 5.000000 -11.000000 129.882403 7.131326 840.342829 34.628318 20.347732 0.000000 0.053662
79.000000 51.244000 -7.000000 5.000000 -11.000000 129.915776 14.293637 700.783310 11.809866 19.508339 0.000000 0.038772
80.000000 53.209000 -6.000000 5.000000 -11.000000 129.179576 21.975397 540.686407 -4.889457 18.788032 0.000000 0.031176
81.000000 54.918000 -5.000000 5.000000 -11.000000 127.515740 29.937778 355.158686 -12.577357 18.203507 0.000000 0.063981
82.000000 56.245000 -4.000000 5.000000 -11.000000 124.807843 37.883748 137.617978 -7.057857 17.774738 0.000000 0.132074
85.000000 46.698000 -8.000000 6.000000 -11.000000 123.408036 9.617392 792.622377 220.978438 21.409611 0.000000 0.085041
86.000000 48.508000 -7.000000 6.000000 -11.000000 122.976699 15.917380 668.056497 214.825595 20.610561 0.000000 0.067532
87.000000 50.153000 -6.000000 6.000000 -11.000000 121.868855 22.569557 527.652740 216.381849 19.935006 0.000000 0.040753
88.000000 51.536000 -5.000000 6.000000 -11.000000 119.970287 29.414295 368.185495 228.497401 19.400378 0.000000 0.009336
89.000000 52.548000 -4.000000 6.000000 -11.000000 117.195694 36.261733 185.489436 255.124080 19.027558 0.000000 0.058708
90.000000 53.068000 -3.000000 6.000000 -11.000000 113.503311 42.921566 -25.909576 301.824014 18.841760 0.000000 0.139866
91.000000 52.982000 -2.000000 6.000000 -11.000000 108.903283 49.233013 -273.352372 376.565622 18.873729 0.000000 0.254910
93.000000 45.645000 -7.000000 7.000000 -11.000000 116.358115 17.155331 642.750553 382.871292 21.905892 0.000000 0.094743
94.000000 46.979000 -6.000000 7.000000 -11.000000 114.950899 23.018055 517.739871 396.919420 21.284416 0.000000 0.071235
95.000000 48.051000 -5.000000 7.000000 -11.000000 112.861258 29.020035 377.908249 422.060030 20.809968 0.000000 0.039543
96.000000 48.768000 -4.000000 7.000000 -11.000000 110.026862 35.032733 220.453903 461.885419 20.504490 0.000000 0.027558
97.000000 49.034000 -3.000000 7.000000 -11.000000 106.416848 40.926246 41.821348 521.288385 20.394514 0.000000 0.086624
98.000000 48.755000 -2.000000 7.000000 -11.000000 102.038440 46.585446 -162.570315 607.030007 20.512439 0.000000 0.177576
99.000000 47.858000 -1.000000 7.000000 -11.000000 96.938978 51.921814 -398.725789 728.609519 20.898236 0.000000 0.303584
110.000000 46.718000 -11.000000 3.000000 -10.000000 132.196586 -23.812535 1449.983649 -125.605921 21.397134 0.000000 0.044302
111.000000 49.570000 -10.000000 3.000000 -10.000000 134.898195 -18.973481 1345.040719 -193.092463 20.165496 0.000000 0.037043
112.000000 52.576000 -9.000000 3.000000 -10.000000 137.503395 -12.997510 1223.432838 -264.596393 19.011871 0.000000 0.026618
113.000000 55.697000 -8.000000 3.000000 -10.000000 139.831914 -5.616686 1080.848042 -340.213401 17.946378 0.000000 0.009806
114.000000 58.862000 -7.000000 3.000000 -10.000000 141.611693 3.384615 911.346357 -419.888628 16.980963 0.000000 0.018386
118.000000 47.915000 -5.000000 2.000000 -5.000000 129.737366 -12.957481 1222.640980 22.878552 10.431900 0.000000 0.044537
119.000000 50.661000 -9.000000 4.000000 -10.000000 131.595785 -7.169373 1110.383130 -21.966079 19.732211 0.000000 0.044737
120.000000 53.482000 -4.000000 2.000000 -5.000000 133.100204 -0.360796 981.777595 -66.205534 9.345615 0.000000 0.039969
121.000000 56.307000 -7.000000 4.000000 -10.000000 134.034703 7.517278 832.972968 -108.647100 17.753223 0.000000 0.031486
122.000000 59.034000 -3.000000 2.000000 -5.000000 134.136709 16.371800 658.804908 -147.474252 8.466455 0.000000 0.035442
123.000000 61.523000 -5.000000 4.000000 -10.000000 133.130102 25.908400 452.184561 -179.896667 16.247957 0.000000 0.075121
124.000000 63.592000 -2.000000 2.000000 -5.000000 130.782917 35.647098 203.109983 -201.563798 7.859878 0.000000 0.151113
126.000000 45.994000 -4.000000 2.000000 -4.000000 124.355588 -8.171127 1129.542779 197.724934 8.694789 0.000000 0.085516
127.000000 48.449000 -9.000000 5.000000 -10.000000 125.556208 -2.712950 1026.000558 170.829368 20.635025 0.000000 0.084709
128.000000 50.937000 -8.000000 5.000000 -10.000000 126.368316 3.487213 909.412116 146.935442 19.626861 0.000000 0.078648
129.000000 53.389000 -7.000000 5.000000 -10.000000 126.623420 10.416329 777.145955 127.585446 18.725363 0.000000 0.065505
130.000000 55.708000 -6.000000 5.000000 -10.000000 126.130432 17.974907 625.811840 114.959135 17.945888 0.000000 0.043479
131.000000 59.402000 -4.000000 5.000000 -10.000000 122.164159 34.086343 246.668062 123.753276 16.830731 0.000000 0.064754
132.000000 60.431000 -3.000000 5.000000 -10.000000 118.434322 42.032580 4.791520 156.385398 16.544804 0.000000 0.151656
135.000000 46.026000 -9.000000 6.000000 -10.000000 119.548475 0.766104 960.607973 330.804795 21.723687 0.000000 0.116328
136.000000 48.169000 -4.000000 3.000000 -5.000000 119.784625 6.401993 854.236349 321.118386 10.378476 0.000000 0.109833
137.000000 50.240000 -7.000000 6.000000 -10.000000 119.491628 12.552339 735.359599 317.363348 19.901419 0.000000 0.096986
138.000000 52.149000 -3.000000 3.000000 -5.000000 118.527834 19.131597 601.634837 321.739934 9.586607 0.000000 0.075619
139.000000 53.781000 -5.000000 6.000000 -10.000000 116.755906 25.998335 450.094932 337.270565 18.591731 0.000000 0.042935
140.000000 54.999000 -2.000000 3.000000 -5.000000 114.062416 32.967059 276.925752 368.160804 9.090260 0.000000 0.011658
141.000000 55.651000 -3.000000 6.000000 -10.000000 110.378012 39.835322 77.140714 420.351464 17.968448 0.000000 0.078578
142.000000 55.583000 -1.000000 3.000000 -5.000000 105.692540 46.417385 -155.907233 502.384438 8.995653 0.000000 0.179949
145.000000 46.979000 -7.000000 7.000000 -10.000000 112.705436 14.187341 702.908688 476.488546 21.285538 0.000000 0.120886
146.000000 48.497000 -6.000000 7.000000 -10.000000 111.369768 20.004896 583.156758 492.818095 20.619457 0.000000 0.102487
147.000000 49.733000 -5.000000 7.000000 -10.000000 109.333108 26.026447 449.441076 520.774354 20.107551 0.000000 0.076646
148.000000 50.572000 -4.000000 7.000000 -10.000000 106.514869 32.125734 299.168048 564.186826 19.774760 0.000000 0.048485
149.000000 50.891000 -3.000000 7.000000 -10.000000 102.866859 38.166469 129.059387 628.301787 19.651705 0.000000 0.060163
150.000000 50.573000 -2.000000 7.000000 -10.000000 98.383824 44.019950 -65.089798 720.414137 19.776413 0.000000 0.132168
151.000000 49.524000 -1.000000 7.000000 -10.000000 93.108848 49.580354 -288.763277 850.842024 20.196692 0.000000 0.244659
153.000000 45.752000 -5.000000 8.000000 -10.000000 102.436103 26.048315 448.932242 676.815490 21.859564 0.000000 0.100188
154.000000 46.263000 -2.000000 4.000000 -5.000000 99.529884 31.470524 316.207404 729.152013 10.809637 0.000000 0.079217
155.000000 46.304000 -3.000000 8.000000 -10.000000 95.923361 36.857919 168.130818 801.437219 21.601113 0.000000 0.078205
156.000000 45.788000 -1.000000 4.000000 -5.000000 91.616880 42.118107 1.875480 900.042284 10.922856 0.000000 0.122977
161.000000 46.021000 -12.000000 2.000000 -9.000000 128.375875 -36.713526 1777.640337 -122.231011 21.722401 0.000000 0.130750
162.000000 49.159000 -11.000000 2.000000 -9.000000 131.608533 -33.646967 1691.360628 -207.231813 20.334863 0.000000 0.120104
163.000000 52.573000 -10.000000 2.000000 -9.000000 135.041923 -29.759086 1590.379324 -300.614430 19.013546 0.000000 0.108170
169.000000 47.884000 -11.000000 3.000000 -9.000000 127.682783 -26.520771 1512.107800 11.894317 20.877447 0.000000 0.031513
170.000000 51.079000 -10.000000 3.000000 -9.000000 130.455865 -22.179437 1413.777031 -50.148140 19.570905 0.000000 0.029383
171.000000 54.502000 -3.000000 1.000000 -3.000000 133.214925 -16.810797 1300.173723 -115.379719 6.113707 0.000000 0.027021
172.000000 58.120000 -8.000000 3.000000 -9.000000 135.807747 -10.137297 1167.440137 -183.634014 17.198767 0.000000 0.021192
173.000000 61.868000 -7.000000 3.000000 -9.000000 137.987811 -1.878489 1010.299831 -254.477091 16.156593 0.000000 0.011293
174.000000 69.233000 -5.000000 3.000000 -9.000000 139.544162 19.691776 589.805143 -399.543767 14.437508 0.000000 0.079592
176.000000 46.294000 -11.000000 4.000000 -9.000000 123.264760 -20.524186 1377.927860 187.099667 21.595979 0.000000 0.051067
177.000000 49.220000 -10.000000 4.000000 -9.000000 125.377820 -16.035968 1284.353755 145.801989 20.311906 0.000000 0.058957
178.000000 52.322000 -9.000000 4.000000 -9.000000 127.361828 -10.697358 1178.316522 104.712979 19.107095 0.000000 0.063427
179.000000 55.561000 -8.000000 4.000000 -9.000000 129.069353 -4.364660 1057.148569 64.733589 17.992641 0.000000 0.063007
180.000000 58.868000 -7.000000 4.000000 -9.000000 130.290909 3.065363 917.362523 27.222185 16.981815 0.000000 0.055864
181.000000 62.128000 -6.000000 4.000000 -9.000000 130.752256 11.587658 754.310118 -5.764788 16.090619 0.000000 0.040959
182.000000 65.174000 -5.000000 4.000000 -9.000000 130.135464 21.009003 561.655286 -31.083195 15.338527 0.000000 0.032546
183.000000 67.778000 -4.000000 4.000000 -9.000000 128.134028 30.912523 330.531619 -43.850646 14.749483 0.000000 0.077469
184.000000 69.652000 -3.000000 4.000000 -9.000000 124.530645 40.733693 48.139144 -36.319361 14.353264 0.000000 0.173248
186.000000 47.073000 -10.000000 5.000000 -9.000000 120.043949 -11.062626 1185.431543 306.713660 21.240006 0.000000 0.102069
187.000000 49.819000 -9.000000 5.000000 -9.000000 121.331893 -5.933028 1086.851276 282.253310 20.068892 0.000000 0.104781
188.000000 52.644000 -8.000000 5.000000 -9.000000 122.281999 -0.056805 976.067079 261.067852 18.991922 0.000000 0.102956
189.000000 55.473000 -7.000000 5.000000 -9.000000 122.723834 6.589772 850.663210 244.799334 18.023023 0.000000 0.094732
190.000000 58.199000 -6.000000 5.000000 -9.000000 122.452076 13.955306 707.541293 235.774525 17.179008 0.000000 0.077513
191.000000 60.667000 -5.000000 5.000000 -9.000000 121.244084 21.884948 542.660878 237.330102 16.480369 0.000000 0.047639
192.000000 62.676000 -4.000000 5.000000 -9.000000 118.892963 30.117613 350.651924 254.322765 15.952343 0.000000 0.006144
193.000000 63.987000 -3.000000 5.000000 -9.000000 115.249869 38.325404 124.218870 293.951733 15.626366 0.000000 0.075862
194.000000 64.338000 -2.000000 5.000000 -9.000000 110.261035 46.186177 -146.807390 367.128082 15.542101 0.000000 0.189282
196.000000 47.099000 -3.000000 2.000000 -3.000000 115.311394 -2.163942 1015.668723 431.612894 7.076796 0.000000 0.134741
197.000000 49.499000 -8.000000 6.000000 -9.000000 115.626909 3.246558 913.948449 423.874588 20.200868 0.000000 0.132024
198.000000 51.850000 -7.000000 6.000000 -9.000000 115.439348 9.211063 800.465096 422.343923 19.284915 0.000000 0.123816
199.000000 54.049000 -2.000000 2.000000 -3.000000 114.594247 15.671101 673.052997 429.345562 6.166778 0.000000 0.108251
200.000000 55.960000 -5.000000 6.000000 -9.000000 112.932273 22.509278 528.980103 448.089810 17.868854 0.000000 0.083118
201.000000 57.413000 -4.000000 6.000000 -9.000000 110.310354 29.552885 364.749880 483.069086 17.417279 0.000000 0.048051
202.000000 58.212000 -1.000000 2.000000 -3.000000 106.627196 36.595180 175.813798 540.667977 5.726352 0.000000 0.042363
203.000000 58.157000 -2.000000 6.000000 -9.000000 101.846570 43.429651 -43.856492 630.125812 17.196475 0.000000 0.121133
204.000000 57.075000 -1.000000 6.000000 -9.000000 96.011350 49.884174 -302.424240 765.099783 17.523785 0.000000 0.249407
206.000000 46.247000 -8.000000 7.000000 -9.000000 109.215132 5.844112 864.836762 563.916077 21.623854 0.000000 0.151101
207.000000 48.143000 -7.000000 7.000000 -9.000000 108.523587 11.229157 761.318752 573.345917 20.772329 0.000000 0.143011
208.000000 49.853000 -6.000000 7.000000 -9.000000 107.232531 16.969527 646.569649 591.964532 20.059971 0.000000 0.129105
209.000000 51.260000 -5.000000 7.000000 -9.000000 105.226721 22.976690 518.656857 622.792887 19.509987 0.000000 0.108454
210.000000 52.223000 -4.000000 7.000000 -9.000000 102.406527 29.131079 375.177391 669.946830 19.151049 0.000000 0.082654
211.000000 52.588000 -3.000000 7.000000 -9.000000 98.704394 35.294173 213.105498 739.111522 19.018998 0.000000 0.068420
212.000000 52.206000 -2.000000 7.000000 -9.000000 94.100041 41.326292 28.576932 838.264310 19.159243 0.000000 0.107781
213.000000 50.958000 -1.000000 7.000000 -9.000000 88.630487 47.104749 -183.423130 978.803060 19.630174 0.000000 0.202720
216.000000 45.747000 -6.000000 8.000000 -9.000000 100.387061 17.985396 625.594059 733.578680 21.863462 0.000000 0.140708
217.000000 46.717000 -5.000000 8.000000 -9.000000 98.127021 23.339695 510.590228 773.605177 21.409974 0.000000 0.123278
218.000000 47.270000 -4.000000 8.000000 -9.000000 95.171686 28.804065 383.202769 829.831163 21.160644 0.000000 0.103697
219.000000 47.287000 -3.000000 8.000000 -9.000000 91.477560 34.281256 241.317658 907.401405 21.154131 0.000000 0.093727
220.000000 46.660000 -2.000000 8.000000 -9.000000 87.036808 39.672655 82.310652 1013.382200 21.439506 0.000000 0.118946
227.000000 46.814000 -6.000000 1.000000 -4.000000 123.294815 -38.689903 1836.962946 35.404823 10.677817 0.000000 0.118395
228.000000 50.267000 -11.000000 2.000000 -8.000000 126.467034 -36.004778 1757.110700 -42.299680 19.887986 0.000000 0.106741
229.000000 54.083000 -5.000000 1.000000 -4.000000 129.891978 -32.624657 1663.971693 -127.206882 9.241990 0.000000 0.095532
230.000000 58.278000 -9.000000 2.000000 -8.000000 133.540608 -28.275399 1553.928780 -220.392209 17.152640 0.000000 0.083858
231.000000 62.847000 -4.000000 1.000000 -4.000000 137.328018 -22.550197 1421.920821 -323.167236 7.952388 0.000000 0.069583
234.000000 45.618000 -12.000000 3.000000 -8.000000 120.014020 -32.195425 1652.658674 206.275641 21.917058 0.000000 0.019644
235.000000 48.854000 -11.000000 3.000000 -8.000000 122.666936 -29.012948 1571.917671 151.881755 20.464433 0.000000 0.015897
236.000000 52.405000 -10.000000 3.000000 -8.000000 125.443960 -25.126136 1479.771899 94.802712 19.077238 0.000000 0.022058
237.000000 56.274000 -9.000000 3.000000 -8.000000 128.280785 -20.322847 1373.621323 35.193963 17.764811 0.000000 0.029896
238.000000 60.445000 -8.000000 3.000000 -8.000000 131.055894 -14.333316 1250.010571 -26.571904 16.538360 0.000000 0.034655
239.000000 64.863000 -7.000000 3.000000 -8.000000 133.557164 -6.847517 1104.245699 -89.760322 15.411445 0.000000 0.033580
240.000000 69.414000 -6.000000 3.000000 -8.000000 135.442872 2.405596 929.784596 -153.026958 14.400641 0.000000 0.026253
241.000000 73.899000 -5.000000 3.000000 -8.000000 136.222087 13.468615 717.228077 -213.980389 13.526418 0.000000 0.034530
242.000000 78.006000 -4.000000 3.000000 -8.000000 135.309404 25.891838 452.569043 -268.379246 12.814355 0.000000 0.091368
245.000000 47.098000 -11.000000 4.000000 -8.000000 118.356222 -23.030273 1432.531094 309.804867 21.229239 0.000000 0.062319
246.000000 50.324000 -5.000000 2.000000 -4.000000 120.469821 -18.920505 1343.928282 271.610036 9.933845 0.000000 0.073032
247.000000 53.799000 -9.000000 4.000000 -8.000000 122.513025 -14.019643 1243.742275 233.918868 18.583890 0.000000 0.081263
248.000000 61.338000 -7.000000 4.000000 -8.000000 125.801724 -1.233169 998.168502 164.523009 16.298980 0.000000 0.083751
249.000000 65.216000 -3.000000 2.000000 -4.000000 126.577100 6.864536 845.429965 136.574045 7.664753 0.000000 0.073090
250.000000 68.934000 -5.000000 4.000000 -8.000000 126.334569 16.035562 665.654494 117.334565 14.502695 0.000000 0.049841
251.000000 74.655000 -3.000000 4.000000 -8.000000 121.345825 36.101805 190.100786 129.613787 13.392173 0.000000 0.082922
253.000000 47.936000 -10.000000 5.000000 -8.000000 115.211415 -13.812315 1239.608538 419.183027 20.859313 0.000000 0.116538
254.000000 50.978000 -9.000000 5.000000 -8.000000 116.528963 -9.013663 1145.731371 396.981920 19.614250 0.000000 0.122509
255.000000 54.155000 -8.000000 5.000000 -8.000000 117.559010 -3.478953 1040.432133 378.270004 18.463266 0.000000 0.124787
256.000000 57.393000 -7.000000 5.000000 -8.000000 118.133968 2.846160 921.491202 364.781328 17.421432 0.000000 0.121692
257.000000 60.572000 -6.000000 5.000000 -8.000000 118.040428 9.955917 786.074010 358.985161 16.507222 0.000000 0.110891
258.000000 63.511000 -5.000000 5.000000 -8.000000 117.030278 17.748709 630.502231 364.441401 15.743528 0.000000 0.089126
259.000000 65.961000 -4.000000 5.000000 -8.000000 114.850974 26.006089 449.914598 386.361163 15.159065 0.000000 0.052211
260.000000 67.608000 -3.000000 5.000000 -8.000000 111.294175 34.410732 237.749777 432.515562 14.790348 0.000000 0.022357
261.000000 68.100000 -2.000000 5.000000 -8.000000 106.249632 42.610517 -15.068002 514.756457 14.684534 0.000000 0.111462
262.000000 67.105000 -1.000000 5.000000 -8.000000 99.743617 50.301267 -321.461048 651.657514 14.903602 0.000000 0.260793
264.000000 47.938000 -9.000000 6.000000 -8.000000 110.533990 -4.998820 1069.141211 536.322946 20.860390 0.000000 0.149777
265.000000 50.596000 -4.000000 3.000000 -4.000000 110.878286 0.167933 971.845396 530.468720 9.882200 0.000000 0.150462
266.000000 53.236000 -7.000000 6.000000 -8.000000 110.748299 5.915638 863.478897 531.082183 18.784338 0.000000 0.146466
267.000000 55.742000 -3.000000 3.000000 -4.000000 109.980005 12.213156 742.038234 540.624665 8.969995 0.000000 0.136150
268.000000 57.953000 -5.000000 6.000000 -8.000000 108.394499 18.971283 605.005466 562.520958 17.255909 0.000000 0.117594
269.000000 59.659000 -2.000000 3.000000 -4.000000 105.819132 26.038024 449.171723 601.603460 8.381481 0.000000 0.089673
270.000000 60.611000 -3.000000 6.000000 -8.000000 102.117505 33.211553 270.382768 664.802802 16.500474 0.000000 0.061534
271.000000 60.546000 -1.000000 3.000000 -4.000000 97.221861 40.271281 63.163164 762.250116 8.259682 0.000000 0.089791
272.000000 59.234000 -1.000000 6.000000 -8.000000 91.158016 47.016585 -179.854324 909.089500 16.886735 0.000000 0.194573
275.000000 46.958000 -8.000000 7.000000 -8.000000 104.444310 3.062088 917.424213 663.370812 21.298109 0.000000 0.164906
276.000000 49.042000 -7.000000 7.000000 -8.000000 103.752690 8.296341 818.055847 674.793053 20.393416 0.000000 0.159964
277.000000 50.939000 -6.000000 7.000000 -8.000000 102.466427 13.928832 708.069242 695.844187 19.634219 0.000000 0.149840
278.000000 52.511000 -5.000000 7.000000 -8.000000 100.456156 19.886845 585.666376 729.776365 19.047079 0.000000 0.133587
279.000000 53.587000 -4.000000 7.000000 -8.000000 97.603363 26.061774 448.618992 781.065378 18.665442 0.000000 0.111731
280.000000 53.975000 -3.000000 7.000000 -8.000000 93.819942 32.317617 294.131718 855.964073 18.532023 0.000000 0.092363
281.000000 53.487000 -2.000000 7.000000 -8.000000 89.068637 38.507416 118.649394 963.359699 18.702255 0.000000 0.105983
282.000000 51.971000 -1.000000 7.000000 -8.000000 83.378986 44.493187 -82.419889 1116.137569 19.249408 0.000000 0.179757
283.000000 49.353000 0.000000 7.000000 -8.000000 76.853406 50.162976 -315.112435 1333.416477 20.272382 0.000000 0.311759
285.000000 46.317000 -3.000000 4.000000 -4.000000 95.522973 15.274740 681.069157 833.118001 10.798269 0.000000 0.153955
286.000000 47.353000 -5.000000 8.000000 -8.000000 93.206781 20.597806 570.494612 876.579848 21.124536 0.000000 0.139207
287.000000 47.921000 -1.000000 2.000000 -2.000000 90.171320 26.080128 448.191683 937.416937 5.218766 0.000000 0.121716
288.000000 47.878000 -3.000000 8.000000 -8.000000 86.361433 31.625847 312.189863 1021.379148 20.894850 0.000000 0.109697
289.000000 47.093000 -1.000000 4.000000 -4.000000 81.760803 37.132293 160.051032 1136.483556 10.622342 0.000000 0.124359
298.000000 47.344000 -12.000000 2.000000 -7.000000 117.743395 -40.490797 1893.943220 196.621617 21.118541 0.000000 0.108111
299.000000 51.100000 -11.000000 2.000000 -7.000000 120.785806 -38.137792 1820.069486 125.722037 19.565239 0.000000 0.093053
300.000000 55.320000 -10.000000 2.000000 -7.000000 124.119913 -35.198002 1734.185891 48.583326 18.072076 0.000000 0.079407
301.000000 60.048000 -9.000000 2.000000 -7.000000 127.743550 -31.443873 1633.104590 -35.570058 16.648252 0.000000 0.067520
302.000000 65.315000 -8.000000 2.000000 -7.000000 131.614220 -26.533224 1512.400004 -127.607102 15.304949 0.000000 0.056840
303.000000 71.116000 -7.000000 2.000000 -7.000000 135.605162 -19.953188 1365.743525 -228.475165 14.055885 0.000000 0.044823
304.000000 77.376000 -6.000000 2.000000 -7.000000 139.422366 -10.976761 1183.757411 -339.147555 12.918085 0.000000 0.025810
305.000000 83.902000 -5.000000 2.000000 -7.000000 142.470557 1.228089 951.926969 -460.484494 11.912939 0.000000 0.013368
307.000000 46.041000 -12.000000 3.000000 -7.000000 114.579846 -34.161421 1705.389916 346.036132 21.717339 0.000000 0.012643
308.000000 49.544000 -11.000000 3.000000 -7.000000 117.119294 -31.305559 1629.540215 295.845966 20.181309 0.000000 0.006792
309.000000 53.445000 -10.000000 3.000000 -7.000000 119.821733 -27.830005 1543.186124 243.367666 18.707534 0.000000 0.023063
310.000000 57.772000 -9.000000 3.000000 -7.000000 122.645402 -23.544625 1443.983178 188.862795 17.305612 0.000000 0.038085
311.000000 62.534000 -8.000000 3.000000 -7.000000 125.500231 -18.198348 1328.833159 132.857785 15.987220 0.000000 0.049988
312.000000 67.700000 -7.000000 3.000000 -7.000000 128.214123 -11.478536 1193.554699 76.315977 14.766710 0.000000 0.056710
313.000000 73.172000 -6.000000 3.000000 -7.000000 130.485308 -3.050878 1032.364606 20.931000 13.661921 0.000000 0.055281
314.000000 78.742000 -5.000000 3.000000 -7.000000 131.834156 7.304920 837.029583 -30.357285 12.695308 0.000000 0.042511
315.000000 84.036000 -4.000000 3.000000 -7.000000 131.604336 19.426611 595.414994 -72.420172 11.895537 0.000000 0.034189
316.000000 88.469000 -3.000000 3.000000 -7.000000 129.095494 32.517467 288.863547 -96.134089 11.299795 0.000000 0.100970
317.000000 47.616000 -11.000000 4.000000 -7.000000 112.932633 -25.370380 1485.380410 437.028342 21.000038 0.000000 0.073354
318.000000 51.131000 -10.000000 4.000000 -7.000000 114.974855 -21.615588 1401.473799 401.770018 19.555907 0.000000 0.086021
319.000000 54.977000 -9.000000 4.000000 -7.000000 116.996319 -17.133325 1306.796720 367.224684 18.187242 0.000000 0.097364
320.000000 59.141000 -8.000000 4.000000 -7.000000 118.886075 -11.763452 1199.133162 334.456030 16.906404 0.000000 0.105912
321.000000 63.568000 -7.000000 4.000000 -7.000000 120.467785 -5.340618 1075.614423 305.068472 15.728612 0.000000 0.109745
322.000000 68.141000 -6.000000 4.000000 -7.000000 121.478097 2.263424 932.459720 281.497306 14.672814 0.000000 0.106144
323.000000 72.645000 -5.000000 4.000000 -7.000000 121.556127 11.061911 764.582396 267.481196 13.762908 0.000000 0.091046
324.000000 76.736000 -4.000000 4.000000 -7.000000 120.267205 20.854937 564.972833 268.854798 13.029470 0.000000 0.058173
325.000000 79.910000 -3.000000 4.000000 -7.000000 117.183468 31.179669 323.694904 294.925696 12.512261 0.000000 0.002617
326.000000 81.534000 -2.000000 4.000000 -7.000000 112.011421 41.398150 26.180724 360.968146 12.263960 0.000000 0.107624
327.000000 80.935000 -1.000000 4.000000 -7.000000 104.707090 50.909409 -349.824250 492.972700 12.355867 0.000000 0.285976
329.000000 48.493000 -10.000000 5.000000 -7.000000 109.822889 -16.418643 1292.151221 536.531033 20.621820 0.000000 0.128091
330.000000 51.818000 -9.000000 5.000000 -7.000000 111.099204 -11.947102 1202.735044 516.515071 19.298267 0.000000 0.136849
331.000000 55.345000 -8.000000 5.000000 -7.000000 112.133895 -6.762361 1102.623289 500.153406 18.068214 0.000000 0.142778
332.000000 59.002000 -7.000000 5.000000 -7.000000 112.766398 -0.786479 989.774842 489.267561 16.947999 0.000000 0.144376
333.000000 62.662000 -6.000000 5.000000 -7.000000 112.781639 6.014899 861.593947 486.471030 15.958003 0.000000 0.139598
334.000000 66.119000 -5.000000 5.000000 -7.000000 111.913295 13.594414 714.728079 495.562934 15.123979 0.000000 0.125667
335.000000 69.066000 -4.000000 5.000000 -7.000000 109.867533 21.788183 544.770480 522.155328 14.478953 0.000000 0.099189
336.000000 71.097000 -3.000000 5.000000 -7.000000 106.373415 30.310079 345.810405 574.701411 14.065984 0.000000 0.060441
337.000000 71.733000 -2.000000 5.000000 -7.000000 101.252792 38.796946 109.731648 666.236551 13.942282 0.000000 0.068270
338.000000 70.509000 -1.000000 5.000000 -7.000000 94.485603 46.894253 -174.921921 817.440414 14.185550 0.000000 0.186001
341.000000 45.646000 -10.000000 6.000000 -7.000000 104.557631 -12.075327 1205.252767 655.171677 21.910033 0.000000 0.154082
342.000000 48.445000 -9.000000 6.000000 -7.000000 105.174388 -7.729927 1121.093180 646.417027 20.643972 0.000000 0.160380
343.000000 51.344000 -8.000000 6.000000 -7.000000 105.482698 -2.819604 1028.008719 642.505788 19.478548 0.000000 0.163891
344.000000 54.261000 -7.000000 6.000000 -7.000000 105.344989 2.686351 924.500209 645.325726 18.431498 0.000000 0.163444
345.000000 57.068000 -6.000000 6.000000 -7.000000 104.591302 8.782742 808.712785 657.496568 17.524987 0.000000 0.157554
346.000000 59.578000 -5.000000 6.000000 -7.000000 103.026770 15.410657 678.323766 682.701280 16.787079 0.000000 0.144485
347.000000 61.535000 -4.000000 6.000000 -7.000000 100.451149 22.445411 530.385231 726.197012 16.253847 0.000000 0.122903
348.000000 62.622000 -3.000000 6.000000 -7.000000 96.691803 29.699764 361.098461 795.622915 15.972444 0.000000 0.096086
349.000000 62.496000 -2.000000 6.000000 -7.000000 91.645403 36.948047 165.483138 902.313903 16.005709 0.000000 0.092914
350.000000 60.853000 -1.000000 6.000000 -7.000000 85.316486 43.965700 -63.120824 1063.507876 16.439289 0.000000 0.165447
351.000000 57.522000 0.000000 6.000000 -7.000000 77.837923 50.568335 -333.826680 1306.196804 17.393010 0.000000 0.316472
353.000000 47.307000 -8.000000 7.000000 -7.000000 99.081327 0.340831 968.597446 768.962287 21.143497 0.000000 0.172862
354.000000 49.551000 -2.000000 2.000000 -2.000000 98.333190 5.403662 873.190835 782.645109 5.767419 0.000000 0.170300
355.000000 51.609000 -6.000000 7.000000 -7.000000 96.996633 10.899874 767.740841 806.485118 19.381543 0.000000 0.163054
356.000000 53.317000 -5.000000 7.000000 -7.000000 94.930228 16.774341 650.573467 844.030844 18.761105 0.000000 0.150178
357.000000 54.471000 -4.000000 7.000000 -7.000000 91.997900 22.933181 519.620804 900.232187 18.364427 0.000000 0.131802
358.000000 54.835000 -3.000000 7.000000 -7.000000 88.091148 29.247905 372.297935 982.112051 18.243644 0.000000 0.113130
359.000000 54.171000 -2.000000 7.000000 -7.000000 83.155041 35.568960 205.330578 1099.832584 18.468449 0.000000 0.115930
360.000000 52.290000 -1.000000 7.000000 -7.000000 77.211305 41.745904 14.508870 1268.440183 19.134166 0.000000 0.173468
361.000000 49.110000 0.000000 2.000000 -2.000000 70.370204 47.647878 -205.672504 1510.824056 5.821350 0.000000 0.294998
362.000000 46.453000 -6.000000 8.000000 -7.000000 90.023865 12.567421 735.062215 940.540687 21.535738 0.000000 0.158932
363.000000 47.515000 -5.000000 8.000000 -7.000000 87.605732 17.834767 628.719157 988.274050 21.055304 0.000000 0.145932
364.000000 48.050000 -4.000000 8.000000 -7.000000 84.447504 23.309497 511.262953 1054.929560 20.821404 0.000000 0.130189
365.000000 47.890000 -3.000000 8.000000 -7.000000 80.483173 28.899923 380.855529 1147.101691 20.892139 0.000000 0.118893
366.000000 46.876000 -2.000000 8.000000 -7.000000 75.688628 34.501939 235.229813 1274.174536 21.345417 0.000000 0.131169
374.000000 47.525000 -6.000000 1.000000 -3.000000 111.702604 -42.135462 1948.717204 363.345149 10.519948 0.000000 0.104686
375.000000 51.552000 -11.000000 2.000000 -6.000000 114.536703 -40.071553 1880.411039 298.942926 19.395542 0.000000 0.084572
376.000000 56.150000 -5.000000 1.000000 -3.000000 117.685170 -37.512719 1801.249305 229.075053 8.903340 0.000000 0.065242
377.000000 61.403000 -9.000000 2.000000 -6.000000 121.168932 -34.271748 1708.420779 153.187251 16.282536 0.000000 0.048186
378.000000 67.393000 -4.000000 1.000000 -3.000000 124.983537 -30.065956 1598.051850 70.736886 7.417248 0.000000 0.035914
379.000000 74.178000 -7.000000 2.000000 -6.000000 129.064393 -24.462818 1464.652301 -18.724890 13.476786 0.000000 0.030289
380.000000 89.976000 -5.000000 2.000000 -6.000000 136.969281 -6.221049 1092.323069 -218.774021 11.109511 0.000000 0.016245
381.000000 46.119000 -4.000000 1.000000 -2.000000 108.663845 -35.977939 1756.340578 491.754751 7.227581 0.000000 0.029962
382.000000 49.852000 -11.000000 3.000000 -6.000000 111.014064 -33.415133 1685.093269 445.669208 20.058555 0.000000 0.024973
383.000000 54.072000 -10.000000 3.000000 -6.000000 113.551413 -30.309229 1604.168171 397.588516 18.492423 0.000000 0.034661
384.000000 58.837000 -3.000000 1.000000 -2.000000 116.254299 -26.492718 1511.449749 347.843233 5.664692 0.000000 0.050332
385.000000 64.193000 -8.000000 3.000000 -6.000000 119.062702 -21.738956 1404.157407 297.063520 15.575542 0.000000 0.066089
386.000000 70.152000 -7.000000 3.000000 -6.000000 121.846638 -15.750763 1278.561855 246.373680 14.251879 0.000000 0.078878
387.000000 83.513000 -5.000000 3.000000 -6.000000 126.150577 1.337344 949.873584 154.482252 11.971047 0.000000 0.081357
388.000000 90.304000 -4.000000 3.000000 -6.000000 126.551947 12.873771 729.014197 122.498563 11.070684 0.000000 0.059200
389.000000 47.755000 -11.000000 4.000000 -6.000000 106.970793 -27.553403 1536.558982 570.524343 20.940891 0.000000 0.083474
390.000000 51.522000 -5.000000 2.000000 -3.000000 108.858526 -24.128495 1457.092227 538.178154 9.704768 0.000000 0.097054
391.000000 55.708000 -9.000000 4.000000 -6.000000 110.761607 -20.040763 1367.606483 506.680784 17.950439 0.000000 0.110636
392.000000 60.324000 -4.000000 2.000000 -3.000000 112.588692 -15.133391 1266.079511 477.144941 8.288268 0.000000 0.122736
393.000000 65.338000 -7.000000 4.000000 -6.000000 114.186368 -9.230289 1149.905593 451.260592 15.304048 0.000000 0.131577
394.000000 76.029000 -5.000000 4.000000 -6.000000 115.605356 6.161901 858.801102 422.205172 13.151776 0.000000 0.128712
395.000000 85.134000 -3.000000 4.000000 -6.000000 111.748919 26.017891 449.640118 463.204488 11.745777 0.000000 0.066498
396.000000 86.629000 -1.000000 4.000000 -6.000000 99.054900 46.713119 -167.659839 690.835675 11.544949 0.000000 0.178884
397.000000 48.636000 -10.000000 5.000000 -6.000000 103.848213 -18.882585 1343.132444 660.585397 20.563466 0.000000 0.135773
398.000000 52.204000 -9.000000 5.000000 -6.000000 104.998696 -14.729385 1257.950587 642.835648 19.157717 0.000000 0.146583
399.000000 56.045000 -8.000000 5.000000 -6.000000 105.943925 -9.895114 1162.748851 628.874053 17.844335 0.000000 0.155411
400.000000 60.097000 -7.000000 5.000000 -6.000000 106.533317 -4.285275 1055.648810 620.610524 16.641070 0.000000 0.160891
401.000000 64.229000 -6.000000 5.000000 -6.000000 106.555950 2.167135 934.271211 620.814534 15.570531 0.000000 0.161197
402.000000 68.210000 -5.000000 5.000000 -6.000000 105.735594 9.465455 795.557139 633.559924 14.661971 0.000000 0.153888
403.000000 71.673000 -4.000000 5.000000 -6.000000 103.745000 17.506733 635.506660 664.945618 13.953921 0.000000 0.135974
404.000000 74.097000 -3.000000 5.000000 -6.000000 100.252735 26.054564 448.786816 724.299285 13.498188 0.000000 0.105908
405.000000 74.834000 -2.000000 5.000000 -6.000000 95.005470 34.757987 228.125842 826.259470 13.366105 0.000000 0.082209
406.000000 73.238000 -1.000000 5.000000 -6.000000 87.924571 43.226816 -36.655982 994.528919 13.658693 0.000000 0.147146
407.000000 68.883000 0.000000 5.000000 -6.000000 79.173566 51.129272 -360.261406 1268.979825 14.523896 0.000000 0.324000
409.000000 45.548000 -5.000000 3.000000 -3.000000 98.715628 -14.444458 1252.235777 770.617577 10.979916 0.000000 0.157531
410.000000 48.502000 -3.000000 2.000000 -2.000000 99.195948 -10.351151 1171.588577 763.873757 6.874068 0.000000 0.165281
411.000000 51.595000 -4.000000 3.000000 -3.000000 99.388415 -5.704569 1082.515135 762.158525 9.693019 0.000000 0.170773
412.000000 54.744000 -7.000000 6.000000 -6.000000 99.158284 -0.458980 983.622064 767.476882 18.271015 0.000000 0.172908
413.000000 60.577000 -5.000000 6.000000 -6.000000 96.706760 11.854739 749.077062 811.677489 16.512353 0.000000 0.161318
414.000000 62.737000 -2.000000 3.000000 -3.000000 94.055169 18.801415 608.569885 860.395755 7.972173 0.000000 0.144581
415.000000 63.606000 -1.000000 3.000000 -3.000000 84.915215 33.470747 263.406354 1055.807425 7.864232 0.000000 0.110287
416.000000 61.475000 -1.000000 6.000000 -6.000000 78.268328 40.732339 48.183435 1235.959571 16.275009 0.000000 0.159440
418.000000 47.166000 -8.000000 7.000000 -6.000000 93.085552 -2.309796 1018.412753 882.935014 21.209000 0.000000 0.173370
419.000000 49.517000 -7.000000 7.000000 -6.000000 92.210071 2.564678 926.790628 899.421828 20.202260 0.000000 0.172116
420.000000 51.677000 -6.000000 7.000000 -6.000000 90.751017 7.899325 825.664755 926.756273 19.358401 0.000000 0.166499
421.000000 53.458000 -5.000000 7.000000 -6.000000 88.557620 13.657391 713.475545 968.889220 18.714112 0.000000 0.155584
422.000000 54.617000 -4.000000 7.000000 -6.000000 85.478882 19.762658 588.302420 1031.431669 18.317991 0.000000 0.139439
423.000000 54.866000 -3.000000 7.000000 -6.000000 81.387927 26.098966 447.752950 1122.514182 18.235812 0.000000 0.122661
424.000000 53.914000 -2.000000 7.000000 -6.000000 76.213565 32.519552 288.808470 1254.200355 18.558843 0.000000 0.124454
425.000000 51.534000 -1.000000 7.000000 -6.000000 69.971460 38.865651 107.604823 1444.899964 19.417527 0.000000 0.177950
426.000000 47.643000 0.000000 7.000000 -6.000000 62.783146 44.989129 -100.885941 1723.675883 21.005025 0.000000 0.298164
427.000000 46.003000 -3.000000 4.000000 -3.000000 83.837193 9.875446 787.631840 1058.964004 10.874496 0.000000 0.153271
428.000000 47.021000 -5.000000 8.000000 -6.000000 81.258380 15.063272 685.333544 1112.385287 21.278935 0.000000 0.140695
429.000000 47.448000 -2.000000 4.000000 -3.000000 77.921626 20.504196 572.500221 1186.890635 10.544325 0.000000 0.125932
430.000000 47.083000 -3.000000 8.000000 -6.000000 73.752141 26.113425 447.416125 1290.325084 21.253253 0.000000 0.117313
431.000000 45.742000 -1.000000 4.000000 -3.000000 68.720153 31.788375 307.971552 1434.169122 10.938700 0.000000 0.135223
432.000000 48.347000 -12.000000 1.000000 -5.000000 107.462359 -50.117851 2263.048774 412.972134 20.683337 0.000000 0.256252
433.000000 52.818000 -11.000000 1.000000 -5.000000 110.365399 -48.944826 2210.729577 332.687925 18.931473 0.000000 0.237371
434.000000 58.040000 -10.000000 1.000000 -5.000000 113.691448 -47.477810 2148.656206 242.249374 17.227352 0.000000 0.218086
435.000000 64.175000 -9.000000 1.000000 -5.000000 117.524116 -45.593352 2073.820453 139.481934 15.579580 0.000000 0.198780
436.000000 71.417000 -8.000000 1.000000 -5.000000 121.960049 -43.090264 1981.835389 21.487262 13.998969 0.000000 0.179871
437.000000 79.980000 -7.000000 1.000000 -5.000000 127.099263 -39.620702 1866.043285 -115.719858 12.499282 0.000000 0.161406
439.000000 47.266000 -12.000000 2.000000 -5.000000 105.160456 -43.640994 2001.410605 538.023723 21.157669 0.000000 0.112879
440.000000 51.499000 -11.000000 2.000000 -5.000000 107.698800 -41.828893 1938.295236 480.060346 19.417550 0.000000 0.088524
441.000000 56.409000 -10.000000 2.000000 -5.000000 110.553792 -39.599409 1865.369364 417.246976 17.726914 0.000000 0.063266
442.000000 62.126000 -9.000000 2.000000 -5.000000 113.763982 -36.799381 1780.152852 349.177907 16.094763 0.000000 0.037595
443.000000 68.801000 -8.000000 2.000000 -5.000000 117.356220 -33.197965 1679.252651 275.529394 14.532422 0.000000 0.013040
444.000000 76.587000 -7.000000 2.000000 -5.000000 121.320698 -28.439119 1557.900182 196.189077 13.054341 0.000000 0.014246
445.000000 85.599000 -6.000000 2.000000 -5.000000 125.554230 -21.969083 1409.175686 111.516462 11.679256 0.000000 0.033333
446.000000 45.764000 -12.000000 3.000000 -5.000000 102.255976 -37.658138 1805.599348 645.669988 21.853135 0.000000 0.053978
447.000000 49.663000 -11.000000 3.000000 -5.000000 104.333051 -35.357668 1738.686352 603.800086 20.137000 0.000000 0.047129
448.000000 54.133000 -10.000000 3.000000 -5.000000 106.602781 -32.582482 1662.855333 560.145945 18.473530 0.000000 0.051236
449.000000 59.268000 -9.000000 3.000000 -5.000000 109.059564 -29.186839 1576.196139 515.071807 16.872392 0.000000 0.064263
450.000000 65.162000 -8.000000 3.000000 -5.000000 111.669266 -24.970560 1476.211157 469.263441 15.345770 0.000000 0.081240
451.000000 71.889000 -7.000000 3.000000 -5.000000 114.341762 -19.662315 1359.570675 423.941132 13.909245 0.000000 0.098281
452.000000 79.463000 -6.000000 3.000000 -5.000000 116.882374 -12.911661 1221.734856 381.227578 12.583070 0.000000 0.111995
453.000000 87.753000 -5.000000 3.000000 -5.000000 118.914470 -4.322343 1056.349068 344.803242 11.394059 0.000000 0.118091
454.000000 47.411000 -11.000000 4.000000 -5.000000 100.455433 -29.588913 1586.144801 712.601084 21.095441 0.000000 0.092286
455.000000 51.359000 -10.000000 4.000000 -5.000000 102.094797 -26.468366 1510.878774 683.358931 19.473494 0.000000 0.105326
456.000000 55.811000 -9.000000 4.000000 -5.000000 103.766976 -22.748265 1426.289329 655.051272 17.919566 0.000000 0.119827
457.000000 60.806000 -8.000000 4.000000 -5.000000 105.398193 -18.279815 1330.529704 628.821931 16.447081 0.000000 0.134271
458.000000 66.347000 -7.000000 4.000000 -5.000000 106.858238 -12.886172 1221.230927 606.427315 15.073246 0.000000 0.146957
459.000000 72.360000 -6.000000 4.000000 -5.000000 107.929423 -6.377783 1095.303178 590.587268 13.820479 0.000000 0.155705
460.000000 78.629000 -5.000000 4.000000 -5.000000 108.269820 1.403027 948.639047 585.571978 12.718551 0.000000 0.157457
461.000000 84.695000 -4.000000 4.000000 -5.000000 107.388444 10.492981 775.657028 598.215899 11.807863 0.000000 0.147784
462.000000 89.738000 -3.000000 4.000000 -5.000000 104.673983 20.687293 568.575051 639.737084 11.144659 0.000000 0.120922
463.000000 85.718000 0.000000 4.000000 -5.000000 81.087499 51.956412 -400.435780 1214.883706 11.671069 0.000000 0.337317
465.000000 48.243000 -4.000000 2.000000 -2.000000 97.266078 -21.207114 1392.620794 793.802787 8.293325 0.000000 0.138573
466.000000 51.977000 -9.000000 5.000000 -5.000000 98.192734 -17.359790 1311.460838 778.647804 19.243640 0.000000 0.150298
467.000000 56.051000 -8.000000 5.000000 -5.000000 98.935161 -12.869939 1220.910047 767.419399 17.844737 0.000000 0.160841
468.000000 60.414000 -7.000000 5.000000 -5.000000 99.353768 -7.632955 1119.238449 762.127848 16.555979 0.000000 0.168912
469.000000 64.938000 -6.000000 5.000000 -5.000000 99.245849 -1.557430 1004.263341 765.729634 15.402679 0.000000 0.172812
470.000000 73.283000 -4.000000 5.000000 -5.000000 96.265603 13.208660 722.385818 819.618767 13.649495 0.000000 0.158615
471.000000 76.014000 -3.000000 5.000000 -5.000000 92.659452 21.684415 547.029579 887.199307 13.159695 0.000000 0.135806
472.000000 76.708000 -2.000000 5.000000 -5.000000 87.186803 30.516550 340.595390 1002.391932 13.041672 0.000000 0.110830
473.000000 74.475000 -1.000000 5.000000 -5.000000 79.704665 39.301440 94.018158 1193.648168 13.433902 0.000000 0.142784
476.000000 47.973000 -9.000000 6.000000 -5.000000 92.571764 -12.858694 1220.687811 891.413726 20.852241 0.000000 0.162955
477.000000 51.176000 -8.000000 6.000000 -5.000000 92.553692 -8.478318 1135.436899 892.467034 19.547446 0.000000 0.169164
478.000000 54.464000 -7.000000 6.000000 -5.000000 92.126356 -3.505453 1040.931793 900.963399 18.367486 0.000000 0.172441
479.000000 57.688000 -6.000000 6.000000 -5.000000 91.117808 2.097603 935.579164 919.985366 17.341372 0.000000 0.171423
480.000000 60.602000 -5.000000 6.000000 -5.000000 89.314866 8.330647 817.397642 954.008029 16.507863 0.000000 0.164509
481.000000 62.843000 -4.000000 6.000000 -5.000000 86.475971 15.134803 683.892024 1009.663715 15.919928 0.000000 0.150339
482.000000 63.923000 -3.000000 6.000000 -5.000000 82.364981 22.377624 531.875165 1097.027613 15.651920 0.000000 0.130354
483.000000 63.282000 -2.000000 6.000000 -5.000000 76.809013 29.855697 357.210248 1231.867260 15.811579 0.000000 0.120158
484.000000 60.423000 -1.000000 6.000000 -5.000000 69.769823 37.322053 154.428612 1439.771243 16.561137 0.000000 0.165913
485.000000 55.118000 0.000000 6.000000 -5.000000 61.400071 44.531985 -83.853159 1764.182305 18.156761 0.000000 0.300843
487.000000 46.395000 -8.000000 7.000000 -5.000000 86.426890 -4.881636 1066.923475 1008.452270 21.564262 0.000000 0.164378
488.000000 48.762000 -7.000000 7.000000 -5.000000 85.339098 -0.208596 978.918467 1028.748705 20.518232 0.000000 0.162855
489.000000 50.921000 -6.000000 7.000000 -5.000000 83.667710 4.942928 881.916657 1060.883826 19.648797 0.000000 0.157028
490.000000 52.659000 -5.000000 7.000000 -5.000000 81.255780 10.554367 774.464103 1109.395372 19.000999 0.000000 0.146001
491.000000 53.691000 -4.000000 7.000000 -5.000000 77.941372 16.569048 654.775739 1180.885563 18.636619 0.000000 0.130176
492.000000 53.676000 -3.000000 7.000000 -5.000000 73.583595 22.887354 520.635416 1285.204281 18.642752 0.000000 0.115746
493.000000 52.268000 -2.000000 7.000000 -5.000000 68.099520 29.370978 369.257415 1437.496494 19.146252 0.000000 0.125730
494.000000 49.206000 -1.000000 7.000000 -5.000000 61.503864 35.858130 197.090899 1661.922650 20.339342 0.000000 0.192029
495.000000 45.667000 -5.000000 8.000000 -5.000000 74.111197 12.296252 740.403654 1254.556243 21.913188 0.000000 0.119734
496.000000 45.868000 -4.000000 8.000000 -5.000000 70.526871 17.677210 631.982336 1340.427874 21.817986 0.000000 0.105666
500.000000 47.612000 -12.000000 1.000000 -4.000000 100.300002 -51.258477 2316.441390 628.450732 21.004886 0.000000 0.270425
501.000000 52.218000 -11.000000 1.000000 -4.000000 102.787612 -50.265117 2269.797954 558.851137 19.151479 0.000000 0.247584
502.000000 57.678000 -10.000000 1.000000 -4.000000 105.668406 -49.035411 2214.681526 480.512087 17.337807 0.000000 0.223136
503.000000 64.216000 -9.000000 1.000000 -4.000000 109.033300 -47.475293 2148.552727 391.668385 15.571776 0.000000 0.197262
504.000000 72.124000 -8.000000 1.000000 -4.000000 112.997013 -45.434537 2067.744804 290.040680 13.863534 0.000000 0.170441
505.000000 81.777000 -7.000000 1.000000 -4.000000 117.699551 -42.659264 1966.759895 172.630388 12.226334 0.000000 0.143648
506.000000 46.469000 -6.000000 1.000000 -2.000000 98.115570 -45.022496 2052.139761 723.864383 10.761504 0.000000 0.134589
507.000000 50.808000 -11.000000 2.000000 -4.000000 100.263355 -43.430007 1993.869193 672.643005 19.684136 0.000000 0.108618
508.000000 55.910000 -5.000000 1.000000 -2.000000 102.705241 -41.485393 1926.735678 617.079479 8.943593 0.000000 0.081406
509.000000 61.958000 -9.000000 2.000000 -4.000000 105.489500 -39.063756 1848.550702 556.851301 16.140582 0.000000 0.053839
510.000000 77.846000 -7.000000 2.000000 -4.000000 112.260060 -31.939329 1645.959637 421.862971 12.845114 0.000000 0.028449
511.000000 48.855000 -11.000000 3.000000 -4.000000 97.070234 -37.148274 1790.421392 773.523050 20.472617 0.000000 0.071978
512.000000 53.459000 -10.000000 3.000000 -4.000000 98.959412 -34.668081 1719.374760 734.684103 18.708902 0.000000 0.070539
513.000000 58.830000 -9.000000 3.000000 -4.000000 101.028150 -31.647976 1638.383608 694.597762 17.000523 0.000000 0.078566
514.000000 65.113000 -8.000000 3.000000 -4.000000 103.260479 -27.913902 1545.202886 653.962328 15.359520 0.000000 0.093769
515.000000 72.460000 -7.000000 3.000000 -4.000000 105.598134 -23.225021 1436.856771 614.034806 13.801695 0.000000 0.112485
516.000000 80.987000 -6.000000 3.000000 -4.000000 107.897736 -17.255667 1309.314986 577.031378 12.348217 0.000000 0.131132
517.000000 90.679000 -5.000000 3.000000 -4.000000 109.853682 -9.596833 1156.980363 546.854755 11.028096 0.000000 0.145698
518.000000 46.473000 -11.000000 4.000000 -4.000000 93.383352 -31.486728 1634.211083 866.383766 21.523658 0.000000 0.100163
519.000000 50.491000 -5.000000 2.000000 -2.000000 94.671618 -28.645439 1562.922478 840.782971 9.905290 0.000000 0.110504
520.000000 55.079000 -9.000000 4.000000 -4.000000 95.986235 -25.264874 1482.954929 816.200570 18.160308 0.000000 0.123810
521.000000 66.206000 -7.000000 4.000000 -4.000000 98.400138 -16.301671 1289.764551 775.406706 15.107785 0.000000 0.153090
522.000000 79.754000 -5.000000 4.000000 -4.000000 99.336060 -3.158638 1034.394819 763.785211 12.541308 0.000000 0.172341
524.000000 47.187000 -10.000000 5.000000 -4.000000 90.068994 -23.396717 1440.680897 939.587843 21.200139 0.000000 0.135701
525.000000 50.964000 -9.000000 5.000000 -4.000000 90.662539 -19.840227 1363.343594 927.768339 19.629000 0.000000 0.146522
526.000000 55.126000 -8.000000 5.000000 -4.000000 91.071388 -15.683664 1277.201597 920.093389 18.147031 0.000000 0.156873
527.000000 59.633000 -7.000000 5.000000 -4.000000 91.165294 -10.817794 1180.660554 918.710979 16.775636 0.000000 0.165440
528.000000 64.360000 -6.000000 5.000000 -4.000000 90.750812 -5.134841 1071.716446 926.838455 15.543666 0.000000 0.170528
529.000000 69.037000 -5.000000 5.000000 -4.000000 89.553359 1.446868 947.814975 949.392944 14.490967 0.000000 0.169912
530.000000 73.164000 -4.000000 5.000000 -4.000000 87.210911 8.941981 805.648767 994.079243 13.674165 0.000000 0.160873
531.000000 75.932000 -3.000000 5.000000 -4.000000 83.301988 17.247280 640.857757 1073.348861 13.176544 0.000000 0.141513
532.000000 76.231000 -2.000000 5.000000 -4.000000 77.436405 26.106642 447.574155 1208.114248 13.125817 0.000000 0.120228
533.000000 72.892000 -1.000000 5.000000 -4.000000 69.415473 35.130585 217.709058 1435.252434 13.728322 0.000000 0.151776
534.000000 65.238000 0.000000 5.000000 -4.000000 59.403548 43.885271 -60.208339 1824.034259 15.340531 0.000000 0.305824
536.000000 46.716000 -9.000000 6.000000 -4.000000 85.290458 -15.250817 1268.447997 1032.904502 21.416030 0.000000 0.151739
537.000000 49.896000 -4.000000 3.000000 -2.000000 84.954510 -11.134935 1186.842128 1037.847821 10.025799 0.000000 0.156689
538.000000 53.168000 -7.000000 6.000000 -4.000000 84.206880 -6.441303 1096.511453 1050.889106 18.818080 0.000000 0.158844
539.000000 56.369000 -3.000000 3.000000 -2.000000 82.877520 -1.116594 995.977745 1075.513936 8.875037 0.000000 0.156741
540.000000 59.222000 -5.000000 6.000000 -4.000000 80.750575 4.864072 883.408852 1116.908075 16.895546 0.000000 0.148703
541.000000 61.302000 -2.000000 3.000000 -2.000000 77.573850 11.475432 756.506028 1182.991038 8.161492 0.000000 0.133527
542.000000 62.026000 -3.000000 6.000000 -4.000000 73.091598 18.621117 612.345301 1286.249125 16.133674 0.000000 0.114344
543.000000 60.712000 -1.000000 3.000000 -2.000000 67.108747 26.124872 447.149396 1447.162187 8.242007 0.000000 0.114600
544.000000 56.773000 -1.000000 6.000000 -4.000000 59.579250 33.745995 255.951967 1701.043003 17.628898 0.000000 0.183903
546.000000 47.092000 -7.000000 7.000000 -4.000000 77.695293 -2.905918 1029.634164 1176.064994 21.248564 0.000000 0.139086
547.000000 49.093000 -6.000000 7.000000 -4.000000 75.706050 2.045037 936.567912 1215.397705 20.383425 0.000000 0.130156
548.000000 50.607000 -5.000000 7.000000 -4.000000 72.964702 7.483151 833.625148 1273.614166 19.774577 0.000000 0.115836
549.000000 51.308000 -4.000000 7.000000 -4.000000 69.303597 13.372036 719.145580 1358.951640 19.505545 0.000000 0.098289
550.000000 50.803000 -3.000000 7.000000 -4.000000 64.574846 19.631844 591.074689 1484.218054 19.700568 0.000000 0.092233
551.000000 48.699000 -2.000000 7.000000 -4.000000 58.692315 26.138177 446.839329 1670.163361 20.552860 0.000000 0.131842
552.000000 46.234000 -12.000000 1.000000 -3.000000 92.642744 -52.300071 2367.565640 859.762475 21.633539 0.000000 0.299357
553.000000 50.828000 -11.000000 1.000000 -3.000000 94.613878 -51.460054 2326.152680 801.592939 19.678002 0.000000 0.274280
554.000000 56.339000 -10.000000 1.000000 -3.000000 96.918410 -50.430018 2277.404975 735.987953 17.752398 0.000000 0.246507
555.000000 63.045000 -9.000000 1.000000 -3.000000 99.643050 -49.138229 2219.184586 661.477964 15.863366 0.000000 0.215732
556.000000 71.332000 -8.000000 1.000000 -3.000000 102.903815 -47.472388 2148.433265 576.207643 14.019666 0.000000 0.181715
557.000000 81.745000 -7.000000 1.000000 -3.000000 106.855970 -45.247087 2060.617539 477.823255 12.233099 0.000000 0.144462
558.000000 49.347000 -11.000000 2.000000 -3.000000 92.239562 -44.892645 2047.268509 881.585070 20.269581 0.000000 0.143238
559.000000 54.462000 -10.000000 2.000000 -3.000000 94.140889 -43.194747 1985.521916 834.115958 18.365471 0.000000 0.116400
560.000000 60.612000 -9.000000 2.000000 -3.000000 96.332335 -41.097889 1913.841520 782.506365 16.501546 0.000000 0.089815
561.000000 68.095000 -8.000000 2.000000 -3.000000 98.867214 -38.450970 1829.620393 726.591169 14.687544 0.000000 0.067333
562.000000 77.309000 -7.000000 2.000000 -3.000000 101.797402 -35.022234 1729.251979 666.496906 12.936627 0.000000 0.058539
563.000000 88.760000 -6.000000 2.000000 -3.000000 105.149638 -30.445208 1607.600162 602.985532 11.267031 0.000000 0.071383
564.000000 47.309000 -11.000000 3.000000 -3.000000 89.237000 -38.800988 1840.393368 959.392414 21.144263 0.000000 0.101057
565.000000 51.878000 -10.000000 3.000000 -3.000000 90.626337 -36.583449 1773.844378 926.347090 19.281979 0.000000 0.093571
566.000000 57.269000 -3.000000 1.000000 -1.000000 92.153033 -33.897109 1698.160918 892.251153 5.822215 0.000000 0.094051
567.000000 63.672000 -8.000000 3.000000 -3.000000 93.807451 -30.592311 1611.323719 857.790061 15.709775 0.000000 0.103194
568.000000 71.309000 -7.000000 3.000000 -3.000000 95.548085 -26.459501 1510.670994 824.220184 14.026983 0.000000 0.119135
570.000000 48.773000 -10.000000 4.000000 -3.000000 86.597625 -30.670469 1613.306698 1015.395190 20.511360 0.000000 0.113820
571.000000 53.299000 -9.000000 4.000000 -3.000000 87.418627 -27.601358 1537.705541 995.755153 18.769610 0.000000 0.122526
572.000000 58.506000 -8.000000 4.000000 -3.000000 88.174534 -23.923668 1452.479979 978.526819 17.099206 0.000000 0.134088
573.000000 64.461000 -7.000000 4.000000 -3.000000 88.764490 -19.477832 1355.667223 965.621589 15.519455 0.000000 0.146821
574.000000 71.167000 -6.000000 4.000000 -3.000000 89.013175 -14.069220 1244.731838 960.112538 14.057318 0.000000 0.158557
575.000000 78.455000 -5.000000 4.000000 -3.000000 88.625319 -7.481352 1116.340474 967.049934 12.751627 0.000000 0.166413
576.000000 85.800000 -4.000000 4.000000 -3.000000 87.128740 0.477970 966.021176 994.983346 11.660420 0.000000 0.166380
577.000000 79.498000 0.000000 4.000000 -3.000000 56.273513 42.900563 -25.174056 1921.863633 12.589515 0.000000 0.316420
579.000000 48.992000 -9.000000 5.000000 -3.000000 82.413465 -22.174643 1413.671994 1095.800258 20.421878 0.000000 0.134487
580.000000 53.024000 -8.000000 5.000000 -3.000000 82.345874 -18.336554 1331.712227 1093.380415 18.869310 0.000000 0.141428
581.000000 57.403000 -7.000000 5.000000 -3.000000 81.940641 -13.833174 1240.024093 1097.952805 17.430144 0.000000 0.146909
582.000000 61.999000 -6.000000 5.000000 -3.000000 81.010601 -8.547533 1136.766221 1113.176523 16.138607 0.000000 0.149007
583.000000 66.512000 -5.000000 5.000000 -3.000000 79.286174 -2.372958 1019.601234 1144.811685 15.044234 0.000000 0.145197
584.000000 70.363000 -4.000000 5.000000 -3.000000 76.402523 4.752652 885.516684 1202.231025 14.221515 0.000000 0.132512
585.000000 72.581000 -3.000000 5.000000 -3.000000 71.919068 12.795422 730.562369 1301.339058 13.787870 0.000000 0.110169
586.000000 71.796000 -2.000000 5.000000 -3.000000 65.410514 21.572857 549.454648 1470.627066 13.939783 0.000000 0.099325
587.000000 66.582000 -1.000000 5.000000 -3.000000 56.655374 30.738607 334.961927 1764.952513 15.032815 0.000000 0.176241
589.000000 47.572000 -8.000000 6.000000 -3.000000 76.594122 -13.670994 1236.795086 1205.005736 21.034227 0.000000 0.131037
590.000000 50.601000 -7.000000 6.000000 -3.000000 75.390475 -9.257912 1150.438218 1225.247303 19.776028 0.000000 0.128259
591.000000 53.501000 -2.000000 2.000000 -1.000000 73.583561 -4.223411 1054.480271 1258.969664 6.234870 0.000000 0.120456
592.000000 55.960000 -5.000000 6.000000 -3.000000 70.957724 1.478210 947.225838 1312.610043 17.883688 0.000000 0.105693
593.000000 57.487000 -4.000000 6.000000 -3.000000 67.257706 7.852804 826.555370 1396.428304 17.409676 0.000000 0.084013
594.000000 57.405000 -1.000000 2.000000 -1.000000 62.221491 14.842144 689.783689 1527.518829 5.811915 0.000000 0.071970
595.000000 54.935000 -2.000000 6.000000 -3.000000 55.650891 22.305547 533.457820 1736.041308 18.220802 0.000000 0.122695
596.000000 49.458000 -1.000000 6.000000 -3.000000 47.515683 30.021546 353.061434 2079.435758 20.239756 0.000000 0.251881
597.000000 45.958000 -6.000000 7.000000 -3.000000 66.860684 -0.781744 989.685880 1400.994388 21.777337 0.000000 0.079507
598.000000 46.996000 -5.000000 7.000000 -3.000000 63.665783 4.460540 891.039608 1475.356268 21.297694 0.000000 0.057029
599.000000 47.080000 -4.000000 7.000000 -3.000000 59.531436 10.191433 781.510232 1584.341211 21.260825 0.000000 0.048440
600.000000 45.778000 -3.000000 7.000000 -3.000000 54.312457 16.352848 659.191596 1746.632149 21.866525 0.000000 0.096537
607.000000 53.836000 -10.000000 1.000000 -2.000000 87.471698 -51.684520 2337.068196 1017.653852 18.580669 0.000000 0.291921
608.000000 60.362000 -9.000000 1.000000 -2.000000 89.376805 -50.615917 2286.044489 959.450467 16.571200 0.000000 0.260007
609.000000 68.549000 -8.000000 1.000000 -2.000000 91.686164 -49.255935 2224.362675 892.456340 14.591535 0.000000 0.223632
610.000000 79.063000 -7.000000 1.000000 -2.000000 94.534530 -47.468996 2148.293807 814.727418 12.650646 0.000000 0.182046
611.000000 47.007000 -11.000000 2.000000 -2.000000 83.660386 -46.232346 2098.618379 1113.865562 21.281640 0.000000 0.190886
612.000000 51.893000 -5.000000 1.000000 -1.000000 84.893318 -44.748519 2041.887440 1076.430505 9.638809 0.000000 0.164881
613.000000 57.817000 -9.000000 2.000000 -2.000000 86.320285 -42.930778 1976.232313 1035.537501 17.302168 0.000000 0.138517
614.000000 65.113000 -4.000000 1.000000 -1.000000 87.980302 -40.657392 1899.367473 991.032367 7.681607 0.000000 0.114014
615.000000 74.252000 -7.000000 2.000000 -2.000000 89.914586 -37.743278 1808.154110 943.029037 13.471900 0.000000 0.096456
616.000000 49.242000 -10.000000 3.000000 -2.000000 81.638250 -38.344814 1826.373713 1142.709725 20.317203 0.000000 0.124195
617.000000 54.355000 -9.000000 3.000000 -2.000000 82.466199 -35.954398 1755.665520 1116.843802 18.405971 0.000000 0.115451
618.000000 60.473000 -8.000000 3.000000 -2.000000 83.332442 -33.029777 1674.749201 1091.071106 16.543763 0.000000 0.113392
619.000000 67.847000 -7.000000 3.000000 -2.000000 84.190065 -29.391170 1581.242152 1066.692486 14.745780 0.000000 0.118932
620.000000 76.756000 -6.000000 3.000000 -2.000000 84.934262 -24.784204 1471.957737 1046.087277 13.034231 0.000000 0.130713
621.000000 87.432000 -5.000000 3.000000 -2.000000 85.342006 -18.854101 1342.534886 1033.665122 11.442896 0.000000 0.145165
623.000000 46.084000 -5.000000 2.000000 -1.000000 77.909098 -32.554285 1662.109560 1214.536204 10.855704 0.000000 0.120572
624.000000 50.288000 -9.000000 4.000000 -2.000000 78.099682 -29.769408 1590.636626 1202.300701 19.896777 0.000000 0.120099
625.000000 55.128000 -4.000000 2.000000 -1.000000 78.153418 -26.440490 1510.225475 1193.137208 9.075100 0.000000 0.122643
626.000000 60.668000 -7.000000 4.000000 -2.000000 77.965931 -22.421434 1419.087589 1189.205918 16.493097 0.000000 0.126910
627.000000 66.900000 -3.000000 2.000000 -1.000000 77.362901 -17.527542 1314.923176 1194.061140 7.478471 0.000000 0.130590
628.000000 73.633000 -5.000000 4.000000 -2.000000 76.056093 -11.538327 1194.724417 1213.743212 13.589920 0.000000 0.130155
629.000000 85.317000 -3.000000 4.000000 -2.000000 69.258828 4.583246 888.720165 1349.889318 11.730318 0.000000 0.095441
630.000000 78.892000 -1.000000 4.000000 -2.000000 51.771204 26.148314 446.603027 1885.499945 12.688230 0.000000 0.177565
632.000000 45.924000 -9.000000 5.000000 -2.000000 73.483721 -24.368475 1462.514857 1291.358720 21.789482 0.000000 0.117527
633.000000 49.538000 -8.000000 5.000000 -2.000000 72.794792 -20.831595 1384.525136 1297.586066 20.200491 0.000000 0.115730
634.000000 53.412000 -7.000000 5.000000 -2.000000 71.708386 -16.676901 1297.430851 1312.397147 18.735957 0.000000 0.111766
635.000000 57.382000 -6.000000 5.000000 -2.000000 70.036773 -11.784150 1199.538864 1340.374210 17.440414 0.000000 0.103021
636.000000 61.091000 -5.000000 5.000000 -2.000000 67.511810 -6.030821 1088.708476 1389.035436 16.382526 0.000000 0.085778
637.000000 63.857000 -4.000000 5.000000 -2.000000 63.770852 0.681736 962.193067 1471.320275 15.673978 0.000000 0.056041
638.000000 64.540000 -3.000000 5.000000 -2.000000 58.374969 8.382144 816.409405 1610.945495 15.509438 0.000000 0.039343
639.000000 61.561000 -2.000000 5.000000 -2.000000 50.906266 16.968398 646.592837 1855.287939 16.261204 0.000000 0.129239
641.000000 46.556000 -7.000000 6.000000 -2.000000 65.715950 -11.949635 1202.784744 1437.360999 21.497861 0.000000 0.080354
642.000000 48.790000 -3.000000 3.000000 -1.000000 63.268719 -7.210849 1111.174646 1487.377403 10.257237 0.000000 0.058265
643.000000 50.401000 -5.000000 6.000000 -2.000000 59.957618 -1.807036 1008.956216 1563.770484 19.859795 0.000000 0.023931
644.000000 50.834000 -2.000000 3.000000 -1.000000 55.531950 4.294678 894.173564 1681.913631 9.845960 0.000000 0.032074
645.000000 49.339000 -3.000000 6.000000 -2.000000 49.740120 11.073391 764.358494 1869.760700 20.289679 0.000000 0.116420
648.000000 63.377000 -8.000000 1.000000 -1.000000 79.433594 -50.827094 2295.942010 1258.843514 15.785478 0.000000 0.299327
649.000000 72.986000 -7.000000 1.000000 -1.000000 80.822174 -49.392013 2230.379879 1208.167812 13.707096 0.000000 0.260549
650.000000 85.840000 -6.000000 1.000000 -1.000000 82.588220 -47.464983 2148.128872 1148.104753 11.654227 0.000000 0.215659
651.000000 48.094000 -10.000000 2.000000 -1.000000 75.034575 -46.165026 2095.978756 1356.395586 20.803517 0.000000 0.228884
652.000000 53.383000 -9.000000 2.000000 -1.000000 75.536652 -44.587630 2035.912098 1330.810340 18.742505 0.000000 0.203280
653.000000 59.892000 -8.000000 2.000000 -1.000000 76.096330 -42.632518 1965.831269 1303.137333 16.705649 0.000000 0.177102
654.000000 68.056000 -7.000000 2.000000 -1.000000 76.707812 -40.152297 1883.004218 1273.669383 14.701719 0.000000 0.152026
655.000000 78.509000 -6.000000 2.000000 -1.000000 77.342143 -36.917054 1783.605677 1243.338827 12.744312 0.000000 0.131441
657.000000 49.939000 -9.000000 3.000000 -1.000000 72.050886 -37.838706 1811.024606 1382.477398 20.036928 0.000000 0.153338
658.000000 55.256000 -8.000000 3.000000 -1.000000 71.930332 -35.249690 1735.640849 1370.999308 18.109260 0.000000 0.139052
659.000000 61.610000 -7.000000 3.000000 -1.000000 71.626751 -32.047299 1648.779378 1362.747342 16.242006 0.000000 0.127398
660.000000 69.201000 -6.000000 3.000000 -1.000000 70.999706 -28.013570 1547.602845 1360.787898 14.460629 0.000000 0.118327
661.000000 78.139000 -5.000000 3.000000 -1.000000 69.790318 -22.837189 1428.254709 1370.905369 12.807230 0.000000 0.109544
662.000000 88.124000 -4.000000 3.000000 -1.000000 67.513205 -16.085261 1285.356461 1404.677887 11.356817 0.000000 0.094399
663.000000 90.212000 -1.000000 3.000000 -1.000000 42.408163 18.429401 616.351022 2183.055626 11.097553 0.000000 0.247760
664.000000 45.938000 -9.000000 4.000000 -1.000000 68.110924 -31.781027 1641.837405 1449.700014 21.784356 0.000000 0.132262
665.000000 49.988000 -8.000000 4.000000 -1.000000 67.296872 -28.770129 1565.967296 1454.705691 20.019916 0.000000 0.121502
666.000000 54.515000 -7.000000 4.000000 -1.000000 66.110011 -25.143213 1480.163307 1467.621102 18.357944 0.000000 0.109796
667.000000 59.423000 -6.000000 4.000000 -1.000000 64.356319 -20.729809 1382.337760 1493.448617 16.842527 0.000000 0.094680
668.000000 64.378000 -5.000000 4.000000 -1.000000 61.730385 -15.316498 1269.773921 1541.103542 15.547277 0.000000 0.071893
669.000000 68.537000 -4.000000 4.000000 -1.000000 57.761028 -8.657009 1138.869771 1627.624152 14.605018 0.000000 0.039074
670.000000 70.092000 -3.000000 4.000000 -1.000000 51.769452 -0.518776 984.745413 1788.924402 14.282310 0.000000 0.067610
671.000000 65.846000 -2.000000 4.000000 -1.000000 42.940654 9.202964 800.621235 2112.665479 15.204382 0.000000 0.209751
673.000000 47.477000 -7.000000 5.000000 -1.000000 60.573248 -19.350396 1352.976008 1584.472781 21.081757 0.000000 0.086808
674.000000 50.217000 -6.000000 5.000000 -1.000000 57.946577 -14.838939 1260.151888 1638.191146 19.932724 0.000000 0.068223
675.000000 52.313000 -5.000000 5.000000 -1.000000 54.356566 -9.509012 1155.283920 1723.538144 19.135137 0.000000 0.059519
676.000000 52.947000 -4.000000 5.000000 -1.000000 49.445401 -3.236684 1035.865471 1863.488931 18.907435 0.000000 0.099767
677.000000 50.830000 -3.000000 5.000000 -1.000000 42.798233 4.058042 898.642457 2106.285533 19.696386 0.000000 0.204080
683.000000 86.123000 -5.000000 1.000000 0.000000 64.680699 -47.460163 2147.930780 1694.148377 11.619235 0.000000 0.315416
684.000000 104.684000 -4.000000 1.000000 0.000000 63.407129 -44.406876 2029.238286 1695.212010 9.559448 0.000000 0.271515
685.000000 132.048000 -3.000000 1.000000 0.000000 61.048857 -39.567368 1864.356052 1713.368506 7.578942 0.000000 0.223326
686.000000 172.392000 -2.000000 1.000000 0.000000 55.773495 -30.925827 1619.807949 1794.518847 5.806006 0.000000 0.175981
687.000000 47.280000 -9.000000 2.000000 0.000000 64.129561 -46.090236 2093.053818 1693.582317 21.165692 0.000000 0.294134
688.000000 58.490000 -7.000000 2.000000 0.000000 62.428652 -42.292841 1954.106628 1700.735537 17.109707 0.000000 0.247779
689.000000 75.251000 -5.000000 2.000000 0.000000 59.002980 -35.940248 1755.259945 1739.669795 13.299989 0.000000 0.198804
690.000000 97.355000 -3.000000 2.000000 0.000000 50.273996 -23.685582 1447.137163 1917.651709 10.282201 0.000000 0.167971
691.000000 100.724000 -2.000000 2.000000 0.000000 40.134915 -12.796767 1219.464197 2250.075875 9.939689 0.000000 0.262279
692.000000 47.982000 -8.000000 3.000000 0.000000 59.783384 -37.274087 1794.147528 1728.732511 20.858102 0.000000 0.206926
693.000000 52.486000 -7.000000 3.000000 0.000000 58.095327 -34.455057 1713.474204 1753.612392 19.069043 0.000000 0.190821
694.000000 62.578000 -5.000000 3.000000 0.000000 52.467665 -26.419551 1509.734971 1864.260434 15.995798 0.000000 0.166487
695.000000 66.760000 -4.000000 3.000000 0.000000 47.585031 -20.552330 1378.530753 1991.147327 14.995100 0.000000 0.179170
697.000000 45.994000 -7.000000 4.000000 0.000000 53.413335 -27.656369 1539.022038 1842.993197 21.762802 0.000000 0.167824
698.000000 50.541000 -5.000000 4.000000 0.000000 46.013039 -18.814161 1341.697324 2038.533727 19.807378 0.000000 0.190615
#UB matrix in q= (UB) B0 G* 
#[[ 0.561162548  0.084015605  0.822629214]
# [ 0.720316558  0.440408165 -0.536350529]
# [-0.407726195  0.894436453  0.186860901]]
#B0 matrix in q= UB (B0) G*
#[[ 0.19670273 -0.          0.03056101]
# [ 0.          0.19187965 -0.        ]
# [ 0.          0.          0.18806537]]
#UBB0 matrix in q= (UB B0) G* i.e. recip. basis vectors are columns in LT frame: astar = UBB0[:,0], bstar = UBB0[:,1], cstar = UBB0[:,2]. (abcstar as columns on xyzlab1, xlab1 = ui, ui = unit vector along incident beam)
#[[ 0.11038221  0.01612089  0.17185776]
# [ 0.14168824  0.08450537 -0.07885536]
# [-0.08020086  0.17162416  0.02268154]]
#Euler angles phi theta psi (deg)
#[204.52   79.25  123.057]
#deviatoric strain in direct crystal frame (10-3 unit)
#[[-4.2   0.15  0.71]
# [ 0.15 -4.58  0.01]
# [ 0.71  0.01  8.79]]
#deviatoric strain in sample2 frame (10-3 unit)
#[[ 3.18 -4.93 -4.37]
# [-4.94 -0.99  2.66]
# [-4.36  2.65 -2.19]]
#new lattice parameters
#[ 5.1505     5.2096019  5.3198538 90.0020316 99.1827959 89.982407 ]
#CCDLabel
#sCMOS
#DetectorParameters
#[79.0, 975.0, 941.0, 0.0, 0.0]
#pixelsize
#0.0734
#Frame dimensions
#[2018, 2016]
#
