#Strain and Orientation Refinement from experimental file: /home/micha/LaueProjects/DepthEffects/testZrO2_167.cor
#File created at Wed Jun 28 14:28:18 2023 with indexingSpotsSet.py
#Number of indexed spots: 537
#Element
#ZrO2
#grainIndex
#G_0
#Mean Deviation(pixel): 0.116
##spot_index intensity h k l 2theta Chi Xexp Yexp Energy GrainIndex PixDev
5.000000 46.932000 -1.000000 7.000000 -5.000000 58.378818 -35.962061 1755.885220 1759.735299 21.315676 0.000000 0.210155
6.000000 50.213000 0.000000 7.000000 -5.000000 61.666048 -43.475823 1995.502320 1740.746312 19.921258 0.000000 0.283073
9.000000 47.630000 -1.000000 8.000000 -5.000000 65.557679 -36.002654 1757.049743 1545.689529 21.001278 0.000000 0.172531
10.000000 50.376000 0.000000 8.000000 -5.000000 68.686106 -43.124586 1983.044991 1516.350228 19.854505 0.000000 0.233476
13.000000 47.242000 -1.000000 9.000000 -5.000000 71.582624 -36.039327 1758.102851 1384.225456 21.171610 0.000000 0.149700
14.000000 49.537000 0.000000 9.000000 -5.000000 74.544699 -42.808143 1971.943610 1346.623316 20.189132 0.000000 0.199036
15.000000 50.912000 1.000000 9.000000 -5.000000 76.735298 -49.920689 2254.077661 1335.076574 19.642427 0.000000 0.314186
17.000000 46.222000 -1.000000 10.000000 -5.000000 76.684684 -36.072622 1759.059805 1256.152813 21.637009 0.000000 0.133821
18.000000 48.145000 0.000000 4.000000 -2.000000 79.483421 -42.521586 1961.988217 1212.092729 8.308445 0.000000 0.173563
19.000000 49.303000 1.000000 10.000000 -5.000000 81.563725 -49.290261 2225.877405 1185.745458 20.281898 0.000000 0.278018
21.000000 46.474000 0.000000 11.000000 -5.000000 83.688172 -42.260883 1953.010071 1101.857231 21.516294 0.000000 0.153868
22.000000 47.458000 1.000000 11.000000 -5.000000 85.666838 -48.716639 2200.837853 1064.606424 21.069008 0.000000 0.250722
24.000000 45.531000 1.000000 12.000000 -5.000000 89.187152 -48.192577 2178.455822 963.906711 21.959325 0.000000 0.229767
29.000000 47.625000 -2.000000 5.000000 -4.000000 46.005478 -25.439045 1486.961219 2091.738909 21.009683 0.000000 0.219535
30.000000 55.230000 -1.000000 5.000000 -4.000000 51.116055 -34.065030 1702.748366 1988.754320 18.114940 0.000000 0.245025
33.000000 51.787000 -1.000000 3.000000 -2.000000 56.259844 -26.118404 1502.699879 1741.646442 9.659584 0.000000 0.140669
34.000000 58.189000 -1.000000 6.000000 -4.000000 61.221963 -34.238601 1707.509327 1656.083368 17.191594 0.000000 0.177831
35.000000 63.072000 0.000000 3.000000 -2.000000 65.338909 -43.295507 1989.089096 1619.945872 7.929423 0.000000 0.255805
37.000000 47.168000 -3.000000 7.000000 -4.000000 59.464823 -19.992957 1366.589265 1616.590902 21.210509 0.000000 0.093540
38.000000 53.106000 -2.000000 7.000000 -4.000000 64.611543 -26.721648 1516.829236 1512.871373 18.836782 0.000000 0.118884
39.000000 58.356000 -1.000000 7.000000 -4.000000 69.318490 -34.391195 1711.711146 1433.366313 17.140110 0.000000 0.146903
40.000000 62.266000 0.000000 7.000000 -4.000000 73.174669 -42.884277 1974.604110 1385.190659 16.062298 0.000000 0.206632
43.000000 47.814000 -3.000000 8.000000 -4.000000 66.579391 -20.828256 1384.453333 1439.810914 20.921562 0.000000 0.100387
44.000000 52.773000 -1.000000 4.000000 -2.000000 71.475014 -27.260776 1529.584115 1346.706414 9.476854 0.000000 0.117227
45.000000 57.046000 -1.000000 8.000000 -4.000000 75.889565 -34.526396 1715.446861 1269.396986 17.531962 0.000000 0.129533
46.000000 61.829000 1.000000 8.000000 -4.000000 81.958644 -51.012789 2304.719490 1182.685336 16.172768 0.000000 0.318427
48.000000 47.404000 -3.000000 9.000000 -4.000000 72.561758 -21.586157 1400.834269 1304.578710 21.100216 0.000000 0.113504
49.000000 51.523000 -2.000000 9.000000 -4.000000 77.175871 -27.745412 1541.155773 1217.833739 19.411365 0.000000 0.118033
50.000000 55.007000 -1.000000 9.000000 -4.000000 81.295947 -34.647017 1718.789953 1141.291799 18.179922 0.000000 0.116763
51.000000 57.542000 0.000000 9.000000 -4.000000 84.642211 -42.199343 1950.901572 1077.255582 17.377409 0.000000 0.149625
52.000000 58.893000 1.000000 9.000000 -4.000000 86.972991 -50.206150 2267.090505 1029.925832 16.977669 0.000000 0.281595
54.000000 46.375000 -3.000000 10.000000 -4.000000 77.633807 -22.276708 1415.909413 1196.005606 21.566684 0.000000 0.122493
55.000000 49.800000 -1.000000 5.000000 -2.000000 81.963301 -28.183361 1551.701557 1113.406804 10.040614 0.000000 0.116901
56.000000 52.659000 -1.000000 10.000000 -4.000000 85.803270 -34.755294 1721.799229 1037.125736 18.989178 0.000000 0.105596
57.000000 54.730000 0.000000 5.000000 -2.000000 88.922624 -41.911157 1941.082009 968.198693 9.134505 0.000000 0.131589
58.000000 55.852000 1.000000 10.000000 -4.000000 91.123645 -49.484509 2234.488967 908.505395 17.900742 0.000000 0.254949
60.000000 47.863000 -2.000000 11.000000 -4.000000 86.026568 -28.581014 1561.352097 1026.134710 20.892192 0.000000 0.113531
61.000000 50.228000 -1.000000 11.000000 -4.000000 89.607509 -34.853030 1724.522310 949.984687 19.906578 0.000000 0.095165
62.000000 51.940000 0.000000 11.000000 -4.000000 92.521739 -41.651913 1932.324051 877.561275 19.249199 0.000000 0.117804
63.000000 52.884000 1.000000 11.000000 -4.000000 94.605949 -48.835299 2205.970424 809.268532 18.904292 0.000000 0.235301
65.000000 45.863000 -1.000000 6.000000 -2.000000 89.509710 -28.943654 1570.216749 951.524853 10.900863 0.000000 0.108463
66.000000 47.838000 -1.000000 12.000000 -4.000000 92.854513 -34.941691 1726.998170 875.532409 20.900012 0.000000 0.085293
67.000000 49.268000 0.000000 3.000000 -1.000000 95.584374 -41.417468 1924.464370 800.669418 5.073015 0.000000 0.107323
68.000000 50.072000 1.000000 12.000000 -4.000000 97.563098 -48.248281 2180.813050 726.400268 19.965117 0.000000 0.220623
70.000000 45.550000 -1.000000 13.000000 -4.000000 95.654105 -35.022485 1729.259014 810.881173 21.948936 0.000000 0.076004
71.000000 46.757000 0.000000 13.000000 -4.000000 98.218490 -41.204433 1917.371505 734.383339 21.380883 0.000000 0.099525
72.000000 47.448000 1.000000 13.000000 -4.000000 100.101613 -47.715035 2158.455697 656.007105 21.068148 0.000000 0.209549
76.000000 46.105000 -3.000000 4.000000 -3.000000 39.117566 -12.246146 1208.610583 2295.368654 21.704934 0.000000 0.246361
77.000000 59.092000 -2.000000 4.000000 -3.000000 46.102031 -20.691120 1381.507102 2048.075320 16.933212 0.000000 0.187630
78.000000 72.467000 -1.000000 4.000000 -3.000000 53.111732 -31.182675 1626.382251 1885.173396 13.806067 0.000000 0.200703
79.000000 83.033000 0.000000 4.000000 -3.000000 59.016467 -43.601639 1999.999915 1833.467040 12.047469 0.000000 0.304846
81.000000 53.728000 -3.000000 5.000000 -3.000000 51.530495 -13.828389 1239.928762 1821.714893 18.623120 0.000000 0.096714
82.000000 64.983000 -2.000000 5.000000 -3.000000 58.555789 -21.862702 1406.853883 1650.113567 15.395724 0.000000 0.105184
83.000000 75.684000 -1.000000 5.000000 -3.000000 65.283547 -31.632748 1637.988939 1522.863591 13.217015 0.000000 0.142645
84.000000 83.635000 0.000000 5.000000 -3.000000 70.754795 -43.015502 1979.205214 1454.913533 11.958670 0.000000 0.220705
86.000000 47.832000 -4.000000 6.000000 -3.000000 54.876683 -8.940259 1144.318082 1707.397873 20.918333 0.000000 0.049319
87.000000 56.813000 -1.000000 2.000000 -1.000000 61.510095 -15.227979 1267.987141 1546.390866 5.869790 0.000000 0.074159
88.000000 66.019000 -2.000000 6.000000 -3.000000 68.244485 -22.878216 1429.162342 1407.191731 15.151748 0.000000 0.107171
89.000000 74.302000 -1.000000 6.000000 -3.000000 74.492490 -32.015784 1647.955647 1293.204288 13.460785 0.000000 0.124637
91.000000 49.688000 -4.000000 7.000000 -3.000000 63.195830 -10.383951 1172.225349 1493.827909 20.134502 0.000000 0.067564
92.000000 57.228000 -3.000000 7.000000 -3.000000 69.580604 -16.473402 1293.269493 1358.836634 17.479464 0.000000 0.103166
93.000000 64.605000 -2.000000 7.000000 -3.000000 75.889093 -23.766369 1448.947894 1236.635195 15.481278 0.000000 0.118762
94.000000 70.993000 -1.000000 7.000000 -3.000000 81.617144 -32.345695 1656.607022 1128.733915 14.086400 0.000000 0.113789
95.000000 75.482000 0.000000 7.000000 -3.000000 86.155595 -42.099773 1947.498749 1038.476212 13.246953 0.000000 0.143060
97.000000 49.927000 -4.000000 8.000000 -3.000000 70.131735 -11.694497 1197.782020 1338.183593 20.035678 0.000000 0.103831
98.000000 56.164000 -3.000000 8.000000 -3.000000 76.172379 -17.587797 1316.168380 1218.904073 17.808414 0.000000 0.123968
99.000000 62.057000 -2.000000 8.000000 -3.000000 82.020051 -24.549352 1466.615614 1106.873567 16.115046 0.000000 0.123567
100.000000 67.025000 -1.000000 8.000000 -3.000000 87.252349 -32.632799 1664.187329 1002.336183 14.918707 0.000000 0.103040
101.000000 70.480000 0.000000 8.000000 -3.000000 91.387913 -41.735385 1935.136237 906.055052 14.185849 0.000000 0.121995
102.000000 71.997000 1.000000 8.000000 -3.000000 94.005129 -51.532466 2329.662249 819.858466 13.885876 0.000000 0.305365
103.000000 49.194000 -4.000000 9.000000 -3.000000 75.954300 -12.888304 1221.273074 1217.221241 20.331952 0.000000 0.126940
104.000000 54.334000 -1.000000 3.000000 -1.000000 81.618304 -18.590083 1337.005677 1108.311710 6.135354 0.000000 0.134521
105.000000 59.066000 -2.000000 9.000000 -3.000000 87.017212 -25.244553 1482.488265 1003.003603 16.929539 0.000000 0.122487
106.000000 62.980000 -1.000000 9.000000 -3.000000 91.800237 -32.884907 1670.883876 900.716772 15.875469 0.000000 0.091759
107.000000 66.924000 1.000000 9.000000 -3.000000 98.038832 -50.575016 2284.137791 701.643953 14.937363 0.000000 0.278717
108.000000 47.905000 -4.000000 10.000000 -3.000000 80.881700 -13.979395 1242.939214 1119.019475 20.876784 0.000000 0.140032
109.000000 52.152000 -3.000000 10.000000 -3.000000 86.170093 -19.495837 1356.047798 1017.433961 19.174569 0.000000 0.138108
110.000000 55.984000 -2.000000 10.000000 -3.000000 91.152088 -25.865777 1496.826194 916.945418 17.860131 0.000000 0.117683
111.000000 59.113000 -1.000000 10.000000 -3.000000 95.536651 -33.108042 1676.842701 816.447674 16.912966 0.000000 0.080375
112.000000 61.278000 0.000000 10.000000 -3.000000 99.016023 -41.137680 1915.158536 714.244168 16.313987 0.000000 0.097441
113.000000 62.299000 1.000000 10.000000 -3.000000 101.326599 -49.732134 2245.566524 607.464770 16.045409 0.000000 0.259705
114.000000 46.323000 -4.000000 11.000000 -3.000000 85.086640 -14.979781 1262.985144 1036.778621 21.588129 0.000000 0.146408
115.000000 49.850000 -3.000000 11.000000 -3.000000 90.017125 -20.317970 1373.517151 940.656957 20.058456 0.000000 0.137252
116.000000 52.985000 -2.000000 11.000000 -3.000000 94.620541 -26.424109 1509.841723 843.867042 18.869730 0.000000 0.110721
117.000000 55.522000 -1.000000 11.000000 -3.000000 98.654660 -33.306922 1682.179346 744.976801 18.005810 0.000000 0.069322
118.000000 57.280000 0.000000 11.000000 -3.000000 101.869513 -40.889563 1906.972227 641.766026 17.451561 0.000000 0.091276
119.000000 58.139000 1.000000 11.000000 -3.000000 104.051961 -48.984725 2212.468474 530.511452 17.192772 0.000000 0.245793
121.000000 47.558000 -1.000000 4.000000 -1.000000 93.302416 -21.067255 1389.600860 874.447285 7.007973 0.000000 0.133605
122.000000 50.149000 -2.000000 12.000000 -3.000000 97.565809 -26.928549 1521.709738 780.659985 19.935521 0.000000 0.102601
123.000000 52.234000 -1.000000 12.000000 -3.000000 101.292305 -33.485293 1686.986422 683.317245 19.138249 0.000000 0.058909
124.000000 53.684000 0.000000 4.000000 -1.000000 104.276679 -40.668034 1899.714881 579.921303 6.206601 0.000000 0.087968
125.000000 54.416000 1.000000 12.000000 -3.000000 106.344303 -48.317654 2183.755854 466.362502 18.368572 0.000000 0.235387
127.000000 47.508000 -2.000000 13.000000 -3.000000 100.094264 -27.386471 1532.575586 725.208967 21.042704 0.000000 0.093947
128.000000 49.243000 -1.000000 13.000000 -3.000000 103.550341 -33.646170 1691.339028 629.404167 20.299989 0.000000 0.049359
129.000000 50.455000 0.000000 13.000000 -3.000000 106.332850 -40.469042 1893.236865 526.412247 19.810846 0.000000 0.086777
130.000000 51.085000 1.000000 13.000000 -3.000000 108.296992 -47.718783 2158.611226 412.011459 19.565604 0.000000 0.227451
132.000000 46.527000 -1.000000 14.000000 -3.000000 105.503741 -33.792003 1695.298705 581.750664 21.484021 0.000000 0.040871
133.000000 47.553000 0.000000 14.000000 -3.000000 108.108439 -40.289319 1887.419041 479.584424 21.019297 0.000000 0.087090
134.000000 48.101000 1.000000 14.000000 -3.000000 109.978853 -47.178275 2136.408428 365.337111 20.778909 0.000000 0.221288
139.000000 75.945000 -2.000000 3.000000 -2.000000 45.663543 -13.062126 1224.711651 2020.583037 13.175968 0.000000 0.156211
140.000000 49.220000 -2.000000 2.000000 -1.000000 43.101367 0.424963 967.016978 2091.129779 10.165444 0.000000 0.165396
141.000000 65.479000 -3.000000 4.000000 -2.000000 51.714261 -6.239937 1092.682106 1795.634444 15.281337 0.000000 0.063396
142.000000 55.933000 -4.000000 5.000000 -2.000000 55.119861 -1.865247 1010.050827 1691.676526 17.888544 0.000000 0.017887
143.000000 69.899000 -3.000000 5.000000 -2.000000 63.762636 -8.439345 1134.688592 1477.281512 14.312588 0.000000 0.067557
144.000000 85.241000 -2.000000 5.000000 -2.000000 73.038398 -17.045708 1304.995296 1284.350599 11.734382 0.000000 0.115038
145.000000 48.323000 -5.000000 6.000000 -2.000000 57.250016 1.146325 953.463550 1633.433902 20.705237 0.000000 0.008146
146.000000 58.501000 -2.000000 3.000000 -1.000000 64.839913 -3.920069 1048.753130 1447.735717 8.550477 0.000000 0.070606
147.000000 69.875000 -3.000000 6.000000 -2.000000 73.111876 -10.364618 1171.850014 1273.179802 14.314968 0.000000 0.117240
148.000000 50.014000 -5.000000 7.000000 -2.000000 65.400036 -0.731698 988.745597 1433.805366 20.002558 0.000000 0.073840
149.000000 58.600000 -4.000000 7.000000 -2.000000 72.728970 -5.769467 1083.746533 1277.335168 17.069601 0.000000 0.116602
150.000000 67.690000 -3.000000 7.000000 -2.000000 80.463879 -12.060368 1204.958917 1125.888354 14.775150 0.000000 0.141279
151.000000 76.509000 -2.000000 7.000000 -2.000000 88.171840 -19.916638 1364.966636 977.538841 13.069710 0.000000 0.138115
152.000000 83.954000 -1.000000 7.000000 -2.000000 95.152051 -29.580808 1585.943466 829.413499 11.908775 0.000000 0.095417
153.000000 88.841000 0.000000 7.000000 -2.000000 100.505770 -41.010008 1910.938459 676.498557 11.252210 0.000000 0.093951
155.000000 50.193000 -5.000000 8.000000 -2.000000 72.231888 -2.454498 1021.135675 1286.216358 19.928701 0.000000 0.114667
156.000000 57.326000 -2.000000 4.000000 -1.000000 79.183779 -7.439447 1115.539803 1148.375561 8.723396 0.000000 0.141524
157.000000 64.569000 -3.000000 8.000000 -2.000000 86.337579 -13.562826 1234.643926 1011.868268 15.487396 0.000000 0.150591
158.000000 76.896000 -1.000000 8.000000 -2.000000 99.509280 -30.122370 1599.467531 732.562570 13.000853 0.000000 0.080883
160.000000 49.446000 -5.000000 9.000000 -2.000000 77.988114 -4.037798 1050.975357 1170.576641 20.227852 0.000000 0.139128
161.000000 55.344000 -4.000000 9.000000 -2.000000 84.518322 -8.952448 1144.552722 1045.561790 18.069648 0.000000 0.153932
162.000000 61.145000 -3.000000 9.000000 -2.000000 91.105520 -14.901505 1261.410042 919.507558 16.353185 0.000000 0.151654
163.000000 66.417000 -2.000000 9.000000 -2.000000 97.408193 -22.073990 1411.468726 789.987998 15.052972 0.000000 0.125128
164.000000 70.669000 -1.000000 9.000000 -2.000000 102.965463 -30.588275 1611.221406 653.145027 14.145443 0.000000 0.066419
165.000000 73.448000 0.000000 9.000000 -2.000000 107.252064 -40.376951 1890.251901 502.248066 13.608776 0.000000 0.086779
167.000000 48.159000 -5.000000 10.000000 -2.000000 82.870264 -5.495733 1078.554458 1076.248529 20.766389 0.000000 0.153157
168.000000 53.043000 -2.000000 5.000000 -1.000000 88.973918 -10.327769 1171.134728 960.594357 9.425860 0.000000 0.158715
169.000000 57.729000 -3.000000 10.000000 -2.000000 95.034248 -16.100552 1285.667609 842.317476 17.319423 0.000000 0.148043
170.000000 61.901000 -1.000000 5.000000 -1.000000 100.757406 -22.961722 1431.011442 718.918536 8.074966 0.000000 0.114840
171.000000 65.226000 -1.000000 10.000000 -2.000000 105.768653 -30.993290 1621.531298 586.456273 15.324994 0.000000 0.052734
172.000000 67.408000 0.000000 5.000000 -1.000000 109.656464 -40.126199 1882.165381 438.209960 7.413781 0.000000 0.088417
174.000000 46.582000 -5.000000 11.000000 -2.000000 87.041240 -6.840946 1104.120489 997.028298 21.467703 0.000000 0.160378
175.000000 50.645000 -4.000000 11.000000 -2.000000 92.734277 -11.581996 1195.579054 888.529527 19.742861 0.000000 0.158761
176.000000 54.468000 -3.000000 11.000000 -2.000000 98.316019 -17.179826 1307.753495 776.331183 18.354964 0.000000 0.141794
177.000000 57.822000 -2.000000 11.000000 -2.000000 103.535191 -23.750014 1448.581128 657.932776 17.288525 0.000000 0.103890
178.000000 60.472000 -1.000000 11.000000 -2.000000 108.085027 -31.348586 1630.647902 529.444359 16.528994 0.000000 0.040147
179.000000 62.223000 0.000000 11.000000 -2.000000 111.638118 -39.907946 1875.175357 384.388314 16.062685 0.000000 0.091545
181.000000 48.272000 -2.000000 6.000000 -1.000000 95.939325 -12.729391 1218.133596 826.207738 10.355991 0.000000 0.155834
182.000000 51.424000 -3.000000 12.000000 -2.000000 101.091321 -18.155757 1327.946840 718.953740 19.440332 0.000000 0.134102
183.000000 54.158000 -1.000000 6.000000 -1.000000 105.872442 -24.454434 1464.462221 604.809738 9.228608 0.000000 0.092890
184.000000 56.308000 -1.000000 12.000000 -2.000000 110.029571 -31.662766 1638.767054 480.015248 17.750761 0.000000 0.028848
185.000000 57.739000 0.000000 6.000000 -1.000000 113.298513 -39.716265 1869.072970 338.449981 8.654870 0.000000 0.095347
187.000000 45.990000 -4.000000 13.000000 -2.000000 98.696248 -13.782232 1239.009347 771.495618 21.738783 0.000000 0.151044
188.000000 48.615000 -3.000000 13.000000 -2.000000 103.464335 -19.042016 1346.480905 668.396073 20.562725 0.000000 0.125686
189.000000 50.873000 -2.000000 13.000000 -2.000000 107.863824 -25.087509 1478.886991 557.983416 19.648368 0.000000 0.082171
190.000000 52.644000 -1.000000 13.000000 -2.000000 111.684128 -31.942561 1646.043962 436.669563 18.985845 0.000000 0.019172
191.000000 53.831000 0.000000 13.000000 -2.000000 114.709313 -39.546584 1863.699238 298.739058 18.565776 0.000000 0.099361
193.000000 46.037000 -3.000000 14.000000 -2.000000 105.513493 -19.850049 1363.552135 623.372198 21.713380 0.000000 0.116984
194.000000 47.924000 -1.000000 7.000000 -1.000000 109.579228 -25.659422 1492.046978 516.306892 10.428365 0.000000 0.071901
195.000000 49.402000 -1.000000 14.000000 -2.000000 113.108407 -32.193311 1652.603219 398.297287 20.231165 0.000000 0.012295
196.000000 50.401000 0.000000 7.000000 -1.000000 115.922485 -39.395324 1858.931005 264.042955 9.914370 0.000000 0.103342
198.000000 46.519000 -1.000000 15.000000 -2.000000 114.346926 -32.419308 1658.545998 364.054359 21.484527 0.000000 0.011289
199.000000 47.370000 0.000000 15.000000 -2.000000 116.976595 -39.259642 1854.671391 233.450674 21.097160 0.000000 0.107164
202.000000 53.556000 -4.000000 3.000000 -1.000000 39.473968 11.088614 764.061571 2272.720706 18.684965 0.000000 0.230105
203.000000 79.366000 -3.000000 3.000000 -1.000000 50.503617 5.175419 877.515109 1831.745817 12.607655 0.000000 0.070793
204.000000 48.056000 -5.000000 4.000000 -1.000000 45.034013 12.189038 742.512479 2040.810989 20.822535 0.000000 0.154580
205.000000 64.745000 -4.000000 4.000000 -1.000000 54.292668 7.802474 827.518683 1721.833748 15.453961 0.000000 0.044307
206.000000 87.101000 -3.000000 4.000000 -1.000000 65.708636 1.624812 944.469915 1426.965609 11.485519 0.000000 0.076291
207.000000 54.276000 -5.000000 5.000000 -1.000000 56.575073 9.463209 795.600498 1661.157690 18.434139 0.000000 0.043684
208.000000 68.939000 -4.000000 5.000000 -1.000000 65.987135 4.858827 883.508099 1422.215980 14.511289 0.000000 0.079460
209.000000 86.656000 -3.000000 5.000000 -1.000000 76.928658 -1.445923 1002.167256 1190.973693 11.542213 0.000000 0.135819
210.000000 46.590000 -6.000000 6.000000 -1.000000 58.095224 10.606197 773.456504 1622.705309 21.474983 0.000000 0.049146
211.000000 56.906000 -5.000000 6.000000 -1.000000 66.078590 6.964972 843.515546 1421.978604 17.579727 0.000000 0.081364
212.000000 69.109000 -4.000000 6.000000 -1.000000 75.204373 2.220102 933.274775 1225.494885 14.473271 0.000000 0.128991
213.000000 82.744000 -3.000000 6.000000 -1.000000 85.332898 -4.113411 1052.402950 1029.092280 12.085929 0.000000 0.159372
214.000000 48.394000 -6.000000 7.000000 -1.000000 66.100489 8.441988 815.260658 1423.161206 20.671623 0.000000 0.082643
215.000000 57.264000 -5.000000 7.000000 -1.000000 73.897391 4.675354 886.978590 1252.746804 17.467344 0.000000 0.123098
216.000000 67.190000 -4.000000 7.000000 -1.000000 82.524133 -0.149136 977.801502 1082.236150 14.884652 0.000000 0.154174
217.000000 77.647000 -3.000000 7.000000 -1.000000 91.759914 -6.442622 1096.536541 907.719657 12.877616 0.000000 0.165589
218.000000 87.658000 -2.000000 7.000000 -1.000000 101.087838 -14.751114 1258.387015 722.887941 11.404725 0.000000 0.145108
219.000000 48.793000 -6.000000 8.000000 -1.000000 72.887292 6.428724 853.727849 1274.469577 20.500323 0.000000 0.118327
220.000000 56.282000 -5.000000 8.000000 -1.000000 80.357061 2.575732 926.582567 1124.056285 17.770148 0.000000 0.147947
221.000000 64.300000 -4.000000 8.000000 -1.000000 88.404129 -2.281186 1017.874464 971.009773 15.551765 0.000000 0.165223
222.000000 72.383000 -3.000000 8.000000 -1.000000 96.780846 -8.487656 1135.616196 811.607436 13.812673 0.000000 0.163116
223.000000 79.824000 -2.000000 8.000000 -1.000000 105.019533 -16.472446 1293.249947 639.854363 12.523071 0.000000 0.131517
224.000000 85.751000 -1.000000 8.000000 -1.000000 112.380074 -26.651745 1515.184347 445.135481 11.655573 0.000000 0.052971
225.000000 89.349000 0.000000 8.000000 -1.000000 117.900838 -39.137250 1850.843136 206.262991 11.184978 0.000000 0.110771
227.000000 48.286000 -6.000000 9.000000 -1.000000 78.655357 4.555627 889.242296 1157.621428 20.713551 0.000000 0.142041
228.000000 54.561000 -5.000000 9.000000 -1.000000 85.730664 0.648388 962.819597 1021.352866 18.328673 0.000000 0.161439
229.000000 61.049000 -4.000000 9.000000 -1.000000 93.188267 -4.204869 1054.130063 880.885076 16.378245 0.000000 0.168085
230.000000 67.376000 -3.000000 9.000000 -1.000000 100.782334 -10.293157 1170.463026 732.677133 14.838079 0.000000 0.156228
231.000000 73.038000 -2.000000 9.000000 -1.000000 108.105235 -17.953186 1323.737232 571.092684 13.685752 0.000000 0.117238
232.000000 77.473000 -1.000000 9.000000 -1.000000 114.566640 -27.482670 1534.869647 386.406157 12.900445 0.000000 0.036262
233.000000 80.186000 0.000000 9.000000 -1.000000 119.444811 -38.925227 1844.242709 160.027933 12.462803 0.000000 0.117272
235.000000 47.222000 -6.000000 10.000000 -1.000000 83.579084 2.812162 922.131412 1062.269641 21.178104 0.000000 0.156641
236.000000 52.474000 -5.000000 10.000000 -1.000000 90.237215 -1.123182 996.101536 936.543057 19.055850 0.000000 0.167641
237.000000 57.756000 -4.000000 10.000000 -1.000000 97.130707 -5.945545 1087.088964 805.626434 17.310742 0.000000 0.166127
238.000000 62.777000 -3.000000 10.000000 -1.000000 104.029155 -11.895852 1201.729403 666.165538 15.924088 0.000000 0.147155
239.000000 67.180000 -2.000000 10.000000 -1.000000 110.583132 -19.238859 1350.624008 512.901177 14.878410 0.000000 0.103246
240.000000 70.593000 -1.000000 10.000000 -1.000000 116.318786 -28.188334 1551.821813 336.986905 14.157351 0.000000 0.021712
241.000000 72.701000 0.000000 10.000000 -1.000000 120.682852 -38.747943 1838.753946 122.157252 13.745580 0.000000 0.122869
243.000000 45.838000 -6.000000 11.000000 -1.000000 87.804869 1.188236 952.675929 982.264333 21.815934 0.000000 0.164900
244.000000 50.244000 -5.000000 11.000000 -1.000000 94.048892 -2.754120 1026.775699 864.727091 19.900108 0.000000 0.169137
245.000000 54.579000 -4.000000 11.000000 -1.000000 100.419110 -7.525348 1117.181263 741.372557 18.317327 0.000000 0.161320
246.000000 58.619000 -3.000000 11.000000 -1.000000 106.705943 -13.325962 1229.940191 609.036265 17.052719 0.000000 0.137113
247.000000 62.110000 -2.000000 11.000000 -1.000000 112.611788 -20.364556 1374.512534 462.835605 16.092281 0.000000 0.089971
248.000000 64.799000 -1.000000 11.000000 -1.000000 117.753012 -28.794903 1566.573102 294.753219 15.422823 0.000000 0.009699
249.000000 66.479000 0.000000 11.000000 -1.000000 121.697445 -38.597509 1834.117814 90.550722 15.031904 0.000000 0.127678
251.000000 48.001000 -5.000000 12.000000 -1.000000 97.300102 -4.258182 1055.137027 802.739921 20.828956 0.000000 0.167569
252.000000 51.589000 -4.000000 12.000000 -1.000000 103.192948 -8.963493 1144.765358 685.577952 19.377723 0.000000 0.154852
253.000000 54.884000 -3.000000 12.000000 -1.000000 108.944036 -14.608414 1255.522446 559.236076 18.212466 0.000000 0.126774
254.000000 57.700000 -2.000000 12.000000 -1.000000 114.300183 -21.357659 1395.877845 419.195542 17.321715 0.000000 0.077586
255.000000 59.862000 -1.000000 12.000000 -1.000000 118.947901 -29.321769 1579.525995 258.201110 16.694610 0.000000 0.006892
256.000000 61.228000 0.000000 12.000000 -1.000000 122.543937 -38.468256 1830.149960 63.762132 16.320855 0.000000 0.131826
258.000000 45.816000 -5.000000 13.000000 -1.000000 100.095778 -5.647768 1081.437598 748.429822 21.820909 0.000000 0.164007
259.000000 48.814000 -4.000000 13.000000 -1.000000 105.556933 -10.276627 1170.142293 636.479986 20.478435 0.000000 0.147456
260.000000 51.534000 -3.000000 13.000000 -1.000000 110.838714 -15.763846 1278.827184 515.311454 19.395621 0.000000 0.116518
261.000000 53.840000 -2.000000 13.000000 -1.000000 115.725353 -22.239786 1415.099656 380.749719 18.562905 0.000000 0.066144
262.000000 55.608000 -1.000000 13.000000 -1.000000 119.958286 -29.783599 1590.990470 226.229929 17.971187 0.000000 0.015273
263.000000 56.739000 0.000000 13.000000 -1.000000 123.260824 -38.356007 1826.715603 40.761432 17.611804 0.000000 0.135425
265.000000 46.256000 -4.000000 14.000000 -1.000000 107.590593 -11.479155 1193.566788 592.809020 21.610130 0.000000 0.139595
266.000000 48.527000 -3.000000 14.000000 -1.000000 112.460402 -16.809424 1300.145585 476.195330 20.596829 0.000000 0.106557
267.000000 50.442000 -2.000000 14.000000 -1.000000 116.943112 -23.028200 1432.485134 346.578026 19.813190 0.000000 0.055642
268.000000 51.909000 -1.000000 14.000000 -1.000000 120.823540 -30.191685 1601.209141 198.012457 19.251480 0.000000 0.024093
269.000000 52.860000 0.000000 14.000000 -1.000000 123.875704 -38.257614 1823.713925 20.794239 18.904311 0.000000 0.138569
271.000000 45.822000 -3.000000 15.000000 -1.000000 113.862057 -17.759498 1319.721222 441.080980 21.812252 0.000000 0.097005
272.000000 47.430000 -2.000000 15.000000 -1.000000 117.994788 -23.736825 1448.285429 315.975194 21.070659 0.000000 0.046066
273.000000 48.665000 -1.000000 15.000000 -1.000000 121.572642 -30.554857 1610.374608 172.913189 20.534718 0.000000 0.032220
274.000000 49.473000 0.000000 15.000000 -1.000000 124.408869 -38.170660 1821.068004 3.294951 20.198054 0.000000 0.141333
276.000000 45.797000 -1.000000 16.000000 -1.000000 122.227375 -30.880119 1618.641716 150.434818 21.820327 0.000000 0.039621
277.000000 46.493000 0.000000 16.000000 -1.000000 124.875572 -38.093262 1818.718132 -12.169082 21.492794 0.000000 0.143780
280.000000 88.303000 -3.000000 2.000000 0.000000 45.323520 22.310650 533.345827 2091.321872 11.331564 0.000000 0.195562
281.000000 158.962000 -2.000000 2.000000 0.000000 65.573860 16.754719 650.975505 1451.492555 6.293186 0.000000 0.090891
283.000000 71.294000 -4.000000 3.000000 0.000000 51.040316 20.853924 564.994626 1872.322658 14.034248 0.000000 0.132618
284.000000 156.908000 -2.000000 3.000000 0.000000 85.395504 9.704693 790.934909 1028.940042 6.373353 0.000000 0.156220
285.000000 58.961000 -5.000000 4.000000 0.000000 54.251875 20.001755 583.223588 1765.499595 16.969175 0.000000 0.106789
286.000000 106.991000 -3.000000 4.000000 0.000000 79.891968 11.893996 748.307007 1137.082654 9.347848 0.000000 0.141800
287.000000 140.542000 -2.000000 4.000000 0.000000 97.416248 3.986204 899.998589 800.563662 7.113896 0.000000 0.168299
288.000000 173.311000 -1.000000 4.000000 0.000000 116.687668 -10.229877 1169.235357 391.231002 5.766662 0.000000 0.110222
290.000000 50.045000 -6.000000 5.000000 0.000000 56.304705 19.442700 595.075127 1702.071599 19.991880 0.000000 0.094913
291.000000 80.733000 -4.000000 5.000000 0.000000 76.766356 13.047219 725.583424 1200.816736 12.388827 0.000000 0.131551
292.000000 101.325000 -3.000000 5.000000 0.000000 90.053371 7.663522 830.177004 939.988390 9.868635 0.000000 0.164275
293.000000 123.517000 -2.000000 5.000000 0.000000 105.106628 -0.659005 987.379876 650.440712 8.093202 0.000000 0.159316
294.000000 142.905000 -1.000000 5.000000 0.000000 120.352372 -14.343847 1250.221327 290.464444 6.993173 0.000000 0.080801
295.000000 64.681000 -5.000000 6.000000 0.000000 74.756619 13.758566 711.461913 1242.962277 15.464000 0.000000 0.124331
296.000000 108.817000 -2.000000 6.000000 0.000000 110.301970 -4.460520 1058.960009 541.614904 9.185583 0.000000 0.143763
297.000000 121.198000 -1.000000 6.000000 0.000000 122.679338 -17.396546 1312.218920 217.484530 8.245326 0.000000 0.056957
298.000000 53.895000 -6.000000 7.000000 0.000000 73.357132 14.241034 701.835350 1272.934835 18.559075 0.000000 0.119089
299.000000 63.709000 -5.000000 7.000000 0.000000 82.205998 10.999874 765.792033 1091.076465 15.697801 0.000000 0.148469
300.000000 74.622000 -4.000000 7.000000 0.000000 92.114259 6.695406 848.651978 900.993010 13.399569 0.000000 0.166522
301.000000 85.991000 -3.000000 7.000000 0.000000 102.887582 0.785203 960.249131 694.718072 11.625549 0.000000 0.163465
302.000000 96.658000 -2.000000 7.000000 0.000000 113.980220 -7.603204 1118.669586 458.001620 10.340400 0.000000 0.126765
303.000000 105.057000 -1.000000 7.000000 0.000000 124.267586 -19.739456 1361.205555 161.913161 9.511891 0.000000 0.038735
304.000000 46.166000 -7.000000 8.000000 0.000000 72.327079 14.589734 694.852255 1295.355354 21.666750 0.000000 0.115157
305.000000 61.627000 -5.000000 8.000000 0.000000 88.281200 8.462844 814.860230 973.652679 16.226251 0.000000 0.161686
306.000000 78.883000 -3.000000 8.000000 0.000000 107.055080 -2.009855 1012.770374 610.608848 12.672142 0.000000 0.154503
307.000000 92.634000 -1.000000 8.000000 0.000000 125.411372 -21.588631 1400.888036 118.066758 10.787360 0.000000 0.027100
308.000000 46.037000 -7.000000 9.000000 0.000000 78.139054 12.548076 735.443637 1172.576107 21.725385 0.000000 0.136213
309.000000 59.017000 -5.000000 9.000000 0.000000 93.274790 6.130615 859.395627 879.062174 16.942170 0.000000 0.167413
310.000000 65.906000 -4.000000 9.000000 0.000000 101.660709 1.544790 945.974281 718.799031 15.168731 0.000000 0.165191
311.000000 78.376000 -2.000000 9.000000 0.000000 118.745651 -12.449231 1212.608332 336.415665 12.751214 0.000000 0.094827
312.000000 82.797000 -1.000000 9.000000 0.000000 126.269693 -23.082378 1433.687206 82.532318 12.068713 0.000000 0.024160
313.000000 66.966000 -3.000000 10.000000 0.000000 112.882977 -6.619246 1099.897889 483.683854 14.925511 0.000000 0.132438
314.000000 74.827000 -1.000000 10.000000 0.000000 126.935048 -24.312628 1461.251098 53.121772 13.354159 0.000000 0.028619
315.000000 48.798000 -6.000000 11.000000 0.000000 94.018839 5.760624 866.421270 864.998727 20.490028 0.000000 0.167841
316.000000 53.413000 -5.000000 11.000000 0.000000 100.882798 2.013135 937.167938 733.945689 18.716883 0.000000 0.166086
317.000000 57.918000 -4.000000 11.000000 0.000000 107.941407 -2.652607 1024.864529 592.133443 17.258673 0.000000 0.151925
318.000000 62.071000 -3.000000 11.000000 0.000000 114.971345 -8.530108 1136.431519 434.164327 16.101916 0.000000 0.121151
319.000000 65.600000 -2.000000 11.000000 0.000000 121.635278 -15.976774 1283.150296 251.304875 15.233886 0.000000 0.068182
320.000000 68.242000 -1.000000 11.000000 0.000000 127.464497 -25.342564 1484.740523 28.361525 14.642566 0.000000 0.035980
321.000000 50.707000 -5.000000 12.000000 0.000000 103.810768 0.195819 971.321554 676.420739 19.714706 0.000000 0.161904
322.000000 62.714000 -1.000000 12.000000 0.000000 127.894963 -26.216896 1504.996728 7.220035 15.933185 0.000000 0.043779
323.000000 48.147000 -5.000000 13.000000 0.000000 106.305263 -1.480231 1002.812149 626.057111 20.762121 0.000000 0.156492
324.000000 51.220000 -4.000000 13.000000 0.000000 112.289604 -6.104390 1090.106082 497.291746 19.514152 0.000000 0.135283
325.000000 53.979000 -3.000000 13.000000 0.000000 118.117763 -11.749148 1198.852836 353.576087 18.514544 0.000000 0.099812
326.000000 56.285000 -2.000000 13.000000 0.000000 123.543002 -18.640894 1338.068448 187.949472 17.754466 0.000000 0.047121
327.000000 58.008000 -1.000000 13.000000 0.000000 128.251294 -26.968081 1522.644289 -11.047754 17.225498 0.000000 0.051223
328.000000 45.752000 -5.000000 14.000000 0.000000 108.447779 -3.028312 1031.939499 581.465363 21.847898 0.000000 0.150336
329.000000 50.622000 -3.000000 14.000000 0.000000 119.323958 -13.113391 1225.726708 320.232121 19.741937 0.000000 0.089996
330.000000 53.956000 -1.000000 14.000000 0.000000 128.550777 -27.620214 1538.156641 -26.994122 18.519140 0.000000 0.058107
331.000000 45.708000 -4.000000 15.000000 0.000000 115.431463 -8.973548 1144.958946 422.871779 21.866183 0.000000 0.118376
332.000000 49.232000 -2.000000 15.000000 0.000000 124.883004 -20.715751 1382.035884 138.774865 20.297479 0.000000 0.031964
333.000000 50.430000 -1.000000 15.000000 0.000000 128.805781 -28.191534 1551.899192 -41.037524 19.813841 0.000000 0.064406
335.000000 47.335000 -1.000000 16.000000 0.000000 129.025372 -28.696091 1564.158472 -53.501026 21.109401 0.000000 0.070153
340.000000 113.152000 -3.000000 2.000000 1.000000 59.185504 37.845930 138.757808 1753.965699 8.840901 0.000000 0.214900
341.000000 192.022000 -2.000000 2.000000 1.000000 83.717276 38.904937 106.386861 1093.270861 5.207553 0.000000 0.120469
342.000000 59.490000 -5.000000 3.000000 1.000000 49.209729 32.768893 282.202403 2045.479675 16.818181 0.000000 0.236372
343.000000 85.335000 -4.000000 3.000000 1.000000 61.657336 32.111177 299.549270 1626.414936 11.722728 0.000000 0.153103
344.000000 124.088000 -3.000000 3.000000 1.000000 78.720562 31.051969 326.967748 1191.569885 8.059484 0.000000 0.117802
345.000000 177.807000 -2.000000 3.000000 1.000000 102.173866 29.064431 376.817130 675.359748 5.622159 0.000000 0.081078
346.000000 51.305000 -6.000000 4.000000 1.000000 52.673625 29.847034 357.426587 1887.207381 19.501053 0.000000 0.182993
347.000000 67.929000 -5.000000 4.000000 1.000000 62.833649 28.791505 383.509997 1571.254596 14.726664 0.000000 0.129449
348.000000 90.578000 -4.000000 4.000000 1.000000 75.774530 27.262631 420.371779 1247.950734 11.041977 0.000000 0.119252
349.000000 120.125000 -3.000000 4.000000 1.000000 92.272147 24.854793 476.432638 893.936390 8.323494 0.000000 0.123354
350.000000 154.583000 -2.000000 4.000000 1.000000 112.862065 20.528786 571.973622 456.422464 6.465700 0.000000 0.091085
351.000000 185.781000 -1.000000 4.000000 1.000000 136.855223 10.713669 771.366129 -227.725659 5.377904 0.000000 0.026063
352.000000 56.251000 -6.000000 5.000000 1.000000 63.497758 26.640142 435.088479 1541.412755 17.784063 0.000000 0.117915
353.000000 71.017000 -5.000000 5.000000 1.000000 73.881723 25.049910 471.973861 1284.321389 14.083993 0.000000 0.117947
354.000000 89.433000 -4.000000 5.000000 1.000000 86.502141 22.782671 522.950538 1012.355771 11.181306 0.000000 0.132476
355.000000 111.031000 -3.000000 5.000000 1.000000 101.661178 19.304127 598.000062 705.637869 9.003765 0.000000 0.131333
356.000000 133.472000 -2.000000 5.000000 1.000000 119.263428 13.356940 719.445166 321.147702 7.487599 0.000000 0.091495
357.000000 151.924000 -1.000000 5.000000 1.000000 138.110798 1.354232 949.556186 -259.339743 6.576302 0.000000 0.006781
358.000000 47.934000 -7.000000 6.000000 1.000000 63.916450 25.136524 469.990014 1523.004912 20.869615 0.000000 0.111367
359.000000 58.295000 -6.000000 6.000000 1.000000 72.572954 23.603299 504.704788 1309.693218 17.158118 0.000000 0.115919
360.000000 70.798000 -5.000000 6.000000 1.000000 82.757634 21.552771 549.890880 1088.058601 14.125438 0.000000 0.133058
361.000000 85.317000 -4.000000 6.000000 1.000000 94.651762 18.679311 611.127590 848.555275 11.719032 0.000000 0.143231
362.000000 101.053000 -3.000000 6.000000 1.000000 108.276758 14.392045 698.813874 574.017223 9.891640 0.000000 0.131568
363.000000 116.191000 -2.000000 6.000000 1.000000 123.261967 7.421337 834.806180 229.065301 8.600645 0.000000 0.085253
364.000000 127.966000 -1.000000 6.000000 1.000000 138.358634 -5.265808 1074.197022 -274.628395 7.807508 0.000000 0.014486
365.000000 49.391000 -7.000000 7.000000 1.000000 71.616953 22.584831 527.316217 1328.389972 20.251533 0.000000 0.113866
366.000000 58.410000 -6.000000 7.000000 1.000000 80.140099 20.739031 567.464196 1141.028560 17.122219 0.000000 0.131132
367.000000 68.752000 -5.000000 7.000000 1.000000 89.886554 18.300414 619.041071 943.244595 14.543936 0.000000 0.145521
368.000000 80.104000 -4.000000 7.000000 1.000000 100.897198 14.943905 687.736917 726.539664 12.480272 0.000000 0.146997
369.000000 91.714000 -3.000000 7.000000 1.000000 113.044014 10.074828 783.770601 475.993753 10.897953 0.000000 0.126781
370.000000 102.317000 -2.000000 7.000000 1.000000 125.861267 2.526213 927.514620 162.244360 9.766516 0.000000 0.076152
371.000000 110.300000 -1.000000 7.000000 1.000000 138.218654 -10.077135 1166.274102 -282.432479 9.058011 0.000000 0.028424
372.000000 49.626000 -7.000000 8.000000 1.000000 78.210304 20.161005 579.832274 1180.310669 20.153475 0.000000 0.128535
373.000000 57.334000 -6.000000 8.000000 1.000000 86.447848 18.046144 624.332217 1011.269100 17.441389 0.000000 0.144288
374.000000 65.811000 -5.000000 8.000000 1.000000 95.640408 15.286824 680.825226 830.803027 15.192272 0.000000 0.152052
375.000000 74.714000 -4.000000 8.000000 1.000000 105.743905 11.556768 754.914712 631.298541 13.379435 0.000000 0.145802
376.000000 83.438000 -3.000000 8.000000 1.000000 116.559339 6.291442 856.338724 399.727084 11.978205 0.000000 0.119336
377.000000 91.125000 -2.000000 8.000000 1.000000 127.611684 -1.524598 1003.646142 111.498483 10.965732 0.000000 0.066215
378.000000 96.804000 -1.000000 8.000000 1.000000 137.934884 -13.685034 1237.074444 -286.463924 10.320826 0.000000 0.040721
379.000000 49.047000 -7.000000 9.000000 1.000000 83.853865 17.863703 628.119224 1062.769952 20.389335 0.000000 0.141771
380.000000 55.578000 -6.000000 9.000000 1.000000 91.721193 15.520560 676.101218 907.433856 17.990797 0.000000 0.152568
381.000000 62.518000 -5.000000 9.000000 1.000000 100.319619 12.501548 736.360799 740.264035 15.991043 0.000000 0.153929
382.000000 69.560000 -4.000000 9.000000 1.000000 109.557290 8.491932 814.301681 554.414363 14.369686 0.000000 0.141557
383.000000 76.244000 -3.000000 9.000000 1.000000 119.208423 2.976105 919.043900 338.459140 13.107708 0.000000 0.110643
384.000000 81.989000 -2.000000 9.000000 1.000000 128.826930 -4.900582 1067.281974 71.625917 12.187342 0.000000 0.056500
385.000000 86.189000 -1.000000 9.000000 1.000000 137.607815 -16.470442 1293.209024 -288.465272 11.591975 0.000000 0.051417
387.000000 47.954000 -7.000000 10.000000 1.000000 88.693331 15.690092 672.668148 966.500048 20.852348 0.000000 0.151054
388.000000 53.472000 -6.000000 10.000000 1.000000 96.151010 13.156087 723.427573 821.881643 18.697991 0.000000 0.156671
389.000000 59.174000 -5.000000 10.000000 1.000000 104.158263 9.931328 786.550095 665.359328 16.893645 0.000000 0.152623
390.000000 64.805000 -4.000000 10.000000 1.000000 112.599049 5.720699 867.178833 490.760525 15.423238 0.000000 0.135534
391.000000 70.024000 -3.000000 10.000000 1.000000 121.244746 0.065535 973.768934 288.023215 14.271664 0.000000 0.101505
392.000000 74.431000 -2.000000 10.000000 1.000000 129.692917 -7.738919 1121.265224 39.456716 13.424719 0.000000 0.047607
393.000000 77.636000 -1.000000 10.000000 1.000000 137.279681 -18.676188 1338.807031 -289.323932 12.869027 0.000000 0.060740
395.000000 46.556000 -7.000000 11.000000 1.000000 92.856596 13.636208 713.896927 885.736933 21.476878 0.000000 0.156679
396.000000 51.222000 -6.000000 11.000000 1.000000 99.893923 10.945101 766.859631 749.796134 19.518030 0.000000 0.157680
397.000000 55.935000 -5.000000 11.000000 1.000000 107.336055 7.561397 832.129670 602.081427 17.870922 0.000000 0.149228
398.000000 60.491000 -4.000000 11.000000 1.000000 115.057215 3.214056 914.560931 437.013894 16.522561 0.000000 0.128535
399.000000 64.637000 -3.000000 11.000000 1.000000 122.838319 -2.497558 1021.946071 245.695971 15.460665 0.000000 0.092377
400.000000 68.095000 -2.000000 11.000000 1.000000 130.323892 -10.147466 1167.637291 12.947190 14.673615 0.000000 0.039966
401.000000 70.606000 -1.000000 11.000000 1.000000 136.967820 -20.461253 1376.580539 -289.520425 14.150413 0.000000 0.068904
403.000000 48.952000 -6.000000 12.000000 1.000000 103.076326 8.879098 806.859068 687.975036 20.421562 0.000000 0.156492
404.000000 52.876000 -5.000000 12.000000 1.000000 109.990474 5.376441 873.706721 547.733416 18.903701 0.000000 0.144496
405.000000 56.605000 -4.000000 12.000000 1.000000 117.068127 0.944172 957.262243 390.913014 17.656055 0.000000 0.121060
406.000000 59.952000 -3.000000 12.000000 1.000000 124.105607 -4.763270 1064.684167 209.614386 16.668440 0.000000 0.083520
407.000000 62.720000 -2.000000 12.000000 1.000000 130.792416 -12.210109 1207.901841 -9.280380 15.931181 0.000000 0.033975
408.000000 64.730000 -1.000000 12.000000 1.000000 136.678545 -21.932846 1408.384399 -289.327499 15.435075 0.000000 0.076092
410.000000 46.737000 -6.000000 13.000000 1.000000 105.799487 6.949141 843.817355 634.196029 21.388601 0.000000 0.153774
411.000000 50.029000 -5.000000 13.000000 1.000000 112.226933 3.361277 911.786290 500.424200 19.978854 0.000000 0.138938
412.000000 53.115000 -4.000000 13.000000 1.000000 118.731796 -1.114784 995.943730 350.857848 18.815730 0.000000 0.113424
413.000000 55.855000 -3.000000 13.000000 1.000000 125.128041 -6.774529 1102.855080 178.456459 17.890653 0.000000 0.075083
414.000000 58.108000 -2.000000 13.000000 1.000000 131.145957 -13.992012 1243.190927 -28.189054 17.195439 0.000000 0.030036
415.000000 59.747000 -1.000000 13.000000 1.000000 136.413218 -23.165353 1435.530123 -288.905704 16.722273 0.000000 0.082460
417.000000 47.398000 -5.000000 14.000000 1.000000 114.126714 1.501296 946.791879 458.782414 21.087090 0.000000 0.132897
418.000000 49.979000 -4.000000 14.000000 1.000000 120.122512 -2.986266 1031.147505 315.679771 19.995910 0.000000 0.105824
419.000000 52.252000 -3.000000 14.000000 1.000000 125.963669 -8.567708 1137.153782 151.255524 19.124206 0.000000 0.067155
420.000000 54.113000 -2.000000 14.000000 1.000000 131.416405 -15.544000 1274.373109 -44.472592 18.464967 0.000000 0.028401
421.000000 55.471000 -1.000000 14.000000 1.000000 136.171018 -24.211755 1458.971257 -288.352200 18.011474 0.000000 0.088133
423.000000 47.156000 -4.000000 15.000000 1.000000 121.296154 -4.691270 1063.322393 284.502424 21.192448 0.000000 0.098384
424.000000 49.063000 -3.000000 15.000000 1.000000 126.654616 -10.173449 1168.141047 127.286818 20.366830 0.000000 0.059794
425.000000 50.620000 -2.000000 15.000000 1.000000 131.625694 -16.905979 1302.125896 -58.643587 19.738720 0.000000 0.028942
426.000000 51.762000 -1.000000 15.000000 1.000000 135.950231 -25.110678 1479.417713 -287.727002 19.302286 0.000000 0.093213
428.000000 46.226000 -3.000000 16.000000 1.000000 127.231963 -11.617513 1196.274356 105.995295 21.616820 0.000000 0.053044
429.000000 47.544000 -2.000000 16.000000 1.000000 131.789232 -18.109539 1326.985545 -71.089070 21.015915 0.000000 0.031138
430.000000 48.514000 -1.000000 16.000000 1.000000 135.748863 -25.890888 1497.408902 -287.067680 20.594411 0.000000 0.097786
432.000000 45.648000 -1.000000 17.000000 1.000000 135.564924 -26.574202 1513.362029 -286.397911 21.887622 0.000000 0.101922
439.000000 66.619000 -5.000000 3.000000 2.000000 56.731001 42.556065 -13.181239 1899.654114 15.016219 0.000000 0.291687
440.000000 92.488000 -4.000000 3.000000 2.000000 69.940115 44.212788 -72.117941 1489.323400 10.813988 0.000000 0.230832
441.000000 128.474000 -3.000000 3.000000 2.000000 87.402830 46.887548 -174.652247 1012.434952 7.782659 0.000000 0.197310
443.000000 73.636000 -5.000000 4.000000 2.000000 70.056747 38.275316 125.746632 1438.465960 13.583101 0.000000 0.165594
444.000000 123.677000 -3.000000 4.000000 2.000000 100.818712 39.917095 74.532542 672.831206 8.082754 0.000000 0.073956
445.000000 153.656000 -2.000000 4.000000 2.000000 121.731620 41.810553 12.325096 48.062654 6.503497 0.000000 0.173924
446.000000 48.758000 -7.000000 5.000000 2.000000 60.678131 34.541991 234.121452 1674.908594 20.516959 0.000000 0.175699
447.000000 60.689000 -6.000000 5.000000 2.000000 69.818829 34.380270 238.590198 1420.333353 16.481258 0.000000 0.141305
448.000000 75.656000 -5.000000 5.000000 2.000000 80.869959 34.158666 244.685668 1150.034694 13.218152 0.000000 0.115640
449.000000 93.777000 -4.000000 5.000000 2.000000 94.217437 33.836378 253.493755 845.449242 10.661443 0.000000 0.082875
450.000000 114.200000 -3.000000 5.000000 2.000000 110.166971 33.324662 267.343442 467.916430 8.752287 0.000000 0.021108
451.000000 134.335000 -2.000000 5.000000 2.000000 128.746991 32.387250 292.298809 -81.828442 7.438198 0.000000 0.099471
452.000000 51.421000 -7.000000 6.000000 2.000000 69.503244 31.651662 311.520833 1413.644384 19.451948 0.000000 0.129971
453.000000 74.631000 -5.000000 6.000000 2.000000 89.543802 30.236627 347.660319 950.919297 13.397779 0.000000 0.106198
454.000000 103.903000 -3.000000 6.000000 2.000000 116.693494 27.237594 420.966859 332.343382 9.618658 0.000000 0.031663
455.000000 117.763000 -2.000000 6.000000 2.000000 132.931004 24.005627 495.676262 -155.041813 8.484529 0.000000 0.062148
457.000000 52.415000 -7.000000 7.000000 2.000000 77.070601 28.872192 381.535011 1223.158127 19.081019 0.000000 0.119071
458.000000 61.597000 -6.000000 7.000000 2.000000 86.123803 27.874071 405.754994 1023.496664 16.234119 0.000000 0.117687
459.000000 71.965000 -5.000000 7.000000 2.000000 96.483642 26.529703 437.682631 804.287614 13.892532 0.000000 0.109815
460.000000 83.124000 -4.000000 7.000000 2.000000 108.224108 24.623787 481.693407 551.181728 12.024871 0.000000 0.086910
461.000000 94.257000 -3.000000 7.000000 2.000000 121.293897 21.720351 546.247603 236.759606 10.602297 0.000000 0.045815
462.000000 104.095000 -2.000000 7.000000 2.000000 135.408455 16.797039 650.108284 -199.406346 9.598263 0.000000 0.040642
464.000000 52.253000 -7.000000 8.000000 2.000000 83.532618 26.209629 445.172861 1076.989472 19.137870 0.000000 0.122906
465.000000 68.537000 -5.000000 8.000000 2.000000 102.051248 23.049078 517.051759 691.285452 14.585988 0.000000 0.114398
466.000000 85.692000 -3.000000 8.000000 2.000000 124.576761 16.784424 650.366834 166.148216 11.661428 0.000000 0.052514
468.000000 51.339000 -7.000000 9.000000 2.000000 89.045792 23.667514 503.267505 960.572579 19.476985 0.000000 0.129730
469.000000 57.931000 -6.000000 9.000000 2.000000 97.387962 21.998051 540.191480 790.485778 17.257999 0.000000 0.128379
470.000000 64.855000 -5.000000 9.000000 2.000000 106.543172 19.797979 587.553099 601.221391 15.412786 0.000000 0.116991
471.000000 71.782000 -4.000000 9.000000 2.000000 116.453165 16.777603 650.506624 381.668094 13.923138 0.000000 0.092440
472.000000 78.238000 -3.000000 9.000000 2.000000 126.949712 12.404707 738.268662 112.082807 12.772012 0.000000 0.054316
473.000000 83.653000 -2.000000 9.000000 2.000000 137.675243 5.619296 869.102455 -246.512336 11.943434 0.000000 0.014896
475.000000 49.962000 -7.000000 10.000000 2.000000 93.755531 21.247182 556.512981 865.199091 20.012123 0.000000 0.135450
476.000000 61.196000 -5.000000 10.000000 2.000000 110.193030 16.773329 650.594197 527.559170 16.333399 0.000000 0.117410
477.000000 71.788000 -3.000000 10.000000 2.000000 128.686318 8.535324 813.468311 69.495269 13.919237 0.000000 0.053169
479.000000 48.324000 -7.000000 11.000000 2.000000 97.789841 18.948111 605.492105 785.324881 20.688931 0.000000 0.139166
480.000000 53.009000 -6.000000 11.000000 2.000000 105.248466 16.770401 650.654206 634.566433 18.857699 0.000000 0.132268
481.000000 57.699000 -5.000000 11.000000 2.000000 113.181642 13.967419 707.299680 466.065505 17.322516 0.000000 0.116073
482.000000 62.181000 -4.000000 11.000000 2.000000 121.486052 10.246289 780.446277 271.123310 16.071522 0.000000 0.088917
483.000000 66.202000 -3.000000 11.000000 2.000000 129.971804 5.121640 878.533532 35.167476 15.093479 0.000000 0.050313
484.000000 69.489000 -2.000000 11.000000 2.000000 138.308599 -2.231466 1016.939034 -268.288306 14.377735 0.000000 0.007635
486.000000 46.560000 -7.000000 12.000000 2.000000 101.258000 16.768269 650.697895 717.241167 21.471449 0.000000 0.140964
487.000000 54.427000 -5.000000 12.000000 2.000000 115.648104 11.369410 758.578943 413.870593 18.363183 0.000000 0.113446
488.000000 61.345000 -3.000000 12.000000 2.000000 130.933065 2.107996 935.383672 6.964826 16.288213 0.000000 0.046542
490.000000 48.131000 -6.000000 13.000000 2.000000 110.848035 12.162664 743.030973 521.709647 20.766833 0.000000 0.129628
491.000000 51.401000 -5.000000 13.000000 2.000000 117.699440 8.966576 805.175285 368.955580 19.443611 0.000000 0.109912
492.000000 54.437000 -4.000000 13.000000 2.000000 124.694758 4.856431 883.553433 193.199560 18.356939 0.000000 0.080902
493.000000 57.100000 -3.000000 13.000000 2.000000 131.658181 -0.557994 985.482187 -16.580384 17.498858 0.000000 0.042389
494.000000 59.252000 -2.000000 13.000000 2.000000 138.316884 -7.853226 1123.452706 -279.166699 16.861761 0.000000 0.021633
496.000000 48.619000 -5.000000 14.000000 2.000000 119.418300 6.745275 847.702176 329.856100 20.555353 0.000000 0.105766
497.000000 53.369000 -3.000000 14.000000 2.000000 132.209113 -2.923453 1029.964413 -36.508196 18.722105 0.000000 0.038229
499.000000 46.070000 -5.000000 15.000000 2.000000 120.868866 4.691650 886.670412 295.482316 21.692197 0.000000 0.101223
500.000000 48.214000 -4.000000 15.000000 2.000000 126.819059 0.406618 967.361611 135.250207 20.725548 0.000000 0.071207
501.000000 50.070000 -3.000000 15.000000 2.000000 132.630035 -5.029641 1069.724643 -53.574751 19.955501 0.000000 0.034355
502.000000 51.563000 -2.000000 15.000000 2.000000 138.086480 -12.003630 1203.844681 -284.782710 19.376353 0.000000 0.034785
504.000000 47.137000 -3.000000 16.000000 2.000000 132.952852 -6.912117 1105.476873 -68.342077 21.197193 0.000000 0.031017
506.000000 45.598000 -2.000000 17.000000 2.000000 137.773288 -15.162907 1266.674597 -287.649888 21.911074 0.000000 0.046255
514.000000 59.516000 -6.000000 4.000000 3.000000 64.502346 46.022160 -140.398350 1680.237699 16.806338 0.000000 0.292334
515.000000 75.632000 -5.000000 4.000000 3.000000 75.434211 47.984120 -219.679859 1358.827943 13.222708 0.000000 0.265040
516.000000 95.672000 -4.000000 4.000000 3.000000 88.749074 50.832203 -346.182583 978.210989 10.450547 0.000000 0.280189
518.000000 51.384000 -7.000000 5.000000 3.000000 65.575336 41.490133 23.105629 1593.525951 19.466039 0.000000 0.219073
519.000000 63.041000 -6.000000 5.000000 3.000000 74.941031 42.421381 -8.528495 1333.276242 15.864276 0.000000 0.183385
520.000000 77.207000 -5.000000 5.000000 3.000000 86.089299 43.698451 -53.473494 1042.767335 12.950912 0.000000 0.153086
521.000000 93.676000 -4.000000 5.000000 3.000000 99.279290 45.555498 -122.369203 689.863228 10.671476 0.000000 0.154911
523.000000 53.646000 -7.000000 6.000000 3.000000 74.266915 38.456960 120.196134 1328.195582 18.643001 0.000000 0.150862
524.000000 75.976000 -5.000000 6.000000 3.000000 94.701857 39.517694 87.213068 826.248385 13.159028 0.000000 0.086479
525.000000 89.128000 -4.000000 6.000000 3.000000 107.366188 40.406375 58.795269 498.967529 11.214621 0.000000 0.079477
526.000000 46.498000 -8.000000 7.000000 3.000000 73.590473 35.514453 206.877047 1330.406843 21.509690 0.000000 0.136493
527.000000 54.332000 -7.000000 7.000000 3.000000 81.730765 35.506147 207.112525 1133.154744 18.405595 0.000000 0.115413
528.000000 63.290000 -6.000000 7.000000 3.000000 91.035339 35.495299 207.419975 917.109403 15.797760 0.000000 0.089575
529.000000 73.200000 -5.000000 7.000000 3.000000 101.621582 35.480534 207.838345 669.170755 13.656529 0.000000 0.052278
530.000000 83.604000 -4.000000 7.000000 3.000000 113.553432 35.459259 208.440873 364.985559 11.954559 0.000000 0.033262
531.000000 93.679000 -3.000000 7.000000 3.000000 126.796158 35.425954 209.383464 -46.965045 10.666606 0.000000 0.118501
533.000000 47.029000 -8.000000 8.000000 3.000000 80.086651 32.986976 276.394103 1165.252619 21.264757 0.000000 0.116328
534.000000 53.930000 -7.000000 8.000000 3.000000 88.107658 32.649342 285.374402 983.233785 18.541006 0.000000 0.101868
535.000000 61.557000 -6.000000 8.000000 3.000000 97.117857 32.210604 296.943106 782.152275 16.240858 0.000000 0.080106
536.000000 69.695000 -5.000000 8.000000 3.000000 107.176878 31.617437 312.407738 550.317100 14.341955 0.000000 0.044828
537.000000 77.933000 -4.000000 8.000000 3.000000 118.292208 30.771125 334.134789 266.740299 12.823488 0.000000 0.009839
538.000000 85.649000 -3.000000 8.000000 3.000000 130.388983 29.466439 366.893968 -110.682938 11.666059 0.000000 0.084340
540.000000 46.816000 -8.000000 9.000000 3.000000 85.743805 30.539126 340.023837 1034.000269 21.359513 0.000000 0.110859
541.000000 52.821000 -7.000000 9.000000 3.000000 93.545473 29.895609 356.213094 864.077953 18.928394 0.000000 0.100025
542.000000 65.946000 -5.000000 9.000000 3.000000 111.647160 27.950063 403.926900 457.435108 15.156315 0.000000 0.050651
543.000000 72.512000 -4.000000 9.000000 3.000000 121.934341 26.379561 441.201341 192.197926 13.781542 0.000000 0.018898
545.000000 46.092000 -8.000000 10.000000 3.000000 90.664191 28.175696 398.483753 926.845426 21.693111 0.000000 0.112139
546.000000 51.284000 -7.000000 10.000000 3.000000 98.183869 27.251477 420.636920 766.887356 19.494051 0.000000 0.102551
547.000000 56.724000 -6.000000 10.000000 3.000000 106.385766 26.065928 448.522295 588.685659 17.621999 0.000000 0.084969
548.000000 62.220000 -5.000000 10.000000 3.000000 115.259030 24.491585 484.695341 382.968858 16.062966 0.000000 0.057937
549.000000 67.502000 -4.000000 10.000000 3.000000 124.746736 22.303824 533.495631 134.067775 14.803750 0.000000 0.029255
550.000000 72.234000 -3.000000 10.000000 3.000000 134.723573 19.069887 602.933067 -186.854590 13.831880 0.000000 0.046753
552.000000 49.512000 -7.000000 11.000000 3.000000 102.147375 24.721107 479.479493 685.957967 20.190461 0.000000 0.105805
553.000000 54.107000 -6.000000 11.000000 3.000000 109.906597 23.220184 513.250802 516.892557 18.473257 0.000000 0.088614
554.000000 58.657000 -5.000000 11.000000 3.000000 118.191965 21.247676 556.502294 322.013249 17.037952 0.000000 0.063358
555.000000 62.950000 -4.000000 11.000000 3.000000 126.929617 18.547830 613.877615 87.703528 15.873673 0.000000 0.035519
556.000000 66.741000 -3.000000 11.000000 3.000000 135.980982 14.649907 693.644999 -210.222398 14.970096 0.000000 0.035259
558.000000 47.633000 -7.000000 12.000000 3.000000 105.543408 22.306542 533.435984 617.424545 20.985617 0.000000 0.108412
559.000000 55.320000 -5.000000 12.000000 3.000000 120.586591 18.217851 620.760822 271.249845 18.064946 0.000000 0.066626
560.000000 58.847000 -4.000000 12.000000 3.000000 128.632708 15.103958 684.513742 50.019895 16.980045 0.000000 0.038735
562.000000 45.732000 -7.000000 13.000000 3.000000 108.462850 20.008000 583.090719 558.571250 21.857172 0.000000 0.109988
563.000000 49.047000 -6.000000 13.000000 3.000000 115.354299 17.990430 625.489534 404.772371 20.377285 0.000000 0.092279
564.000000 52.232000 -5.000000 13.000000 3.000000 122.552673 15.396904 678.601737 228.356094 19.132439 0.000000 0.068090
565.000000 55.160000 -4.000000 13.000000 3.000000 129.968089 11.956773 747.075147 18.897108 18.114889 0.000000 0.039834
566.000000 57.694000 -3.000000 13.000000 3.000000 137.454130 7.217386 838.700596 -241.048683 17.317229 0.000000 0.018332
569.000000 46.697000 -6.000000 14.000000 3.000000 117.465864 15.601559 674.461676 360.129390 21.402080 0.000000 0.092346
570.000000 49.392000 -5.000000 14.000000 3.000000 124.175912 12.776267 730.940721 191.659545 20.232084 0.000000 0.068161
571.000000 51.846000 -4.000000 14.000000 3.000000 131.019938 9.086195 802.871556 -7.163748 19.272398 0.000000 0.039494
572.000000 53.957000 -3.000000 14.000000 3.000000 137.854397 4.113249 897.600100 -251.325418 18.516629 0.000000 0.011750
575.000000 46.788000 -5.000000 15.000000 3.000000 125.523386 10.345188 778.527162 159.926374 21.357681 0.000000 0.067192
576.000000 48.864000 -4.000000 15.000000 3.000000 131.851774 6.469927 852.943970 -29.249015 20.448242 0.000000 0.038199
579.000000 46.174000 -4.000000 16.000000 3.000000 132.511798 4.085172 898.130228 -48.163012 21.639130 0.000000 0.036305
580.000000 47.686000 -3.000000 16.000000 3.000000 138.262660 -1.103321 995.728307 -265.646062 20.951772 0.000000 0.006064
589.000000 52.563000 -7.000000 5.000000 4.000000 69.500549 48.462567 -239.929015 1547.835461 19.027866 0.000000 0.307326
590.000000 63.374000 -6.000000 5.000000 4.000000 78.708530 50.458415 -328.720325 1278.551580 15.779421 0.000000 0.303566
593.000000 54.576000 -7.000000 6.000000 4.000000 78.067143 45.372578 -115.383771 1264.782928 18.323676 0.000000 0.207641
594.000000 75.064000 -5.000000 6.000000 4.000000 98.058682 48.946813 -260.816108 708.970457 13.317645 0.000000 0.225828
595.000000 47.614000 -8.000000 7.000000 4.000000 77.283735 41.533416 21.655633 1265.451624 21.003623 0.000000 0.164034
596.000000 55.119000 -7.000000 7.000000 4.000000 85.460826 42.327913 -5.311340 1056.577327 18.140986 0.000000 0.139890
597.000000 63.526000 -6.000000 7.000000 4.000000 94.709906 43.365476 -41.573132 819.024436 15.737723 0.000000 0.124498
598.000000 72.601000 -5.000000 7.000000 4.000000 105.099149 44.776657 -92.935881 531.918972 13.767880 0.000000 0.146458
599.000000 81.866000 -4.000000 7.000000 4.000000 116.626055 46.804398 -171.313298 152.705881 12.207421 0.000000 0.239423
600.000000 54.635000 -7.000000 8.000000 4.000000 91.802489 39.344310 92.672474 897.202614 18.299804 0.000000 0.094963
601.000000 69.372000 -5.000000 8.000000 4.000000 110.801349 40.694739 49.412801 401.725460 14.407432 0.000000 0.093036
603.000000 47.690000 -8.000000 9.000000 4.000000 89.330283 36.336626 183.323479 956.618061 20.965962 0.000000 0.094857
604.000000 53.477000 -7.000000 9.000000 4.000000 97.224541 36.435575 180.455444 771.414294 18.694423 0.000000 0.068209
605.000000 59.602000 -6.000000 9.000000 4.000000 105.915099 36.564161 176.717396 558.902287 16.770833 0.000000 0.039633
606.000000 65.840000 -5.000000 9.000000 4.000000 115.413100 36.738045 171.642678 302.895033 15.179467 0.000000 0.057320
607.000000 71.860000 -4.000000 9.000000 4.000000 125.687607 36.986275 164.358236 -26.779960 13.905534 0.000000 0.129867
609.000000 51.907000 -7.000000 10.000000 4.000000 101.855678 33.613296 259.551728 669.694396 19.258680 0.000000 0.056692
610.000000 62.274000 -5.000000 10.000000 4.000000 119.144470 32.936633 277.737458 225.913548 16.047830 0.000000 0.034971
612.000000 45.768000 -8.000000 11.000000 4.000000 98.470468 31.410643 317.752710 753.191220 21.843496 0.000000 0.079753
613.000000 50.107000 -7.000000 11.000000 4.000000 105.813233 30.886720 331.189942 585.797482 19.949049 0.000000 0.055707
614.000000 54.513000 -6.000000 11.000000 4.000000 113.719181 30.212518 348.266936 393.778078 18.334202 0.000000 0.022513
615.000000 58.823000 -5.000000 11.000000 4.000000 122.168007 29.312856 370.694223 164.656933 16.988426 0.000000 0.024477
616.000000 62.835000 -4.000000 11.000000 4.000000 131.109464 28.052719 401.453256 -123.258621 15.901714 0.000000 0.077923
618.000000 48.204000 -7.000000 12.000000 4.000000 109.200276 28.262754 396.377436 515.458035 20.735721 0.000000 0.059405
619.000000 55.563000 -5.000000 12.000000 4.000000 124.623101 25.881410 452.811060 115.028258 17.984576 0.000000 0.023590
621.000000 46.278000 -7.000000 13.000000 4.000000 112.105342 25.746083 455.947963 455.665112 21.597596 0.000000 0.064059
622.000000 49.479000 -6.000000 13.000000 4.000000 119.190770 24.405965 486.636136 280.703305 20.197992 0.000000 0.039796
623.000000 52.525000 -5.000000 13.000000 4.000000 126.621391 22.649997 525.879613 74.197121 19.024370 0.000000 0.026569
624.000000 55.294000 -4.000000 13.000000 4.000000 134.332744 20.254622 577.835442 -179.820837 18.069516 0.000000 0.050151
627.000000 49.715000 -5.000000 14.000000 4.000000 128.251940 19.620385 591.317307 40.154031 20.099076 0.000000 0.029640
629.000000 47.128000 -5.000000 15.000000 4.000000 129.585710 16.789627 650.260205 11.438458 21.202145 0.000000 0.031770
630.000000 49.109000 -4.000000 15.000000 4.000000 136.230613 13.622077 714.177975 -215.070256 20.345153 0.000000 0.032787
638.000000 46.641000 -8.000000 6.000000 5.000000 72.954635 50.267868 -319.924419 1457.252595 21.442300 0.000000 0.327604
642.000000 47.903000 -8.000000 7.000000 5.000000 80.215149 47.569664 -202.440049 1216.110578 20.875119 0.000000 0.235284
643.000000 54.873000 -7.000000 7.000000 5.000000 88.211655 49.149375 -269.673868 992.376406 18.221019 0.000000 0.240809
644.000000 62.502000 -6.000000 7.000000 5.000000 97.120208 51.196532 -363.474213 726.454645 15.994492 0.000000 0.283433
646.000000 48.247000 -8.000000 8.000000 5.000000 86.606882 44.896431 -97.410219 1031.083841 20.724224 0.000000 0.167430
647.000000 54.443000 -7.000000 8.000000 5.000000 94.557215 46.121148 -144.261801 817.232446 18.363252 0.000000 0.168243
648.000000 61.046000 -6.000000 8.000000 5.000000 103.319842 47.710927 -208.285224 562.296496 16.374263 0.000000 0.203487
650.000000 47.919000 -8.000000 9.000000 5.000000 92.206270 42.259253 -2.954158 884.974503 20.864452 0.000000 0.117196
651.000000 53.360000 -7.000000 9.000000 5.000000 100.013996 43.132329 -33.318087 680.576723 18.734399 0.000000 0.114442
652.000000 59.026000 -6.000000 9.000000 5.000000 108.535227 44.265831 -74.059227 437.083784 16.933377 0.000000 0.146099
653.000000 64.695000 -5.000000 9.000000 5.000000 117.753294 45.795241 -131.593776 128.715429 15.447138 0.000000 0.224084
655.000000 47.121000 -8.000000 10.000000 5.000000 97.097288 39.668312 82.448366 766.907982 21.216246 0.000000 0.080359
656.000000 51.865000 -7.000000 10.000000 5.000000 104.695362 40.198023 65.524472 571.452155 19.272750 0.000000 0.074059
657.000000 56.709000 -6.000000 10.000000 5.000000 112.913437 40.884853 43.182582 339.246000 17.624133 0.000000 0.104661
659.000000 46.011000 -8.000000 11.000000 5.000000 101.363519 37.132684 160.039484 669.681445 21.726617 0.000000 0.054691
660.000000 50.134000 -7.000000 11.000000 5.000000 108.707906 37.331655 154.143378 482.625750 19.936946 0.000000 0.043487
661.000000 54.272000 -6.000000 11.000000 5.000000 116.586092 37.588965 146.472013 261.246788 18.414368 0.000000 0.074924
662.000000 58.269000 -5.000000 11.000000 5.000000 124.975405 37.934663 136.081529 -13.645998 17.149178 0.000000 0.137390
664.000000 48.288000 -7.000000 12.000000 5.000000 112.147631 34.544686 234.046835 409.145182 20.698232 0.000000 0.020254
665.000000 51.829000 -6.000000 12.000000 5.000000 119.667267 34.395873 238.159798 197.996140 19.281608 0.000000 0.054163
666.000000 55.203000 -5.000000 12.000000 5.000000 127.616968 34.196941 243.635170 -61.726931 18.100831 0.000000 0.110348
669.000000 46.407000 -7.000000 13.000000 5.000000 115.098768 31.846464 306.460298 347.514919 21.535990 0.000000 0.003249
670.000000 49.447000 -6.000000 13.000000 5.000000 122.253974 31.319668 320.096674 145.950206 20.209674 0.000000 0.040624
671.000000 52.311000 -5.000000 13.000000 5.000000 129.765997 30.620063 337.972536 -99.774730 19.100976 0.000000 0.089993
674.000000 47.166000 -6.000000 14.000000 5.000000 124.427789 28.370756 393.759602 102.576937 21.186623 0.000000 0.032973
675.000000 49.611000 -5.000000 14.000000 5.000000 131.512720 27.219840 421.388658 -130.287266 20.140185 0.000000 0.074383
687.000000 47.565000 -8.000000 9.000000 6.000000 94.355993 48.183113 -228.055828 818.038534 21.018265 0.000000 0.209384
688.000000 52.571000 -7.000000 9.000000 6.000000 101.911980 49.806985 -298.937258 589.189807 19.014371 0.000000 0.251700
689.000000 51.237000 -7.000000 10.000000 6.000000 106.684178 46.838982 -172.700796 469.427212 19.508019 0.000000 0.192559
691.000000 45.801000 -8.000000 11.000000 6.000000 103.592372 42.959974 -27.255871 585.410136 21.825010 0.000000 0.112586
692.000000 49.650000 -7.000000 11.000000 6.000000 110.798875 43.905038 -60.923429 373.578393 20.130257 0.000000 0.147774
693.000000 53.466000 -6.000000 11.000000 6.000000 118.473720 45.125001 -106.000823 113.658505 18.691181 0.000000 0.214546
695.000000 47.928000 -7.000000 12.000000 6.000000 114.342465 41.019617 38.744491 295.624413 20.852646 0.000000 0.113761
697.000000 46.151000 -7.000000 13.000000 6.000000 117.392724 38.195734 128.169671 231.339117 21.654557 0.000000 0.088019
698.000000 48.995000 -6.000000 13.000000 6.000000 124.479873 38.571763 116.673691 -4.425535 20.395339 0.000000 0.142728
709.000000 46.114000 -8.000000 10.000000 7.000000 100.779597 51.375252 -372.056822 612.721708 21.677226 0.000000 0.292686
713.000000 47.183000 -7.000000 12.000000 7.000000 115.785326 47.527723 -200.710692 170.953708 21.181018 0.000000 0.251201
715.000000 45.554000 -7.000000 13.000000 7.000000 118.973607 44.647613 -88.135935 103.333060 21.937573 0.000000 0.208048
#UB matrix in q= (UB) B0 G* 
#[[-0.133943935 -0.912146119 -0.384408589]
# [-0.576410836 -0.243915641  0.779631369]
# [-0.806107667  0.326442104 -0.493855082]]
#B0 matrix in q= UB (B0) G*
#[[ 0.19670273 -0.          0.03056101]
# [ 0.          0.19187965 -0.        ]
# [ 0.          0.          0.18806537]]
#UBB0 matrix in q= (UB B0) G* i.e. recip. basis vectors are columns in LT frame: astar = UBB0[:,0], bstar = UBB0[:,1], cstar = UBB0[:,2]. (abcstar as columns on xyzlab1, xlab1 = ui, ui = unit vector along incident beam)
#[[-0.02634714 -0.17502228 -0.07638741]
# [-0.11338159 -0.04680245  0.12900597]
# [-0.15856358  0.0626376  -0.1175125 ]]
#Euler angles phi theta psi (deg)
#[247.953 119.576  26.287]
#deviatoric strain in direct crystal frame (10-3 unit)
#[[ 1.16  0.13 -0.26]
# [ 0.13  2.09  0.75]
# [-0.26  0.75 -3.24]]
#deviatoric strain in sample2 frame (10-3 unit)
#[[ 0.06  2.13 -1.21]
# [ 2.13 -1.48  0.82]
# [-1.21  0.82  1.42]]
#new lattice parameters
#[ 5.1505     5.2164375  5.3184585 89.9574059 99.243566  89.9855906]
#CCDLabel
#sCMOS
#DetectorParameters
#[79.0, 975.0, 941.0, 0.0, 0.0]
#pixelsize
#0.0734
#Frame dimensions
#[2018, 2016]
#
