#Strain and Orientation Refinement from experimental file: /home/micha/LaueProjects/DepthEffects/testZrO2_53.cor
#File created at Wed Jun 28 14:21:31 2023 with indexingSpotsSet.py
#Number of indexed spots: 510
#Element
#ZrO2
#grainIndex
#G_0
#Mean Deviation(pixel): 0.114
##spot_index intensity h k l 2theta Chi Xexp Yexp Energy GrainIndex PixDev
14.000000 49.527000 -6.000000 -1.000000 0.000000 43.070691 -16.365039 1291.057143 2140.947656 20.208516 0.000000 0.221351
15.000000 56.504000 -5.000000 -1.000000 0.000000 41.092884 -14.746991 1258.304187 2217.125086 17.713262 0.000000 0.246708
18.000000 45.463000 -2.000000 0.000000 0.000000 52.648817 -25.008171 1477.071143 1847.415718 5.502933 0.000000 0.158804
19.000000 50.218000 -8.000000 1.000000 0.000000 59.137687 -31.971066 1646.787811 1699.193888 19.924811 0.000000 0.168247
20.000000 58.017000 -7.000000 1.000000 0.000000 59.994731 -32.988207 1673.638758 1681.991445 17.246099 0.000000 0.171720
21.000000 68.586000 -6.000000 1.000000 0.000000 61.106667 -34.350269 1710.582727 1660.453025 14.588271 0.000000 0.177003
22.000000 83.643000 -5.000000 1.000000 0.000000 62.601781 -36.265785 1764.627630 1632.886651 11.961824 0.000000 0.185721
23.000000 106.595000 -4.000000 1.000000 0.000000 64.703317 -39.149410 1851.222882 1596.943623 9.385709 0.000000 0.202313
24.000000 145.027000 -3.000000 1.000000 0.000000 67.811843 -43.947107 2012.446833 1550.694136 6.897979 0.000000 0.243868
25.000000 46.902000 -9.000000 2.000000 0.000000 63.557129 -37.546525 1802.259060 1616.128149 21.331498 0.000000 0.192509
26.000000 61.550000 -7.000000 2.000000 0.000000 66.096808 -41.209675 1917.545480 1575.078674 16.254173 0.000000 0.217565
27.000000 87.578000 -5.000000 2.000000 0.000000 69.936500 -47.739512 2159.471861 1525.519181 11.422308 0.000000 0.295993
29.000000 54.656000 -8.000000 3.000000 0.000000 69.177430 -46.324532 2102.243521 1533.741375 18.302962 0.000000 0.274035
30.000000 62.580000 -7.000000 3.000000 0.000000 70.749265 -49.343555 2228.233320 1517.917347 15.984787 0.000000 0.325126
36.000000 46.487000 -7.000000 -2.000000 1.000000 48.036902 -5.698168 1082.393692 1913.651386 21.529378 0.000000 0.118885
37.000000 52.305000 -6.000000 -2.000000 1.000000 46.862885 -2.728638 1026.295926 1950.631624 19.135108 0.000000 0.131294
38.000000 59.236000 -5.000000 -2.000000 1.000000 45.098238 1.245009 951.608980 2013.863099 16.896421 0.000000 0.156393
39.000000 66.979000 -4.000000 -2.000000 1.000000 42.279281 6.768591 847.258041 2132.999500 14.943268 0.000000 0.205860
42.000000 49.100000 -8.000000 -1.000000 1.000000 56.939515 -14.144011 1246.225512 1663.472199 20.380863 0.000000 0.070883
43.000000 56.440000 -7.000000 -1.000000 1.000000 57.410166 -12.562691 1214.844519 1645.926800 17.730459 0.000000 0.061958
44.000000 66.224000 -6.000000 -1.000000 1.000000 57.977521 -10.454192 1173.589428 1625.492986 15.110871 0.000000 0.051327
45.000000 79.809000 -5.000000 -1.000000 1.000000 58.654703 -7.512190 1116.929796 1602.238552 12.538723 0.000000 0.038901
46.000000 99.619000 -4.000000 -1.000000 1.000000 59.414610 -3.151323 1034.256982 1578.111704 10.045232 0.000000 0.026459
47.000000 130.015000 -3.000000 -1.000000 1.000000 60.030155 3.863268 902.318804 1563.057257 7.696688 0.000000 0.027600
48.000000 176.704000 -2.000000 -1.000000 1.000000 59.275760 16.392157 658.389452 1607.775488 5.662979 0.000000 0.070055
49.000000 46.009000 -10.000000 1.000000 1.000000 67.772358 -27.649313 1538.853091 1437.535525 21.745572 0.000000 0.118535
50.000000 52.203000 -9.000000 1.000000 1.000000 69.449809 -27.971037 1546.578136 1397.852209 19.164526 0.000000 0.118652
51.000000 60.208000 -8.000000 1.000000 1.000000 71.541219 -28.381911 1556.511089 1349.345988 16.615955 0.000000 0.118969
52.000000 70.897000 -7.000000 1.000000 1.000000 74.218803 -28.924882 1569.756343 1288.532166 14.110121 0.000000 0.119215
53.000000 85.774000 -6.000000 1.000000 1.000000 77.763320 -29.675686 1588.302225 1209.661589 11.662114 0.000000 0.118519
54.000000 107.606000 -5.000000 1.000000 1.000000 82.662148 -30.781396 1616.126578 1102.325849 9.295082 0.000000 0.114372
55.000000 141.926000 -4.000000 1.000000 1.000000 89.829165 -32.569626 1662.515252 944.807966 7.046425 0.000000 0.099432
56.000000 48.181000 -10.000000 2.000000 1.000000 72.633833 -33.717016 1693.260962 1345.660580 20.762775 0.000000 0.131687
57.000000 54.652000 -9.000000 2.000000 1.000000 74.730780 -34.791309 1722.801903 1298.777175 18.303599 0.000000 0.130703
58.000000 62.929000 -8.000000 2.000000 1.000000 77.300214 -36.164119 1761.693741 1241.433734 15.895421 0.000000 0.129019
59.000000 73.801000 -7.000000 2.000000 1.000000 80.511048 -37.977447 1815.211212 1169.221839 13.552862 0.000000 0.126806
60.000000 88.533000 -6.000000 2.000000 1.000000 84.613076 -40.477609 1893.514974 1074.426207 11.296724 0.000000 0.126938
61.000000 109.201000 -5.000000 2.000000 1.000000 89.975586 -44.127768 2019.013675 941.638935 9.157642 0.000000 0.145864
62.000000 139.207000 -4.000000 2.000000 1.000000 97.106667 -49.892029 2252.779691 732.709918 7.182671 0.000000 0.247243
63.000000 49.336000 -10.000000 3.000000 1.000000 76.703430 -39.906541 1875.130496 1272.586269 20.274611 0.000000 0.152998
64.000000 55.702000 -9.000000 3.000000 1.000000 78.996789 -41.733960 1935.088154 1221.435204 17.956570 0.000000 0.159737
65.000000 63.671000 -8.000000 3.000000 1.000000 81.723220 -44.053552 2016.311136 1158.853122 15.708263 0.000000 0.174660
66.000000 73.819000 -7.000000 3.000000 1.000000 84.989112 -47.083244 2132.551511 1079.588313 13.547991 0.000000 0.209137
67.000000 86.950000 -6.000000 3.000000 1.000000 88.910132 -51.179874 2312.677643 973.662682 11.501073 0.000000 0.289600
69.000000 49.544000 -10.000000 4.000000 1.000000 79.929535 -46.076126 2092.502906 1216.543161 20.187815 0.000000 0.212161
70.000000 55.502000 -9.000000 4.000000 1.000000 82.204065 -48.598887 2195.768408 1163.819122 18.019811 0.000000 0.249394
71.000000 62.745000 -8.000000 4.000000 1.000000 84.796138 -51.758220 2340.675715 1099.362800 15.938899 0.000000 0.316523
73.000000 48.951000 -10.000000 5.000000 1.000000 82.329559 -52.086689 2356.898441 1176.903580 20.431182 0.000000 0.334466
77.000000 45.655000 -7.000000 -3.000000 2.000000 49.687731 5.609976 869.279218 1858.554958 21.921224 0.000000 0.094770
78.000000 50.173000 -6.000000 -3.000000 2.000000 48.220042 9.905323 787.053542 1917.192675 19.947489 0.000000 0.123771
79.000000 54.763000 -5.000000 -3.000000 2.000000 45.976063 15.372286 679.099190 2019.831165 18.275708 0.000000 0.171827
80.000000 58.446000 -4.000000 -3.000000 2.000000 42.468901 22.412873 531.100591 2212.930970 17.124094 0.000000 0.253443
83.000000 56.561000 -7.000000 -2.000000 2.000000 59.774258 -0.098030 976.841478 1568.066668 17.692293 0.000000 0.023555
84.000000 75.566000 -5.000000 -2.000000 2.000000 60.001925 9.146747 801.704808 1570.353153 13.242370 0.000000 0.041413
85.000000 101.952000 -3.000000 -2.000000 2.000000 56.916397 26.521883 437.866114 1724.657682 9.814998 0.000000 0.135471
88.000000 50.337000 -9.000000 -1.000000 2.000000 66.641194 -11.169703 1187.520627 1414.810739 19.877504 0.000000 0.086292
89.000000 57.566000 -8.000000 -1.000000 2.000000 68.157095 -9.311727 1151.476149 1378.183106 17.380887 0.000000 0.093036
90.000000 66.967000 -7.000000 -1.000000 2.000000 70.005811 -6.896635 1105.181782 1335.469693 14.940361 0.000000 0.102345
91.000000 79.550000 -6.000000 -1.000000 2.000000 72.284012 -3.643798 1043.540737 1285.516731 12.576735 0.000000 0.114136
92.000000 96.917000 -5.000000 -1.000000 2.000000 75.094920 0.936540 957.405645 1227.520223 10.322559 0.000000 0.127373
93.000000 121.524000 -4.000000 -1.000000 2.000000 78.461217 7.748214 828.556942 1162.757964 8.231779 0.000000 0.138188
94.000000 156.274000 -3.000000 -1.000000 2.000000 81.937032 18.506185 614.747774 1101.783929 6.400754 0.000000 0.133972
95.000000 199.234000 -2.000000 -1.000000 2.000000 83.145401 36.083930 190.615023 1101.093857 5.020154 0.000000 0.109979
96.000000 48.682000 -10.000000 0.000000 2.000000 71.777673 -18.267589 1330.275005 1314.137389 20.550762 0.000000 0.112474
97.000000 55.390000 -9.000000 0.000000 2.000000 73.865210 -17.419995 1312.702712 1267.331367 18.061354 0.000000 0.119391
98.000000 64.047000 -8.000000 0.000000 2.000000 76.449916 -16.330443 1290.351340 1211.295447 15.619358 0.000000 0.128223
99.000000 75.559000 -7.000000 0.000000 2.000000 79.724994 -14.879349 1260.964421 1142.880141 13.238919 0.000000 0.139041
100.000000 91.426000 -6.000000 0.000000 2.000000 83.990479 -12.854232 1220.599619 1057.216389 10.940430 0.000000 0.151470
101.000000 114.244000 -5.000000 0.000000 2.000000 89.725982 -9.840540 1161.692658 946.224301 8.754416 0.000000 0.163862
102.000000 148.615000 -4.000000 0.000000 2.000000 97.697564 -4.920433 1067.657637 794.987807 6.728704 0.000000 0.170617
103.000000 45.969000 -11.000000 1.000000 2.000000 75.334884 -24.414854 1463.565215 1250.320771 21.761976 0.000000 0.119537
104.000000 51.787000 -10.000000 1.000000 2.000000 77.605762 -24.346093 1462.008252 1200.611976 19.316119 0.000000 0.122650
105.000000 59.128000 -9.000000 1.000000 2.000000 80.371938 -24.259307 1460.045542 1141.268452 16.917196 0.000000 0.125990
106.000000 68.616000 -8.000000 1.000000 2.000000 83.810671 -24.146338 1457.494713 1068.911998 14.576920 0.000000 0.129056
107.000000 81.237000 -7.000000 1.000000 2.000000 88.191905 -23.993236 1454.044840 978.189550 12.311253 0.000000 0.130731
108.000000 98.597000 -6.000000 1.000000 2.000000 93.944367 -23.773996 1449.118940 859.906930 10.142526 0.000000 0.128550
109.000000 123.396000 -5.000000 1.000000 2.000000 101.781932 -23.433970 1441.511939 696.323438 8.102971 0.000000 0.116943
110.000000 160.181000 -4.000000 1.000000 2.000000 112.952669 -22.835460 1428.216474 446.425956 6.240891 0.000000 0.083005
111.000000 47.783000 -11.000000 2.000000 2.000000 80.000298 -30.170150 1600.667785 1160.509408 20.933156 0.000000 0.117158
112.000000 61.338000 -9.000000 2.000000 2.000000 85.877444 -31.556129 1636.005180 1032.037553 16.305568 0.000000 0.109086
113.000000 83.540000 -7.000000 2.000000 2.000000 94.783751 -33.951303 1699.639473 832.416255 11.969993 0.000000 0.082275
114.000000 100.371000 -6.000000 2.000000 2.000000 101.136464 -35.943319 1755.347957 679.299816 9.961529 0.000000 0.054917
115.000000 123.392000 -5.000000 2.000000 2.000000 109.474339 -39.054250 1848.254547 450.891812 8.101807 0.000000 0.062005
116.000000 155.193000 -4.000000 2.000000 2.000000 120.612011 -44.543793 2034.289734 47.481993 6.440459 0.000000 0.212399
117.000000 48.770000 -11.000000 3.000000 2.000000 83.943784 -36.111193 1760.169384 1082.347236 20.507675 0.000000 0.110552
118.000000 54.709000 -10.000000 3.000000 2.000000 86.805201 -37.432789 1798.865534 1016.656331 18.280348 0.000000 0.104648
119.000000 62.025000 -9.000000 3.000000 2.000000 90.198895 -39.104314 1849.815195 936.185258 16.123102 0.000000 0.099038
120.000000 71.166000 -8.000000 3.000000 2.000000 94.267341 -41.281544 1919.933535 834.130363 14.050998 0.000000 0.100762
121.000000 82.744000 -7.000000 3.000000 2.000000 99.191653 -44.224457 2022.544698 697.966821 12.083747 0.000000 0.129888
122.000000 97.559000 -6.000000 3.000000 2.000000 105.182191 -48.394985 2187.045723 501.139831 10.247654 0.000000 0.220928
124.000000 48.975000 -11.000000 4.000000 2.000000 87.107971 -42.115849 1948.047428 1014.299147 20.420205 0.000000 0.131774
125.000000 61.379000 -9.000000 4.000000 2.000000 93.284717 -46.650493 2115.160332 851.013877 16.291557 0.000000 0.178882
127.000000 48.500000 -11.000000 5.000000 2.000000 89.492055 -48.054000 2172.613839 955.275157 20.618801 0.000000 0.214353
128.000000 53.649000 -10.000000 5.000000 2.000000 92.197218 -50.687044 2289.368144 875.820701 18.639033 0.000000 0.270786
133.000000 47.195000 -5.000000 -4.000000 3.000000 44.882736 26.628555 435.360890 2149.939992 21.205568 0.000000 0.246621
135.000000 47.861000 -8.000000 -3.000000 3.000000 60.061375 7.204788 838.941032 1565.795768 20.908038 0.000000 0.035574
136.000000 53.066000 -7.000000 -3.000000 3.000000 59.868952 11.304172 759.853672 1578.043829 18.857239 0.000000 0.048779
137.000000 65.041000 -5.000000 -3.000000 3.000000 57.977328 22.758411 523.486553 1670.967893 15.385107 0.000000 0.106673
138.000000 70.541000 -4.000000 -3.000000 3.000000 55.471982 30.723201 335.353597 1802.392015 14.185464 0.000000 0.176030
140.000000 49.918000 -9.000000 -2.000000 3.000000 68.204022 -0.961377 993.061040 1371.459966 20.044004 0.000000 0.089633
141.000000 56.290000 -8.000000 -2.000000 3.000000 69.395474 2.108841 935.367778 1345.923705 17.774574 0.000000 0.096513
142.000000 64.114000 -7.000000 -2.000000 3.000000 70.660564 5.990396 862.059309 1320.818781 15.605083 0.000000 0.103310
143.000000 73.726000 -6.000000 -2.000000 3.000000 71.903616 10.999269 765.803830 1299.294008 13.570208 0.000000 0.108656
144.000000 85.342000 -5.000000 -2.000000 3.000000 72.885450 17.587980 633.827853 1288.662366 11.722760 0.000000 0.110581
145.000000 98.588000 -4.000000 -2.000000 3.000000 73.061149 26.357504 441.717511 1306.831956 10.147339 0.000000 0.111245
146.000000 111.296000 -3.000000 -2.000000 3.000000 71.315879 37.929194 136.246652 1402.443296 8.988471 0.000000 0.157380
148.000000 49.483000 -10.000000 -1.000000 3.000000 74.248617 -8.559743 1137.000760 1247.993972 20.217975 0.000000 0.123601
149.000000 55.950000 -9.000000 -1.000000 3.000000 76.305238 -6.517296 1097.957381 1204.973916 17.880414 0.000000 0.132798
150.000000 64.068000 -8.000000 -1.000000 3.000000 78.738650 -3.921816 1048.786104 1155.812923 15.614127 0.000000 0.142700
151.000000 74.432000 -7.000000 -1.000000 3.000000 81.628395 -0.530137 984.958851 1099.395110 13.439259 0.000000 0.152400
152.000000 87.861000 -6.000000 -1.000000 3.000000 85.041097 4.050992 898.775547 1034.619584 11.384336 0.000000 0.159750
153.000000 105.378000 -5.000000 -1.000000 3.000000 88.954385 10.475489 775.996869 960.976887 9.491129 0.000000 0.159592
154.000000 127.830000 -4.000000 -1.000000 3.000000 93.021111 19.822562 587.031390 880.618372 7.823353 0.000000 0.138968
155.000000 154.237000 -3.000000 -1.000000 3.000000 95.935234 33.648001 258.611354 806.586894 6.483254 0.000000 0.075613
157.000000 50.107000 -11.000000 1.000000 3.000000 84.079493 -21.071008 1389.681825 1060.611278 19.961823 0.000000 0.136693
158.000000 56.520000 -10.000000 1.000000 3.000000 87.164463 -20.584393 1379.217864 997.944337 17.695678 0.000000 0.140497
159.000000 64.538000 -9.000000 1.000000 3.000000 90.892883 -19.960883 1365.907131 923.153858 15.496245 0.000000 0.143388
160.000000 74.748000 -8.000000 1.000000 3.000000 95.476543 -19.133490 1348.405003 831.775512 13.378291 0.000000 0.144188
161.000000 88.009000 -7.000000 1.000000 3.000000 101.222247 -17.983271 1324.361804 716.485400 11.361296 0.000000 0.140705
162.000000 105.555000 -6.000000 1.000000 3.000000 108.581338 -16.277315 1289.267962 564.068379 9.471480 0.000000 0.128783
163.000000 129.063000 -5.000000 1.000000 3.000000 118.214936 -13.491759 1233.231680 347.146494 7.745010 0.000000 0.100555
164.000000 160.334000 -4.000000 1.000000 3.000000 131.015965 -8.170695 1129.534493 -4.735110 6.233198 0.000000 0.043889
166.000000 46.433000 -12.000000 2.000000 3.000000 85.982037 -26.899996 1521.035157 1025.773626 21.540012 0.000000 0.121842
167.000000 51.807000 -11.000000 2.000000 3.000000 88.942108 -27.114220 1526.104719 963.328554 19.304596 0.000000 0.119696
168.000000 58.374000 -10.000000 2.000000 3.000000 92.455315 -27.383124 1532.495830 889.025232 17.131665 0.000000 0.115090
169.000000 66.516000 -9.000000 2.000000 3.000000 96.683454 -27.730688 1540.802697 798.514308 15.033298 0.000000 0.106395
170.000000 76.765000 -8.000000 2.000000 3.000000 101.852849 -28.197297 1552.038565 684.697636 13.024902 0.000000 0.090818
171.000000 89.853000 -7.000000 2.000000 3.000000 108.285525 -28.856643 1568.084150 534.929557 11.126444 0.000000 0.063427
172.000000 106.746000 -6.000000 2.000000 3.000000 116.444867 -29.858862 1592.868797 323.732419 9.364273 0.000000 0.015924
173.000000 128.563000 -5.000000 2.000000 3.000000 126.993763 -31.563805 1636.203767 -10.651719 7.773885 0.000000 0.072294
175.000000 52.634000 -11.000000 3.000000 3.000000 92.999676 -33.438243 1685.716506 873.412907 18.999416 0.000000 0.089078
176.000000 59.065000 -10.000000 3.000000 3.000000 96.721596 -34.530248 1715.553470 787.027373 16.929512 0.000000 0.074205
177.000000 76.587000 -8.000000 3.000000 3.000000 106.428427 -37.840647 1811.083039 539.147479 13.053779 0.000000 0.046452
178.000000 88.586000 -7.000000 3.000000 3.000000 112.830646 -40.515185 1894.735576 344.985976 11.284409 0.000000 0.094246
179.000000 47.545000 -12.000000 4.000000 3.000000 92.969211 -38.369117 1827.116178 869.795604 21.032438 0.000000 0.086670
180.000000 52.645000 -11.000000 4.000000 3.000000 96.182629 -39.901787 1874.978750 789.017250 18.993736 0.000000 0.083955
181.000000 58.704000 -10.000000 4.000000 3.000000 99.886631 -41.820260 1938.003194 689.289703 17.032283 0.000000 0.094687
182.000000 65.942000 -9.000000 4.000000 3.000000 104.174805 -44.284678 2024.749825 561.270189 15.161357 0.000000 0.132910
183.000000 74.617000 -8.000000 4.000000 3.000000 109.145766 -47.552137 2151.717039 387.358234 13.397465 0.000000 0.213809
185.000000 47.212000 -12.000000 5.000000 3.000000 95.386179 -44.182469 2021.009898 799.493326 21.179667 0.000000 0.133661
186.000000 51.955000 -11.000000 5.000000 3.000000 98.486979 -46.343718 2102.999510 708.353185 19.244974 0.000000 0.167954
187.000000 57.478000 -10.000000 5.000000 3.000000 101.972482 -49.021946 2214.093176 592.961479 17.394392 0.000000 0.229494
193.000000 47.636000 -7.000000 -4.000000 4.000000 58.391443 21.029408 561.215380 1650.625932 21.006677 0.000000 0.095392
194.000000 53.703000 -5.000000 -4.000000 4.000000 54.574876 32.997257 276.119584 1853.836665 18.633177 0.000000 0.202562
196.000000 47.538000 -9.000000 -3.000000 4.000000 68.129942 8.569209 812.817373 1377.891517 21.047167 0.000000 0.088583
197.000000 52.502000 -8.000000 -3.000000 4.000000 68.669161 12.475992 736.864412 1371.461771 19.056897 0.000000 0.092592
198.000000 58.116000 -7.000000 -3.000000 4.000000 68.987832 17.225827 641.299539 1373.827435 17.215791 0.000000 0.096324
199.000000 64.248000 -6.000000 -3.000000 4.000000 68.877526 23.033350 517.400652 1392.812202 15.572457 0.000000 0.102287
200.000000 70.460000 -5.000000 -3.000000 4.000000 67.994101 30.128703 350.373455 1443.925167 14.199198 0.000000 0.122040
201.000000 75.744000 -4.000000 -3.000000 4.000000 65.813514 38.692605 112.953725 1560.338716 13.208448 0.000000 0.189147
204.000000 54.063000 -9.000000 -2.000000 4.000000 76.716752 3.981509 900.087216 1195.707679 18.504187 0.000000 0.133548
205.000000 68.750000 -7.000000 -2.000000 4.000000 80.258075 12.480216 736.781172 1130.257032 14.550159 0.000000 0.139409
206.000000 88.739000 -5.000000 -2.000000 4.000000 83.133404 26.236753 444.539717 1085.495981 11.271478 0.000000 0.118141
207.000000 108.326000 -3.000000 -2.000000 4.000000 80.822757 48.203865 -228.933078 1201.896631 9.232977 0.000000 0.248138
208.000000 47.621000 -11.000000 -1.000000 4.000000 80.288395 -6.260114 1093.065658 1126.303666 21.005908 0.000000 0.147350
209.000000 53.196000 -10.000000 -1.000000 4.000000 82.594085 -4.100405 1052.157373 1081.258238 18.803855 0.000000 0.154881
210.000000 59.968000 -9.000000 -1.000000 4.000000 85.247888 -1.410100 1001.493907 1030.500200 16.679503 0.000000 0.161776
211.000000 68.269000 -8.000000 -1.000000 4.000000 88.297372 2.016030 937.113488 973.012889 14.650590 0.000000 0.166767
212.000000 78.497000 -7.000000 -1.000000 4.000000 91.763988 6.489414 852.573192 907.639484 12.740695 0.000000 0.167374
213.000000 91.061000 -6.000000 -1.000000 4.000000 95.584272 12.487074 736.646033 833.217078 10.981866 0.000000 0.158518
214.000000 106.163000 -5.000000 -1.000000 4.000000 99.468458 20.720209 567.868389 749.086021 9.418788 0.000000 0.129219
215.000000 123.199000 -4.000000 -1.000000 4.000000 102.600570 32.115797 299.428297 656.940358 8.115701 0.000000 0.059495
216.000000 139.472000 -3.000000 -1.000000 4.000000 103.193986 47.362664 -193.931529 568.487535 7.168401 0.000000 0.196726
217.000000 50.870000 -11.000000 0.000000 4.000000 86.634669 -11.510511 1194.180177 1005.589147 19.661798 0.000000 0.157872
218.000000 64.792000 -9.000000 0.000000 4.000000 93.370466 -7.713306 1120.775233 877.034319 15.435087 0.000000 0.168619
219.000000 86.214000 -7.000000 0.000000 4.000000 102.851013 -1.113914 995.927372 695.417584 11.597777 0.000000 0.166938
220.000000 101.136000 -6.000000 0.000000 4.000000 108.943939 4.318507 893.723394 570.527896 9.885439 0.000000 0.151649
221.000000 119.572000 -5.000000 0.000000 4.000000 115.901543 12.500143 736.388479 405.653618 8.360169 0.000000 0.111555
222.000000 141.224000 -4.000000 0.000000 4.000000 122.977251 25.447682 462.839808 167.618743 7.077479 0.000000 0.022458
224.000000 47.841000 -12.000000 1.000000 4.000000 89.259955 -18.115983 1327.119535 955.627527 20.905257 0.000000 0.148054
225.000000 53.333000 -11.000000 1.000000 4.000000 92.449566 -17.313697 1310.510614 892.771904 18.751232 0.000000 0.150827
226.000000 59.998000 -10.000000 1.000000 4.000000 96.209663 -16.301651 1289.764139 818.988135 16.667177 0.000000 0.152144
227.000000 68.178000 -9.000000 1.000000 4.000000 100.692646 -14.986184 1263.114032 730.619740 14.666145 0.000000 0.150842
228.000000 78.327000 -8.000000 1.000000 4.000000 106.100254 -13.209074 1227.622373 621.895830 12.764658 0.000000 0.144953
229.000000 91.014000 -7.000000 1.000000 4.000000 112.694470 -10.681817 1178.014167 482.961368 10.983928 0.000000 0.131085
230.000000 106.885000 -6.000000 1.000000 4.000000 120.791188 -6.822898 1103.776587 295.049640 9.351656 0.000000 0.103341
231.000000 126.431000 -5.000000 1.000000 4.000000 130.668743 -0.293374 980.511047 16.249837 7.904721 0.000000 0.052308
233.000000 54.918000 -11.000000 2.000000 4.000000 97.541203 -23.624563 1445.770999 785.481865 18.208117 0.000000 0.124484
234.000000 69.956000 -9.000000 2.000000 4.000000 106.840816 -23.182500 1435.911246 586.594567 14.291685 0.000000 0.104047
235.000000 92.576000 -7.000000 2.000000 4.000000 120.434997 -22.325636 1416.983122 257.416350 10.797045 0.000000 0.050817
236.000000 107.878000 -6.000000 2.000000 4.000000 129.713107 -21.503587 1399.041435 -19.853268 9.264205 0.000000 0.029483
238.000000 50.069000 -12.000000 3.000000 4.000000 97.927858 -29.753353 1590.236435 768.359126 19.971138 0.000000 0.092881
239.000000 55.612000 -11.000000 3.000000 4.000000 101.758147 -30.341871 1604.991155 681.414500 17.979142 0.000000 0.078101
240.000000 62.225000 -10.000000 3.000000 4.000000 106.239259 -31.096410 1624.170232 574.898773 16.067034 0.000000 0.056250
241.000000 70.162000 -9.000000 3.000000 4.000000 111.531382 -32.098341 1650.114693 439.729758 14.248120 0.000000 0.023990
242.000000 79.718000 -8.000000 3.000000 4.000000 117.839770 -33.492121 1687.170821 259.409132 12.538833 0.000000 0.027603
243.000000 91.193000 -7.000000 3.000000 4.000000 125.420308 -35.560255 1744.422297 0.062443 10.959712 0.000000 0.104043
245.000000 45.660000 -13.000000 4.000000 4.000000 97.753956 -34.848484 1724.395517 762.421973 21.899191 0.000000 0.069689
246.000000 55.479000 -11.000000 4.000000 4.000000 105.011299 -37.308067 1795.156015 578.133541 18.020833 0.000000 0.044949
247.000000 69.011000 -9.000000 4.000000 4.000000 114.636109 -41.362598 1922.633075 283.360162 14.484833 0.000000 0.116437
249.000000 45.457000 -13.000000 5.000000 4.000000 100.223228 -40.495666 1894.101376 685.749687 21.995609 0.000000 0.079233
250.000000 49.723000 -12.000000 5.000000 4.000000 103.546059 -42.206355 1951.141602 590.925590 20.107177 0.000000 0.098409
251.000000 54.637000 -11.000000 5.000000 4.000000 107.285545 -44.325790 2026.257815 472.813463 18.297386 0.000000 0.139977
252.000000 60.302000 -10.000000 5.000000 4.000000 111.493852 -47.011781 2129.660206 319.409537 16.577498 0.000000 0.211343
256.000000 47.416000 -8.000000 -4.000000 5.000000 66.628645 21.367962 553.898993 1440.447587 21.101066 0.000000 0.095171
257.000000 50.982000 -7.000000 -4.000000 5.000000 66.018200 26.432885 439.952708 1475.685412 19.624973 0.000000 0.109644
258.000000 54.346000 -6.000000 -4.000000 5.000000 64.782985 32.325776 293.917098 1540.814531 18.410074 0.000000 0.141942
259.000000 57.023000 -5.000000 -4.000000 5.000000 62.649271 39.109749 100.015233 1658.484490 17.545761 0.000000 0.211179
262.000000 46.006000 -10.000000 -3.000000 5.000000 74.516227 9.748539 790.087067 1243.522892 21.745604 0.000000 0.121176
263.000000 50.438000 -9.000000 -3.000000 5.000000 75.469920 13.471121 717.178284 1227.843336 19.834309 0.000000 0.122546
264.000000 55.407000 -8.000000 -3.000000 5.000000 76.290577 17.919750 626.956669 1216.946397 18.054975 0.000000 0.121244
265.000000 60.844000 -7.000000 -3.000000 5.000000 76.824919 23.257311 512.424799 1215.232660 16.441343 0.000000 0.116876
266.000000 66.512000 -6.000000 -3.000000 5.000000 76.825573 29.654406 362.227187 1230.906095 15.039725 0.000000 0.113682
267.000000 71.884000 -5.000000 -3.000000 5.000000 75.919648 37.247808 156.631804 1280.127583 13.915468 0.000000 0.136113
268.000000 75.988000 -4.000000 -3.000000 5.000000 73.605801 46.061709 -141.940271 1397.348002 13.163845 0.000000 0.243135
270.000000 46.312000 -11.000000 -2.000000 5.000000 80.588562 2.593746 926.243480 1119.583074 21.599816 0.000000 0.148395
271.000000 51.117000 -10.000000 -2.000000 5.000000 82.414726 5.587317 869.708966 1085.010979 19.568534 0.000000 0.152266
272.000000 56.719000 -9.000000 -2.000000 5.000000 84.363566 9.222622 800.242242 1048.613715 17.635227 0.000000 0.153717
273.000000 63.218000 -8.000000 -2.000000 5.000000 86.374583 13.689690 712.832902 1011.187965 15.821348 0.000000 0.150775
274.000000 70.656000 -7.000000 -2.000000 5.000000 88.314321 19.233049 599.498421 974.546774 14.155104 0.000000 0.140163
275.000000 78.907000 -6.000000 -2.000000 5.000000 89.919852 26.144298 446.696647 942.677159 12.674347 0.000000 0.117314
276.000000 87.485000 -5.000000 -2.000000 5.000000 90.719953 34.709834 229.465188 924.547237 11.431074 0.000000 0.088603
277.000000 95.252000 -4.000000 -2.000000 5.000000 89.969289 45.067499 -103.833200 941.816814 10.498726 0.000000 0.161977
279.000000 50.086000 -11.000000 -1.000000 5.000000 87.541607 -1.996467 1012.518583 987.237048 19.969300 0.000000 0.166115
280.000000 55.692000 -10.000000 -1.000000 5.000000 90.229516 0.731104 961.265563 936.688199 17.958361 0.000000 0.169664
281.000000 62.341000 -9.000000 -1.000000 5.000000 93.237284 4.129098 897.300832 879.964789 16.041941 0.000000 0.170324
282.000000 70.228000 -8.000000 -1.000000 5.000000 96.557080 8.443804 815.225801 815.929752 14.239372 0.000000 0.165648
283.000000 79.513000 -7.000000 -1.000000 5.000000 100.109355 14.028511 706.080749 743.202204 12.575640 0.000000 0.151093
284.000000 90.210000 -6.000000 -1.000000 5.000000 103.657820 21.371210 553.828637 660.155910 11.083621 0.000000 0.117748
285.000000 101.940000 -5.000000 -1.000000 5.000000 106.656726 31.064477 326.647572 565.068741 9.807460 0.000000 0.049577
286.000000 113.503000 -4.000000 -1.000000 5.000000 108.050179 43.568922 -48.828551 456.901387 8.807852 0.000000 0.132819
287.000000 50.045000 -12.000000 1.000000 5.000000 96.618465 -14.402112 1251.387684 812.065079 19.981901 0.000000 0.156733
288.000000 55.575000 -11.000000 1.000000 5.000000 100.276614 -13.100067 1225.462843 740.643829 17.992407 0.000000 0.156193
289.000000 62.161000 -10.000000 1.000000 5.000000 104.527136 -11.440402 1192.808906 656.453976 16.084824 0.000000 0.152720
290.000000 70.045000 -9.000000 1.000000 5.000000 109.496404 -9.256719 1150.415226 554.912414 14.273110 0.000000 0.144552
291.000000 79.498000 -8.000000 1.000000 5.000000 115.327617 -6.265096 1093.160383 428.542589 12.574586 0.000000 0.128838
292.000000 90.776000 -7.000000 1.000000 5.000000 122.154497 -1.945988 1011.569208 264.024043 11.011013 0.000000 0.100889
293.000000 103.996000 -6.000000 1.000000 5.000000 130.008282 4.730390 885.937751 34.529080 9.610110 0.000000 0.053934
294.000000 118.854000 -5.000000 1.000000 5.000000 138.512907 15.948308 667.428189 -324.802467 8.407748 0.000000 0.053636
295.000000 46.635000 -13.000000 2.000000 5.000000 97.962897 -20.738704 1382.528787 780.016460 21.442172 0.000000 0.135794
296.000000 51.416000 -12.000000 2.000000 5.000000 101.517523 -20.249457 1372.054332 707.234680 19.446930 0.000000 0.131669
297.000000 57.050000 -11.000000 2.000000 5.000000 105.630469 -19.633942 1358.969745 621.287627 17.525205 0.000000 0.124450
298.000000 63.724000 -10.000000 2.000000 5.000000 110.429037 -18.836252 1342.160535 517.424206 15.688265 0.000000 0.112744
299.000000 71.659000 -9.000000 2.000000 5.000000 116.074597 -17.761970 1319.772424 387.958102 13.949806 0.000000 0.094652
300.000000 81.086000 -8.000000 2.000000 5.000000 122.768659 -16.238430 1288.475383 219.422255 12.326640 0.000000 0.068067
301.000000 92.198000 -7.000000 2.000000 5.000000 130.751650 -13.913791 1241.630855 -14.483677 10.839638 0.000000 0.034626
302.000000 105.020000 -6.000000 2.000000 5.000000 140.271363 -9.950696 1163.824905 -373.864859 9.515030 0.000000 0.030330
304.000000 47.355000 -13.000000 3.000000 5.000000 101.871485 -26.370491 1508.586374 688.470541 21.114138 0.000000 0.101339
305.000000 52.099000 -12.000000 3.000000 5.000000 105.674677 -26.531611 1512.362150 603.430432 19.190176 0.000000 0.088724
306.000000 57.644000 -11.000000 3.000000 5.000000 110.060896 -26.735940 1517.165811 500.915209 17.343046 0.000000 0.070761
307.000000 64.145000 -10.000000 3.000000 5.000000 115.158762 -27.003546 1523.483226 373.623988 15.583969 0.000000 0.045630
308.000000 71.772000 -9.000000 3.000000 5.000000 121.130270 -27.369184 1532.163754 209.026977 13.926465 0.000000 0.017065
309.000000 80.683000 -8.000000 3.000000 5.000000 128.177603 -27.898748 1544.838369 -16.572027 12.386968 0.000000 0.050212
312.000000 47.551000 -13.000000 4.000000 5.000000 105.100077 -32.261890 1654.403428 597.572637 21.025639 0.000000 0.053406
313.000000 52.131000 -12.000000 4.000000 5.000000 108.997937 -33.133764 1677.531559 498.492322 19.177277 0.000000 0.030361
314.000000 57.421000 -11.000000 4.000000 5.000000 113.450680 -34.241804 1707.597382 376.222388 17.409160 0.000000 0.016660
315.000000 63.535000 -10.000000 4.000000 5.000000 118.562529 -35.695697 1748.273328 219.559085 15.732483 0.000000 0.057384
316.000000 70.581000 -9.000000 4.000000 5.000000 124.452677 -37.684146 1806.379140 7.950666 14.160620 0.000000 0.124498
318.000000 47.270000 -13.000000 5.000000 5.000000 107.611741 -38.300491 1825.020968 505.632999 21.149375 0.000000 0.050584
319.000000 51.584000 -12.000000 5.000000 5.000000 111.448649 -39.896590 1874.812870 389.842733 19.379305 0.000000 0.079431
320.000000 56.497000 -11.000000 5.000000 5.000000 115.762626 -41.915671 1941.235110 242.955405 17.692842 0.000000 0.131836
322.000000 46.579000 -13.000000 6.000000 5.000000 109.409406 -44.355642 2027.354137 410.630553 21.462042 0.000000 0.147128
323.000000 50.558000 -12.000000 6.000000 5.000000 113.045326 -46.635910 2114.579133 274.172624 19.771734 0.000000 0.210393
328.000000 45.588000 -6.000000 -5.000000 6.000000 60.597222 39.372637 91.782398 1725.606307 21.947241 0.000000 0.227139
331.000000 45.917000 -9.000000 -4.000000 6.000000 73.126860 21.658395 547.595540 1292.250107 21.787819 0.000000 0.110234
332.000000 52.635000 -7.000000 -4.000000 6.000000 72.528114 31.763541 308.617067 1339.450557 19.006258 0.000000 0.121069
333.000000 57.885000 -5.000000 -4.000000 6.000000 69.168468 44.852863 -95.780518 1518.672506 17.282247 0.000000 0.248179
335.000000 47.815000 -10.000000 -3.000000 6.000000 80.843645 14.326236 700.131103 1120.048320 20.920077 0.000000 0.138543
336.000000 56.737000 -8.000000 -3.000000 6.000000 82.822860 23.443264 508.280671 1088.725411 17.629407 0.000000 0.124599
337.000000 61.611000 -7.000000 -3.000000 6.000000 83.316349 29.267252 371.820448 1085.579982 16.234310 0.000000 0.111415
338.000000 70.600000 -5.000000 -3.000000 6.000000 81.943560 43.925365 -61.659228 1152.518035 14.166809 0.000000 0.173118
340.000000 48.021000 -11.000000 -2.000000 6.000000 86.944562 6.977451 843.277626 998.879153 20.828383 0.000000 0.161144
341.000000 57.985000 -9.000000 -2.000000 6.000000 91.016125 14.695233 692.735183 921.264644 17.247707 0.000000 0.153206
342.000000 70.386000 -7.000000 -2.000000 6.000000 94.771558 26.071235 448.398736 840.982077 14.207416 0.000000 0.112559
343.000000 83.518000 -5.000000 -2.000000 6.000000 96.007269 42.667619 -17.050132 786.965608 11.972648 0.000000 0.114335
344.000000 46.985000 -12.000000 -1.000000 6.000000 91.505929 -0.153108 977.876113 912.704688 21.285896 0.000000 0.171025
345.000000 51.639000 -11.000000 -1.000000 6.000000 94.134981 2.573297 926.628405 863.111212 19.366379 0.000000 0.171607
346.000000 57.018000 -10.000000 -1.000000 6.000000 97.015329 5.906382 863.654641 807.848522 17.538302 0.000000 0.168775
347.000000 63.217000 -9.000000 -1.000000 6.000000 100.123482 10.041812 784.410325 745.837925 15.817617 0.000000 0.160268
348.000000 70.293000 -8.000000 -1.000000 6.000000 103.378600 15.245751 681.654257 675.677786 14.224216 0.000000 0.142155
349.000000 78.211000 -7.000000 -1.000000 6.000000 106.590386 21.864824 543.099835 595.484771 12.783225 0.000000 0.107259
350.000000 86.730000 -6.000000 -1.000000 6.000000 109.376164 30.298833 346.093823 502.596852 11.526852 0.000000 0.042891
351.000000 95.234000 -5.000000 -1.000000 6.000000 111.061278 40.867270 43.760276 392.921554 10.497067 0.000000 0.097529
353.000000 54.627000 -11.000000 0.000000 6.000000 101.032810 -2.525720 1022.476100 730.945829 18.304367 0.000000 0.169071
354.000000 60.548000 -10.000000 0.000000 6.000000 104.774848 0.474553 966.085379 657.126449 16.513386 0.000000 0.163569
355.000000 75.350000 -8.000000 0.000000 6.000000 113.509331 9.365544 797.485563 466.480249 13.267170 0.000000 0.129061
356.000000 84.329000 -7.000000 0.000000 6.000000 118.321265 16.155175 663.220503 337.113380 11.853477 0.000000 0.088063
357.000000 104.187000 -5.000000 0.000000 6.000000 126.604714 38.084207 131.556455 -74.701857 9.592765 0.000000 0.152238
358.000000 46.879000 -13.000000 1.000000 6.000000 99.953575 -11.806365 1199.974381 748.037161 21.330285 0.000000 0.159415
359.000000 51.489000 -12.000000 1.000000 6.000000 103.445791 -10.291977 1170.440132 679.473421 19.419075 0.000000 0.157132
360.000000 56.847000 -11.000000 1.000000 6.000000 107.417082 -8.396129 1133.859001 599.699395 17.587387 0.000000 0.151764
361.000000 63.085000 -10.000000 1.000000 6.000000 111.943305 -5.960201 1087.367263 505.030522 15.847074 0.000000 0.141743
362.000000 70.334000 -9.000000 1.000000 6.000000 117.096771 -2.729193 1026.306378 389.683605 14.212461 0.000000 0.124645
363.000000 78.696000 -8.000000 1.000000 6.000000 122.918814 1.726631 942.555633 243.896064 12.701038 0.000000 0.096684
364.000000 88.176000 -7.000000 1.000000 6.000000 129.348658 8.164624 820.581893 49.499750 11.334376 0.000000 0.053169
365.000000 98.559000 -6.000000 1.000000 6.000000 136.043732 17.942639 626.481673 -232.302200 10.139395 0.000000 0.049872
367.000000 48.076000 -13.000000 2.000000 6.000000 104.664510 -17.222080 1308.623301 646.131288 20.797023 0.000000 0.136177
368.000000 58.222000 -11.000000 2.000000 6.000000 113.062644 -15.074227 1264.887164 466.420325 17.170111 0.000000 0.117406
369.000000 71.821000 -9.000000 2.000000 6.000000 124.158876 -11.320980 1190.474684 196.187981 13.916534 0.000000 0.076454
370.000000 89.542000 -7.000000 2.000000 6.000000 138.862500 -3.226819 1035.679578 -293.107058 11.160049 0.000000 0.007014
371.000000 48.735000 -13.000000 3.000000 6.000000 108.747365 -23.079826 1433.630568 543.920078 20.513796 0.000000 0.098103
372.000000 58.748000 -11.000000 3.000000 6.000000 117.764840 -22.520218 1421.260696 327.603295 17.014815 0.000000 0.062822
373.000000 64.896000 -10.000000 3.000000 6.000000 123.303628 -22.098064 1411.995413 177.849219 15.401537 0.000000 0.038333
374.000000 79.847000 -8.000000 3.000000 6.000000 137.162105 -20.604480 1379.648472 -299.076369 12.515280 0.000000 0.064528
376.000000 48.877000 -13.000000 4.000000 6.000000 112.113312 -29.300128 1578.991350 439.515006 20.452719 0.000000 0.042773
377.000000 58.486000 -11.000000 4.000000 6.000000 121.369892 -30.584314 1611.121017 178.761665 17.089852 0.000000 0.023377
378.000000 70.798000 -9.000000 4.000000 6.000000 133.436369 -32.958053 1672.833934 -273.555342 14.115455 0.000000 0.138365
379.000000 48.549000 -13.000000 5.000000 6.000000 114.710835 -35.760380 1750.117084 330.641235 20.589907 0.000000 0.037324
380.000000 52.787000 -12.000000 5.000000 6.000000 118.996933 -37.170685 1791.084211 192.386749 18.935322 0.000000 0.078992
381.000000 57.545000 -11.000000 5.000000 6.000000 123.804688 -38.998349 1846.514576 13.726395 17.368475 0.000000 0.138565
384.000000 47.816000 -13.000000 6.000000 6.000000 116.532211 -42.304998 1954.524091 214.396027 20.904779 0.000000 0.143041
388.000000 46.501000 -6.000000 -5.000000 7.000000 66.176447 44.077130 -67.168995 1602.509312 21.514156 0.000000 0.254293
391.000000 46.928000 -9.000000 -4.000000 7.000000 78.633851 26.292838 443.229633 1182.324309 21.315738 0.000000 0.115708
392.000000 50.008000 -8.000000 -4.000000 7.000000 78.553271 31.285983 320.963415 1196.015477 20.002580 0.000000 0.113101
393.000000 52.931000 -7.000000 -4.000000 7.000000 77.945968 36.933907 165.898967 1228.534167 18.897562 0.000000 0.128008
394.000000 55.418000 -6.000000 -4.000000 7.000000 76.609627 43.242339 -37.205329 1292.724819 18.049390 0.000000 0.187176
395.000000 57.082000 -5.000000 -4.000000 7.000000 74.322020 50.155406 -314.765992 1412.488798 17.523250 0.000000 0.321631
397.000000 48.727000 -10.000000 -3.000000 7.000000 86.411891 19.008213 604.229581 1012.382819 20.526321 0.000000 0.139249
398.000000 52.660000 -9.000000 -3.000000 7.000000 87.486557 23.600124 504.775817 992.557183 18.992497 0.000000 0.126758
399.000000 56.783000 -8.000000 -3.000000 7.000000 88.258297 28.945273 379.743550 978.399624 17.612918 0.000000 0.108547
400.000000 60.911000 -7.000000 -3.000000 7.000000 88.523227 35.127035 217.808771 974.925761 16.418876 0.000000 0.094388
401.000000 64.727000 -6.000000 -3.000000 7.000000 88.009497 42.178669 -0.194158 991.477250 15.450738 0.000000 0.130446
402.000000 67.749000 -5.000000 -3.000000 7.000000 86.392465 50.039641 -309.481307 1046.653592 14.761498 0.000000 0.268785
404.000000 48.934000 -11.000000 -2.000000 7.000000 92.611276 11.552288 755.002384 890.898573 20.437350 0.000000 0.160410
405.000000 53.288000 -10.000000 -2.000000 7.000000 94.644710 15.543923 675.628446 850.238481 18.766508 0.000000 0.151373
406.000000 58.080000 -9.000000 -2.000000 7.000000 96.625516 20.310198 576.648868 807.694779 17.217384 0.000000 0.134686
407.000000 63.240000 -8.000000 -2.000000 7.000000 98.400683 26.012043 449.776133 764.137763 15.811770 0.000000 0.106516
408.000000 68.594000 -7.000000 -2.000000 7.000000 99.727001 32.803385 281.285660 721.501089 14.576991 0.000000 0.066447
409.000000 73.803000 -6.000000 -2.000000 7.000000 100.248320 40.778195 46.682264 684.024443 13.547778 0.000000 0.084740
410.000000 78.303000 -5.000000 -2.000000 7.000000 99.501493 49.884615 -302.444186 661.424325 12.768962 0.000000 0.251455
411.000000 47.942000 -12.000000 -1.000000 7.000000 97.262444 4.171902 896.492527 803.476132 20.858478 0.000000 0.170319
412.000000 52.349000 -11.000000 -1.000000 7.000000 99.983693 7.419293 834.845232 749.936486 19.101253 0.000000 0.164788
413.000000 57.317000 -10.000000 -1.000000 7.000000 102.869430 11.370842 758.550954 690.176748 17.444844 0.000000 0.153573
414.000000 62.860000 -9.000000 -1.000000 7.000000 105.844200 16.230514 661.685935 622.863083 15.905402 0.000000 0.133313
415.000000 68.936000 -8.000000 -1.000000 7.000000 108.754897 22.251919 534.634302 546.138543 14.502726 0.000000 0.098204
416.000000 75.384000 -7.000000 -1.000000 7.000000 111.323202 29.716543 360.680650 457.249428 13.261351 0.000000 0.038158
417.000000 81.857000 -6.000000 -1.000000 7.000000 113.092218 38.853709 107.974792 351.715260 12.212049 0.000000 0.075590
419.000000 47.802000 -13.000000 1.000000 7.000000 105.958749 -7.820318 1122.822826 630.326648 20.915990 0.000000 0.156124
420.000000 52.215000 -12.000000 1.000000 7.000000 109.644946 -5.768008 1083.718851 554.842101 19.146953 0.000000 0.149200
421.000000 57.240000 -11.000000 1.000000 7.000000 113.759874 -3.186012 1034.910619 466.464308 17.464628 0.000000 0.137762
422.000000 62.943000 -10.000000 1.000000 7.000000 118.334501 0.145116 972.274005 360.637117 15.881024 0.000000 0.119735
423.000000 69.360000 -9.000000 1.000000 7.000000 123.364701 4.570438 888.962301 230.004809 14.410477 0.000000 0.092051
424.000000 76.466000 -8.000000 1.000000 7.000000 128.761127 10.644305 772.715461 61.708666 13.070239 0.000000 0.051599
425.000000 84.111000 -7.000000 1.000000 7.000000 134.243056 19.247590 599.192011 -169.287112 11.881260 0.000000 0.046131
427.000000 48.934000 -13.000000 2.000000 7.000000 110.879042 -13.310154 1229.626603 519.121769 20.430070 0.000000 0.130752
428.000000 53.426000 -12.000000 2.000000 7.000000 115.033253 -11.812672 1200.098031 427.479782 18.710972 0.000000 0.119317
429.000000 58.526000 -11.000000 2.000000 7.000000 119.716289 -9.885717 1162.566955 317.428284 17.079260 0.000000 0.102982
430.000000 64.290000 -10.000000 2.000000 7.000000 124.995787 -7.320628 1113.270346 181.295938 15.546522 0.000000 0.080197
431.000000 70.746000 -9.000000 2.000000 7.000000 130.922894 -3.755472 1045.647294 5.923729 14.126485 0.000000 0.049426
432.000000 77.855000 -8.000000 2.000000 7.000000 137.489627 1.482512 947.144967 -233.535423 12.835540 0.000000 0.013080
434.000000 45.609000 -14.000000 3.000000 7.000000 111.181252 -19.959938 1365.887048 497.284775 21.919066 0.000000 0.104969
435.000000 49.545000 -13.000000 3.000000 7.000000 115.165156 -19.356653 1353.108046 405.037622 20.176379 0.000000 0.091547
436.000000 53.994000 -12.000000 3.000000 7.000000 119.658490 -18.590293 1337.010050 294.386910 18.512516 0.000000 0.074012
437.000000 59.012000 -11.000000 3.000000 7.000000 124.745743 -17.584831 1316.107062 157.871472 16.937093 0.000000 0.052312
438.000000 64.638000 -10.000000 3.000000 7.000000 130.522358 -16.208737 1287.870375 -17.050167 15.461353 0.000000 0.031148
439.000000 70.880000 -9.000000 3.000000 7.000000 137.089337 -14.213763 1247.619430 -253.362139 14.098534 0.000000 0.034151
441.000000 45.822000 -14.000000 4.000000 7.000000 114.561928 -25.797340 1495.239347 394.648923 21.815572 0.000000 0.057151
442.000000 49.655000 -13.000000 4.000000 7.000000 118.710764 -25.895000 1497.504363 285.687168 20.130453 0.000000 0.036375
443.000000 53.952000 -12.000000 4.000000 7.000000 123.379112 -26.020242 1500.414571 151.892936 18.525622 0.000000 0.019985
444.000000 58.753000 -11.000000 4.000000 7.000000 128.652168 -26.186669 1504.291427 -18.257205 17.010501 0.000000 0.042239
445.000000 64.076000 -10.000000 4.000000 7.000000 134.628108 -26.418591 1509.712471 -245.300694 15.596046 0.000000 0.086162
447.000000 45.651000 -14.000000 5.000000 7.000000 117.271063 -31.927788 1645.658631 287.272303 21.896154 0.000000 0.008187
448.000000 49.307000 -13.000000 5.000000 7.000000 121.444719 -32.799873 1668.620943 158.045409 20.271151 0.000000 0.043919
449.000000 53.366000 -12.000000 5.000000 7.000000 126.103163 -33.921447 1698.824692 -4.932792 18.727980 0.000000 0.090015
450.000000 57.848000 -11.000000 5.000000 7.000000 131.310936 -35.416059 1740.336638 -219.677094 17.275894 0.000000 0.149940
452.000000 48.565000 -13.000000 6.000000 7.000000 123.342122 -39.890884 1874.630783 18.079773 20.580102 0.000000 0.148790
457.000000 46.386000 -6.000000 -5.000000 8.000000 70.807032 48.492257 -241.198143 1506.331508 21.565496 0.000000 0.304649
460.000000 47.126000 -9.000000 -4.000000 8.000000 83.348666 30.875366 331.479504 1087.231982 21.224151 0.000000 0.108615
461.000000 52.238000 -7.000000 -4.000000 8.000000 82.363672 41.871815 10.251656 1134.788875 19.146615 0.000000 0.147731
463.000000 45.540000 -11.000000 -3.000000 8.000000 90.034497 19.442771 595.073636 940.312795 21.961180 0.000000 0.140299
464.000000 48.875000 -10.000000 -3.000000 8.000000 91.205171 23.734222 501.772907 916.265706 20.461908 0.000000 0.125724
465.000000 52.360000 -9.000000 -3.000000 8.000000 92.133053 28.673304 386.397722 895.309283 19.099370 0.000000 0.104770
466.000000 55.876000 -8.000000 -3.000000 8.000000 92.661670 34.326834 240.062946 880.412603 17.897256 0.000000 0.083674
467.000000 59.224000 -7.000000 -3.000000 8.000000 92.585283 40.726450 48.376078 876.873483 16.885062 0.000000 0.102116
468.000000 62.111000 -6.000000 -3.000000 8.000000 91.655979 47.839006 -213.612342 894.642320 16.099990 0.000000 0.208029
470.000000 49.151000 -11.000000 -2.000000 8.000000 97.552112 16.269506 660.891247 792.354592 20.344818 0.000000 0.147506
471.000000 57.269000 -9.000000 -2.000000 8.000000 101.212427 25.963114 450.913655 703.695706 17.459380 0.000000 0.100326
472.000000 65.865000 -7.000000 -2.000000 8.000000 103.372852 39.255093 95.471130 610.561439 15.179716 0.000000 0.064860
474.000000 48.283000 -12.000000 -1.000000 8.000000 102.369362 8.721026 809.899581 702.203755 20.709079 0.000000 0.159690
475.000000 52.336000 -11.000000 -1.000000 8.000000 105.042976 12.492402 736.541034 644.728056 19.104360 0.000000 0.146586
476.000000 56.781000 -10.000000 -1.000000 8.000000 107.766743 17.043147 645.057333 580.287790 17.607563 0.000000 0.125100
477.000000 61.580000 -9.000000 -1.000000 8.000000 110.416850 22.563589 527.784205 507.160865 16.234675 0.000000 0.090495
478.000000 66.622000 -8.000000 -1.000000 8.000000 112.784792 29.258875 372.027227 422.790698 15.005005 0.000000 0.034695
479.000000 71.698000 -7.000000 -1.000000 8.000000 114.546936 37.298596 155.125145 323.064133 13.942094 0.000000 0.060852
480.000000 76.451000 -6.000000 -1.000000 8.000000 115.252057 46.714641 -167.720632 200.573207 13.074941 0.000000 0.228605
481.000000 46.630000 -13.000000 0.000000 8.000000 105.777058 1.344889 949.731788 636.821050 21.442012 0.000000 0.161317
482.000000 54.951000 -11.000000 0.000000 8.000000 112.336027 7.965161 824.404013 494.480951 18.192799 0.000000 0.136048
483.000000 65.041000 -9.000000 0.000000 8.000000 119.523981 18.209535 620.933956 299.332514 15.368430 0.000000 0.073505
484.000000 76.285000 -7.000000 0.000000 8.000000 125.866323 34.577616 233.134718 -4.084998 13.101535 0.000000 0.101058
485.000000 48.186000 -13.000000 1.000000 8.000000 111.397374 -3.485252 1040.550904 518.480323 20.747017 0.000000 0.145763
486.000000 52.303000 -12.000000 1.000000 8.000000 115.143902 -0.829506 990.583263 435.767960 19.112650 0.000000 0.133276
487.000000 56.889000 -11.000000 1.000000 8.000000 119.230246 2.516496 927.697510 338.152224 17.570654 0.000000 0.114689
488.000000 61.954000 -10.000000 1.000000 8.000000 123.631030 6.827256 846.140377 219.958433 16.132980 0.000000 0.087511
489.000000 67.467000 -9.000000 1.000000 8.000000 128.253750 12.512416 736.146598 71.758497 14.813736 0.000000 0.049819
490.000000 73.323000 -8.000000 1.000000 8.000000 132.874680 20.167054 579.703320 -123.533421 13.629688 0.000000 0.042946
492.000000 49.256000 -13.000000 2.000000 8.000000 116.534416 -8.975361 1144.993842 396.909924 20.294369 0.000000 0.119454
493.000000 58.094000 -11.000000 2.000000 8.000000 125.498789 -4.032624 1050.877686 171.415702 17.204518 0.000000 0.081402
494.000000 68.769000 -9.000000 2.000000 8.000000 136.256085 4.921950 882.313655 -187.712862 14.531525 0.000000 0.020611
496.000000 46.097000 -14.000000 3.000000 8.000000 116.876727 -16.256476 1288.843167 372.796561 21.684873 0.000000 0.097126
497.000000 49.830000 -13.000000 3.000000 8.000000 121.049621 -15.148037 1266.374758 269.702870 20.059047 0.000000 0.081081
498.000000 53.978000 -12.000000 3.000000 8.000000 125.703888 -13.722257 1237.815245 144.766497 18.516224 0.000000 0.061092
499.000000 58.561000 -11.000000 3.000000 8.000000 130.898625 -11.822938 1200.299327 -11.476517 17.065936 0.000000 0.038106
500.000000 63.573000 -10.000000 3.000000 8.000000 136.686170 -9.174514 1148.830359 -215.376755 15.719235 0.000000 0.020114
503.000000 49.926000 -13.000000 4.000000 8.000000 124.818183 -21.969171 1409.177604 133.837436 20.019360 0.000000 0.032689
504.000000 58.336000 -11.000000 4.000000 8.000000 135.192353 -20.869830 1385.347558 -218.625809 17.130521 0.000000 0.053789
506.000000 46.107000 -14.000000 5.000000 8.000000 123.296437 -28.805545 1566.833449 134.278998 21.677539 0.000000 0.023956
507.000000 49.584000 -13.000000 5.000000 8.000000 127.744597 -29.325662 1579.622212 -14.661796 20.156410 0.000000 0.058020
508.000000 53.385000 -12.000000 5.000000 8.000000 132.688003 -30.010450 1596.660552 -205.459611 18.719961 0.000000 0.101931
511.000000 48.861000 -13.000000 6.000000 8.000000 129.779015 -37.018616 1786.594326 -181.272230 20.453659 0.000000 0.158236
515.000000 46.689000 -9.000000 -4.000000 9.000000 87.313689 35.349910 211.532725 1002.913857 21.420688 0.000000 0.097694
516.000000 48.943000 -8.000000 -4.000000 9.000000 86.917397 40.692634 49.481585 1017.445356 20.433910 0.000000 0.120443
517.000000 50.879000 -7.000000 -4.000000 9.000000 85.907790 46.524901 -160.165160 1052.916068 19.656275 0.000000 0.197995
520.000000 48.415000 -10.000000 -3.000000 9.000000 95.245820 28.440544 392.065202 828.618516 20.654434 0.000000 0.100520
521.000000 54.317000 -8.000000 -3.000000 9.000000 96.142966 39.501502 87.724076 790.873134 18.409264 0.000000 0.082141
522.000000 56.942000 -7.000000 -3.000000 9.000000 95.677379 45.984081 -138.915834 787.012760 17.560546 0.000000 0.166491
523.000000 45.526000 -12.000000 -2.000000 9.000000 99.929966 16.896766 648.063150 744.075217 21.963689 0.000000 0.142721
524.000000 48.797000 -11.000000 -2.000000 9.000000 101.765232 21.069732 560.345714 700.771097 20.490827 0.000000 0.123439
525.000000 52.252000 -10.000000 -2.000000 9.000000 103.452485 25.921993 451.868946 654.748706 19.135208 0.000000 0.094444
526.000000 55.812000 -9.000000 -2.000000 9.000000 104.849922 31.545322 314.274383 606.144595 17.913735 0.000000 0.054011
527.000000 59.345000 -8.000000 -2.000000 9.000000 105.762129 38.002843 134.020736 555.467025 16.846720 0.000000 0.050731
528.000000 62.646000 -7.000000 -2.000000 9.000000 105.939884 45.293298 -112.370215 504.027214 15.958797 0.000000 0.159508
530.000000 48.099000 -12.000000 -1.000000 9.000000 106.802940 13.450867 717.580560 606.820721 20.786287 0.000000 0.139765
531.000000 51.736000 -11.000000 -1.000000 9.000000 109.306121 17.724899 630.995255 545.167556 19.324011 0.000000 0.117653
532.000000 55.616000 -10.000000 -1.000000 9.000000 111.732445 22.819908 522.127422 475.553070 17.974928 0.000000 0.083931
533.000000 59.664000 -9.000000 -1.000000 9.000000 113.921814 28.889731 381.105288 395.699692 16.754628 0.000000 0.032100
534.000000 63.744000 -8.000000 -1.000000 9.000000 115.636673 36.063049 191.215444 302.033554 15.681705 0.000000 0.050407
535.000000 67.637000 -7.000000 -1.000000 9.000000 116.553795 44.380457 -78.266294 188.412400 14.778514 0.000000 0.186868
537.000000 48.099000 -13.000000 1.000000 9.000000 116.222289 1.190607 952.631379 410.762921 20.782804 0.000000 0.128647
538.000000 51.858000 -12.000000 1.000000 9.000000 119.897224 4.499969 890.294392 320.259227 19.275372 0.000000 0.109779
539.000000 55.949000 -11.000000 1.000000 9.000000 123.791270 8.656549 811.139069 212.421517 17.864697 0.000000 0.083259
540.000000 60.344000 -10.000000 1.000000 9.000000 127.818357 13.967515 707.297770 80.134688 16.562524 0.000000 0.048062
541.000000 64.968000 -9.000000 1.000000 9.000000 131.800769 20.849539 565.088948 -88.775612 15.382580 0.000000 0.040324
542.000000 69.683000 -8.000000 1.000000 9.000000 135.408884 29.806838 358.429866 -317.221627 14.341007 0.000000 0.127026
544.000000 45.625000 -14.000000 2.000000 9.000000 117.696812 -6.496099 1097.554004 372.358334 21.909436 0.000000 0.118469
545.000000 49.110000 -13.000000 2.000000 9.000000 121.574638 -4.203253 1054.099542 277.731910 20.352975 0.000000 0.102475
546.000000 52.930000 -12.000000 2.000000 9.000000 125.795092 -1.299086 999.407354 164.692705 18.882851 0.000000 0.081186
547.000000 57.080000 -11.000000 2.000000 9.000000 130.348345 2.475409 928.470784 25.819635 17.508771 0.000000 0.053593
548.000000 61.528000 -10.000000 2.000000 9.000000 135.176094 7.526832 832.790374 -151.342526 16.241954 0.000000 0.025343
549.000000 66.197000 -9.000000 2.000000 9.000000 140.121016 14.498345 696.684537 -389.565419 15.095437 0.000000 0.054809
551.000000 46.184000 -14.000000 3.000000 9.000000 122.081838 -12.128681 1206.301099 250.913208 21.642328 0.000000 0.085400
552.000000 49.656000 -13.000000 3.000000 9.000000 126.337658 -10.407537 1172.683321 136.050357 20.127787 0.000000 0.066539
553.000000 57.541000 -11.000000 3.000000 9.000000 136.137397 -5.156779 1072.131886 -183.448519 17.367114 0.000000 0.018753
554.000000 61.908000 -10.000000 3.000000 9.000000 141.688752 -0.905719 992.015233 -421.445221 16.141125 0.000000 0.006966
555.000000 46.364000 -14.000000 4.000000 9.000000 125.848181 -18.383403 1332.689215 121.557080 21.557162 0.000000 0.043558
556.000000 49.751000 -13.000000 4.000000 9.000000 130.369560 -17.439837 1313.112181 -18.100464 20.087834 0.000000 0.029691
557.000000 53.426000 -12.000000 4.000000 9.000000 135.367972 -16.185321 1287.393396 -194.202043 18.705084 0.000000 0.034314
558.000000 57.370000 -11.000000 4.000000 9.000000 140.891841 -14.437927 1252.104948 -426.172140 17.417988 0.000000 0.052582
560.000000 46.188000 -14.000000 5.000000 9.000000 128.904865 -25.196697 1481.389868 -18.948455 21.637728 0.000000 0.038375
561.000000 49.433000 -13.000000 5.000000 9.000000 133.547348 -25.224804 1482.034862 -189.896093 20.216088 0.000000 0.069504
564.000000 45.697000 -14.000000 6.000000 9.000000 131.190023 -32.432116 1658.883676 -174.951178 21.869683 0.000000 0.114145
567.000000 45.788000 -9.000000 -4.000000 10.000000 90.595711 39.668161 82.453153 926.461903 21.840640 0.000000 0.100596
568.000000 49.113000 -7.000000 -4.000000 10.000000 88.714613 50.861402 -347.558428 979.260378 20.361653 0.000000 0.283442
569.000000 47.499000 -10.000000 -3.000000 10.000000 98.584333 33.065023 274.308479 747.129929 21.051270 0.000000 0.069203
570.000000 50.016000 -9.000000 -3.000000 10.000000 98.979501 38.455244 120.248694 723.818522 19.991457 0.000000 0.067419
571.000000 52.356000 -8.000000 -3.000000 10.000000 98.832816 44.402451 -79.075422 706.900865 19.097732 0.000000 0.136626
572.000000 54.353000 -7.000000 -3.000000 10.000000 97.977826 50.850569 -347.047762 702.083822 18.395817 0.000000 0.275702
574.000000 47.997000 -11.000000 -2.000000 10.000000 105.277821 25.886947 452.682547 614.216635 20.830464 0.000000 0.089030
575.000000 53.933000 -9.000000 -2.000000 10.000000 107.644075 36.956031 165.248317 512.601336 18.536888 0.000000 0.040254
577.000000 47.492000 -12.000000 -1.000000 10.000000 110.565543 18.304876 618.948078 515.663574 21.050628 0.000000 0.110963
578.000000 50.691000 -11.000000 -1.000000 10.000000 112.799418 23.034411 517.377117 449.383857 19.720996 0.000000 0.078314
579.000000 54.010000 -10.000000 -1.000000 10.000000 114.831303 28.585717 388.533321 373.831999 18.508357 0.000000 0.030116
580.000000 57.357000 -9.000000 -1.000000 10.000000 116.481701 35.058608 219.728717 285.961644 17.427771 0.000000 0.042716
581.000000 60.591000 -8.000000 -1.000000 10.000000 117.511632 42.494140 -11.039496 180.758881 16.496998 0.000000 0.157247
583.000000 46.239000 -13.000000 0.000000 10.000000 114.460094 10.562936 774.297539 442.969924 21.619691 0.000000 0.122672
584.000000 49.473000 -12.000000 0.000000 10.000000 117.353301 14.624420 694.156442 365.571563 20.205226 0.000000 0.098291
585.000000 52.908000 -11.000000 0.000000 10.000000 120.237977 19.522670 593.384891 275.358177 18.892536 0.000000 0.063753
586.000000 60.126000 -9.000000 0.000000 10.000000 125.359750 32.586480 287.038883 34.563114 16.622787 0.000000 0.075474
588.000000 47.618000 -13.000000 1.000000 10.000000 120.406003 6.179741 858.462058 305.698616 20.991266 0.000000 0.105127
589.000000 50.987000 -12.000000 1.000000 10.000000 123.886481 10.166422 781.995213 206.598147 19.603153 0.000000 0.079355
590.000000 54.569000 -11.000000 1.000000 10.000000 127.443822 15.131544 683.957725 87.203840 18.315132 0.000000 0.046412
591.000000 58.312000 -10.000000 1.000000 10.000000 130.936031 21.376064 553.723485 -61.461902 17.138645 0.000000 0.038174
592.000000 62.121000 -9.000000 1.000000 10.000000 134.120320 29.247187 372.315645 -255.238633 16.086950 0.000000 0.111628
594.000000 48.574000 -13.000000 2.000000 10.000000 125.960694 0.999526 956.222122 160.035147 20.576417 0.000000 0.080171
595.000000 55.634000 -11.000000 2.000000 10.000000 134.236863 9.560281 793.725815 -121.758849 17.962944 0.000000 0.028313
597.000000 45.922000 -14.000000 3.000000 10.000000 126.751268 -7.549898 1117.650504 130.227100 21.764141 0.000000 0.069819
598.000000 49.098000 -13.000000 3.000000 10.000000 130.978671 -5.105530 1071.161420 2.370835 20.355253 0.000000 0.047941
599.000000 52.499000 -12.000000 3.000000 10.000000 135.537823 -1.908250 1010.859506 -156.300754 19.035343 0.000000 0.022535
600.000000 56.096000 -11.000000 3.000000 10.000000 140.397278 2.419947 929.514546 -361.051623 17.813561 0.000000 0.010600
603.000000 49.203000 -13.000000 4.000000 10.000000 135.306128 -12.227532 1208.244478 -172.109037 20.310280 0.000000 0.024797
605.000000 45.941000 -14.000000 5.000000 10.000000 134.046044 -21.014249 1388.457810 -174.209274 21.752703 0.000000 0.047694
606.000000 48.922000 -13.000000 5.000000 10.000000 138.792952 -20.366432 1374.552624 -370.097852 20.426049 0.000000 0.073328
610.000000 46.028000 -8.000000 -4.000000 11.000000 92.406473 49.179049 -270.977532 871.806047 21.725212 0.000000 0.235994
612.000000 46.261000 -10.000000 -3.000000 11.000000 101.289081 37.551803 147.583194 669.997445 21.613240 0.000000 0.056195
613.000000 48.333000 -9.000000 -3.000000 11.000000 101.365314 43.039818 -30.059968 644.999100 20.686173 0.000000 0.114307
614.000000 50.178000 -8.000000 -3.000000 11.000000 100.864156 48.985382 -262.497133 626.237483 19.925733 0.000000 0.230609
616.000000 46.872000 -11.000000 -2.000000 11.000000 108.138905 30.653731 337.118225 531.130287 21.329428 0.000000 0.045930
617.000000 49.385000 -10.000000 -2.000000 11.000000 109.162417 36.068489 191.059034 478.291205 20.243156 0.000000 0.032222
618.000000 51.807000 -9.000000 -2.000000 11.000000 109.716251 42.112376 2.071133 421.051945 19.296430 0.000000 0.112889
619.000000 54.015000 -8.000000 -2.000000 11.000000 109.629788 48.744294 -252.031880 358.849945 18.507558 0.000000 0.248682
621.000000 46.558000 -12.000000 -1.000000 11.000000 113.681984 23.216553 513.331562 427.348717 21.471297 0.000000 0.073475
622.000000 49.327000 -11.000000 -1.000000 11.000000 115.575196 28.331006 394.723712 355.804659 20.265033 0.000000 0.028575
623.000000 52.120000 -10.000000 -1.000000 11.000000 117.155167 34.226456 242.824430 273.290842 19.178397 0.000000 0.036893
624.000000 54.843000 -9.000000 -1.000000 11.000000 118.240461 40.941209 41.328851 175.714899 18.225839 0.000000 0.135244
626.000000 46.822000 -13.000000 1.000000 11.000000 123.940679 11.432174 757.351979 201.988556 21.346687 0.000000 0.075803
627.000000 49.797000 -12.000000 1.000000 11.000000 127.119788 16.083169 664.686102 93.239711 20.070585 0.000000 0.044899
628.000000 52.887000 -11.000000 1.000000 11.000000 130.225039 21.794543 544.631916 -39.425370 18.897049 0.000000 0.036402
629.000000 56.027000 -10.000000 1.000000 11.000000 133.072597 28.814742 382.941545 -207.405785 17.837158 0.000000 0.099600
631.000000 47.726000 -13.000000 2.000000 11.000000 129.671422 6.597048 850.524698 42.399823 20.940894 0.000000 0.053715
632.000000 50.750000 -12.000000 2.000000 11.000000 133.419262 11.187947 762.123277 -97.216811 19.691890 0.000000 0.030196
633.000000 53.889000 -11.000000 2.000000 11.000000 137.174044 17.061588 644.678343 -273.695249 18.543936 0.000000 0.051835
636.000000 48.233000 -13.000000 3.000000 11.000000 134.935535 0.756704 960.784572 -132.968730 20.719205 0.000000 0.026516
637.000000 51.242000 -12.000000 3.000000 11.000000 139.231307 5.032663 880.218163 -312.108132 19.501452 0.000000 0.016837
640.000000 45.550000 -14.000000 4.000000 11.000000 135.101965 -8.869682 1142.959749 -152.204890 21.939411 0.000000 0.022986
641.000000 48.354000 -13.000000 4.000000 11.000000 139.575944 -6.272787 1093.306605 -330.176829 20.665745 0.000000 0.015418
648.000000 45.521000 -11.000000 -2.000000 12.000000 110.411882 35.306784 212.749846 450.202932 21.961068 0.000000 0.025897
649.000000 49.567000 -9.000000 -2.000000 12.000000 111.189149 46.955120 -177.373268 329.733867 20.167749 0.000000 0.212948
650.000000 47.753000 -11.000000 -1.000000 12.000000 117.703953 33.526042 261.912643 263.051097 20.932363 0.000000 0.032398
651.000000 50.072000 -10.000000 -1.000000 12.000000 118.810449 39.642242 83.274562 172.272340 19.962167 0.000000 0.118320
654.000000 49.601000 -11.000000 0.000000 12.000000 124.999084 31.305843 320.452469 58.979198 20.150066 0.000000 0.060357
655.000000 45.787000 -13.000000 1.000000 12.000000 126.837529 16.875257 648.504426 98.447849 21.828217 0.000000 0.043525
656.000000 48.381000 -12.000000 1.000000 12.000000 129.630279 22.135103 537.193888 -21.267617 20.657223 0.000000 0.034928
657.000000 51.013000 -11.000000 1.000000 12.000000 132.204247 28.470594 391.334925 -169.353491 19.590562 0.000000 0.089962
660.000000 46.641000 -13.000000 2.000000 12.000000 132.704574 12.518276 736.031095 -76.524576 21.426980 0.000000 0.031388
662.000000 47.134000 -13.000000 3.000000 12.000000 138.186869 7.131400 840.341430 -271.595123 21.201374 0.000000 0.021360
667.000000 45.755000 -10.000000 -2.000000 13.000000 112.446718 45.410657 -116.834211 307.623271 21.847707 0.000000 0.185448
669.000000 46.053000 -11.000000 -1.000000 13.000000 119.266475 38.540710 117.627578 169.858521 21.704084 0.000000 0.104940
670.000000 47.958000 -10.000000 -1.000000 13.000000 119.907079 44.756555 -92.186765 69.194024 20.841629 0.000000 0.216322
672.000000 46.817000 -12.000000 1.000000 13.000000 131.472994 28.190224 398.132484 -138.348681 21.346425 0.000000 0.082080
675.000000 47.664000 -12.000000 2.000000 13.000000 137.925346 24.819691 477.233294 -372.546244 20.965291 0.000000 0.103460
677.000000 45.866000 -13.000000 3.000000 13.000000 140.730602 13.912788 708.389140 -415.195441 21.786612 0.000000 0.054901
#UB matrix in q= (UB) B0 G* 
#[[ 0.443167361 -0.43969493  -0.780002725]
# [ 0.378890185 -0.69734087   0.608373708]
# [-0.812431485 -0.565899781 -0.142666019]]
#B0 matrix in q= UB (B0) G*
#[[ 0.19670273 -0.          0.03056101]
# [ 0.          0.19187965 -0.        ]
# [ 0.          0.          0.18806537]]
#UBB0 matrix in q= (UB B0) G* i.e. recip. basis vectors are columns in LT frame: astar = UBB0[:,0], bstar = UBB0[:,1], cstar = UBB0[:,2]. (abcstar as columns on xyzlab1, xlab1 = ui, ui = unit vector along incident beam)
#[[ 0.08717223 -0.08436851 -0.13314786]
# [ 0.07452873 -0.13380552  0.12599329]
# [-0.15980749 -0.10858465 -0.05165926]]
#Euler angles phi theta psi (deg)
#[304.835  98.19   52.098]
#deviatoric strain in direct crystal frame (10-3 unit)
#[[ 4.88 -0.38 -0.83]
# [-0.38  4.82  0.41]
# [-0.83  0.41 -9.7 ]]
#deviatoric strain in sample2 frame (10-3 unit)
#[[-2.    6.47  3.16]
# [ 6.48 -1.07 -3.53]
# [ 3.16 -3.52  3.08]]
#new lattice parameters
#[ 5.1505     5.2112801  5.3195869 89.9686713 99.2765287 90.0435467]
#CCDLabel
#sCMOS
#DetectorParameters
#[79.0, 975.0, 941.0, 0.0, 0.0]
#pixelsize
#0.0734
#Frame dimensions
#[2018, 2016]
#
