#Strain and Orientation Refinement from experimental file: /home/micha/LaueProjects/DepthEffects/testZrO2_21.cor
#File created at Wed Jun 28 14:18:54 2023 with indexingSpotsSet.py
#Number of indexed spots: 518
#Element
#ZrO2
#grainIndex
#G_0
#Mean Deviation(pixel): 0.119
##spot_index intensity h k l 2theta Chi Xexp Yexp Energy GrainIndex PixDev
32.000000 46.263000 8.000000 -8.000000 1.000000 79.433480 50.370642 -324.659834 1255.779296 21.639487 0.000000 0.284589
33.000000 46.357000 9.000000 -8.000000 1.000000 86.019469 50.156075 -314.796572 1057.894792 21.593017 0.000000 0.255338
34.000000 45.869000 10.000000 -8.000000 1.000000 91.827167 49.946832 -305.262983 887.643601 21.820881 0.000000 0.237080
36.000000 51.398000 6.000000 -7.000000 1.000000 70.794052 49.719750 -295.009869 1520.914981 19.480201 0.000000 0.315067
37.000000 52.719000 7.000000 -7.000000 1.000000 79.396223 49.481542 -284.356939 1251.141007 18.989385 0.000000 0.265323
38.000000 52.784000 8.000000 -7.000000 1.000000 86.838696 49.250167 -274.108354 1032.067578 18.963583 0.000000 0.233126
39.000000 52.030000 9.000000 -7.000000 1.000000 93.289373 49.025342 -264.241524 846.664056 19.236535 0.000000 0.214364
40.000000 50.768000 10.000000 -7.000000 1.000000 98.900207 48.806800 -254.735508 685.082717 19.712801 0.000000 0.206463
41.000000 49.214000 11.000000 -7.000000 1.000000 103.802705 48.594287 -245.570870 541.207983 20.333679 0.000000 0.207036
42.000000 47.511000 12.000000 -7.000000 1.000000 108.107913 48.387563 -236.729544 411.022855 21.061084 0.000000 0.213682
43.000000 45.752000 13.000000 -7.000000 1.000000 111.908383 48.186399 -228.194719 291.765949 21.869223 0.000000 0.224250
45.000000 59.269000 5.000000 -6.000000 1.000000 69.203575 48.561256 -244.153296 1558.644740 16.893667 0.000000 0.300558
46.000000 61.243000 6.000000 -6.000000 1.000000 79.325967 48.304088 -233.179776 1245.975579 16.346481 0.000000 0.242171
47.000000 61.236000 7.000000 -6.000000 1.000000 87.880819 48.055520 -222.677754 1000.584252 16.345953 0.000000 0.206263
48.000000 60.027000 8.000000 -6.000000 1.000000 95.129666 47.815135 -212.617482 797.120824 16.673221 0.000000 0.187093
49.000000 58.140000 9.000000 -6.000000 1.000000 101.303541 47.582543 -202.971661 622.059648 17.212498 0.000000 0.181459
50.000000 55.912000 10.000000 -6.000000 1.000000 106.595850 47.357380 -193.715197 467.481662 17.896787 0.000000 0.186016
51.000000 53.551000 11.000000 -6.000000 1.000000 111.164229 47.139301 -184.824981 328.411028 18.684627 0.000000 0.197213
52.000000 51.180000 12.000000 -6.000000 1.000000 115.135606 46.927984 -176.279700 201.541351 19.548991 0.000000 0.212073
56.000000 69.779000 4.000000 -5.000000 1.000000 66.897350 46.946408 -177.022053 1613.549081 14.349869 0.000000 0.284606
57.000000 72.995000 5.000000 -5.000000 1.000000 79.189145 46.672575 -166.040988 1240.527017 13.714993 0.000000 0.214228
58.000000 72.819000 6.000000 -5.000000 1.000000 89.247269 46.409699 -155.603503 961.508815 13.745808 0.000000 0.173455
59.000000 70.781000 7.000000 -5.000000 1.000000 97.510356 46.157146 -145.670211 736.151917 14.139523 0.000000 0.153902
60.000000 67.831000 8.000000 -5.000000 1.000000 104.352649 45.914328 -136.205440 545.162211 14.752806 0.000000 0.151943
61.000000 64.517000 9.000000 -5.000000 1.000000 110.073092 45.680702 -127.176806 378.069805 15.509022 0.000000 0.162480
62.000000 61.144000 10.000000 -5.000000 1.000000 114.903864 45.455763 -118.554841 228.646376 16.363486 0.000000 0.179844
63.000000 57.869000 11.000000 -5.000000 1.000000 119.023585 45.239041 -110.312676 92.915787 17.288379 0.000000 0.199918
69.000000 84.210000 3.000000 -4.000000 1.000000 63.270458 44.544502 -84.315943 1701.503289 11.891459 0.000000 0.268728
70.000000 90.166000 4.000000 -4.000000 1.000000 78.903403 44.266768 -74.093528 1235.784004 11.103234 0.000000 0.181024
71.000000 89.583000 5.000000 -4.000000 1.000000 91.106597 44.002826 -64.467901 912.097287 11.173168 0.000000 0.133648
72.000000 85.906000 6.000000 -4.000000 1.000000 100.694697 43.751685 -55.388283 659.603799 11.649439 0.000000 0.113040
73.000000 81.023000 7.000000 -4.000000 1.000000 108.327323 43.512444 -46.809497 449.401047 12.350049 0.000000 0.117125
74.000000 75.869000 8.000000 -4.000000 1.000000 114.496137 43.284285 -38.691217 267.326493 13.187572 0.000000 0.136819
75.000000 70.880000 9.000000 -4.000000 1.000000 119.557825 43.066462 -30.997332 105.516265 14.114785 0.000000 0.162213
76.000000 66.234000 10.000000 -4.000000 1.000000 123.770353 42.858295 -23.695412 -40.817855 15.103943 0.000000 0.188060
84.000000 103.823000 2.000000 -3.000000 1.000000 56.815834 40.614894 52.018803 1868.256683 9.646147 0.000000 0.260086
85.000000 117.368000 3.000000 -3.000000 1.000000 78.229239 40.383701 59.529593 1235.433177 8.530174 0.000000 0.144908
86.000000 115.744000 4.000000 -3.000000 1.000000 93.747310 40.167523 66.506064 848.750808 8.647524 0.000000 0.090122
87.000000 108.448000 5.000000 -3.000000 1.000000 105.123983 39.964950 73.003273 561.464999 9.227432 0.000000 0.062995
88.000000 99.749000 6.000000 -3.000000 1.000000 113.666276 39.774741 79.068967 327.253091 10.030662 0.000000 0.077089
89.000000 91.293000 7.000000 -3.000000 1.000000 120.248338 39.595802 84.744753 126.482659 10.958694 0.000000 0.110615
90.000000 83.618000 8.000000 -3.000000 1.000000 125.443582 39.427163 90.067056 -50.821652 11.963531 0.000000 0.145033
97.000000 165.478000 2.000000 -2.000000 1.000000 76.264065 33.171168 271.466045 1255.307079 6.050580 0.000000 0.118242
98.000000 161.103000 3.000000 -2.000000 1.000000 97.622122 33.197991 270.746671 768.875080 6.212468 0.000000 0.077800
99.000000 144.586000 4.000000 -2.000000 1.000000 111.516029 33.222463 270.089937 433.783846 6.920474 0.000000 0.021134
100.000000 127.601000 5.000000 -2.000000 1.000000 121.018273 33.244882 269.488001 167.183272 7.840431 0.000000 0.037849
101.000000 112.847000 6.000000 -2.000000 1.000000 127.840530 33.265495 268.934281 -58.930257 8.864619 0.000000 0.086813
102.000000 100.553000 7.000000 -2.000000 1.000000 132.943164 33.284512 268.423206 -257.229030 9.947738 0.000000 0.126594
107.000000 170.522000 4.000000 -1.000000 1.000000 130.867696 19.626098 591.196342 -47.692230 5.866191 0.000000 0.028956
108.000000 143.342000 5.000000 -1.000000 1.000000 137.550316 20.463486 573.371674 -314.894928 6.977868 0.000000 0.059268
112.000000 46.681000 5.000000 -7.000000 2.000000 60.563507 42.847680 -23.324412 1769.414921 21.452441 0.000000 0.262428
113.000000 49.701000 6.000000 -7.000000 2.000000 70.233989 42.712925 -18.625417 1467.386675 20.146161 0.000000 0.202663
114.000000 51.028000 7.000000 -7.000000 2.000000 78.643380 42.582076 -14.082091 1234.587555 19.619725 0.000000 0.162909
115.000000 51.174000 8.000000 -7.000000 2.000000 85.948579 42.454966 -9.686825 1044.323001 19.561128 0.000000 0.133665
116.000000 50.538000 9.000000 -7.000000 2.000000 92.304628 42.331438 -5.432497 882.407067 19.805220 0.000000 0.111581
117.000000 49.407000 10.000000 -7.000000 2.000000 97.852791 42.211344 -1.312435 740.581377 20.256398 0.000000 0.096435
118.000000 47.984000 11.000000 -7.000000 2.000000 102.716200 42.094545 2.679619 613.695158 20.855486 0.000000 0.089176
119.000000 46.404000 12.000000 -7.000000 2.000000 106.999546 41.980906 6.549538 498.356574 21.563893 0.000000 0.090072
120.000000 56.678000 5.000000 -6.000000 2.000000 68.377547 40.497325 55.844752 1502.024011 17.666941 0.000000 0.187353
121.000000 58.851000 7.000000 -6.000000 2.000000 86.607283 40.273828 63.080990 1024.629622 17.009501 0.000000 0.114468
122.000000 56.225000 9.000000 -6.000000 2.000000 99.860042 40.064617 69.811435 696.565930 17.799651 0.000000 0.071943
123.000000 52.067000 11.000000 -6.000000 2.000000 109.686206 39.868372 76.087327 439.283737 19.218063 0.000000 0.065551
124.000000 47.721000 13.000000 -6.000000 2.000000 117.160912 39.683926 81.953211 223.448646 20.965584 0.000000 0.093104
125.000000 57.324000 3.000000 -5.000000 2.000000 51.336244 37.556102 147.454706 2027.281409 17.472151 0.000000 0.269760
126.000000 65.531000 4.000000 -5.000000 2.000000 65.649817 37.479133 149.752973 1554.805635 15.281236 0.000000 0.171814
127.000000 68.839000 5.000000 -5.000000 2.000000 77.531496 37.405215 151.955642 1240.597475 14.544010 0.000000 0.129064
128.000000 69.056000 6.000000 -5.000000 2.000000 87.354389 37.334173 154.068557 1003.548217 14.495803 0.000000 0.100780
129.000000 67.498000 7.000000 -5.000000 2.000000 95.498786 37.265840 156.097095 810.806697 14.828247 0.000000 0.075066
130.000000 65.013000 8.000000 -5.000000 2.000000 102.296664 37.200066 158.046210 646.466608 15.393098 0.000000 0.051462
131.000000 62.113000 9.000000 -5.000000 2.000000 108.018646 37.136710 159.920477 501.840832 16.110245 0.000000 0.035838
132.000000 59.091000 10.000000 -5.000000 2.000000 112.878625 37.075640 161.724127 371.748995 16.932602 0.000000 0.038955
133.000000 56.111000 11.000000 -5.000000 2.000000 117.043614 37.016736 163.461076 252.885464 17.830680 0.000000 0.056301
134.000000 53.258000 12.000000 -5.000000 2.000000 120.643752 36.959884 165.134959 143.023452 18.785068 0.000000 0.077320
135.000000 50.570000 13.000000 -5.000000 2.000000 123.780778 36.904979 166.749147 40.594560 19.782469 0.000000 0.098273
136.000000 48.063000 14.000000 -5.000000 2.000000 126.534730 36.851922 168.306779 -55.547991 20.813464 0.000000 0.118069
137.000000 45.737000 15.000000 -5.000000 2.000000 128.969059 36.800622 169.810775 -146.269834 21.871201 0.000000 0.136372
138.000000 76.573000 3.000000 -4.000000 2.000000 61.331101 33.156767 271.852090 1643.951234 13.078799 0.000000 0.156295
139.000000 83.133000 5.000000 -4.000000 2.000000 88.140499 33.184893 271.097981 982.752193 12.041288 0.000000 0.100659
140.000000 76.644000 7.000000 -4.000000 2.000000 105.269477 33.210501 270.410997 589.814067 13.056597 0.000000 0.050179
141.000000 67.942000 9.000000 -4.000000 2.000000 116.685671 33.233913 269.782557 294.232315 14.725970 0.000000 0.011411
142.000000 59.953000 11.000000 -4.000000 2.000000 124.692038 33.255401 269.205484 50.053440 16.686226 0.000000 0.063446
143.000000 53.205000 13.000000 -4.000000 2.000000 130.565003 33.275191 268.673727 -161.041158 18.801075 0.000000 0.107830
146.000000 88.496000 2.000000 -3.000000 2.000000 53.763723 26.555454 437.078185 1822.803781 11.318273 0.000000 0.150750
147.000000 102.176000 3.000000 -3.000000 2.000000 73.714115 26.770938 432.009701 1293.192661 9.799846 0.000000 0.111790
148.000000 103.341000 4.000000 -3.000000 2.000000 88.744576 26.973958 427.216732 967.465920 9.686735 0.000000 0.119202
149.000000 98.896000 5.000000 -3.000000 2.000000 100.112649 27.165562 422.677406 725.237023 10.119951 0.000000 0.102983
150.000000 92.465000 6.000000 -3.000000 2.000000 108.852181 27.346682 418.372109 527.268043 10.822078 0.000000 0.074818
151.000000 85.690000 7.000000 -3.000000 2.000000 115.706350 27.518152 414.283196 356.770519 11.676334 0.000000 0.043629
152.000000 79.244000 8.000000 -3.000000 2.000000 121.189306 27.680721 410.394756 205.239794 12.625008 0.000000 0.018656
153.000000 73.362000 9.000000 -3.000000 2.000000 125.655975 27.835062 406.692396 67.827332 13.636302 0.000000 0.028106
154.000000 68.090000 10.000000 -3.000000 2.000000 129.354386 27.981782 403.163073 -58.487272 14.691255 0.000000 0.052340
155.000000 63.398000 11.000000 -3.000000 2.000000 132.460930 28.121430 399.794931 -175.720878 15.777860 0.000000 0.075272
156.000000 59.228000 12.000000 -3.000000 2.000000 135.103466 28.254504 396.577177 -285.297547 16.888143 0.000000 0.095533
162.000000 127.905000 2.000000 -2.000000 2.000000 67.834201 16.357375 659.099246 1397.974902 7.829642 0.000000 0.088554
163.000000 133.094000 3.000000 -2.000000 2.000000 88.301240 17.000390 645.935801 974.378924 7.521557 0.000000 0.148365
164.000000 125.424000 4.000000 -2.000000 2.000000 102.606957 17.598797 633.604214 688.463014 7.979307 0.000000 0.140181
165.000000 114.429000 5.000000 -2.000000 2.000000 112.871353 18.156964 622.028048 463.198020 8.744348 0.000000 0.108825
166.000000 103.533000 6.000000 -2.000000 2.000000 120.480544 18.678721 611.139950 272.284706 9.663303 0.000000 0.072956
167.000000 93.754000 7.000000 -2.000000 2.000000 126.298195 19.167440 600.880346 104.036806 10.670306 0.000000 0.042024
168.000000 77.956000 9.000000 -2.000000 2.000000 134.540329 20.057332 582.040823 -186.547498 12.831195 0.000000 0.041058
172.000000 143.272000 1.000000 -1.000000 2.000000 52.126430 -1.592724 1004.926834 1778.398690 6.991730 0.000000 0.068719
173.000000 173.003000 2.000000 -1.000000 2.000000 83.409478 0.034649 974.349132 1065.351089 5.787107 0.000000 0.157605
174.000000 162.860000 3.000000 -1.000000 2.000000 103.169442 1.534413 946.169340 689.072643 6.145168 0.000000 0.167969
175.000000 144.463000 4.000000 -1.000000 2.000000 116.046008 2.919181 920.116033 414.302489 6.926062 0.000000 0.131320
176.000000 126.929000 5.000000 -1.000000 2.000000 124.882797 4.200245 895.957263 188.626284 7.881687 0.000000 0.087649
177.000000 112.064000 6.000000 -1.000000 2.000000 131.245120 5.387685 873.493630 -6.910289 8.926291 0.000000 0.049375
178.000000 99.802000 7.000000 -1.000000 2.000000 136.012148 6.490487 852.552767 -181.200933 10.022346 0.000000 0.021928
179.000000 89.698000 8.000000 -1.000000 2.000000 139.701553 7.516653 832.984913 -339.193259 11.150826 0.000000 0.016451
186.000000 184.172000 1.000000 0.000000 2.000000 62.742741 -26.966171 1522.599112 1563.143439 5.437779 0.000000 0.131756
187.000000 179.173000 3.000000 0.000000 2.000000 113.286839 -21.462003 1398.139288 443.254018 5.584498 0.000000 0.089919
188.000000 154.398000 4.000000 0.000000 2.000000 125.199510 -18.954876 1344.649954 138.241890 6.479318 0.000000 0.044737
189.000000 133.340000 5.000000 0.000000 2.000000 133.190307 -16.604300 1295.945217 -113.329355 7.501748 0.000000 0.031992
190.000000 116.436000 6.000000 0.000000 2.000000 138.846293 -14.403256 1251.410591 -330.408828 8.590195 0.000000 0.047385
196.000000 189.788000 2.000000 1.000000 2.000000 93.749552 -50.688763 2289.448617 829.663036 5.273534 0.000000 0.272899
197.000000 173.584000 3.000000 1.000000 2.000000 113.261270 -47.650300 2155.772753 254.203178 5.764006 0.000000 0.235741
201.000000 47.237000 6.000000 -7.000000 3.000000 68.979706 36.200514 187.256829 1453.529338 21.198379 0.000000 0.148629
202.000000 48.652000 7.000000 -7.000000 3.000000 77.194376 36.166159 188.247479 1244.030382 20.579013 0.000000 0.124775
203.000000 48.964000 8.000000 -7.000000 3.000000 84.373146 36.132755 189.209846 1072.295138 20.445302 0.000000 0.107120
204.000000 48.525000 9.000000 -7.000000 3.000000 90.653550 36.100264 190.145123 925.804959 20.627949 0.000000 0.090451
205.000000 47.596000 10.000000 -7.000000 3.000000 96.162869 36.068649 191.054439 797.222276 21.028156 0.000000 0.073421
206.000000 46.366000 11.000000 -7.000000 3.000000 101.013583 36.037875 191.938859 681.949900 21.584383 0.000000 0.056244
207.000000 48.381000 4.000000 -6.000000 3.000000 55.561160 33.151808 271.984997 1822.515251 20.701671 0.000000 0.189717
208.000000 52.997000 5.000000 -6.000000 3.000000 66.690195 33.161645 271.721330 1494.968362 18.895201 0.000000 0.136747
209.000000 55.629000 7.000000 -6.000000 3.000000 84.479060 33.180390 271.218749 1065.299124 17.995909 0.000000 0.106836
210.000000 55.001000 8.000000 -6.000000 3.000000 91.536804 33.189327 270.979073 906.495569 18.199015 0.000000 0.093751
211.000000 52.019000 10.000000 -6.000000 3.000000 102.894912 33.206394 270.521216 646.506428 19.238374 0.000000 0.059712
212.000000 50.143000 11.000000 -6.000000 3.000000 107.489304 33.214548 270.302401 535.641217 19.956376 0.000000 0.040481
213.000000 46.251000 13.000000 -6.000000 3.000000 115.065846 33.230151 269.883551 339.200422 21.632966 0.000000 0.006578
214.000000 51.993000 3.000000 -5.000000 3.000000 49.750948 29.057948 376.976520 1983.317401 19.265228 0.000000 0.204599
215.000000 59.733000 4.000000 -5.000000 3.000000 63.336130 29.146367 374.800937 1559.826309 16.765824 0.000000 0.122639
216.000000 63.309000 5.000000 -5.000000 3.000000 74.786696 29.231527 372.702012 1276.403530 15.815833 0.000000 0.113998
217.000000 64.111000 6.000000 -5.000000 3.000000 84.388645 29.313604 370.675761 1062.275948 15.615328 0.000000 0.113833
218.000000 63.215000 7.000000 -5.000000 3.000000 92.449819 29.392761 368.718476 888.149213 15.834181 0.000000 0.106469
219.000000 61.358000 8.000000 -5.000000 3.000000 99.250257 29.469153 366.826693 739.660184 16.311324 0.000000 0.092542
220.000000 59.009000 9.000000 -5.000000 3.000000 105.025976 29.542922 364.997180 608.908383 16.958812 0.000000 0.074532
221.000000 56.455000 10.000000 -5.000000 3.000000 109.968681 29.614199 363.226910 491.166408 17.724556 0.000000 0.054484
222.000000 53.864000 11.000000 -5.000000 3.000000 114.231473 29.683108 361.513053 383.415793 18.575740 0.000000 0.033968
223.000000 51.332000 12.000000 -5.000000 3.000000 117.935904 29.749767 359.852955 283.626404 19.490662 0.000000 0.015204
224.000000 48.911000 13.000000 -5.000000 3.000000 121.178499 29.814282 358.244124 190.373098 20.454396 0.000000 0.013334
225.000000 46.625000 14.000000 -5.000000 3.000000 124.036201 29.876756 356.684222 102.618727 21.456339 0.000000 0.029888
227.000000 66.902000 3.000000 -4.000000 3.000000 58.127244 23.661078 503.411624 1671.645758 14.970897 0.000000 0.106434
228.000000 73.444000 4.000000 -4.000000 3.000000 72.302416 23.879305 498.517044 1316.589713 13.634166 0.000000 0.108246
229.000000 75.041000 5.000000 -4.000000 3.000000 83.851988 24.088385 493.812113 1067.993976 13.341271 0.000000 0.126540
230.000000 73.803000 6.000000 -4.000000 3.000000 93.264586 24.288877 489.286019 873.646797 13.562637 0.000000 0.126750
231.000000 71.105000 7.000000 -4.000000 3.000000 100.985505 24.481294 484.928756 711.433315 14.075101 0.000000 0.114805
232.000000 67.760000 8.000000 -4.000000 3.000000 107.378722 24.666109 480.731049 570.326702 14.768305 0.000000 0.096402
233.000000 64.217000 9.000000 -4.000000 3.000000 112.728242 24.843762 476.684292 444.175114 15.581416 0.000000 0.075223
234.000000 60.718000 10.000000 -4.000000 3.000000 117.251722 25.014657 472.780488 329.248593 16.478147 0.000000 0.053769
235.000000 57.380000 11.000000 -4.000000 3.000000 121.115347 25.179171 469.012192 223.134179 17.435511 0.000000 0.034546
236.000000 54.257000 12.000000 -4.000000 3.000000 124.446463 25.337650 465.372469 124.187061 18.438240 0.000000 0.023121
237.000000 51.364000 13.000000 -4.000000 3.000000 127.343369 25.490420 461.854849 31.236392 19.475794 0.000000 0.027763
238.000000 48.700000 14.000000 -4.000000 3.000000 129.882640 25.637781 458.453290 -56.582323 20.540664 0.000000 0.041436
239.000000 46.251000 15.000000 -4.000000 3.000000 132.124521 25.780013 455.162141 -139.927651 21.627356 0.000000 0.056454
240.000000 71.771000 2.000000 -3.000000 3.000000 49.481034 15.901476 668.379543 1897.458061 13.957214 0.000000 0.130663
241.000000 89.033000 4.000000 -3.000000 3.000000 82.290136 16.791241 650.227122 1093.198566 11.245168 0.000000 0.139210
242.000000 87.540000 5.000000 -3.000000 3.000000 93.633382 17.204588 641.736821 869.454392 11.434467 0.000000 0.150213
243.000000 78.786000 7.000000 -3.000000 3.000000 109.800267 17.975133 625.807164 533.620587 12.701037 0.000000 0.120387
244.000000 73.805000 8.000000 -3.000000 3.000000 115.651649 18.334753 618.325321 396.490627 13.556748 0.000000 0.096831
245.000000 64.580000 10.000000 -3.000000 3.000000 124.519592 19.008013 604.233773 158.049505 15.490945 0.000000 0.051217
246.000000 60.521000 11.000000 -3.000000 3.000000 127.939640 19.323530 597.590826 51.840535 16.528984 0.000000 0.034703
247.000000 53.512000 13.000000 -3.000000 3.000000 133.399480 19.916484 585.036637 -141.528242 18.692439 0.000000 0.035487
248.000000 50.504000 14.000000 -3.000000 3.000000 135.608137 20.195395 579.099014 -230.404872 19.805387 0.000000 0.047106
250.000000 95.230000 2.000000 -2.000000 3.000000 59.231545 5.510261 871.170099 1584.772149 10.517904 0.000000 0.018936
251.000000 105.613000 3.000000 -2.000000 3.000000 78.316219 6.334532 855.519379 1164.939332 9.480702 0.000000 0.138361
252.000000 104.889000 4.000000 -2.000000 3.000000 92.642322 7.115496 840.644836 890.943567 9.543423 0.000000 0.168787
253.000000 99.469000 5.000000 -2.000000 3.000000 103.473546 7.856212 826.490126 680.686886 10.061340 0.000000 0.162042
254.000000 92.555000 6.000000 -2.000000 3.000000 111.808251 8.559483 813.004230 505.482348 10.811247 0.000000 0.140267
255.000000 85.548000 7.000000 -2.000000 3.000000 118.353591 9.227881 800.140839 352.560642 11.695369 0.000000 0.113336
256.000000 78.997000 8.000000 -2.000000 3.000000 123.596241 9.863769 787.857826 215.285947 12.664108 0.000000 0.086064
257.000000 73.075000 9.000000 -2.000000 3.000000 127.871796 10.469316 776.116776 89.807993 13.689623 0.000000 0.061058
258.000000 67.794000 10.000000 -2.000000 3.000000 131.414944 11.046518 764.882595 -26.302294 14.755080 0.000000 0.040255
259.000000 63.110000 11.000000 -2.000000 3.000000 134.392852 11.597209 754.123154 -134.682243 15.849702 0.000000 0.026651
260.000000 58.954000 12.000000 -2.000000 3.000000 136.926915 12.123080 743.808982 -236.496327 16.966268 0.000000 0.024740
261.000000 55.261000 13.000000 -2.000000 3.000000 139.106951 12.625689 733.912999 -332.610065 18.099760 0.000000 0.031676
262.000000 51.967000 14.000000 -2.000000 3.000000 141.000596 13.106474 724.410278 -423.690721 19.246581 0.000000 0.040603
265.000000 87.743000 1.000000 -1.000000 3.000000 42.209045 -9.971176 1164.221475 2145.809384 11.417579 0.000000 0.231674
266.000000 118.515000 2.000000 -1.000000 3.000000 68.732483 -8.551442 1136.841304 1364.636475 8.450043 0.000000 0.096486
267.000000 123.779000 3.000000 -1.000000 3.000000 88.017213 -7.205005 1111.063104 978.557860 8.087774 0.000000 0.165260
268.000000 118.037000 4.000000 -1.000000 3.000000 101.920160 -5.927708 1086.750278 712.572269 8.478902 0.000000 0.167056
269.000000 108.877000 5.000000 -1.000000 3.000000 112.127349 -4.715537 1063.781329 501.877268 9.190481 0.000000 0.144172
270.000000 99.374000 6.000000 -1.000000 3.000000 119.817725 -3.564638 1042.047830 322.962480 10.067965 0.000000 0.113862
271.000000 90.596000 7.000000 -1.000000 3.000000 125.764015 -2.471344 1021.452715 165.057521 11.042423 0.000000 0.083469
272.000000 82.819000 8.000000 -1.000000 3.000000 130.470936 -1.432174 1001.908823 22.414688 12.078465 0.000000 0.056224
273.000000 76.031000 9.000000 -1.000000 3.000000 134.274016 -0.443841 983.337673 -108.390579 13.156054 0.000000 0.033473
274.000000 70.128000 10.000000 -1.000000 3.000000 137.401765 0.496749 965.668405 -229.577581 14.262995 0.000000 0.015638
275.000000 64.984000 11.000000 -1.000000 3.000000 140.013769 1.392501 948.836879 -342.682875 15.391440 0.000000 0.002652
276.000000 60.484000 12.000000 -1.000000 3.000000 142.224185 2.246141 932.784894 -448.828096 16.536110 0.000000 0.005878
282.000000 129.456000 2.000000 1.000000 3.000000 76.137739 -44.329415 2026.390901 1312.300205 7.733733 0.000000 0.212938
283.000000 131.657000 3.000000 1.000000 3.000000 95.293399 -42.239664 1952.282602 806.305378 7.601976 0.000000 0.114608
284.000000 123.769000 4.000000 1.000000 3.000000 109.064969 -40.187236 1884.128260 454.098404 8.084567 0.000000 0.078961
285.000000 113.152000 5.000000 1.000000 3.000000 119.139410 -38.176255 1821.238063 177.715761 8.841793 0.000000 0.093882
286.000000 102.649000 6.000000 1.000000 3.000000 126.696440 -36.210276 1763.024795 -53.158325 9.745427 0.000000 0.122961
287.000000 93.168000 7.000000 1.000000 3.000000 132.509414 -34.292271 1708.985449 -253.139506 10.736316 0.000000 0.148230
298.000000 45.822000 7.000000 -7.000000 4.000000 75.226727 30.326663 345.392325 1269.828900 21.851428 0.000000 0.114961
299.000000 46.340000 8.000000 -7.000000 4.000000 82.281073 30.371846 344.252614 1110.088014 21.604105 0.000000 0.112687
300.000000 46.140000 9.000000 -7.000000 4.000000 88.493788 30.415855 343.141492 973.817024 21.695309 0.000000 0.107730
301.000000 48.738000 5.000000 -6.000000 4.000000 64.432125 26.664824 434.508040 1517.214067 20.547941 0.000000 0.108329
302.000000 51.901000 7.000000 -6.000000 4.000000 81.763258 26.873937 429.580201 1115.664136 19.289884 0.000000 0.118786
303.000000 50.765000 9.000000 -6.000000 4.000000 94.814616 27.071126 424.916639 839.190536 19.716581 0.000000 0.113339
304.000000 47.897000 11.000000 -6.000000 4.000000 104.758269 27.257378 420.496650 622.052766 20.893448 0.000000 0.089733
305.000000 46.126000 3.000000 -5.000000 4.000000 47.620858 21.837488 543.695915 1998.992191 21.717121 0.000000 0.180841
306.000000 53.393000 4.000000 -5.000000 4.000000 60.438399 22.042213 539.226204 1599.605551 18.758045 0.000000 0.090997
307.000000 57.217000 5.000000 -5.000000 4.000000 71.428058 22.240117 534.893095 1331.691566 17.501391 0.000000 0.105442
308.000000 58.604000 6.000000 -5.000000 4.000000 80.791808 22.431531 530.690421 1129.762006 17.084223 0.000000 0.126171
309.000000 58.396000 7.000000 -5.000000 4.000000 88.764980 22.616766 526.612378 966.136337 17.142521 0.000000 0.133603
310.000000 57.208000 8.000000 -5.000000 4.000000 95.573583 22.796111 522.653505 827.070293 17.496150 0.000000 0.130663
311.000000 55.459000 9.000000 -5.000000 4.000000 101.416325 22.969841 518.808653 704.945169 18.045767 0.000000 0.121058
312.000000 53.422000 10.000000 -5.000000 4.000000 106.460215 23.138211 515.072966 595.182159 18.732092 0.000000 0.107473
313.000000 51.268000 11.000000 -5.000000 4.000000 110.842435 23.301464 511.441859 494.852267 19.517562 0.000000 0.091754
314.000000 49.102000 12.000000 -5.000000 4.000000 114.674459 23.459826 507.911002 401.985897 20.377222 0.000000 0.075196
315.000000 46.986000 13.000000 -5.000000 4.000000 118.046550 23.613512 504.476300 315.202991 21.293843 0.000000 0.058812
316.000000 57.262000 3.000000 -4.000000 4.000000 54.470538 16.017604 666.019671 1740.591133 17.492419 0.000000 0.082731
317.000000 66.549000 5.000000 -4.000000 4.000000 78.999600 16.684755 652.408368 1159.413672 15.045343 0.000000 0.131020
318.000000 65.032000 7.000000 -4.000000 4.000000 96.073098 17.304883 639.671033 821.059360 15.391215 0.000000 0.149111
319.000000 60.021000 9.000000 -4.000000 4.000000 108.142566 17.882659 627.726110 570.424078 16.672381 0.000000 0.125863
320.000000 54.437000 11.000000 -4.000000 4.000000 116.944380 18.422173 616.501883 364.365779 18.379647 0.000000 0.090790
321.000000 49.242000 13.000000 -4.000000 4.000000 123.573670 18.927016 605.935037 185.792341 20.316668 0.000000 0.056315
322.000000 57.521000 2.000000 -3.000000 4.000000 45.229749 8.054565 822.691327 2019.334769 17.415941 0.000000 0.168410
323.000000 70.068000 3.000000 -3.000000 4.000000 61.961830 8.610541 812.023243 1520.730089 14.294246 0.000000 0.044691
324.000000 75.389000 4.000000 -3.000000 4.000000 75.687189 9.144445 801.749164 1219.135140 13.282162 0.000000 0.125890
325.000000 76.163000 5.000000 -3.000000 4.000000 86.847017 9.657478 791.847658 1001.140563 13.144385 0.000000 0.159064
326.000000 74.405000 6.000000 -3.000000 4.000000 95.936118 10.150762 782.298822 827.310520 13.452564 0.000000 0.165360
327.000000 71.389000 7.000000 -3.000000 4.000000 103.392753 10.625347 773.084142 680.263781 14.018882 0.000000 0.157452
328.000000 67.851000 8.000000 -3.000000 4.000000 109.570392 11.082215 764.186379 551.104811 14.748008 0.000000 0.142177
329.000000 64.196000 9.000000 -3.000000 4.000000 114.743030 11.522286 755.589461 434.778456 15.586405 0.000000 0.123411
330.000000 60.630000 10.000000 -3.000000 4.000000 119.119993 11.946418 747.278383 328.177532 16.501692 0.000000 0.103460
331.000000 57.256000 11.000000 -3.000000 4.000000 122.860910 12.355420 739.239122 229.270843 17.473130 0.000000 0.083762
332.000000 54.114000 12.000000 -3.000000 4.000000 126.088078 12.750046 731.458559 136.662452 18.486826 0.000000 0.065309
333.000000 51.213000 13.000000 -3.000000 4.000000 128.895939 13.131007 723.924403 49.352190 19.533117 0.000000 0.048965
334.000000 48.547000 14.000000 -3.000000 4.000000 131.358115 13.498967 716.625133 -33.402309 20.605082 0.000000 0.035873
335.000000 46.101000 15.000000 -3.000000 4.000000 133.532579 13.854552 709.549931 -112.169015 21.697627 0.000000 0.027975
337.000000 83.282000 3.000000 -2.000000 4.000000 69.546388 -0.762244 989.319513 1342.452556 12.024830 0.000000 0.096833
338.000000 85.074000 5.000000 -2.000000 4.000000 94.398700 0.799662 959.977479 858.200162 11.765882 0.000000 0.173587
339.000000 76.919000 7.000000 -2.000000 4.000000 110.251483 2.240436 932.892209 543.598642 13.009410 0.000000 0.151943
340.000000 67.699000 9.000000 -2.000000 4.000000 120.850036 3.572019 907.812986 296.873879 14.778270 0.000000 0.109286
341.000000 59.575000 11.000000 -2.000000 4.000000 128.307099 4.805082 884.524904 87.778754 16.791678 0.000000 0.067461
342.000000 52.817000 13.000000 -2.000000 4.000000 133.789670 5.949144 862.842696 -96.343518 18.938693 0.000000 0.033916
343.000000 47.255000 15.000000 -2.000000 4.000000 137.968164 7.012685 842.605794 -262.010566 21.166664 0.000000 0.015485
345.000000 84.464000 2.000000 -1.000000 4.000000 58.411151 -13.427408 1231.953597 1621.452163 11.858422 0.000000 0.072950
346.000000 94.477000 3.000000 -1.000000 4.000000 76.199778 -12.274907 1209.176363 1211.552820 10.598432 0.000000 0.131306
347.000000 95.447000 4.000000 -1.000000 4.000000 90.027677 -11.165454 1187.437701 940.470060 10.487934 0.000000 0.163380
348.000000 91.991000 5.000000 -1.000000 4.000000 100.783281 -10.097469 1166.668162 732.786327 10.879707 0.000000 0.162801
349.000000 86.747000 6.000000 -1.000000 4.000000 109.241852 -9.069372 1146.804351 560.556708 11.535638 0.000000 0.146999
350.000000 81.033000 7.000000 -1.000000 4.000000 115.993967 -8.079594 1127.788287 410.934944 12.347585 0.000000 0.124927
351.000000 75.454000 8.000000 -1.000000 4.000000 121.468827 -7.126591 1109.566834 277.122430 13.259347 0.000000 0.101216
352.000000 70.258000 9.000000 -1.000000 4.000000 125.974875 -6.208851 1092.091205 155.137653 14.238823 0.000000 0.078334
353.000000 65.526000 10.000000 -1.000000 4.000000 129.734784 -5.324897 1075.316528 42.461251 15.266345 0.000000 0.057625
354.000000 61.258000 11.000000 -1.000000 4.000000 132.911158 -4.473295 1059.201458 -62.602217 16.329187 0.000000 0.039842
355.000000 57.424000 12.000000 -1.000000 4.000000 135.624433 -3.652658 1043.707840 -161.252620 17.418756 0.000000 0.025508
356.000000 53.981000 13.000000 -1.000000 4.000000 137.965151 -2.861646 1028.800408 -254.375401 18.529035 0.000000 0.015336
357.000000 50.886000 14.000000 -1.000000 4.000000 140.002387 -2.098968 1014.446510 -342.647361 19.655688 0.000000 0.010668
358.000000 48.096000 15.000000 -1.000000 4.000000 141.789578 -1.363386 1000.615880 -426.601433 20.795510 0.000000 0.010947
361.000000 100.727000 3.000000 0.000000 4.000000 80.610418 -25.527892 1489.009342 1138.233057 9.939550 0.000000 0.128487
362.000000 100.292000 4.000000 0.000000 4.000000 94.368526 -24.131264 1457.154674 850.905094 9.980215 0.000000 0.129190
363.000000 95.691000 5.000000 0.000000 4.000000 104.987465 -22.776091 1426.904050 628.492312 10.458007 0.000000 0.113288
364.000000 83.241000 7.000000 0.000000 4.000000 119.878160 -20.188481 1370.753538 282.172357 12.019033 0.000000 0.065573
365.000000 71.661000 9.000000 0.000000 4.000000 129.562479 -17.760431 1319.740552 7.298535 13.959312 0.000000 0.032247
366.000000 62.205000 11.000000 0.000000 4.000000 136.245074 -15.485566 1273.190846 -225.463417 16.079771 0.000000 0.039224
367.000000 54.655000 13.000000 0.000000 4.000000 141.083501 -13.356354 1230.543211 -429.139821 18.299916 0.000000 0.053923
370.000000 91.901000 2.000000 1.000000 4.000000 64.135179 -40.919665 1907.962140 1631.556106 10.896327 0.000000 0.237155
371.000000 100.296000 3.000000 1.000000 4.000000 81.847118 -39.341413 1857.236521 1140.374893 9.981441 0.000000 0.138752
372.000000 99.968000 4.000000 1.000000 4.000000 95.597029 -37.789139 1809.532686 807.532873 10.011842 0.000000 0.083555
373.000000 95.530000 5.000000 1.000000 4.000000 106.273691 -36.264428 1764.588430 551.323990 10.474990 0.000000 0.042808
374.000000 89.557000 6.000000 1.000000 4.000000 114.652714 -34.768652 1722.171028 339.676141 11.172163 0.000000 0.026971
375.000000 83.299000 7.000000 1.000000 4.000000 121.324970 -33.302975 1682.073210 157.252222 12.010160 0.000000 0.047929
376.000000 77.311000 8.000000 1.000000 4.000000 126.719910 -31.868357 1644.109772 -4.321535 12.939470 0.000000 0.073531
377.000000 71.802000 9.000000 1.000000 4.000000 131.146191 -30.465562 1608.114714 -150.081644 13.931358 0.000000 0.095506
378.000000 66.826000 10.000000 1.000000 4.000000 134.826673 -29.095167 1573.938815 -283.291420 14.968000 0.000000 0.112978
387.000000 91.748000 5.000000 2.000000 4.000000 104.615402 -49.164531 2220.339498 511.779449 10.906739 0.000000 0.240167
391.000000 46.827000 6.000000 -6.000000 5.000000 70.837042 21.186133 557.832623 1342.137661 21.384770 0.000000 0.103254
392.000000 47.959000 7.000000 -6.000000 5.000000 78.705453 21.358021 554.114306 1171.809627 20.877081 0.000000 0.123901
393.000000 48.113000 8.000000 -6.000000 5.000000 85.599909 21.525343 550.486388 1030.027215 20.807387 0.000000 0.134629
394.000000 47.602000 9.000000 -6.000000 5.000000 91.648968 21.688274 546.945610 907.655250 21.028443 0.000000 0.136822
395.000000 46.657000 10.000000 -6.000000 5.000000 96.970838 21.846985 543.488871 799.221306 21.452351 0.000000 0.132915
396.000000 47.208000 4.000000 -5.000000 5.000000 57.333037 16.086582 664.616657 1659.214958 21.217185 0.000000 0.067381
397.000000 53.024000 6.000000 -5.000000 5.000000 76.926740 16.620239 653.728730 1201.829095 18.883766 0.000000 0.124728
398.000000 53.424000 7.000000 -5.000000 5.000000 84.782160 16.875506 648.499319 1043.711338 18.739369 0.000000 0.143917
399.000000 52.860000 8.000000 -5.000000 5.000000 91.576070 17.123492 643.405524 910.012648 18.936851 0.000000 0.150195
400.000000 51.692000 9.000000 -5.000000 5.000000 97.470489 17.364495 638.442137 793.127891 19.362583 0.000000 0.147931
401.000000 48.460000 11.000000 -5.000000 5.000000 107.105480 17.826667 628.887057 593.070837 20.650384 0.000000 0.129014
402.000000 46.672000 12.000000 -5.000000 5.000000 111.066184 18.048359 624.286200 504.967419 21.439889 0.000000 0.115841
403.000000 48.678000 3.000000 -4.000000 5.000000 50.858665 9.934810 786.482681 1830.306092 20.578402 0.000000 0.093444
404.000000 55.218000 4.000000 -4.000000 5.000000 63.387139 10.337636 778.673748 1489.168460 18.138023 0.000000 0.056968
405.000000 58.463000 5.000000 -4.000000 5.000000 74.102644 10.727797 771.091239 1252.989551 17.128062 0.000000 0.117932
406.000000 59.423000 6.000000 -4.000000 5.000000 83.220456 11.105844 763.725448 1071.392476 16.848307 0.000000 0.149648
407.000000 58.914000 7.000000 -4.000000 5.000000 90.979559 11.472303 756.567213 922.222144 16.991456 0.000000 0.161685
408.000000 57.518000 8.000000 -4.000000 5.000000 97.604584 11.827670 749.607885 794.186972 17.401427 0.000000 0.161678
409.000000 55.629000 9.000000 -4.000000 5.000000 103.290764 12.172415 742.839286 680.910535 17.990532 0.000000 0.154339
410.000000 53.497000 10.000000 -4.000000 5.000000 108.201121 12.506983 736.253681 578.507018 18.705712 0.000000 0.142628
411.000000 51.280000 11.000000 -4.000000 5.000000 112.469054 12.831796 729.843749 484.463802 19.512981 0.000000 0.128455
412.000000 49.072000 12.000000 -4.000000 5.000000 116.202737 13.147255 723.602552 397.076760 20.389560 0.000000 0.113089
413.000000 46.928000 13.000000 -4.000000 5.000000 119.489666 13.453739 717.523514 315.143536 21.319611 0.000000 0.097401
414.000000 46.433000 2.000000 -3.000000 5.000000 41.480724 2.236387 932.968389 2159.282297 21.575798 0.000000 0.228540
415.000000 57.604000 3.000000 -3.000000 5.000000 56.679251 2.818381 922.014308 1649.408161 17.388716 0.000000 0.012619
416.000000 63.539000 4.000000 -3.000000 5.000000 69.573857 3.381297 911.408908 1342.528377 15.761194 0.000000 0.095630
417.000000 65.762000 5.000000 -3.000000 5.000000 80.390389 3.925954 901.135802 1123.655893 15.225296 0.000000 0.147160
418.000000 65.620000 6.000000 -3.000000 5.000000 89.439917 4.453132 891.179614 951.553290 15.255438 0.000000 0.168015
419.000000 64.093000 7.000000 -3.000000 5.000000 97.032027 4.963574 881.525901 807.737191 15.616780 0.000000 0.171517
420.000000 61.821000 8.000000 -3.000000 5.000000 103.438302 5.457989 872.161086 682.658821 16.188607 0.000000 0.165024
421.000000 59.204000 9.000000 -3.000000 5.000000 108.883293 5.937048 863.072391 570.867364 16.902512 0.000000 0.152835
422.000000 56.478000 10.000000 -3.000000 5.000000 113.547503 6.401392 854.247782 469.009733 17.716833 0.000000 0.137575
423.000000 53.778000 11.000000 -3.000000 5.000000 117.574294 6.851630 845.675914 374.898795 18.604749 0.000000 0.120902
424.000000 51.180000 12.000000 -3.000000 5.000000 121.077177 7.288343 837.346081 287.038542 19.548206 0.000000 0.103888
425.000000 48.719000 13.000000 -3.000000 5.000000 124.146208 7.712083 829.248175 204.364456 20.534613 0.000000 0.087244
426.000000 46.411000 14.000000 -3.000000 5.000000 126.853178 8.123374 821.372644 126.093231 21.554914 0.000000 0.071464
427.000000 55.290000 2.000000 -2.000000 5.000000 46.558340 -6.466362 1096.988200 1966.810402 18.118743 0.000000 0.153543
428.000000 66.341000 3.000000 -2.000000 5.000000 62.321933 -5.685140 1082.146528 1508.332191 15.097275 0.000000 0.053552
429.000000 71.336000 4.000000 -2.000000 5.000000 75.439660 -4.928982 1067.819417 1221.595896 14.036902 0.000000 0.129269
430.000000 72.365000 5.000000 -2.000000 5.000000 86.254785 -4.196953 1053.980563 1011.643217 13.834510 0.000000 0.163870
431.000000 71.072000 6.000000 -2.000000 5.000000 95.171876 -3.488144 1040.605426 843.401386 14.083689 0.000000 0.173162
432.000000 68.550000 7.000000 -2.000000 5.000000 102.563341 -2.801673 1027.671081 700.855622 14.599704 0.000000 0.168477
433.000000 65.463000 8.000000 -2.000000 5.000000 108.739233 -2.136691 1015.156092 575.618840 15.286496 0.000000 0.156171
434.000000 62.191000 9.000000 -2.000000 5.000000 113.946279 -1.492373 1003.040390 462.849409 16.089172 0.000000 0.139941
435.000000 58.944000 10.000000 -2.000000 5.000000 118.377098 -0.867928 991.305165 359.539005 16.974088 0.000000 0.122009
436.000000 55.831000 11.000000 -2.000000 5.000000 122.181225 -0.262591 979.932774 263.706644 17.919475 0.000000 0.103743
437.000000 52.902000 12.000000 -2.000000 5.000000 125.474937 0.324372 968.906643 173.984590 18.910623 0.000000 0.085997
438.000000 50.175000 13.000000 -2.000000 5.000000 128.349145 0.893668 958.211197 89.390403 19.937237 0.000000 0.069301
439.000000 47.653000 14.000000 -2.000000 5.000000 130.875468 1.445974 947.831779 9.194248 20.991893 0.000000 0.053978
440.000000 62.947000 2.000000 -1.000000 5.000000 51.043605 -16.528681 1294.399023 1848.719814 15.913423 0.000000 0.134749
441.000000 73.509000 3.000000 -1.000000 5.000000 67.145235 -15.537711 1274.245844 1411.851032 13.623755 0.000000 0.097298
442.000000 77.495000 4.000000 -1.000000 5.000000 80.355903 -14.575377 1254.859790 1129.975440 12.919949 0.000000 0.142520
443.000000 77.438000 5.000000 -1.000000 5.000000 91.113940 -13.640974 1236.197878 919.464677 12.926767 0.000000 0.160120
444.000000 75.179000 6.000000 -1.000000 5.000000 99.893306 -12.733781 1218.220280 748.552864 13.312954 0.000000 0.158695
445.000000 71.862000 7.000000 -1.000000 5.000000 107.109754 -11.853061 1200.890031 602.469777 13.925453 0.000000 0.146973
446.000000 68.144000 8.000000 -1.000000 5.000000 113.098155 -10.998070 1184.172787 473.373956 14.683779 0.000000 0.130149
447.000000 64.377000 9.000000 -1.000000 5.000000 118.118573 -10.168062 1168.036586 356.686811 15.541569 0.000000 0.111276
448.000000 60.743000 10.000000 -1.000000 5.000000 122.370320 -9.362290 1152.451654 249.533982 16.470230 0.000000 0.092190
449.000000 57.325000 11.000000 -1.000000 5.000000 126.005920 -8.580015 1137.390215 150.004062 17.451169 0.000000 0.074013
450.000000 54.155000 12.000000 -1.000000 5.000000 129.142635 -7.820501 1122.826329 56.764640 18.471775 0.000000 0.057462
451.000000 51.237000 13.000000 -1.000000 5.000000 131.871318 -7.083026 1108.735741 -31.150480 19.523191 0.000000 0.043042
452.000000 48.559000 14.000000 -1.000000 5.000000 134.263012 -6.366877 1095.095749 -114.465860 20.599015 0.000000 0.031219
453.000000 46.106000 15.000000 -1.000000 5.000000 136.373810 -5.671358 1081.885078 -193.740780 21.694502 0.000000 0.022583
455.000000 68.245000 2.000000 1.000000 5.000000 55.695459 -38.807851 1840.605676 1883.343563 14.675422 0.000000 0.273758
456.000000 77.894000 3.000000 1.000000 5.000000 71.746829 -37.544059 1802.185381 1388.700090 12.854372 0.000000 0.165117
457.000000 81.076000 4.000000 1.000000 5.000000 84.906478 -36.298857 1765.583680 1060.033718 12.347224 0.000000 0.116585
458.000000 80.358000 5.000000 1.000000 5.000000 95.612860 -35.072986 1730.674434 811.756602 12.455165 0.000000 0.083117
459.000000 77.573000 6.000000 1.000000 5.000000 104.340091 -33.867097 1697.342909 609.631339 12.900318 0.000000 0.052846
460.000000 73.843000 7.000000 1.000000 5.000000 111.504078 -32.681746 1665.484511 437.185438 13.550280 0.000000 0.024133
461.000000 69.799000 8.000000 1.000000 5.000000 117.439825 -31.517401 1635.003690 285.446239 14.333942 0.000000 0.004772
462.000000 65.775000 9.000000 1.000000 5.000000 122.407515 -30.374445 1605.812988 149.063008 15.209698 0.000000 0.027806
463.000000 61.936000 10.000000 1.000000 5.000000 126.606561 -29.253179 1577.832193 24.614423 16.151584 0.000000 0.049277
464.000000 58.353000 11.000000 1.000000 5.000000 130.189578 -28.153824 1550.987611 -90.212574 17.142556 0.000000 0.067772
465.000000 55.048000 12.000000 1.000000 5.000000 133.273907 -27.076531 1525.211411 -197.054988 18.170965 0.000000 0.083265
466.000000 52.018000 13.000000 1.000000 5.000000 135.950475 -26.021381 1500.441057 -297.116532 19.228578 0.000000 0.095890
471.000000 74.501000 3.000000 2.000000 5.000000 71.056664 -48.205112 2178.985797 1495.278283 13.439344 0.000000 0.307716
472.000000 78.085000 4.000000 2.000000 5.000000 84.088255 -46.949719 2127.155522 1104.259111 12.819714 0.000000 0.217304
473.000000 77.927000 5.000000 2.000000 5.000000 94.816022 -45.703264 2078.045416 811.152680 12.843376 0.000000 0.164490
474.000000 75.672000 6.000000 2.000000 5.000000 103.644752 -44.466816 2031.446816 574.895161 13.224126 0.000000 0.138445
475.000000 72.382000 7.000000 2.000000 5.000000 110.947075 -43.241394 1987.171865 375.419834 13.823612 0.000000 0.133398
476.000000 68.683000 8.000000 2.000000 5.000000 117.033248 -42.027954 1945.050989 201.672098 14.566778 0.000000 0.141588
477.000000 64.922000 9.000000 2.000000 5.000000 122.150179 -40.827395 1904.930718 47.002400 15.409383 0.000000 0.155511
478.000000 61.282000 10.000000 2.000000 5.000000 126.490643 -39.640549 1866.671827 -92.869966 16.323659 0.000000 0.170523
496.000000 47.692000 6.000000 -5.000000 6.000000 73.047074 11.742369 751.280006 1276.102326 20.996551 0.000000 0.112562
497.000000 48.576000 7.000000 -5.000000 6.000000 80.746606 12.040288 745.435470 1120.295391 20.611665 0.000000 0.141838
498.000000 48.542000 8.000000 -5.000000 6.000000 87.489660 12.330626 739.727170 989.300857 20.623268 0.000000 0.156344
499.000000 47.891000 9.000000 -5.000000 6.000000 93.404712 12.613654 734.150398 875.383842 20.901132 0.000000 0.160873
500.000000 46.844000 10.000000 -5.000000 6.000000 98.608743 12.889633 728.700659 773.845782 21.366434 0.000000 0.158726
501.000000 45.555000 11.000000 -5.000000 6.000000 103.204356 13.158809 723.373661 681.661633 21.968667 0.000000 0.152144
502.000000 51.183000 5.000000 -4.000000 6.000000 69.451339 5.928011 863.243969 1346.621217 19.566077 0.000000 0.094339
503.000000 53.074000 7.000000 -4.000000 6.000000 85.990788 6.730230 847.988740 1016.959167 18.863147 0.000000 0.160485
504.000000 51.254000 9.000000 -4.000000 6.000000 98.424963 7.490705 833.480807 780.215372 19.527928 0.000000 0.168249
505.000000 48.041000 11.000000 -4.000000 6.000000 107.902675 8.212362 819.666574 589.708588 20.830075 0.000000 0.152247
506.000000 53.704000 4.000000 -3.000000 6.000000 64.165027 -1.035252 994.449203 1462.196799 18.649364 0.000000 0.059414
507.000000 56.719000 5.000000 -3.000000 6.000000 74.530543 -0.492968 984.260567 1238.876065 17.654760 0.000000 0.124367
508.000000 57.260000 7.000000 -3.000000 6.000000 91.012237 0.548098 964.703736 921.982405 17.482408 0.000000 0.171460
509.000000 56.014000 8.000000 -3.000000 6.000000 97.539789 1.047864 955.313811 798.518882 17.868889 0.000000 0.173403
510.000000 52.311000 10.000000 -3.000000 6.000000 108.051259 2.008196 937.260821 590.010355 19.129986 0.000000 0.158011
511.000000 50.236000 11.000000 -3.000000 6.000000 112.309506 2.469646 928.579240 498.960350 19.918500 0.000000 0.145383
512.000000 46.121000 13.000000 -3.000000 6.000000 119.343875 3.357204 911.863064 334.887433 21.693032 0.000000 0.116656
513.000000 53.712000 3.000000 -2.000000 6.000000 56.464776 -9.251882 1150.321953 1663.737625 18.648458 0.000000 0.057981
514.000000 61.633000 5.000000 -2.000000 6.000000 79.170258 -7.869324 1123.760875 1148.850553 16.245617 0.000000 0.143437
515.000000 60.832000 7.000000 -2.000000 6.000000 95.524177 -6.557969 1098.731441 836.220661 16.454264 0.000000 0.171029
516.000000 56.811000 9.000000 -2.000000 6.000000 107.400734 -5.313727 1075.104880 602.238870 17.614727 0.000000 0.157276
517.000000 52.037000 11.000000 -2.000000 6.000000 116.231101 -4.132662 1052.766463 409.289163 19.227846 0.000000 0.129348
518.000000 47.433000 13.000000 -2.000000 6.000000 122.972423 -3.011013 1031.613639 241.817344 21.091556 0.000000 0.098412
519.000000 48.787000 2.000000 -1.000000 6.000000 45.610466 -18.663454 1338.540505 2053.079303 20.532952 0.000000 0.211052
520.000000 58.514000 3.000000 -1.000000 6.000000 60.137758 -17.799935 1320.558935 1590.022058 17.116843 0.000000 0.091543
521.000000 63.599000 4.000000 -1.000000 6.000000 72.528250 -16.956594 1303.164791 1295.168062 15.744885 0.000000 0.117813
522.000000 65.390000 5.000000 -1.000000 6.000000 82.983999 -16.133084 1286.329751 1078.887613 15.310816 0.000000 0.146392
523.000000 65.065000 6.000000 -1.000000 6.000000 91.782402 -15.329043 1270.027283 906.271468 15.384633 0.000000 0.156992
524.000000 63.489000 7.000000 -1.000000 6.000000 99.202241 -14.544094 1254.232510 760.862602 15.764352 0.000000 0.155238
525.000000 61.235000 8.000000 -1.000000 6.000000 105.491065 -13.777850 1238.922079 633.860423 16.342555 0.000000 0.146077
526.000000 58.665000 9.000000 -1.000000 6.000000 110.856032 -13.029913 1224.074049 520.112470 17.056849 0.000000 0.132767
527.000000 55.996000 10.000000 -1.000000 6.000000 115.465513 -12.299882 1209.667782 416.387004 17.868509 0.000000 0.117407
528.000000 53.353000 11.000000 -1.000000 6.000000 119.454555 -11.587350 1195.683852 320.543293 18.752232 0.000000 0.101362
529.000000 50.807000 12.000000 -1.000000 6.000000 122.931018 -10.891907 1182.103957 231.098620 19.690783 0.000000 0.085535
530.000000 48.393000 13.000000 -1.000000 6.000000 125.981121 -10.213145 1168.910834 146.986972 20.672016 0.000000 0.070542
531.000000 46.126000 14.000000 -1.000000 6.000000 128.674054 -9.550653 1156.088193 67.417159 21.687127 0.000000 0.056828
532.000000 51.917000 2.000000 0.000000 6.000000 48.135720 -27.948170 1546.027539 2032.831312 19.293704 0.000000 0.238755
533.000000 66.115000 4.000000 0.000000 6.000000 75.159232 -26.002687 1500.006267 1258.308701 15.144475 0.000000 0.124573
534.000000 67.529000 5.000000 0.000000 6.000000 85.603995 -25.057728 1478.205086 1032.337371 14.824543 0.000000 0.131000
535.000000 64.991000 7.000000 0.000000 6.000000 101.741631 -23.223228 1436.816906 697.570746 15.399082 0.000000 0.119837
536.000000 62.493000 8.000000 0.000000 6.000000 107.977359 -22.333519 1417.156196 563.439194 16.012630 0.000000 0.105942
537.000000 56.893000 10.000000 0.000000 6.000000 117.840764 -20.608519 1379.735068 333.692094 17.585799 0.000000 0.073504
538.000000 54.119000 11.000000 0.000000 6.000000 121.775477 -19.772880 1361.914397 232.536554 18.485986 0.000000 0.058029
539.000000 48.964000 13.000000 0.000000 6.000000 128.199386 -18.154279 1327.916096 49.690082 20.430315 0.000000 0.035131
540.000000 46.624000 14.000000 0.000000 6.000000 130.844385 -17.370841 1311.688735 -33.953548 21.454799 0.000000 0.030833
542.000000 61.899000 3.000000 1.000000 6.000000 64.015513 -36.322677 1766.272795 1592.094789 16.178259 0.000000 0.189885
543.000000 66.469000 4.000000 1.000000 6.000000 76.370223 -35.284209 1736.613580 1260.706213 15.062958 0.000000 0.137536
544.000000 67.808000 5.000000 1.000000 6.000000 86.789765 -34.259961 1708.096593 1014.040108 14.762825 0.000000 0.110228
545.000000 67.103000 6.000000 1.000000 6.000000 95.551607 -33.250285 1680.657096 815.906213 14.915469 0.000000 0.088214
546.000000 65.214000 7.000000 1.000000 6.000000 102.934611 -32.255484 1654.235153 648.703139 15.345581 0.000000 0.066454
547.000000 62.705000 8.000000 1.000000 6.000000 109.186403 -31.275820 1628.775193 502.801119 15.958009 0.000000 0.044588
548.000000 59.925000 9.000000 1.000000 6.000000 114.514210 -30.311508 1604.225619 372.459217 16.696645 0.000000 0.023523
549.000000 57.085000 10.000000 1.000000 6.000000 119.086464 -29.362724 1580.538458 254.021186 17.526264 0.000000 0.008002
550.000000 54.301000 11.000000 1.000000 6.000000 123.038268 -28.429605 1557.669052 145.032301 18.423632 0.000000 0.019420
551.000000 51.638000 12.000000 1.000000 6.000000 126.477530 -27.512247 1535.575770 43.771480 19.372805 0.000000 0.036063
552.000000 49.126000 13.000000 1.000000 6.000000 129.490514 -26.610713 1514.219764 -51.012704 20.362480 0.000000 0.051306
553.000000 46.777000 14.000000 1.000000 6.000000 132.146449 -25.725033 1493.564733 -140.258876 21.384418 0.000000 0.064703
554.000000 60.112000 3.000000 2.000000 6.000000 63.933413 -45.386847 2065.927042 1690.652121 16.658276 0.000000 0.304249
555.000000 66.277000 5.000000 2.000000 6.000000 86.511329 -43.280154 1988.544786 1031.129726 15.103368 0.000000 0.154595
556.000000 64.184000 7.000000 2.000000 6.000000 102.734902 -41.208514 1917.506951 617.675660 15.591647 0.000000 0.089224
557.000000 59.278000 9.000000 2.000000 6.000000 114.479288 -39.176329 1852.064012 308.876336 16.878611 0.000000 0.082353
558.000000 53.901000 11.000000 2.000000 6.000000 123.176521 -37.187441 1791.580037 57.718095 18.559884 0.000000 0.108363
559.000000 48.880000 13.000000 2.000000 6.000000 129.784441 -35.245113 1735.511951 -156.403756 20.464654 0.000000 0.136416
562.000000 63.253000 5.000000 3.000000 6.000000 84.951815 -51.709453 2338.287304 1094.434606 15.825411 0.000000 0.320114
563.000000 62.058000 7.000000 3.000000 6.000000 101.270250 -49.671598 2242.848033 609.580955 16.125708 0.000000 0.247046
564.000000 60.145000 8.000000 3.000000 6.000000 107.715013 -48.658576 2198.335152 420.520304 16.636885 0.000000 0.236401
574.000000 46.866000 6.000000 -4.000000 7.000000 73.738513 2.443671 929.068075 1255.231051 21.366730 0.000000 0.119576
575.000000 47.690000 7.000000 -4.000000 7.000000 81.266456 2.848627 921.444758 1106.545654 20.994352 0.000000 0.150514
576.000000 47.659000 8.000000 -4.000000 7.000000 87.882173 3.244241 913.992110 980.865146 21.005483 0.000000 0.166372
577.000000 47.045000 9.000000 -4.000000 7.000000 93.704323 3.630798 906.704461 871.177469 21.276991 0.000000 0.172237
578.000000 46.053000 10.000000 -4.000000 7.000000 98.841726 4.008570 899.576394 773.167574 21.733359 0.000000 0.171404
579.000000 45.700000 4.000000 -3.000000 7.000000 59.471836 -4.489810 1059.513599 1577.652318 21.916958 0.000000 0.034522
580.000000 49.062000 5.000000 -3.000000 7.000000 69.332494 -3.965615 1049.612777 1347.974715 20.412112 0.000000 0.096995
581.000000 50.685000 6.000000 -3.000000 7.000000 77.950316 -3.453533 1039.952879 1171.167057 19.755030 0.000000 0.139754
582.000000 51.068000 7.000000 -3.000000 7.000000 85.463980 -2.953228 1030.525216 1026.500598 19.604156 0.000000 0.162561
583.000000 50.608000 8.000000 -3.000000 7.000000 92.018053 -2.464373 1021.321515 903.040332 19.779691 0.000000 0.172216
584.000000 49.604000 9.000000 -3.000000 7.000000 97.748581 -1.986647 1012.333887 794.461841 20.177972 0.000000 0.173249
585.000000 48.266000 10.000000 -3.000000 7.000000 102.776747 -1.519739 1003.554812 696.845362 20.735029 0.000000 0.168626
586.000000 46.743000 11.000000 -3.000000 7.000000 107.207173 -1.063346 994.977115 607.626196 21.409247 0.000000 0.160329
587.000000 49.741000 4.000000 -2.000000 7.000000 63.120524 -11.291440 1189.897603 1497.318715 20.135333 0.000000 0.072085
588.000000 52.761000 5.000000 -2.000000 7.000000 73.079222 -10.661163 1177.612421 1274.180821 18.979272 0.000000 0.118983
589.000000 53.970000 6.000000 -2.000000 7.000000 81.716017 -10.044727 1165.646145 1100.146498 18.551195 0.000000 0.149983
590.000000 53.932000 7.000000 -2.000000 7.000000 89.194807 -9.441817 1153.986517 956.334183 18.561784 0.000000 0.164708
591.000000 53.080000 8.000000 -2.000000 7.000000 95.679526 -8.852124 1142.621899 832.669619 18.857096 0.000000 0.168429
592.000000 51.729000 9.000000 -2.000000 7.000000 101.320114 -8.275337 1131.541234 723.275250 19.347677 0.000000 0.164996
593.000000 50.092000 10.000000 -2.000000 7.000000 106.247272 -7.711152 1120.734011 624.482194 19.977992 0.000000 0.156997
594.000000 48.313000 11.000000 -2.000000 7.000000 110.571934 -7.159264 1110.190232 533.875053 20.711743 0.000000 0.146178
595.000000 46.487000 12.000000 -2.000000 7.000000 114.386904 -6.619377 1099.900381 449.793394 21.524201 0.000000 0.133728
596.000000 47.615000 3.000000 -1.000000 7.000000 54.617569 -19.455906 1355.203880 1751.677143 21.036325 0.000000 0.121414
597.000000 52.888000 4.000000 -1.000000 7.000000 66.152123 -18.708042 1339.473907 1443.316832 18.935463 0.000000 0.100694
598.000000 55.589000 5.000000 -1.000000 7.000000 76.157396 -17.974883 1324.187650 1219.820699 18.012598 0.000000 0.128643
599.000000 56.445000 6.000000 -1.000000 7.000000 84.789931 -17.256231 1309.326595 1043.766947 17.736384 0.000000 0.147522
600.000000 56.068000 7.000000 -1.000000 7.000000 92.230915 -16.551880 1294.873246 897.258806 17.853267 0.000000 0.154272
601.000000 54.912000 8.000000 -1.000000 7.000000 98.657137 -15.861614 1280.811050 770.641289 18.226929 0.000000 0.152398
602.000000 53.296000 9.000000 -1.000000 7.000000 104.227494 -15.185209 1267.124342 658.233015 18.777551 0.000000 0.144954
603.000000 51.435000 10.000000 -1.000000 7.000000 109.078660 -14.522434 1253.798280 556.462415 19.455289 0.000000 0.134106
604.000000 49.468000 11.000000 -1.000000 7.000000 113.325418 -13.873054 1240.818794 462.963682 20.227413 0.000000 0.121345
605.000000 47.483000 12.000000 -1.000000 7.000000 117.062977 -13.236829 1228.172539 376.101415 21.071541 0.000000 0.107704
606.000000 45.535000 13.000000 -1.000000 7.000000 120.369878 -12.613515 1215.846844 294.704110 21.971849 0.000000 0.093905
607.000000 50.288000 3.000000 1.000000 7.000000 57.966093 -35.439379 1740.996397 1767.567954 19.915337 0.000000 0.218087
608.000000 55.220000 4.000000 1.000000 7.000000 69.474232 -34.549252 1716.079589 1430.245599 18.133752 0.000000 0.154096
609.000000 57.605000 5.000000 1.000000 7.000000 79.452802 -33.669993 1691.984959 1181.790457 17.379914 0.000000 0.126140
610.000000 58.185000 6.000000 1.000000 7.000000 88.058378 -32.801811 1668.672473 984.408641 17.204100 0.000000 0.109046
611.000000 57.570000 7.000000 1.000000 7.000000 95.472186 -31.944888 1646.104656 819.490198 17.385573 0.000000 0.093373
612.000000 56.213000 8.000000 1.000000 7.000000 101.871062 -31.099382 1624.246387 676.781475 17.803299 0.000000 0.076893
613.000000 54.428000 9.000000 1.000000 7.000000 107.413943 -30.265428 1603.064722 550.149100 18.385365 0.000000 0.059716
614.000000 52.424000 10.000000 1.000000 7.000000 112.237544 -29.443137 1582.528724 435.685021 19.086357 0.000000 0.042583
615.000000 50.338000 11.000000 1.000000 7.000000 116.456684 -28.632598 1562.609314 330.770364 19.876181 0.000000 0.026675
616.000000 48.252000 12.000000 1.000000 7.000000 120.166602 -27.833877 1543.279133 233.576016 20.734107 0.000000 0.015422
617.000000 46.218000 13.000000 1.000000 7.000000 123.445867 -27.047022 1524.512418 142.779321 21.645392 0.000000 0.017729
618.000000 49.368000 3.000000 2.000000 7.000000 58.213852 -43.309198 1989.574677 1857.593046 20.285417 0.000000 0.315859
619.000000 54.224000 4.000000 2.000000 7.000000 69.581873 -42.398514 1957.740540 1483.549276 18.465897 0.000000 0.222745
620.000000 56.660000 5.000000 2.000000 7.000000 79.491791 -41.494909 1927.054260 1207.535348 17.669193 0.000000 0.164752
621.000000 57.349000 6.000000 2.000000 7.000000 88.079306 -40.598744 1897.454854 988.536176 17.454325 0.000000 0.123753
622.000000 56.861000 7.000000 2.000000 7.000000 95.508382 -39.710362 1868.885582 806.076784 17.601962 0.000000 0.092072
623.000000 55.626000 8.000000 2.000000 7.000000 101.943029 -38.830082 1841.293587 648.763145 17.990705 0.000000 0.067457
624.000000 53.950000 9.000000 2.000000 7.000000 107.533258 -37.958203 1814.629567 509.727136 18.547919 0.000000 0.051228
625.000000 52.039000 10.000000 2.000000 7.000000 112.409837 -37.095005 1788.847483 384.565223 19.227483 0.000000 0.046725
626.000000 50.029000 11.000000 2.000000 7.000000 116.683763 -36.240744 1763.904290 270.311088 19.998702 0.000000 0.053442
627.000000 48.005000 12.000000 2.000000 7.000000 120.447894 -35.395655 1739.759699 164.883701 20.840357 0.000000 0.065862
628.000000 46.022000 13.000000 2.000000 7.000000 123.779376 -34.559954 1716.375963 66.772412 21.737310 0.000000 0.079794
631.000000 54.602000 5.000000 3.000000 7.000000 78.549884 -48.932378 2210.187655 1272.835135 18.334928 0.000000 0.280277
632.000000 55.521000 6.000000 3.000000 7.000000 87.103405 -48.041880 2172.104390 1022.453223 18.028823 0.000000 0.226903
633.000000 55.286000 7.000000 3.000000 7.000000 94.552138 -47.155352 2135.476840 814.985112 18.103254 0.000000 0.191498
634.000000 54.293000 8.000000 3.000000 7.000000 101.040731 -46.273192 2100.223104 637.183023 18.432225 0.000000 0.170399
635.000000 52.833000 9.000000 3.000000 7.000000 106.705314 -45.395780 2066.267312 481.002775 18.939835 0.000000 0.160964
636.000000 51.108000 10.000000 3.000000 7.000000 111.667150 -44.523488 2033.539080 341.256640 19.577631 0.000000 0.160320
637.000000 49.254000 11.000000 3.000000 7.000000 116.030932 -43.656670 2001.973022 214.433396 20.313231 0.000000 0.165451
638.000000 47.360000 12.000000 3.000000 7.000000 119.885470 -42.795669 1971.508315 98.060050 21.124168 0.000000 0.173774
639.000000 45.484000 13.000000 3.000000 7.000000 123.305389 -41.940811 1942.088308 -9.664418 21.994370 0.000000 0.183446
649.000000 45.571000 7.000000 -3.000000 8.000000 80.424118 -5.778060 1083.909612 1123.502810 21.971076 0.000000 0.148260
650.000000 45.687000 8.000000 -3.000000 8.000000 86.930018 -5.307729 1074.991245 998.973062 21.912312 0.000000 0.164672
652.000000 47.876000 7.000000 -2.000000 8.000000 83.552753 -11.714898 1198.181701 1065.211856 20.911596 0.000000 0.152968
653.000000 47.034000 9.000000 -2.000000 8.000000 95.736799 -10.626377 1176.935887 830.986687 21.281085 0.000000 0.165822
654.000000 47.653000 5.000000 -1.000000 8.000000 70.400219 -19.388847 1353.787573 1347.288222 21.014297 0.000000 0.112737
655.000000 49.189000 6.000000 -1.000000 8.000000 78.762647 -18.740797 1340.159898 1166.813510 20.354825 0.000000 0.134462
656.000000 49.604000 7.000000 -1.000000 8.000000 86.105087 -18.103805 1326.866314 1018.094968 20.181792 0.000000 0.147519
657.000000 49.240000 8.000000 -1.000000 8.000000 92.550863 -17.477743 1313.894685 890.729886 20.328583 0.000000 0.151960
658.000000 48.359000 9.000000 -1.000000 8.000000 98.218764 -16.862478 1301.233454 778.559471 20.696878 0.000000 0.150062
659.000000 47.151000 10.000000 -1.000000 8.000000 103.216695 -16.257872 1288.871612 677.697468 21.224912 0.000000 0.143831
660.000000 45.753000 11.000000 -1.000000 8.000000 107.639396 -15.663780 1276.798663 585.564706 21.871931 0.000000 0.134774
661.000000 48.975000 5.000000 0.000000 8.000000 72.250561 -26.241821 1505.578598 1325.099817 20.445963 0.000000 0.122999
662.000000 50.638000 7.000000 0.000000 8.000000 87.940958 -24.824380 1472.873633 983.635040 19.768779 0.000000 0.131404
663.000000 49.151000 9.000000 0.000000 8.000000 100.014184 -23.448515 1441.836525 733.837666 20.362187 0.000000 0.122712
664.000000 46.362000 11.000000 0.000000 8.000000 109.384247 -22.113940 1412.342863 532.239952 21.583450 0.000000 0.102059
665.000000 46.499000 4.000000 1.000000 8.000000 63.827958 -33.992516 1700.765141 1578.973099 21.536508 0.000000 0.171850
666.000000 49.349000 5.000000 1.000000 8.000000 73.304805 -33.222448 1679.909643 1326.877088 20.289677 0.000000 0.137581
667.000000 50.681000 6.000000 1.000000 8.000000 81.646575 -32.461075 1659.647547 1128.304608 19.753528 0.000000 0.121303
668.000000 50.915000 7.000000 1.000000 8.000000 88.968189 -31.708515 1639.953884 963.785700 19.660334 0.000000 0.109596
669.000000 50.393000 8.000000 1.000000 8.000000 95.392999 -30.964872 1620.805063 822.505424 19.861842 0.000000 0.097716
670.000000 49.375000 9.000000 1.000000 8.000000 101.039821 -30.230234 1602.178782 697.962310 20.269318 0.000000 0.084663
671.000000 48.050000 10.000000 1.000000 8.000000 106.016583 -29.504675 1584.053942 586.002797 20.826400 0.000000 0.070677
672.000000 46.550000 11.000000 1.000000 8.000000 110.418051 -28.788257 1566.410561 483.841373 21.495574 0.000000 0.056331
673.000000 48.783000 5.000000 2.000000 8.000000 73.539897 -40.127399 1882.203942 1356.893674 20.524569 0.000000 0.178279
674.000000 50.440000 7.000000 2.000000 8.000000 89.161241 -38.561925 1833.024011 961.151445 19.844858 0.000000 0.108698
675.000000 49.031000 9.000000 2.000000 8.000000 101.266777 -37.023247 1786.730796 672.440101 20.410889 0.000000 0.061584
676.000000 46.317000 11.000000 2.000000 8.000000 110.709234 -35.512846 1743.077380 441.118806 21.603193 0.000000 0.029475
677.000000 47.381000 5.000000 3.000000 8.000000 73.012239 -46.766033 2119.776243 1421.021620 21.131154 0.000000 0.268233
678.000000 48.850000 6.000000 3.000000 8.000000 81.263619 -45.978756 2088.708664 1179.005025 20.492806 0.000000 0.212894
679.000000 49.281000 7.000000 3.000000 8.000000 88.565055 -45.195376 2058.659662 979.259168 20.311329 0.000000 0.172603
680.000000 48.972000 8.000000 3.000000 8.000000 95.018301 -44.416157 2029.579952 808.684128 20.437229 0.000000 0.143536
681.000000 48.160000 9.000000 3.000000 8.000000 100.725552 -43.641350 2001.423381 659.291545 20.779818 0.000000 0.124198
682.000000 47.022000 10.000000 3.000000 8.000000 105.782550 -42.871200 1974.146676 525.919077 21.280890 0.000000 0.113881
683.000000 45.687000 11.000000 3.000000 8.000000 110.275427 -42.105941 1947.709229 405.071617 21.901373 0.000000 0.111475
684.000000 47.553000 7.000000 4.000000 8.000000 87.282552 -51.453985 2325.859045 1022.979980 21.049275 0.000000 0.305907
685.000000 46.832000 9.000000 4.000000 8.000000 99.498456 -49.925525 2254.296819 661.278215 21.369302 0.000000 0.251862
#UB matrix in q= (UB) B0 G* 
#[[-0.993300976 -0.104283344  0.049589819]
# [ 0.064273855 -0.856509757 -0.513855843]
# [ 0.096031465 -0.507426152  0.857772469]]
#B0 matrix in q= UB (B0) G*
#[[ 0.19670273 -0.          0.03056101]
# [ 0.          0.19187965 -0.        ]
# [ 0.          0.          0.18806537]]
#UBB0 matrix in q= (UB B0) G* i.e. recip. basis vectors are columns in LT frame: astar = UBB0[:,0], bstar = UBB0[:,1], cstar = UBB0[:,2]. (abcstar as columns on xyzlab1, xlab1 = ui, ui = unit vector along incident beam)
#[[-0.19538502 -0.02000985 -0.02103015]
# [ 0.01264284 -0.16434679 -0.09467422]
# [ 0.01888965 -0.09736475  0.16425212]]
#Euler angles phi theta psi (deg)
#[ 10.727  31.059 174.484]
#deviatoric strain in direct crystal frame (10-3 unit)
#[[-0.83  0.07  0.26]
# [ 0.07 -1.79  0.31]
# [ 0.26  0.31  2.62]]
#deviatoric strain in sample2 frame (10-3 unit)
#[[-0.12 -1.32  0.99]
# [-1.32 -0.38 -1.61]
# [ 0.99 -1.62  0.49]]
#new lattice parameters
#[ 5.1505     5.2065667  5.3113289 89.9825609 99.2245795 89.9917605]
#CCDLabel
#sCMOS
#DetectorParameters
#[79.0, 975.0, 941.0, 0.0, 0.0]
#pixelsize
#0.0734
#Frame dimensions
#[2018, 2016]
#
