#Strain and Orientation Refinement from experimental file: /home/micha/LaueProjects/DepthEffects/testZrO2_29.cor
#File created at Wed Jun 28 14:19:58 2023 with indexingSpotsSet.py
#Number of indexed spots: 506
#Element
#ZrO2
#grainIndex
#G_0
#Mean Deviation(pixel): 0.117
##spot_index intensity h k l 2theta Chi Xexp Yexp Energy GrainIndex PixDev
3.000000 45.663000 -2.000000 -1.000000 -17.000000 141.027177 -10.195735 1168.573199 -410.748300 21.882247 0.000000 0.023409
7.000000 45.830000 0.000000 1.000000 -17.000000 134.386937 14.640267 693.838465 -147.857907 21.804239 0.000000 0.038716
8.000000 46.368000 1.000000 1.000000 -17.000000 135.420871 23.565784 505.543818 -250.601189 21.550742 0.000000 0.082009
15.000000 46.758000 -3.000000 -1.000000 -16.000000 136.319345 -18.624998 1337.735888 -248.325174 21.370939 0.000000 0.038932
16.000000 48.382000 -2.000000 -1.000000 -16.000000 140.854813 -11.522922 1194.422999 -408.446066 20.652698 0.000000 0.028175
20.000000 45.951000 -3.000000 0.000000 -16.000000 131.164757 -12.831599 1220.152363 -24.158516 21.747954 0.000000 0.031771
21.000000 47.549000 -1.000000 0.000000 -8.000000 135.115948 -5.908243 1086.380694 -145.430355 10.507987 0.000000 0.022194
22.000000 48.877000 -1.000000 0.000000 -16.000000 138.477505 2.464187 928.681976 -275.692481 20.444035 0.000000 0.018880
23.000000 49.875000 0.000000 0.000000 -4.000000 140.958522 12.316452 740.006143 -417.411865 5.008557 0.000000 0.056346
26.000000 46.361000 -2.000000 1.000000 -16.000000 129.073943 -1.535988 1003.860262 66.817710 21.556178 0.000000 0.061088
27.000000 47.646000 -1.000000 1.000000 -16.000000 131.922739 6.109292 859.800769 -30.995168 20.974063 0.000000 0.043173
28.000000 48.610000 0.000000 1.000000 -16.000000 133.975341 14.764131 691.351490 -132.928237 20.557550 0.000000 0.038046
29.000000 49.204000 1.000000 1.000000 -16.000000 135.027565 24.179999 491.745694 -239.942570 20.308860 0.000000 0.083197
32.000000 46.071000 -1.000000 2.000000 -16.000000 125.286474 8.898825 806.479430 170.042600 21.693237 0.000000 0.073888
33.000000 46.985000 0.000000 1.000000 -8.000000 126.991221 16.582281 654.505134 95.029453 10.635290 0.000000 0.045321
34.000000 47.545000 1.000000 2.000000 -16.000000 127.838308 24.781378 478.106649 20.193803 21.019476 0.000000 0.039470
35.000000 47.720000 1.000000 1.000000 -8.000000 127.732950 33.192961 270.881593 -54.234788 10.471145 0.000000 0.101683
38.000000 45.568000 1.000000 3.000000 -16.000000 120.758153 25.239435 467.629250 232.861519 21.933716 0.000000 0.029785
39.000000 45.724000 2.000000 3.000000 -16.000000 120.629983 32.646187 285.457996 184.152468 21.858974 0.000000 0.042524
40.000000 45.504000 3.000000 3.000000 -16.000000 119.682029 39.961423 73.116063 140.636732 21.964687 0.000000 0.127579
43.000000 45.615000 -5.000000 -2.000000 -15.000000 128.947799 -36.686554 1776.852176 -143.831390 21.908038 0.000000 0.137154
48.000000 47.413000 -4.000000 -1.000000 -15.000000 130.475999 -25.854810 1496.571777 -79.625219 21.077017 0.000000 0.043581
49.000000 49.544000 -3.000000 -1.000000 -15.000000 135.690136 -20.274447 1372.587750 -234.361104 20.169282 0.000000 0.043673
50.000000 51.437000 -2.000000 -1.000000 -15.000000 140.637349 -13.005519 1223.591316 -405.587057 19.426067 0.000000 0.033667
53.000000 47.351000 -3.000000 1.000000 -15.000000 124.544485 -9.022753 1145.906426 190.769168 21.106814 0.000000 0.077592
54.000000 49.150000 -2.000000 1.000000 -15.000000 128.240473 -2.213589 1016.602709 92.174741 20.333327 0.000000 0.065587
55.000000 50.640000 -1.000000 1.000000 -15.000000 131.316010 5.779599 866.061185 -9.914486 19.734096 0.000000 0.046483
56.000000 51.746000 0.000000 1.000000 -15.000000 133.508868 14.901935 688.581322 -116.239487 19.311604 0.000000 0.037422
57.000000 52.405000 1.000000 1.000000 -15.000000 134.576165 24.864025 476.221977 -227.828342 19.068384 0.000000 0.084507
60.000000 45.700000 -3.000000 2.000000 -15.000000 118.512964 -4.920422 1067.657419 354.141824 21.871764 0.000000 0.113595
61.000000 47.406000 -2.000000 2.000000 -15.000000 121.680285 1.473447 947.315380 276.558918 21.083487 0.000000 0.101063
62.000000 48.816000 -1.000000 2.000000 -15.000000 124.263385 8.739579 809.542851 199.196296 20.473492 0.000000 0.079525
63.000000 49.860000 0.000000 2.000000 -15.000000 126.064050 16.789775 650.257181 122.285741 20.044380 0.000000 0.048359
64.000000 50.477000 1.000000 2.000000 -15.000000 126.909148 25.397618 463.992738 46.141369 19.798806 0.000000 0.036871
65.000000 50.629000 2.000000 2.000000 -15.000000 126.691752 34.210561 243.261118 -28.802175 19.739473 0.000000 0.104402
68.000000 46.642000 -1.000000 3.000000 -15.000000 117.233618 11.042097 764.968811 376.612682 21.430409 0.000000 0.107718
69.000000 47.607000 0.000000 1.000000 -5.000000 118.711697 18.225904 620.593168 320.321507 6.998478 0.000000 0.076311
70.000000 48.173000 1.000000 3.000000 -15.000000 119.375746 25.798552 454.732565 268.068196 20.748484 0.000000 0.031159
71.000000 48.303000 2.000000 3.000000 -15.000000 119.149172 33.515202 262.205617 221.029031 20.692395 0.000000 0.041127
72.000000 47.984000 1.000000 1.000000 -5.000000 118.023557 41.102099 36.019212 180.796047 6.943355 0.000000 0.134669
75.000000 45.574000 1.000000 4.000000 -15.000000 112.036552 26.110802 447.477244 455.836418 21.934115 0.000000 0.061262
76.000000 45.681000 2.000000 4.000000 -15.000000 111.798735 32.973378 276.757098 427.890752 21.882653 0.000000 0.013472
79.000000 48.018000 -5.000000 -2.000000 -14.000000 127.407784 -38.750357 1838.828515 -114.444709 20.812244 0.000000 0.153972
83.000000 47.497000 -5.000000 -1.000000 -14.000000 123.617170 -31.940818 1645.998483 97.778921 21.041779 0.000000 0.045447
84.000000 50.164000 -4.000000 -1.000000 -14.000000 129.279890 -27.666409 1539.262438 -52.948059 19.921668 0.000000 0.048118
85.000000 52.664000 -3.000000 -1.000000 -14.000000 134.939095 -22.087097 1411.755476 -218.068705 18.974563 0.000000 0.049131
86.000000 54.893000 -2.000000 -1.000000 -14.000000 140.361049 -14.670137 1256.761014 -401.998885 18.202958 0.000000 0.040055
89.000000 46.576000 -5.000000 0.000000 -14.000000 119.196167 -25.933795 1498.405161 272.228652 21.459672 0.000000 0.031740
90.000000 49.198000 -4.000000 0.000000 -14.000000 124.328704 -21.258202 1393.725341 152.348405 20.314548 0.000000 0.034729
91.000000 51.656000 -3.000000 0.000000 -14.000000 129.353248 -15.400229 1271.465458 25.520838 19.346373 0.000000 0.033890
92.000000 53.848000 -2.000000 0.000000 -14.000000 134.035473 -8.027542 1126.790919 -109.952052 18.557762 0.000000 0.025523
93.000000 55.664000 -1.000000 0.000000 -14.000000 138.044085 1.175487 952.915523 -256.449085 17.951380 0.000000 0.016996
96.000000 47.803000 -4.000000 1.000000 -14.000000 118.877658 -15.863413 1280.847578 323.899494 20.909444 0.000000 0.086427
97.000000 50.173000 -3.000000 1.000000 -14.000000 123.279273 -10.010460 1164.982332 223.643015 19.920169 0.000000 0.082167
98.000000 52.284000 -2.000000 1.000000 -14.000000 127.285972 -2.959236 1030.638365 120.405603 19.114723 0.000000 0.070593
99.000000 54.031000 -1.000000 1.000000 -14.000000 130.622739 5.413097 873.012016 13.627356 18.495903 0.000000 0.050426
100.000000 55.313000 0.000000 1.000000 -14.000000 132.975789 15.056167 685.476670 -97.459306 18.066566 0.000000 0.036898
101.000000 56.047000 1.000000 1.000000 -14.000000 134.053173 25.630248 458.627373 -213.938350 17.829625 0.000000 0.085965
104.000000 46.020000 -2.000000 1.000000 -7.000000 113.101290 -11.334804 1190.744796 472.760129 10.860850 0.000000 0.123936
105.000000 48.262000 -3.000000 2.000000 -14.000000 116.918354 -5.645789 1081.400053 391.867370 20.711370 0.000000 0.119580
106.000000 50.254000 -1.000000 1.000000 -7.000000 120.324685 0.978135 956.624074 311.350460 9.944676 0.000000 0.107717
107.000000 51.897000 -1.000000 2.000000 -14.000000 123.098778 8.564790 812.902268 231.492942 19.258588 0.000000 0.085830
108.000000 53.099000 0.000000 1.000000 -7.000000 125.006229 17.018438 645.565059 152.676020 9.411039 0.000000 0.052099
109.000000 53.781000 1.000000 2.000000 -14.000000 125.842675 26.076723 448.270965 75.422392 18.582888 0.000000 0.033785
110.000000 53.893000 1.000000 1.000000 -7.000000 125.487209 35.326812 212.184772 0.465946 9.272073 0.000000 0.107726
113.000000 45.990000 -3.000000 3.000000 -14.000000 110.431054 -2.077790 1014.048144 539.801799 21.737005 0.000000 0.144973
114.000000 47.832000 -2.000000 3.000000 -14.000000 113.310522 4.097808 897.891652 476.051496 20.898793 0.000000 0.134482
115.000000 49.346000 -1.000000 3.000000 -14.000000 115.610711 10.987058 766.041882 415.445490 20.256708 0.000000 0.114550
116.000000 50.447000 0.000000 3.000000 -14.000000 117.155342 18.489893 615.088077 358.870162 19.813909 0.000000 0.082133
117.000000 51.065000 1.000000 3.000000 -14.000000 117.797422 26.407217 440.553899 307.493532 19.573625 0.000000 0.033384
118.000000 51.155000 2.000000 3.000000 -14.000000 117.451854 34.457944 236.446034 262.884715 19.539155 0.000000 0.040461
119.000000 50.702000 3.000000 3.000000 -14.000000 116.117614 42.331886 -5.447887 227.199701 19.713867 0.000000 0.143680
122.000000 46.478000 -1.000000 4.000000 -14.000000 108.263238 12.900537 728.485094 576.618319 21.509405 0.000000 0.134272
123.000000 47.465000 0.000000 2.000000 -7.000000 109.507635 19.632822 591.053981 536.167931 10.530690 0.000000 0.106830
124.000000 48.012000 1.000000 4.000000 -14.000000 109.989555 26.661712 434.581252 502.900634 20.821361 0.000000 0.066159
125.000000 48.077000 1.000000 2.000000 -7.000000 109.647655 33.787826 254.814905 478.650183 10.396415 0.000000 0.021360
126.000000 47.650000 3.000000 4.000000 -14.000000 108.480563 40.794891 46.135168 465.845771 20.979346 0.000000 0.085953
127.000000 46.748000 2.000000 2.000000 -7.000000 106.547592 47.487228 -199.043581 467.772572 10.692274 0.000000 0.203293
130.000000 47.444000 -6.000000 -2.000000 -13.000000 119.339084 -43.438110 1994.157854 107.864923 21.066347 0.000000 0.175727
131.000000 50.631000 -5.000000 -2.000000 -13.000000 125.606887 -40.941630 1908.685019 -79.346361 19.738728 0.000000 0.174429
135.000000 46.888000 -6.000000 -1.000000 -13.000000 115.884879 -37.026547 1786.828031 286.819340 21.317689 0.000000 0.059454
136.000000 50.078000 -5.000000 -1.000000 -13.000000 121.773351 -33.800281 1695.523856 138.770722 19.957924 0.000000 0.052653
137.000000 53.213000 -4.000000 -1.000000 -13.000000 127.871706 -29.625701 1587.059014 -21.895087 18.780530 0.000000 0.053833
138.000000 56.177000 -3.000000 -1.000000 -13.000000 134.034494 -24.084205 1456.093660 -198.845573 17.788317 0.000000 0.055537
139.000000 58.832000 -2.000000 -1.000000 -13.000000 140.007014 -16.549085 1294.816108 -397.439964 16.984155 0.000000 0.047571
142.000000 47.560000 -5.000000 1.000000 -13.000000 112.141549 -21.970370 1409.203791 468.757292 21.018154 0.000000 0.087984
143.000000 50.524000 -4.000000 1.000000 -13.000000 117.057334 -17.075152 1305.600473 365.892885 19.783696 0.000000 0.090037
144.000000 53.324000 -3.000000 1.000000 -13.000000 121.819407 -11.088677 1185.939661 260.459225 18.743706 0.000000 0.087057
145.000000 55.829000 -2.000000 1.000000 -13.000000 126.182901 -3.783423 1046.174622 152.045369 17.901360 0.000000 0.076165
146.000000 57.901000 -1.000000 1.000000 -13.000000 129.823163 5.003292 880.774136 40.095270 17.259902 0.000000 0.055103
147.000000 59.403000 0.000000 1.000000 -13.000000 132.360786 15.229952 681.973058 -76.165300 16.822650 0.000000 0.036560
148.000000 60.224000 1.000000 1.000000 -13.000000 133.440677 26.494099 438.517877 -197.851075 16.592991 0.000000 0.087604
151.000000 45.665000 -5.000000 2.000000 -13.000000 106.679048 -17.212123 1308.418309 603.406330 21.892986 0.000000 0.125904
152.000000 48.458000 -4.000000 2.000000 -13.000000 110.991884 -12.276491 1209.207541 518.359682 20.629563 0.000000 0.128635
153.000000 51.090000 -3.000000 2.000000 -13.000000 115.093154 -6.432605 1096.345967 433.790508 19.565630 0.000000 0.125804
154.000000 53.438000 -2.000000 2.000000 -13.000000 118.769788 0.436085 966.808035 350.023943 18.704535 0.000000 0.114902
155.000000 55.374000 -1.000000 2.000000 -13.000000 121.761448 8.372070 816.602759 267.494193 18.049699 0.000000 0.092872
156.000000 56.772000 0.000000 2.000000 -13.000000 123.788339 17.271676 640.355258 186.791979 17.604624 0.000000 0.056647
157.000000 57.528000 1.000000 2.000000 -13.000000 124.606897 26.828606 430.649983 108.738996 17.372888 0.000000 0.030086
158.000000 57.576000 2.000000 2.000000 -13.000000 124.080185 36.555805 176.960674 34.509240 17.358154 0.000000 0.111906
160.000000 46.008000 -4.000000 3.000000 -13.000000 104.731707 -8.254216 1131.136103 655.040471 21.730746 0.000000 0.152175
161.000000 48.429000 -3.000000 3.000000 -13.000000 108.228745 -2.651025 1024.834758 586.154246 20.642978 0.000000 0.150508
162.000000 50.582000 -2.000000 3.000000 -13.000000 111.304511 3.746819 904.515953 520.373717 19.763537 0.000000 0.141273
163.000000 52.347000 -1.000000 3.000000 -13.000000 113.754003 10.927051 767.211353 458.582882 19.096039 0.000000 0.121797
164.000000 53.614000 0.000000 3.000000 -13.000000 115.369756 18.778466 609.050872 401.939952 18.644184 0.000000 0.088534
165.000000 54.289000 1.000000 3.000000 -13.000000 115.979809 27.072162 424.892101 351.990221 18.411758 0.000000 0.036589
166.000000 54.316000 2.000000 3.000000 -13.000000 115.489672 35.483630 207.750629 310.839582 18.402637 0.000000 0.041207
167.000000 53.680000 3.000000 3.000000 -13.000000 113.909531 43.660371 -52.105836 281.430448 18.620788 0.000000 0.155303
169.000000 47.382000 -2.000000 4.000000 -13.000000 103.932126 6.397409 854.323531 672.330546 21.100814 0.000000 0.155897
170.000000 48.956000 -1.000000 4.000000 -13.000000 105.926803 12.924007 728.021033 625.882391 20.421565 0.000000 0.140018
171.000000 50.076000 0.000000 4.000000 -13.000000 107.206087 19.934730 584.648859 586.462658 19.964202 0.000000 0.112703
172.000000 50.662000 1.000000 4.000000 -13.000000 107.646179 27.257414 420.495796 555.857290 19.732735 0.000000 0.071513
173.000000 50.666000 2.000000 4.000000 -13.000000 107.180293 34.665723 230.690739 536.417145 19.731275 0.000000 0.030644
174.000000 50.075000 3.000000 4.000000 -13.000000 105.814944 41.917255 8.711145 531.297617 19.964030 0.000000 0.097671
175.000000 48.921000 4.000000 4.000000 -13.000000 103.628975 48.798627 -254.381627 544.831413 20.435315 0.000000 0.226213
177.000000 46.311000 0.000000 5.000000 -13.000000 99.374157 20.849349 565.093027 750.869514 21.590342 0.000000 0.126630
178.000000 46.806000 1.000000 5.000000 -13.000000 99.674553 27.403057 417.029171 734.326981 21.361795 0.000000 0.095921
179.000000 46.786000 2.000000 5.000000 -13.000000 99.225848 34.021464 248.443554 730.075725 21.370394 0.000000 0.064861
180.000000 46.245000 3.000000 5.000000 -13.000000 98.032805 40.530947 54.751995 741.156906 21.620615 0.000000 0.085830
183.000000 46.094000 -7.000000 -2.000000 -12.000000 110.614273 -47.255534 2139.554214 344.505730 21.686305 0.000000 0.210975
184.000000 49.738000 -3.000000 -1.000000 -6.000000 116.826020 -45.522199 2071.094175 164.146638 10.047705 0.000000 0.202026
189.000000 45.497000 -7.000000 -1.000000 -12.000000 107.438471 -41.276977 1919.781620 491.138614 21.972427 0.000000 0.094340
190.000000 49.143000 -6.000000 -1.000000 -12.000000 113.343875 -38.863171 1842.318319 344.448358 20.340133 0.000000 0.073846
191.000000 52.881000 -5.000000 -1.000000 -12.000000 119.621707 -35.783501 1750.776857 186.641756 18.900587 0.000000 0.062577
192.000000 56.600000 -4.000000 -1.000000 -12.000000 126.200386 -31.746331 1640.935790 14.668262 17.656979 0.000000 0.061256
193.000000 60.153000 -3.000000 -1.000000 -12.000000 132.934077 -26.289761 1506.698468 -175.870793 16.612570 0.000000 0.063233
194.000000 63.359000 -2.000000 -1.000000 -12.000000 139.548817 -18.681667 1338.921718 -391.564046 15.770693 0.000000 0.056549
197.000000 48.053000 -2.000000 0.000000 -4.000000 109.174028 -32.787240 1668.285141 495.818552 6.934446 0.000000 0.036250
198.000000 51.721000 -5.000000 0.000000 -12.000000 114.950913 -29.129758 1574.790108 367.730470 19.326223 0.000000 0.030183
199.000000 55.373000 -2.000000 0.000000 -6.000000 120.908022 -24.488091 1465.225418 232.956131 9.025055 0.000000 0.032869
200.000000 58.863000 -1.000000 0.000000 -4.000000 126.867019 -18.496913 1335.058544 89.896419 5.659480 0.000000 0.035056
201.000000 62.013000 -1.000000 0.000000 -6.000000 132.531110 -10.674688 1177.875502 -63.704320 8.057365 0.000000 0.029281
202.000000 64.624000 -1.000000 0.000000 -12.000000 137.439804 -0.494618 984.291574 -231.138145 15.462578 0.000000 0.016200
204.000000 46.492000 -6.000000 1.000000 -12.000000 104.457193 -27.339024 1531.445587 628.617424 21.503699 0.000000 0.085160
205.000000 50.013000 -5.000000 1.000000 -12.000000 109.666895 -23.323573 1439.050596 522.101413 19.988239 0.000000 0.090094
206.000000 53.514000 -4.000000 1.000000 -12.000000 114.949741 -18.385252 1332.727790 413.330984 18.679127 0.000000 0.093638
207.000000 56.855000 -3.000000 1.000000 -12.000000 120.119173 -12.269561 1209.071194 302.017492 17.579999 0.000000 0.092252
208.000000 59.866000 -2.000000 1.000000 -12.000000 124.894936 -4.698849 1063.465724 187.776570 16.694572 0.000000 0.082367
209.000000 62.357000 -1.000000 1.000000 -12.000000 128.891071 4.542080 889.498389 70.081741 16.026654 0.000000 0.060638
210.000000 64.141000 0.000000 1.000000 -12.000000 131.643469 15.427253 677.988307 -51.812001 15.580144 0.000000 0.036546
211.000000 65.063000 1.000000 1.000000 -12.000000 132.714422 27.475026 415.312787 -179.000061 15.359035 0.000000 0.089471
213.000000 47.820000 -5.000000 2.000000 -12.000000 103.961486 -18.310473 1331.168562 659.147282 20.907559 0.000000 0.128302
214.000000 51.097000 -2.000000 1.000000 -6.000000 108.568327 -13.291036 1229.247395 569.498466 9.782518 0.000000 0.133077
215.000000 54.215000 -3.000000 2.000000 -12.000000 112.985999 -7.288684 1112.660431 480.731354 18.438361 0.000000 0.132169
216.000000 57.016000 -1.000000 1.000000 -6.000000 116.969428 -0.159532 977.996802 393.321750 8.765738 0.000000 0.122611
217.000000 59.324000 -1.000000 2.000000 -12.000000 120.210412 8.158513 820.699045 307.912585 16.848410 0.000000 0.100721
218.000000 60.968000 0.000000 1.000000 -6.000000 122.371515 17.553664 634.537106 225.390822 8.196651 0.000000 0.062116
219.000000 61.807000 1.000000 2.000000 -12.000000 123.159309 27.665324 410.763528 147.010994 16.170385 0.000000 0.025608
220.000000 61.755000 1.000000 1.000000 -6.000000 122.418657 37.914208 136.699043 74.602038 8.092001 0.000000 0.117327
222.000000 48.228000 -4.000000 3.000000 -12.000000 101.972792 -9.037620 1146.192763 709.891610 20.731412 0.000000 0.155158
223.000000 51.068000 -1.000000 1.000000 -4.000000 105.702586 -3.270636 1036.505313 637.921257 6.525748 0.000000 0.155626
224.000000 53.606000 -2.000000 3.000000 -12.000000 108.995217 3.364769 911.720461 569.862848 18.649328 0.000000 0.148054
225.000000 55.685000 -1.000000 3.000000 -12.000000 111.610281 10.861372 768.490826 506.864426 17.951945 0.000000 0.129371
226.000000 57.156000 0.000000 1.000000 -4.000000 113.301538 19.095209 602.400484 450.448204 5.829829 0.000000 0.095500
227.000000 57.892000 1.000000 3.000000 -12.000000 113.866165 27.801365 407.501621 402.673075 17.266456 0.000000 0.040881
228.000000 57.822000 2.000000 3.000000 -12.000000 113.199513 36.602956 175.587177 366.389744 17.287474 0.000000 0.044311
229.000000 56.934000 1.000000 1.000000 -4.000000 111.328591 45.098318 -104.994398 345.656474 5.852426 0.000000 0.170513
231.000000 47.562000 -3.000000 4.000000 -12.000000 98.449955 0.009093 974.829183 781.107697 21.023376 0.000000 0.164990
232.000000 49.806000 -1.000000 2.000000 -6.000000 101.148421 6.160667 858.824555 727.662661 10.037536 0.000000 0.159911
233.000000 51.631000 -1.000000 4.000000 -12.000000 103.243772 12.949443 727.518020 681.079570 19.364455 0.000000 0.145324
234.000000 52.909000 0.000000 2.000000 -6.000000 104.555458 20.262461 577.668130 643.104710 9.448098 0.000000 0.118480
235.000000 53.534000 1.000000 4.000000 -12.000000 104.940471 27.903457 405.048355 616.023376 18.675094 0.000000 0.077288
236.000000 53.445000 1.000000 2.000000 -6.000000 104.326541 35.614317 204.042101 602.881760 9.353037 0.000000 0.041699
237.000000 52.635000 3.000000 4.000000 -12.000000 102.731698 43.122742 -32.979962 607.828133 18.994193 0.000000 0.113374
238.000000 51.153000 2.000000 2.000000 -6.000000 100.260426 50.196547 -316.650213 636.655477 9.772322 0.000000 0.255390
240.000000 45.790000 -2.000000 5.000000 -12.000000 93.555380 8.422824 815.628577 873.397616 21.839211 0.000000 0.159774
241.000000 47.354000 -1.000000 5.000000 -12.000000 95.219515 14.606990 694.506114 839.395900 21.116755 0.000000 0.149383
242.000000 48.436000 0.000000 5.000000 -12.000000 96.222392 21.176281 558.045466 815.153414 20.644610 0.000000 0.129526
243.000000 48.948000 1.000000 5.000000 -12.000000 96.461973 27.982898 403.136193 802.956290 20.427897 0.000000 0.100398
244.000000 48.843000 2.000000 5.000000 -12.000000 95.887795 34.842698 225.765861 805.762655 20.471880 0.000000 0.074729
245.000000 48.114000 3.000000 5.000000 -12.000000 94.512879 41.562878 20.667519 827.465598 20.781965 0.000000 0.104843
246.000000 46.804000 4.000000 5.000000 -12.000000 92.411719 47.972963 -219.212162 873.289935 21.363713 0.000000 0.206414
249.000000 47.914000 -7.000000 -2.000000 -11.000000 107.384186 -49.213705 2222.502078 425.164757 20.863671 0.000000 0.246764
250.000000 52.139000 -6.000000 -2.000000 -11.000000 113.906615 -47.706143 2158.086766 232.019315 19.170928 0.000000 0.235083
255.000000 47.268000 -7.000000 -1.000000 -11.000000 104.185092 -43.051785 1980.480854 568.709610 21.149906 0.000000 0.118049
256.000000 51.502000 -6.000000 -1.000000 -11.000000 110.402366 -40.799649 1904.020801 412.173902 19.409268 0.000000 0.092655
257.000000 55.912000 -5.000000 -1.000000 -11.000000 117.093157 -37.898006 1812.812073 243.241030 17.876572 0.000000 0.076169
258.000000 60.367000 -4.000000 -1.000000 -11.000000 124.199291 -34.042498 1702.131766 58.294921 16.555556 0.000000 0.071171
259.000000 64.680000 -3.000000 -1.000000 -11.000000 131.580766 -28.730528 1564.999482 -147.999394 15.450047 0.000000 0.072739
260.000000 68.610000 -2.000000 -1.000000 -11.000000 138.948834 -21.115662 1390.645452 -383.861854 14.563967 0.000000 0.067477
263.000000 48.488000 -6.000000 1.000000 -11.000000 101.264852 -28.766034 1565.867163 696.441231 20.619750 0.000000 0.086789
264.000000 52.621000 -5.000000 1.000000 -11.000000 106.802665 -24.772195 1471.684077 583.055221 18.998712 0.000000 0.091978
265.000000 56.792000 -4.000000 1.000000 -11.000000 112.487739 -19.804647 1362.588389 467.444907 17.601551 0.000000 0.097124
266.000000 60.827000 -3.000000 1.000000 -11.000000 118.118136 -13.567346 1234.733783 349.364816 16.432570 0.000000 0.097708
267.000000 64.497000 -2.000000 1.000000 -11.000000 123.373254 -5.720995 1082.826785 228.486375 15.496185 0.000000 0.089264
268.000000 67.540000 -1.000000 1.000000 -11.000000 127.790953 4.019213 899.375481 104.355103 14.796928 0.000000 0.067183
269.000000 69.692000 0.000000 1.000000 -11.000000 130.796096 15.653185 673.415999 -23.681938 14.339447 0.000000 0.037059
270.000000 70.731000 1.000000 1.000000 -11.000000 131.840821 28.597850 388.237709 -156.605721 14.128514 0.000000 0.091641
272.000000 46.210000 -6.000000 2.000000 -11.000000 95.955158 -23.709602 1447.675310 818.378666 21.638952 0.000000 0.120222
273.000000 50.062000 -5.000000 2.000000 -11.000000 100.837184 -19.484865 1355.815865 722.445173 19.972171 0.000000 0.129802
274.000000 53.936000 -4.000000 2.000000 -11.000000 105.760619 -14.386517 1251.075450 627.404420 18.535938 0.000000 0.136982
275.000000 57.669000 -3.000000 2.000000 -11.000000 110.529820 -8.223157 1130.540436 533.764474 17.334830 0.000000 0.138494
276.000000 61.050000 -2.000000 2.000000 -11.000000 114.862419 -0.816921 990.346802 442.207945 16.373548 0.000000 0.130786
277.000000 63.840000 -1.000000 2.000000 -11.000000 118.390813 7.920557 825.258213 353.669797 15.656918 0.000000 0.109432
278.000000 65.800000 0.000000 2.000000 -11.000000 120.703377 17.869576 627.997438 269.460661 15.189896 0.000000 0.068630
279.000000 66.731000 1.000000 2.000000 -11.000000 121.442305 28.601667 388.144691 191.470041 14.977574 0.000000 0.020128
280.000000 66.520000 2.000000 2.000000 -11.000000 120.432204 39.421796 90.236002 122.517094 15.025182 0.000000 0.124595
282.000000 47.042000 -5.000000 3.000000 -11.000000 94.604862 -14.947048 1262.326324 851.275631 21.257233 0.000000 0.148087
283.000000 50.548000 -4.000000 3.000000 -11.000000 98.799154 -9.879935 1162.455055 771.889118 19.781422 0.000000 0.156795
284.000000 53.905000 -3.000000 3.000000 -11.000000 102.779714 -3.942321 1049.173106 696.293616 18.548144 0.000000 0.159910
285.000000 56.926000 -2.000000 3.000000 -11.000000 106.311018 2.947382 919.584894 625.627662 17.562412 0.000000 0.154529
286.000000 59.402000 -1.000000 3.000000 -11.000000 109.109349 10.789177 769.896586 561.392547 16.829379 0.000000 0.137101
287.000000 61.125000 0.000000 3.000000 -11.000000 110.879795 19.444434 595.038497 505.605167 16.354340 0.000000 0.102961
288.000000 61.925000 1.000000 3.000000 -11.000000 111.381008 28.604341 388.079532 461.035078 16.142742 0.000000 0.046354
289.000000 61.705000 2.000000 3.000000 -11.000000 110.497756 37.828375 139.286537 431.585319 16.200184 0.000000 0.050882
290.000000 60.466000 3.000000 3.000000 -11.000000 108.282207 46.657781 -165.450902 422.930153 16.532425 0.000000 0.190713
292.000000 46.796000 -4.000000 4.000000 -11.000000 91.806333 -6.116386 1090.334005 906.862674 21.370429 0.000000 0.160365
293.000000 49.738000 -3.000000 4.000000 -11.000000 95.087164 -0.472254 983.871432 845.183082 20.105162 0.000000 0.165171
294.000000 52.364000 -2.000000 4.000000 -11.000000 97.935057 5.904280 863.694546 790.180467 19.095709 0.000000 0.162513
295.000000 54.496000 -1.000000 4.000000 -11.000000 100.134565 12.977101 726.970934 743.570450 18.347583 0.000000 0.149721
296.000000 55.962000 0.000000 4.000000 -11.000000 101.473749 20.619449 570.030550 707.586475 17.866457 0.000000 0.123834
297.000000 56.620000 1.000000 4.000000 -11.000000 101.786555 28.606318 388.031347 685.186921 17.658169 0.000000 0.083419
298.000000 56.394000 2.000000 4.000000 -11.000000 100.995594 36.641921 174.450853 680.370051 17.728729 0.000000 0.055076
299.000000 55.286000 3.000000 4.000000 -11.000000 99.135621 44.419745 -79.712075 698.668525 18.084325 0.000000 0.134249
300.000000 53.378000 4.000000 4.000000 -11.000000 96.344844 51.688001 -387.238285 747.955398 18.731330 0.000000 0.293000
302.000000 47.598000 -2.000000 5.000000 -11.000000 89.884056 8.276661 818.433369 943.200916 21.011184 0.000000 0.156925
303.000000 49.385000 -1.000000 5.000000 -11.000000 91.593890 14.696284 692.714098 910.038313 20.249701 0.000000 0.148804
304.000000 50.595000 0.000000 5.000000 -11.000000 92.588120 21.529039 550.406143 888.700537 19.764917 0.000000 0.130939
305.000000 51.115000 1.000000 5.000000 -11.000000 92.751224 28.607839 387.994268 882.086530 19.563107 0.000000 0.104554
306.000000 50.887000 2.000000 5.000000 -11.000000 92.030814 35.724903 200.894547 893.989443 19.650741 0.000000 0.086757
307.000000 49.912000 3.000000 5.000000 -11.000000 90.451522 42.665749 -16.985156 929.464937 20.034485 0.000000 0.128554
308.000000 48.259000 4.000000 5.000000 -11.000000 88.110256 49.245919 -273.921083 995.397575 20.721211 0.000000 0.242740
310.000000 45.662000 1.000000 6.000000 -11.000000 84.329509 28.609046 387.964852 1062.731097 21.902904 0.000000 0.113541
311.000000 49.692000 -7.000000 -2.000000 -10.000000 103.671945 -51.247221 2315.901630 522.740916 20.117901 0.000000 0.291996
316.000000 48.993000 -7.000000 -1.000000 -10.000000 100.451124 -44.905901 2047.764798 660.696388 20.406712 0.000000 0.148089
317.000000 53.925000 -6.000000 -1.000000 -10.000000 106.977658 -42.839556 1973.040524 492.868303 18.538108 0.000000 0.117225
318.000000 59.162000 -5.000000 -1.000000 -10.000000 114.099472 -40.150919 1882.959914 311.133273 16.895227 0.000000 0.094728
319.000000 64.553000 -4.000000 -1.000000 -10.000000 121.780466 -36.528583 1772.247111 111.164253 15.482508 0.000000 0.084723
320.000000 69.862000 -3.000000 -1.000000 -10.000000 129.896285 -31.435826 1632.896912 -113.590871 14.304509 0.000000 0.084860
321.000000 74.760000 -2.000000 -1.000000 -10.000000 138.152435 -23.908884 1452.147639 -373.561365 13.365906 0.000000 0.081085
324.000000 47.710000 -7.000000 0.000000 -10.000000 96.540099 -38.952788 1845.098453 782.330842 20.957110 0.000000 0.086370
325.000000 52.535000 -6.000000 0.000000 -10.000000 102.616440 -36.238601 1763.842405 642.319320 19.030390 0.000000 0.057166
326.000000 62.948000 -4.000000 0.000000 -10.000000 116.132276 -28.290178 1554.286790 341.354348 15.879010 0.000000 0.030287
327.000000 68.157000 -3.000000 0.000000 -10.000000 123.304861 -22.278056 1415.938967 176.834962 14.663929 0.000000 0.034292
328.000000 72.967000 -2.000000 0.000000 -10.000000 130.326206 -14.057982 1244.507497 -0.817637 13.695858 0.000000 0.032905
329.000000 76.985000 -1.000000 0.000000 -10.000000 136.546850 -2.740202 1026.513640 -196.336921 12.979923 0.000000 0.017666
331.000000 45.879000 -7.000000 1.000000 -10.000000 92.061983 -33.468492 1686.532793 894.546709 21.795714 0.000000 0.092521
332.000000 50.476000 -6.000000 1.000000 -10.000000 97.583612 -30.279497 1603.419035 775.067888 19.808899 0.000000 0.089106
333.000000 55.354000 -5.000000 1.000000 -10.000000 103.461367 -26.324632 1507.513616 653.563691 18.061687 0.000000 0.093617
334.000000 60.370000 -4.000000 1.000000 -10.000000 109.583367 -21.345627 1395.617285 529.900107 16.559117 0.000000 0.100337
335.000000 65.305000 -3.000000 1.000000 -10.000000 115.735031 -14.998744 1263.366895 403.905843 15.306370 0.000000 0.103335
336.000000 69.851000 -2.000000 1.000000 -10.000000 121.550832 -6.868899 1104.653170 275.354119 14.308775 0.000000 0.096910
337.000000 73.639000 -1.000000 1.000000 -10.000000 126.473537 3.421550 910.650085 143.932339 13.571812 0.000000 0.074922
338.000000 76.280000 0.000000 1.000000 -10.000000 129.779949 15.914459 668.115836 9.189045 13.101120 0.000000 0.038398
339.000000 77.453000 1.000000 1.000000 -10.000000 130.772115 29.894674 356.236456 -129.564629 12.902503 0.000000 0.094231
341.000000 47.838000 -3.000000 1.000000 -5.000000 92.070628 -24.982911 1476.493507 898.069749 10.452000 0.000000 0.118831
342.000000 52.345000 -5.000000 2.000000 -10.000000 97.218590 -20.742384 1382.607822 795.229074 19.102363 0.000000 0.129963
343.000000 56.959000 -2.000000 1.000000 -5.000000 102.478089 -15.572117 1274.942232 693.747262 8.776677 0.000000 0.139908
344.000000 61.475000 -3.000000 2.000000 -10.000000 107.635692 -9.246734 1150.222684 594.336544 16.262517 0.000000 0.144462
345.000000 65.613000 -1.000000 1.000000 -5.000000 112.366118 -1.546013 1004.048708 497.966646 7.617779 0.000000 0.139279
346.000000 69.040000 -1.000000 2.000000 -10.000000 116.227622 7.653775 830.363420 405.986450 14.478354 0.000000 0.119019
347.000000 72.440000 1.000000 2.000000 -10.000000 119.376027 29.655950 362.188788 243.808971 13.797601 0.000000 0.013339
349.000000 48.800000 -5.000000 3.000000 -10.000000 90.687807 -15.958083 1282.770453 927.561119 20.493055 0.000000 0.144518
350.000000 52.918000 -4.000000 3.000000 -10.000000 95.118527 -10.787657 1180.073827 842.858089 18.896787 0.000000 0.156309
351.000000 56.917000 -3.000000 3.000000 -10.000000 99.365166 -4.672723 1062.971662 762.900910 17.567653 0.000000 0.162701
352.000000 60.552000 -2.000000 3.000000 -10.000000 103.156919 2.489570 928.204278 689.173408 16.511781 0.000000 0.160198
353.000000 63.535000 -1.000000 3.000000 -10.000000 106.156934 10.709446 771.448302 623.657267 15.735487 0.000000 0.144652
354.000000 65.575000 0.000000 3.000000 -10.000000 108.008611 19.831379 586.844241 569.053719 15.245286 0.000000 0.110744
355.000000 66.434000 1.000000 3.000000 -10.000000 108.422053 29.492509 366.247742 529.134936 15.047893 0.000000 0.053107
356.000000 65.985000 2.000000 3.000000 -10.000000 107.271801 39.174422 97.995590 509.323190 15.150239 0.000000 0.062068
357.000000 64.251000 3.000000 3.000000 -10.000000 104.647663 48.352214 -235.224892 517.690855 15.559472 0.000000 0.217964
359.000000 48.479000 -2.000000 2.000000 -5.000000 87.747768 -6.810139 1103.533504 983.630489 10.314951 0.000000 0.154206
360.000000 51.917000 -3.000000 4.000000 -10.000000 91.191447 -0.992079 993.637943 918.612230 19.262561 0.000000 0.162335
361.000000 55.010000 -1.000000 2.000000 -5.000000 94.190940 5.625710 868.980808 861.751302 9.089301 0.000000 0.162767
362.000000 57.518000 -1.000000 4.000000 -10.000000 96.494775 13.007286 726.373718 815.244485 17.384837 0.000000 0.152448
363.000000 59.207000 0.000000 2.000000 -5.000000 97.852728 21.009766 561.638834 781.985416 8.444148 0.000000 0.128223
364.000000 59.886000 1.000000 4.000000 -10.000000 98.071097 29.373592 369.192752 765.858314 16.696237 0.000000 0.089821
365.000000 59.459000 1.000000 2.000000 -5.000000 97.068512 37.758080 141.401119 772.193584 8.408080 0.000000 0.071620
366.000000 57.945000 3.000000 4.000000 -10.000000 94.903926 45.817605 -132.458310 808.499881 17.255807 0.000000 0.162006
369.000000 46.751000 -3.000000 5.000000 -10.000000 83.302713 2.010560 937.216370 1067.461709 21.394633 0.000000 0.146552
370.000000 49.308000 -2.000000 5.000000 -10.000000 85.645217 8.119117 821.454231 1023.791809 20.283909 0.000000 0.149957
371.000000 51.354000 -1.000000 5.000000 -10.000000 87.389917 14.792817 690.775137 991.746001 19.474890 0.000000 0.144901
372.000000 52.705000 0.000000 2.000000 -4.000000 88.361188 21.910779 542.097262 974.190788 7.590076 0.000000 0.130057
373.000000 53.215000 1.000000 5.000000 -10.000000 88.428329 29.283187 371.427053 974.857628 18.792677 0.000000 0.108317
374.000000 52.813000 2.000000 5.000000 -10.000000 87.538419 36.674662 173.495152 998.689120 18.935494 0.000000 0.101969
375.000000 51.517000 3.000000 5.000000 -10.000000 85.732291 43.846226 -58.797295 1052.365525 19.412063 0.000000 0.158695
376.000000 49.432000 4.000000 5.000000 -10.000000 83.135373 50.598842 -335.248102 1145.131613 20.231096 0.000000 0.289616
378.000000 46.386000 0.000000 3.000000 -5.000000 79.594223 22.621714 526.503294 1155.122774 10.781849 0.000000 0.120611
379.000000 46.748000 1.000000 6.000000 -10.000000 79.545546 29.212137 373.180214 1168.532381 21.396009 0.000000 0.115194
380.000000 46.374000 1.000000 3.000000 -5.000000 78.744640 35.819692 198.189634 1205.154347 10.784135 0.000000 0.125713
387.000000 50.582000 -7.000000 -1.000000 -9.000000 96.147887 -46.840616 2122.766377 771.515387 19.767052 0.000000 0.186547
388.000000 56.339000 -6.000000 -1.000000 -9.000000 102.967228 -44.985806 2050.761151 590.596923 17.745003 0.000000 0.149499
389.000000 62.594000 -5.000000 -1.000000 -9.000000 110.527258 -42.548608 1962.923105 393.977435 15.969761 0.000000 0.120093
390.000000 69.185000 -4.000000 -1.000000 -9.000000 118.826495 -39.218567 1853.385112 176.425614 14.446684 0.000000 0.103614
391.000000 75.817000 -3.000000 -1.000000 -9.000000 127.771512 -34.436898 1712.972616 -70.219338 13.181288 0.000000 0.100882
394.000000 47.040000 -7.000000 1.000000 -9.000000 87.562283 -34.994712 1728.481328 996.932111 21.259446 0.000000 0.103218
395.000000 52.366000 -6.000000 1.000000 -9.000000 93.311999 -31.885201 1644.548547 867.646702 19.095315 0.000000 0.093162
396.000000 58.149000 -5.000000 1.000000 -9.000000 99.530784 -27.989918 1547.032913 736.358736 17.194655 0.000000 0.095151
397.000000 64.236000 -4.000000 1.000000 -9.000000 106.119894 -23.021971 1432.346975 603.020340 15.563627 0.000000 0.103050
398.000000 70.354000 -3.000000 1.000000 -9.000000 112.858521 -16.583412 1295.517985 467.581717 14.208584 0.000000 0.108947
399.000000 76.090000 -2.000000 1.000000 -9.000000 119.333410 -8.166172 1129.447777 329.990844 13.136083 0.000000 0.105321
400.000000 80.907000 -1.000000 1.000000 -9.000000 124.868490 2.731968 923.641383 190.192993 12.352889 0.000000 0.084084
401.000000 84.222000 0.000000 1.000000 -9.000000 128.539337 16.220057 661.898990 48.129906 11.865984 0.000000 0.040974
402.000000 85.542000 1.000000 1.000000 -9.000000 129.438295 31.407645 317.830042 -96.261751 11.682577 0.000000 0.097449
404.000000 49.295000 -6.000000 2.000000 -9.000000 87.590154 -26.335101 1507.758451 991.540756 20.287538 0.000000 0.116384
405.000000 54.582000 -5.000000 2.000000 -9.000000 92.994618 -22.090828 1411.837088 880.234309 18.320853 0.000000 0.128219
406.000000 60.113000 -4.000000 2.000000 -9.000000 98.601996 -16.858281 1301.147358 770.876389 16.633528 0.000000 0.141166
407.000000 65.636000 -3.000000 2.000000 -9.000000 104.183774 -10.372041 1171.994124 664.461179 15.232413 0.000000 0.149519
408.000000 70.778000 -2.000000 2.000000 -9.000000 109.366517 -2.358935 1019.337356 562.362912 14.124582 0.000000 0.147774
409.000000 75.062000 -1.000000 2.000000 -9.000000 113.615655 7.352605 836.119013 466.526922 13.317347 0.000000 0.129408
410.000000 77.980000 0.000000 2.000000 -9.000000 116.294199 18.630898 612.140697 379.788237 12.818263 0.000000 0.085261
411.000000 79.108000 1.000000 2.000000 -9.000000 116.846861 30.851085 332.098503 306.429477 12.635140 0.000000 0.004919
412.000000 78.236000 2.000000 2.000000 -9.000000 115.055325 42.983147 -28.068936 253.217686 12.776056 0.000000 0.149112
414.000000 45.711000 -2.000000 1.000000 -3.000000 81.562505 -21.447341 1397.821312 1112.530899 7.293681 0.000000 0.122164
415.000000 50.394000 -5.000000 3.000000 -9.000000 86.151500 -17.040107 1304.880182 1016.726951 19.846232 0.000000 0.137344
416.000000 55.248000 -4.000000 3.000000 -9.000000 90.812289 -11.768198 1199.226185 925.412589 18.101284 0.000000 0.152503
417.000000 60.046000 -1.000000 1.000000 -3.000000 95.333608 -5.469623 1078.059456 840.058818 5.551202 0.000000 0.162921
418.000000 64.464000 -2.000000 3.000000 -9.000000 99.404812 1.985228 937.692802 762.620700 15.510861 0.000000 0.164199
419.000000 68.104000 -1.000000 3.000000 -9.000000 102.623909 10.620934 773.169949 695.746452 14.680974 0.000000 0.151407
420.000000 71.447000 1.000000 3.000000 -9.000000 104.847861 30.479685 341.528134 609.915931 13.992874 0.000000 0.061275
421.000000 70.644000 2.000000 3.000000 -9.000000 103.367425 40.658102 50.609343 603.853670 14.151949 0.000000 0.079183
423.000000 45.837000 -5.000000 4.000000 -9.000000 79.245029 -12.730285 1218.151263 1150.589685 21.822475 0.000000 0.126523
424.000000 49.964000 -4.000000 4.000000 -9.000000 83.043271 -7.555971 1117.766596 1073.477626 20.018860 0.000000 0.142664
425.000000 53.991000 -3.000000 4.000000 -9.000000 86.638018 -1.555091 1004.219365 1004.250296 18.524530 0.000000 0.154771
426.000000 57.649000 -2.000000 4.000000 -9.000000 89.783464 5.321961 874.739099 945.085231 17.347810 0.000000 0.159163
427.000000 60.618000 -1.000000 4.000000 -9.000000 92.185556 13.040362 725.719151 898.837345 16.497322 0.000000 0.152257
428.000000 62.569000 0.000000 4.000000 -9.000000 93.547467 21.438264 552.375485 869.316327 15.982010 0.000000 0.130765
429.000000 63.244000 1.000000 4.000000 -9.000000 93.642523 30.214243 348.223540 861.712022 15.811140 0.000000 0.096452
430.000000 62.519000 2.000000 4.000000 -9.000000 92.387888 38.973791 104.248948 883.268800 15.994329 0.000000 0.092690
431.000000 60.451000 3.000000 4.000000 -9.000000 89.877415 47.326686 -192.459479 944.397289 16.541552 0.000000 0.199246
433.000000 47.846000 -3.000000 5.000000 -9.000000 78.319294 1.615291 944.648917 1163.600338 20.907170 0.000000 0.129055
434.000000 50.780000 -2.000000 5.000000 -9.000000 80.711165 7.948812 824.717130 1118.742342 19.698125 0.000000 0.136700
435.000000 53.118000 -1.000000 5.000000 -9.000000 82.471818 14.897507 688.670386 1088.182655 18.829975 0.000000 0.135910
436.000000 54.617000 0.000000 5.000000 -9.000000 83.399358 22.325186 533.026760 1075.635624 18.312502 0.000000 0.125815
437.000000 55.087000 1.000000 5.000000 -9.000000 83.346502 30.015083 353.223367 1085.994720 18.155867 0.000000 0.112033
438.000000 54.442000 2.000000 5.000000 -9.000000 82.262247 37.699456 143.161581 1125.829979 18.370627 0.000000 0.122214
439.000000 52.728000 3.000000 5.000000 -9.000000 80.209787 45.111684 -105.498432 1204.159758 18.967758 0.000000 0.198019
442.000000 45.984000 -1.000000 6.000000 -9.000000 73.562506 16.365127 658.941075 1271.944107 21.755004 0.000000 0.108325
443.000000 47.095000 0.000000 2.000000 -3.000000 74.160823 23.017734 517.746986 1272.769835 7.080368 0.000000 0.111648
444.000000 47.394000 1.000000 6.000000 -9.000000 73.999395 29.860139 357.099320 1296.880179 21.106196 0.000000 0.119062
445.000000 46.826000 2.000000 6.000000 -9.000000 73.047440 36.702559 172.680179 1350.207861 21.361931 0.000000 0.148052
450.000000 45.997000 -8.000000 -1.000000 -8.000000 84.920382 -50.116553 2262.989494 1090.199359 21.741322 0.000000 0.283752
451.000000 51.901000 -7.000000 -1.000000 -8.000000 91.170097 -48.856597 2206.894227 907.588144 19.266095 0.000000 0.236474
452.000000 58.617000 -6.000000 -1.000000 -8.000000 98.244268 -47.240434 2138.938669 711.304994 17.056677 0.000000 0.192363
453.000000 66.119000 -5.000000 -1.000000 -8.000000 106.230154 -45.096257 2054.916716 497.171099 15.119459 0.000000 0.154997
454.000000 74.254000 -4.000000 -1.000000 -8.000000 115.178879 -42.125202 1948.366779 258.791328 13.461034 0.000000 0.130421
455.000000 82.675000 -3.000000 -1.000000 -8.000000 125.051630 -37.765633 1808.825878 -14.160223 12.088213 0.000000 0.122913
457.000000 50.254000 -7.000000 0.000000 -8.000000 87.106063 -42.505228 1961.422698 1014.802739 19.899541 0.000000 0.146760
458.000000 56.797000 -3.000000 0.000000 -4.000000 93.690235 -40.100208 1881.330621 850.249700 8.802478 0.000000 0.102724
459.000000 64.121000 -5.000000 0.000000 -8.000000 101.050676 -36.976849 1785.364288 677.883060 15.592368 0.000000 0.063907
460.000000 80.336000 -3.000000 0.000000 -8.000000 117.915836 -26.952029 1522.264740 301.266808 12.441886 0.000000 0.030987
461.000000 47.856000 -7.000000 1.000000 -8.000000 82.387250 -36.599787 1774.320473 1120.183564 20.898993 0.000000 0.121319
462.000000 54.012000 -6.000000 1.000000 -8.000000 88.324555 -33.589079 1689.792545 978.792312 18.515139 0.000000 0.101110
463.000000 60.883000 -5.000000 1.000000 -8.000000 94.866274 -29.777680 1590.842869 835.427258 16.423850 0.000000 0.097180
464.000000 68.327000 -4.000000 1.000000 -8.000000 101.940458 -24.849051 1473.436371 690.173328 14.632827 0.000000 0.104983
465.000000 76.022000 -3.000000 1.000000 -8.000000 109.332946 -18.344497 1331.877838 543.175262 13.150049 0.000000 0.114186
466.000000 83.410000 -2.000000 1.000000 -8.000000 116.584700 -9.642366 1157.860264 394.673140 11.983775 0.000000 0.114425
467.000000 89.698000 -1.000000 1.000000 -8.000000 122.872016 1.927751 938.773766 245.065581 11.142565 0.000000 0.094926
468.000000 50.423000 -3.000000 1.000000 -4.000000 82.392456 -27.772082 1541.795561 1103.467487 9.917776 0.000000 0.113878
469.000000 56.623000 -5.000000 2.000000 -8.000000 88.023906 -23.538761 1443.852100 981.505906 17.662220 0.000000 0.123992
470.000000 63.285000 -2.000000 1.000000 -4.000000 93.975281 -18.256892 1330.052176 862.240110 7.900631 0.000000 0.139695
471.000000 70.111000 -3.000000 2.000000 -8.000000 100.009774 -11.614024 1196.206042 747.060238 14.261353 0.000000 0.152697
472.000000 82.069000 -1.000000 2.000000 -8.000000 110.403195 7.009961 842.657730 537.646335 12.181032 0.000000 0.140327
473.000000 86.940000 1.000000 2.000000 -8.000000 113.688273 32.216036 296.800541 382.876013 11.497444 0.000000 0.006759
475.000000 46.260000 -6.000000 3.000000 -8.000000 76.144571 -22.644905 1424.008095 1228.642245 21.623523 0.000000 0.111367
476.000000 51.652000 -5.000000 3.000000 -8.000000 80.861036 -18.200007 1328.867702 1123.263483 19.364885 0.000000 0.125307
477.000000 57.375000 -4.000000 3.000000 -8.000000 85.727050 -12.830036 1220.121473 1023.475141 17.431811 0.000000 0.143549
478.000000 63.161000 -3.000000 3.000000 -8.000000 90.517636 -6.342178 1094.626029 931.216124 15.833779 0.000000 0.158786
479.000000 68.583000 -2.000000 3.000000 -8.000000 94.878894 1.426975 948.188906 849.099905 14.580637 0.000000 0.165029
480.000000 73.079000 -1.000000 3.000000 -8.000000 98.329577 10.522108 775.091060 780.723043 13.682624 0.000000 0.156219
481.000000 76.032000 0.000000 3.000000 -8.000000 100.332946 20.745630 567.322444 731.159178 13.150387 0.000000 0.125439
482.000000 76.939000 1.000000 3.000000 -8.000000 100.458549 31.582704 313.307143 707.783025 12.995005 0.000000 0.071104
483.000000 75.584000 2.000000 3.000000 -8.000000 98.569736 42.299330 -4.329424 721.713625 13.228008 0.000000 0.104174
484.000000 72.133000 3.000000 3.000000 -8.000000 94.897786 52.207217 -412.911157 790.497483 13.861401 0.000000 0.307922
485.000000 46.313000 -5.000000 4.000000 -8.000000 73.663793 -13.654265 1236.462261 1265.644044 21.600580 0.000000 0.104695
486.000000 51.054000 -2.000000 2.000000 -4.000000 77.548742 -8.359688 1133.159632 1181.200431 9.796790 0.000000 0.123055
487.000000 55.765000 -3.000000 4.000000 -8.000000 81.265449 -2.166781 1015.722130 1106.478776 17.936985 0.000000 0.139706
488.000000 60.102000 -1.000000 2.000000 -4.000000 84.536967 4.989479 881.035596 1044.326080 8.320810 0.000000 0.149188
489.000000 63.627000 -1.000000 4.000000 -8.000000 87.019872 13.076764 724.998554 998.523601 15.718758 0.000000 0.147058
490.000000 66.501000 1.000000 4.000000 -8.000000 88.295603 31.138905 324.740594 978.417605 15.038046 0.000000 0.103567
491.000000 65.340000 1.000000 2.000000 -4.000000 86.743749 40.301738 62.179948 1021.291527 7.652609 0.000000 0.120603
492.000000 62.523000 3.000000 4.000000 -8.000000 83.849470 48.958447 -261.322932 1117.639841 15.994995 0.000000 0.250148
493.000000 48.434000 -3.000000 5.000000 -8.000000 72.513946 1.188890 952.663648 1280.139305 20.655403 0.000000 0.100444
494.000000 51.779000 -2.000000 5.000000 -8.000000 74.919432 7.764133 828.252371 1233.698196 19.319962 0.000000 0.113755
495.000000 54.436000 -1.000000 5.000000 -8.000000 76.664489 15.011432 686.377630 1205.143760 18.376332 0.000000 0.119319
496.000000 56.077000 0.000000 5.000000 -8.000000 77.518229 22.776591 523.084889 1199.399061 17.837547 0.000000 0.117280
497.000000 56.457000 1.000000 5.000000 -8.000000 77.316294 30.810670 333.128144 1223.037246 17.717228 0.000000 0.117483
498.000000 55.477000 2.000000 5.000000 -8.000000 76.013715 38.807802 109.395842 1285.017651 18.029612 0.000000 0.150929
499.000000 53.234000 3.000000 5.000000 -8.000000 73.704003 46.470264 -157.999302 1397.853061 18.789590 0.000000 0.251116
502.000000 45.974000 -1.000000 6.000000 -8.000000 67.326893 16.524202 655.692521 1410.000040 21.762154 0.000000 0.086108
503.000000 47.121000 0.000000 3.000000 -4.000000 67.824904 23.445009 508.241723 1419.157476 10.615858 0.000000 0.103997
504.000000 47.314000 1.000000 6.000000 -8.000000 67.529169 30.558075 339.543878 1457.974211 21.144485 0.000000 0.131211
505.000000 46.495000 1.000000 3.000000 -4.000000 66.415433 37.649818 144.650007 1534.458742 10.758218 0.000000 0.183129
511.000000 52.752000 -7.000000 -1.000000 -7.000000 85.394775 -50.953766 2301.921997 1078.623204 18.956972 0.000000 0.302483
512.000000 60.550000 -6.000000 -1.000000 -7.000000 92.653213 -49.604342 2239.835667 864.038340 16.513629 0.000000 0.250238
513.000000 69.555000 -5.000000 -1.000000 -7.000000 101.019143 -47.797342 2161.876548 629.005830 14.373635 0.000000 0.203666
514.000000 79.680000 -4.000000 -1.000000 -7.000000 110.621597 -45.258906 2061.065532 365.615702 12.545304 0.000000 0.169203
515.000000 90.552000 -3.000000 -1.000000 -7.000000 121.512906 -41.452325 1925.629339 60.571033 11.037258 0.000000 0.154523
516.000000 48.115000 -7.000000 1.000000 -7.000000 76.415067 -38.287271 1824.617811 1272.352721 20.788193 0.000000 0.151126
517.000000 55.180000 -6.000000 1.000000 -7.000000 82.467401 -35.397114 1739.800939 1115.591958 18.124951 0.000000 0.116960
518.000000 63.331000 -5.000000 1.000000 -7.000000 89.281193 -31.698053 1639.682359 956.870897 15.790487 0.000000 0.101573
519.000000 72.485000 -4.000000 1.000000 -7.000000 96.831935 -26.843893 1519.710671 796.477483 13.794707 0.000000 0.105958
520.000000 82.299000 -3.000000 1.000000 -7.000000 104.935944 -20.309244 1373.330762 634.865635 12.147918 0.000000 0.118407
521.000000 50.979000 -6.000000 2.000000 -7.000000 76.330689 -29.300100 1578.990640 1241.161763 19.621361 0.000000 0.115056
522.000000 58.212000 -5.000000 2.000000 -7.000000 82.126876 -25.095545 1479.071036 1105.347754 17.181816 0.000000 0.117359
523.000000 66.247000 -4.000000 2.000000 -7.000000 88.388641 -19.781466 1362.096533 973.175858 15.096415 0.000000 0.133937
524.000000 74.756000 -3.000000 2.000000 -7.000000 94.884604 -12.990449 1223.293150 846.604550 13.376504 0.000000 0.152285
525.000000 83.087000 -2.000000 2.000000 -7.000000 101.140903 -4.299725 1055.921782 728.443161 12.033920 0.000000 0.161547
526.000000 90.223000 -1.000000 2.000000 -7.000000 106.364112 6.616674 850.151071 622.842621 11.081016 0.000000 0.151064
527.000000 46.150000 -6.000000 3.000000 -7.000000 69.877654 -23.918609 1452.366241 1372.390655 21.677517 0.000000 0.103571
528.000000 52.299000 -5.000000 3.000000 -7.000000 74.649087 -19.445444 1354.982844 1254.342420 19.127613 0.000000 0.108004
529.000000 59.017000 -4.000000 3.000000 -7.000000 79.664089 -13.982891 1243.008951 1143.286950 16.948900 0.000000 0.126761
530.000000 66.002000 -3.000000 3.000000 -7.000000 84.691423 -7.301232 1112.899990 1041.824819 15.153932 0.000000 0.147253
531.000000 72.704000 -2.000000 3.000000 -7.000000 89.333713 0.805804 959.862080 953.517922 13.755836 0.000000 0.159971
532.000000 78.320000 -1.000000 3.000000 -7.000000 93.015292 10.411052 777.248428 883.356755 12.768345 0.000000 0.156926
533.000000 81.924000 0.000000 3.000000 -7.000000 95.069455 21.290852 555.568356 838.527817 12.205835 0.000000 0.130196
534.000000 82.752000 1.000000 3.000000 -7.000000 94.965160 32.822243 280.784144 829.732771 12.083357 0.000000 0.083193
535.000000 80.531000 2.000000 3.000000 -7.000000 92.574538 44.121432 -68.782669 873.584964 12.416685 0.000000 0.140437
537.000000 46.056000 -5.000000 4.000000 -7.000000 67.182657 -14.643757 1256.231579 1409.018798 21.723712 0.000000 0.077425
538.000000 51.441000 -4.000000 4.000000 -7.000000 71.084012 -9.227947 1149.860432 1314.669440 19.448480 0.000000 0.091739
539.000000 56.913000 -3.000000 4.000000 -7.000000 74.864651 -2.833588 1028.272052 1232.475344 17.577325 0.000000 0.112487
540.000000 62.035000 -2.000000 4.000000 -7.000000 78.217136 4.624010 887.949455 1166.246795 16.124894 0.000000 0.128500
541.000000 66.213000 -1.000000 4.000000 -7.000000 80.743048 13.117021 724.201407 1121.119282 15.106553 0.000000 0.133326
542.000000 68.797000 0.000000 4.000000 -7.000000 82.023556 22.434383 530.627718 1104.160528 14.538427 0.000000 0.124100
543.000000 69.276000 1.000000 4.000000 -7.000000 81.749875 32.160273 298.263081 1125.342740 14.437452 0.000000 0.112656
544.000000 67.481000 2.000000 4.000000 -7.000000 79.855177 41.756569 14.148894 1199.164804 14.821422 0.000000 0.159606
545.000000 63.668000 3.000000 4.000000 -7.000000 76.553841 50.725486 -341.168700 1347.494568 15.709049 0.000000 0.321862
547.000000 48.177000 -3.000000 5.000000 -7.000000 65.704834 0.727580 961.331754 1426.895361 20.768161 0.000000 0.054233
548.000000 51.935000 -2.000000 5.000000 -7.000000 68.064199 7.563183 832.095535 1378.252873 19.264358 0.000000 0.076233
549.000000 54.906000 -1.000000 5.000000 -7.000000 69.742537 15.135871 683.870502 1352.500424 18.221227 0.000000 0.092912
550.000000 56.658000 0.000000 5.000000 -7.000000 70.479176 23.270118 512.139749 1356.364960 17.656996 0.000000 0.106249
551.000000 56.869000 1.000000 5.000000 -7.000000 70.094358 31.678288 310.830402 1398.965103 17.590868 0.000000 0.130669
552.000000 55.442000 2.000000 5.000000 -7.000000 68.555718 40.009413 71.580492 1492.943553 18.043089 0.000000 0.194672
553.000000 52.553000 3.000000 5.000000 -7.000000 65.996574 47.930928 -217.451820 1656.306877 19.035013 0.000000 0.326081
555.000000 46.054000 0.000000 6.000000 -7.000000 60.392738 23.907337 497.887122 1609.999461 21.725908 0.000000 0.114705
556.000000 46.080000 1.000000 6.000000 -7.000000 59.940068 31.311716 320.301329 1670.091010 21.713157 0.000000 0.164616
562.000000 61.804000 -6.000000 -1.000000 -6.000000 86.006636 -52.077035 2356.418221 1063.252514 16.180312 0.000000 0.330188
563.000000 72.564000 -5.000000 -1.000000 -6.000000 94.651698 -50.653046 2287.778222 802.873759 13.779125 0.000000 0.272965
564.000000 85.217000 -4.000000 -1.000000 -6.000000 104.858462 -48.626346 2196.948462 508.989855 11.731169 0.000000 0.226670
565.000000 50.685000 -7.000000 0.000000 -6.000000 74.454048 -46.397384 2105.117021 1375.149906 19.733973 0.000000 0.258794
566.000000 59.347000 -2.000000 0.000000 -2.000000 81.250931 -44.407966 2029.278396 1172.866371 5.617309 0.000000 0.193703
567.000000 69.793000 -5.000000 0.000000 -6.000000 89.216706 -41.768062 1936.239119 960.729245 14.327832 0.000000 0.131678
568.000000 82.132000 -4.000000 0.000000 -6.000000 98.509942 -38.115701 1819.398878 736.308634 12.173598 0.000000 0.076029
569.000000 47.524000 -7.000000 1.000000 -6.000000 69.507518 -40.060514 1880.056975 1466.564814 21.048957 0.000000 0.199056
570.000000 55.512000 -6.000000 1.000000 -6.000000 75.555163 -37.315210 1795.368126 1289.596738 18.018589 0.000000 0.147427
571.000000 65.100000 -5.000000 1.000000 -6.000000 82.536140 -33.761532 1694.470238 1110.609570 15.363241 0.000000 0.113260
572.000000 76.360000 -4.000000 1.000000 -6.000000 90.502642 -29.025148 1572.217358 930.201465 13.096116 0.000000 0.106640
573.000000 89.027000 -3.000000 1.000000 -6.000000 99.342891 -22.509622 1421.027458 749.319522 11.231044 0.000000 0.120486
574.000000 50.603000 -3.000000 1.000000 -3.000000 69.230785 -30.925694 1619.804564 1416.830983 9.884737 0.000000 0.129989
575.000000 58.932000 -5.000000 2.000000 -6.000000 75.077658 -26.771357 1518.000183 1262.265278 16.974105 0.000000 0.111942
576.000000 79.218000 -3.000000 2.000000 -6.000000 88.483926 -14.522516 1253.799925 970.426096 12.624712 0.000000 0.145239
577.000000 51.913000 -5.000000 3.000000 -6.000000 67.311442 -20.784924 1383.521816 1422.294191 19.272156 0.000000 0.092492
578.000000 59.693000 -4.000000 3.000000 -6.000000 72.367393 -15.237923 1268.187788 1295.560293 16.759230 0.000000 0.099464
579.000000 76.363000 -2.000000 3.000000 -6.000000 82.421355 0.110616 972.922086 1084.200309 13.098384 0.000000 0.143895
580.000000 83.428000 -1.000000 3.000000 -6.000000 86.302395 10.285348 779.688492 1011.691611 11.988205 0.000000 0.149306
581.000000 88.416000 1.000000 3.000000 -6.000000 87.940812 34.223914 242.894277 987.802258 11.310736 0.000000 0.099356
582.000000 84.837000 2.000000 3.000000 -6.000000 84.946390 46.151682 -145.456324 1078.391819 11.787950 0.000000 0.194392
583.000000 50.649000 -2.000000 2.000000 -3.000000 63.427260 -10.168395 1168.043048 1487.918054 9.877509 0.000000 0.051087
584.000000 56.890000 -3.000000 4.000000 -6.000000 67.166670 -3.563106 1042.018940 1395.047058 17.587015 0.000000 0.065236
585.000000 62.855000 -1.000000 2.000000 -3.000000 70.511303 4.220424 895.576153 1322.932548 7.958484 0.000000 0.089316
586.000000 67.745000 -1.000000 4.000000 -6.000000 73.006468 13.161778 723.314827 1278.796906 14.767041 0.000000 0.105488
587.000000 70.828000 1.000000 4.000000 -6.000000 73.621213 33.293589 268.179188 1319.453747 14.122991 0.000000 0.129497
588.000000 68.138000 1.000000 2.000000 -3.000000 71.349165 43.355210 -41.208296 1440.615812 7.340147 0.000000 0.218104
591.000000 46.567000 -3.000000 5.000000 -6.000000 57.671602 0.226962 970.736526 1622.157210 21.489074 0.000000 0.021282
592.000000 50.664000 -2.000000 5.000000 -6.000000 59.888631 7.343720 836.288683 1570.353807 19.750295 0.000000 0.034360
593.000000 53.880000 -1.000000 5.000000 -6.000000 61.419382 15.272347 681.117461 1548.807388 18.570580 0.000000 0.069870
594.000000 55.656000 0.000000 5.000000 -6.000000 61.977358 23.811865 500.031405 1567.119227 17.977219 0.000000 0.109598
595.000000 55.586000 1.000000 5.000000 -6.000000 61.373582 32.627725 285.947040 1638.535631 17.999311 0.000000 0.167076
596.000000 53.594000 2.000000 5.000000 -6.000000 59.598133 41.315375 28.940537 1781.788418 18.667909 0.000000 0.266285
602.000000 45.687000 -7.000000 1.000000 -5.000000 61.515578 -41.922561 1941.468902 1725.896748 21.898008 0.000000 0.275485
603.000000 54.475000 -6.000000 1.000000 -5.000000 67.372324 -39.349021 1857.475500 1521.149108 18.363873 0.000000 0.203148
604.000000 65.525000 -5.000000 1.000000 -5.000000 74.329925 -35.978745 1756.363699 1314.100801 15.265679 0.000000 0.143078
605.000000 79.240000 -4.000000 1.000000 -5.000000 82.553834 -31.412937 1632.306445 1105.826232 12.621883 0.000000 0.111494
606.000000 48.783000 -6.000000 2.000000 -5.000000 60.894558 -32.655639 1664.792473 1652.689164 20.509694 0.000000 0.177065
607.000000 58.116000 -5.000000 2.000000 -5.000000 66.599156 -28.577168 1561.258429 1471.388206 17.214638 0.000000 0.124131
608.000000 69.460000 -4.000000 2.000000 -5.000000 73.126572 -23.271868 1437.899211 1296.370854 14.402065 0.000000 0.106381
609.000000 82.705000 -3.000000 2.000000 -5.000000 80.344149 -16.235594 1288.417584 1131.727050 12.094272 0.000000 0.126397
610.000000 49.871000 -5.000000 3.000000 -5.000000 58.607197 -22.227874 1414.838483 1650.513610 20.063904 0.000000 0.115465
611.000000 58.615000 -4.000000 3.000000 -5.000000 63.513539 -16.607966 1296.020212 1500.650017 17.069969 0.000000 0.073778
612.000000 68.450000 -3.000000 3.000000 -5.000000 68.676421 -9.532999 1155.747198 1367.023156 14.616347 0.000000 0.078292
613.000000 78.583000 -2.000000 3.000000 -5.000000 73.644376 -0.672408 987.631678 1256.886777 12.730522 0.000000 0.106451
614.000000 87.426000 -1.000000 3.000000 -5.000000 77.625906 10.141895 782.470713 1180.876674 11.441875 0.000000 0.124785
615.000000 87.089000 2.000000 3.000000 -5.000000 75.062512 48.421824 -238.189883 1373.664373 11.484874 0.000000 0.279303
617.000000 47.972000 -4.000000 4.000000 -5.000000 54.314432 -11.189849 1187.913850 1728.964446 20.860398 0.000000 0.088261
618.000000 54.816000 -3.000000 4.000000 -5.000000 57.833190 -4.364345 1057.142614 1619.876812 18.255161 0.000000 0.028951
619.000000 61.524000 -2.000000 4.000000 -5.000000 61.007497 3.772475 904.031927 1538.710694 16.264023 0.000000 0.022144
620.000000 67.054000 -1.000000 4.000000 -5.000000 63.336006 13.211836 722.322868 1496.166761 14.921721 0.000000 0.064368
621.000000 70.134000 0.000000 4.000000 -5.000000 64.259346 23.671531 503.177549 1507.598710 14.265662 0.000000 0.105185
622.000000 69.786000 1.000000 4.000000 -5.000000 63.390379 34.557274 233.698257 1595.711697 14.336185 0.000000 0.172062
623.000000 65.919000 2.000000 4.000000 -5.000000 60.744467 45.117192 -105.706181 1795.364941 15.176853 0.000000 0.314177
625.000000 47.089000 -2.000000 5.000000 -5.000000 50.083284 7.103070 840.881905 1848.419515 21.252948 0.000000 0.122716
626.000000 50.348000 -1.000000 5.000000 -5.000000 51.342178 15.422694 678.080461 1834.135943 19.876229 0.000000 0.132011
627.000000 51.967000 0.000000 2.000000 -2.000000 51.636417 24.409149 486.564020 1876.570523 7.702513 0.000000 0.176074
628.000000 51.467000 1.000000 5.000000 -5.000000 50.782526 33.670524 258.000639 1996.406475 19.442357 0.000000 0.256626
635.000000 70.423000 -5.000000 0.000000 -4.000000 71.437351 -47.217658 2138.010851 1473.131993 14.203762 0.000000 0.291921
636.000000 51.326000 -6.000000 1.000000 -4.000000 57.684989 -41.503738 1927.349916 1850.051105 19.493403 0.000000 0.302263
637.000000 63.541000 -5.000000 1.000000 -4.000000 64.300236 -38.360109 1826.840908 1601.582820 15.744808 0.000000 0.210749
638.000000 79.751000 -4.000000 1.000000 -4.000000 72.450726 -34.028476 1701.748193 1351.700768 12.543078 0.000000 0.137702
639.000000 54.765000 -5.000000 2.000000 -4.000000 56.369168 -30.524680 1609.610413 1772.105950 18.270820 0.000000 0.190757
640.000000 67.553000 -2.000000 1.000000 -2.000000 62.604890 -25.274563 1483.177502 1557.829144 7.405517 0.000000 0.116774
641.000000 83.553000 -3.000000 2.000000 -4.000000 69.805684 -18.160094 1328.037087 1357.630595 11.973795 0.000000 0.092481
642.000000 54.554000 -4.000000 3.000000 -4.000000 52.712693 -18.107784 1326.949049 1803.243674 18.343550 0.000000 0.138049
643.000000 65.505000 -3.000000 3.000000 -4.000000 57.531624 -10.839765 1181.088381 1638.281827 15.276189 0.000000 0.059270
644.000000 77.375000 -2.000000 3.000000 -4.000000 62.296777 -1.560681 1004.324458 1506.354078 12.931855 0.000000 0.025269
645.000000 88.072000 -1.000000 3.000000 -4.000000 66.136877 9.976651 785.672485 1424.429659 11.360279 0.000000 0.068105
647.000000 49.352000 -3.000000 4.000000 -4.000000 46.460558 -5.248060 1073.860810 1968.079675 20.279107 0.000000 0.179153
648.000000 56.323000 -1.000000 2.000000 -2.000000 49.184117 3.272490 913.459736 1872.071353 8.884317 0.000000 0.131169
649.000000 62.077000 -1.000000 4.000000 -4.000000 51.107261 13.268196 721.205556 1833.046742 16.121037 0.000000 0.126295
650.000000 63.748000 1.000000 4.000000 -4.000000 50.387565 35.973725 193.780283 2041.699979 15.696798 0.000000 0.284168
656.000000 75.431000 -4.000000 1.000000 -3.000000 59.516946 -36.893390 1782.910440 1733.190002 13.263955 0.000000 0.227761
658.000000 60.640000 -4.000000 2.000000 -3.000000 49.430885 -27.477179 1534.738592 1979.655763 16.502489 0.000000 0.236268
659.000000 78.476000 -3.000000 2.000000 -3.000000 55.965666 -20.332471 1373.826912 1716.210076 12.751174 0.000000 0.121172
661.000000 56.568000 -1.000000 1.000000 -1.000000 43.452160 -12.302505 1209.719399 2103.777518 5.897587 0.000000 0.247321
662.000000 68.961000 -2.000000 3.000000 -3.000000 47.421937 -2.576425 1023.430486 1930.943757 14.512776 0.000000 0.159976
663.000000 80.527000 -1.000000 3.000000 -3.000000 50.592707 9.784246 789.396449 1838.359936 12.427698 0.000000 0.121779
673.000000 89.670000 -3.000000 1.000000 -2.000000 51.113032 -34.496840 1714.629175 1994.264664 11.159140 0.000000 0.280794
#UB matrix in q= (UB) B0 G* 
#[[ 0.063518297  0.321700839  0.9436672  ]
# [ 0.865419095  0.453420335 -0.212837956]
# [-0.497006254  0.831313682 -0.249867557]]
#B0 matrix in q= UB (B0) G*
#[[ 0.19670273 -0.          0.03056101]
# [ 0.          0.19187965 -0.        ]
# [ 0.          0.          0.18806537]]
#UBB0 matrix in q= (UB B0) G* i.e. recip. basis vectors are columns in LT frame: astar = UBB0[:,0], bstar = UBB0[:,1], cstar = UBB0[:,2]. (abcstar as columns on xyzlab1, xlab1 = ui, ui = unit vector along incident beam)
#[[ 0.01249422  0.06172785  0.17941231]
# [ 0.1702303   0.08700214 -0.01357937]
# [-0.09776249  0.15951218 -0.06218045]]
#Euler angles phi theta psi (deg)
#[210.88  104.453 102.687]
#deviatoric strain in direct crystal frame (10-3 unit)
#[[ 0.94  0.11 -0.2 ]
# [ 0.11  0.84  0.65]
# [-0.2   0.65 -1.78]]
#deviatoric strain in sample2 frame (10-3 unit)
#[[ 0.61  0.3   0.89]
# [ 0.3   0.83 -0.63]
# [ 0.89 -0.63 -1.44]]
#new lattice parameters
#[ 5.1505     5.2111125  5.3219191 89.9630222 99.2341671 89.9869565]
#CCDLabel
#sCMOS
#DetectorParameters
#[79.0, 975.0, 941.0, 0.0, 0.0]
#pixelsize
#0.0734
#Frame dimensions
#[2018, 2016]
#
