#Strain and Orientation Refinement from experimental file: /home/micha/LaueProjects/DepthEffects/testZrO2_190.cor
#File created at Wed Jun 28 14:29:39 2023 with indexingSpotsSet.py
#Number of indexed spots: 507
#Element
#ZrO2
#grainIndex
#G_0
#Mean Deviation(pixel): 0.114
##spot_index intensity h k l 2theta Chi Xexp Yexp Energy GrainIndex PixDev
21.000000 88.909000 3.000000 -3.000000 2.000000 62.924722 41.961912 7.195027 1680.899853 11.260276 0.000000 0.248612
22.000000 89.233000 4.000000 -3.000000 2.000000 74.292705 47.923648 -217.147275 1392.680886 11.216973 0.000000 0.272230
25.000000 105.912000 1.000000 -2.000000 2.000000 46.067765 21.456593 551.978045 2055.122335 9.455722 0.000000 0.223428
26.000000 129.662000 2.000000 -2.000000 2.000000 68.896498 31.864651 305.986755 1430.090054 7.720833 0.000000 0.130033
27.000000 127.421000 3.000000 -2.000000 2.000000 83.651384 40.926380 41.816923 1099.491360 7.854254 0.000000 0.136206
28.000000 116.535000 4.000000 -2.000000 2.000000 92.964792 48.525568 -242.623832 856.832386 8.586303 0.000000 0.214634
31.000000 199.001000 1.000000 -1.000000 2.000000 75.217348 10.680270 772.015921 1230.027533 5.030466 0.000000 0.115057
32.000000 195.677000 2.000000 -1.000000 2.000000 97.614819 25.888233 452.652705 781.057725 5.113529 0.000000 0.109239
33.000000 169.189000 3.000000 -1.000000 2.000000 108.976044 39.070574 101.236817 464.301448 5.912666 0.000000 0.060833
37.000000 53.189000 5.000000 -5.000000 3.000000 61.356026 44.152603 -69.919503 1760.369088 18.822477 0.000000 0.291555
38.000000 53.906000 6.000000 -5.000000 3.000000 68.769050 47.774503 -210.926248 1563.179795 18.569606 0.000000 0.302227
44.000000 62.127000 3.000000 -4.000000 3.000000 53.630872 34.196659 243.642908 1899.294023 16.117088 0.000000 0.231403
45.000000 66.616000 4.000000 -4.000000 3.000000 64.698639 39.298172 94.120696 1598.474183 15.028261 0.000000 0.205633
46.000000 67.103000 5.000000 -4.000000 3.000000 73.381747 43.927398 -61.732858 1387.017742 14.916778 0.000000 0.213304
47.000000 65.370000 6.000000 -4.000000 3.000000 80.167557 48.094753 -224.328591 1220.286986 15.310114 0.000000 0.246427
48.000000 62.553000 7.000000 -4.000000 3.000000 85.491545 51.828232 -394.113672 1078.318945 15.998074 0.000000 0.309885
52.000000 78.798000 2.000000 -3.000000 3.000000 54.708051 25.053853 471.883615 1781.957330 12.707819 0.000000 0.148655
53.000000 86.494000 4.000000 -3.000000 3.000000 79.466370 38.069040 132.016245 1195.211762 11.571724 0.000000 0.131914
54.000000 82.820000 5.000000 -3.000000 3.000000 87.238384 43.619279 -50.631991 1012.714296 12.083130 0.000000 0.149869
58.000000 98.800000 1.000000 -2.000000 3.000000 53.957821 10.479658 775.915863 1737.470273 10.135819 0.000000 0.079056
59.000000 115.312000 2.000000 -2.000000 3.000000 73.510736 19.674871 590.163338 1279.346798 8.681442 0.000000 0.105887
60.000000 115.460000 3.000000 -2.000000 3.000000 87.315390 28.369749 393.784044 998.355427 8.667825 0.000000 0.111182
61.000000 108.323000 4.000000 -2.000000 3.000000 96.646167 36.249625 185.839203 785.490469 9.237083 0.000000 0.071847
62.000000 99.059000 5.000000 -2.000000 3.000000 102.877683 43.172160 -34.723897 603.604229 10.099624 0.000000 0.112097
63.000000 89.877000 6.000000 -2.000000 3.000000 107.055779 49.136068 -269.089720 436.307984 11.130441 0.000000 0.237637
65.000000 106.449000 0.000000 -1.000000 3.000000 46.886311 -11.859059 1201.007665 1970.637296 9.408242 0.000000 0.183182
66.000000 148.992000 1.000000 -1.000000 3.000000 75.384398 -0.866989 991.287534 1221.698775 6.718939 0.000000 0.119904
67.000000 155.660000 2.000000 -1.000000 3.000000 95.704851 10.937125 767.015047 831.490380 6.428555 0.000000 0.158888
68.000000 144.533000 3.000000 -1.000000 3.000000 108.443303 22.616370 526.621094 552.159142 6.921625 0.000000 0.098850
69.000000 128.778000 4.000000 -1.000000 3.000000 115.861915 33.289000 268.302569 316.848006 7.767278 0.000000 0.014122
70.000000 113.635000 5.000000 -1.000000 3.000000 119.978875 42.464704 -10.022935 99.363328 8.801647 0.000000 0.162651
74.000000 199.582000 1.000000 1.000000 3.000000 109.981939 -44.020083 2015.094619 396.768421 5.012097 0.000000 0.137231
75.000000 193.213000 2.000000 1.000000 3.000000 133.948612 -31.755786 1641.181433 -279.160538 5.175561 0.000000 0.122050
77.000000 45.522000 3.000000 -5.000000 4.000000 46.960711 29.362116 369.476597 2094.181061 21.998348 0.000000 0.260930
78.000000 50.748000 4.000000 -5.000000 4.000000 57.159793 33.690059 257.470700 1775.917930 19.730020 0.000000 0.197994
79.000000 53.145000 5.000000 -5.000000 4.000000 65.667827 37.742574 141.867049 1556.468372 18.837480 0.000000 0.184721
80.000000 53.594000 6.000000 -5.000000 4.000000 72.693985 41.508533 22.489469 1388.818855 18.677059 0.000000 0.187652
81.000000 52.810000 7.000000 -5.000000 4.000000 78.475716 44.988170 -100.849907 1251.284608 18.952443 0.000000 0.203030
82.000000 51.300000 8.000000 -5.000000 4.000000 83.237160 48.190112 -228.351630 1132.450210 19.508213 0.000000 0.235474
83.000000 49.405000 9.000000 -5.000000 4.000000 87.172247 51.128614 -360.230016 1025.710554 20.255002 0.000000 0.286955
85.000000 61.265000 3.000000 -4.000000 4.000000 58.633418 26.808026 431.135389 1676.120266 16.343514 0.000000 0.134700
86.000000 65.214000 5.000000 -4.000000 4.000000 77.118730 36.578568 176.297813 1247.502655 15.348405 0.000000 0.131527
87.000000 61.211000 7.000000 -4.000000 4.000000 88.836047 44.904879 -97.726508 971.874415 16.348248 0.000000 0.161357
88.000000 55.202000 9.000000 -4.000000 4.000000 96.272331 51.809427 -393.189196 749.665818 18.125233 0.000000 0.291485
90.000000 59.786000 1.000000 -3.000000 4.000000 43.480380 10.394972 777.560668 2094.894149 16.752045 0.000000 0.228759
91.000000 74.221000 2.000000 -3.000000 4.000000 59.494233 16.968087 646.599220 1603.993498 13.491024 0.000000 0.073548
92.000000 80.398000 3.000000 -3.000000 4.000000 72.405886 23.348303 510.398403 1312.739768 12.451527 0.000000 0.104986
93.000000 80.957000 4.000000 -3.000000 4.000000 82.421006 29.396038 368.637385 1105.369682 12.363025 0.000000 0.111546
94.000000 78.372000 5.000000 -3.000000 4.000000 90.036655 35.014359 220.968589 940.159273 12.768711 0.000000 0.093024
95.000000 74.316000 6.000000 -3.000000 4.000000 95.785926 40.151703 67.014853 798.316225 13.463966 0.000000 0.089000
96.000000 69.753000 7.000000 -3.000000 4.000000 100.128219 44.795372 -93.633787 670.063294 14.343436 0.000000 0.138067
97.000000 65.186000 8.000000 -3.000000 4.000000 103.423883 48.960761 -261.423744 549.752492 15.347346 0.000000 0.224496
100.000000 86.897000 1.000000 -2.000000 4.000000 58.186244 2.871308 921.017627 1609.527811 11.523618 0.000000 0.013531
101.000000 101.606000 3.000000 -2.000000 4.000000 88.187125 18.443324 616.060421 976.910471 9.849782 0.000000 0.138939
102.000000 91.552000 5.000000 -2.000000 4.000000 104.296971 32.804894 281.245552 614.674308 10.927790 0.000000 0.052556
103.000000 77.835000 7.000000 -2.000000 4.000000 112.236713 44.644964 -88.037633 322.520934 12.851521 0.000000 0.159518
106.000000 89.521000 0.000000 -1.000000 4.000000 51.711048 -15.940935 1282.422012 1824.649527 11.186453 0.000000 0.135486
107.000000 116.260000 1.000000 -1.000000 4.000000 74.435106 -7.607953 1118.760374 1243.458497 8.610692 0.000000 0.116141
108.000000 124.917000 2.000000 -1.000000 4.000000 92.382033 1.533618 946.184286 896.211964 8.011260 0.000000 0.167307
109.000000 121.702000 3.000000 -1.000000 4.000000 105.284850 11.094589 763.945018 641.263239 8.220750 0.000000 0.148744
110.000000 113.158000 4.000000 -1.000000 4.000000 113.972557 20.564542 571.207577 429.848414 8.839939 0.000000 0.089228
111.000000 103.165000 5.000000 -1.000000 4.000000 119.541964 29.460630 367.037913 240.433385 9.695197 0.000000 0.010690
112.000000 93.481000 6.000000 -1.000000 4.000000 122.960410 37.457844 150.387785 61.816440 10.698861 0.000000 0.106932
116.000000 114.283000 0.000000 0.000000 4.000000 65.351759 -30.153673 1600.253731 1512.149846 8.760316 0.000000 0.139063
117.000000 139.278000 1.000000 0.000000 4.000000 89.726130 -21.951564 1408.793085 946.546796 7.185289 0.000000 0.136036
118.000000 143.774000 2.000000 0.000000 4.000000 108.744351 -12.031296 1204.387933 567.562698 6.958200 0.000000 0.141041
119.000000 136.206000 3.000000 0.000000 4.000000 122.026576 -0.568502 985.679593 267.729182 7.343194 0.000000 0.104047
120.000000 124.113000 4.000000 0.000000 4.000000 130.409545 11.750925 751.112343 5.077677 8.057569 0.000000 0.045023
121.000000 111.487000 5.000000 0.000000 4.000000 135.115920 23.862419 498.896357 -240.667739 8.969492 0.000000 0.071721
123.000000 125.420000 0.000000 1.000000 4.000000 75.323698 -46.360478 2103.660377 1349.458249 7.980409 0.000000 0.245748
124.000000 147.737000 1.000000 1.000000 4.000000 100.461638 -39.914745 1875.392440 681.894326 6.772147 0.000000 0.075773
125.000000 150.444000 2.000000 1.000000 4.000000 120.721886 -31.198346 1626.784519 193.246311 6.648160 0.000000 0.018147
126.000000 141.675000 3.000000 1.000000 4.000000 135.440176 -19.445841 1354.991231 -218.077667 7.058242 0.000000 0.043995
129.000000 45.556000 3.000000 -5.000000 5.000000 51.378568 23.628389 504.143379 1879.536712 21.981589 0.000000 0.169810
130.000000 49.846000 4.000000 -5.000000 5.000000 60.864354 27.844844 406.457402 1619.494033 20.086946 0.000000 0.130963
131.000000 52.259000 6.000000 -5.000000 5.000000 75.620964 35.664648 202.610643 1280.624486 19.153820 0.000000 0.131439
132.000000 51.578000 7.000000 -5.000000 5.000000 81.218325 39.231783 96.201186 1155.650189 19.404504 0.000000 0.132848
133.000000 50.234000 8.000000 -5.000000 5.000000 85.869363 42.561723 -13.377115 1046.530266 19.921683 0.000000 0.142992
134.000000 48.516000 9.000000 -5.000000 5.000000 89.737946 45.657076 -126.267950 948.042968 20.625697 0.000000 0.169812
135.000000 51.838000 2.000000 -4.000000 5.000000 50.641723 15.459474 677.336835 1856.904415 19.318714 0.000000 0.135821
136.000000 58.484000 3.000000 -4.000000 5.000000 62.115115 20.476395 573.095385 1548.915276 17.120173 0.000000 0.086292
137.000000 61.561000 4.000000 -4.000000 5.000000 71.709802 25.327861 465.597574 1334.578955 16.261611 0.000000 0.106575
138.000000 62.092000 5.000000 -4.000000 5.000000 79.574337 29.956574 354.688394 1169.571540 16.120044 0.000000 0.112470
139.000000 60.998000 6.000000 -4.000000 5.000000 85.947991 34.321755 240.202842 1033.317589 16.406856 0.000000 0.103326
140.000000 58.967000 7.000000 -4.000000 5.000000 91.087178 38.399169 121.965097 914.937865 16.970008 0.000000 0.094885
141.000000 56.461000 8.000000 -4.000000 5.000000 95.227572 42.179202 -0.212378 808.117035 17.721798 0.000000 0.109172
142.000000 53.768000 9.000000 -4.000000 5.000000 98.569841 45.663885 -126.529828 708.917316 18.608085 0.000000 0.153604
143.000000 51.061000 10.000000 -4.000000 5.000000 101.277885 48.863672 -257.201306 614.737327 19.593640 0.000000 0.219181
146.000000 57.052000 1.000000 -3.000000 5.000000 48.286552 4.725824 886.024112 1903.669194 17.554107 0.000000 0.141637
147.000000 67.986000 2.000000 -3.000000 5.000000 62.464845 10.554390 774.463659 1511.779686 14.727883 0.000000 0.046852
148.000000 73.285000 3.000000 -3.000000 5.000000 74.302907 16.359849 659.048768 1256.237197 13.659983 0.000000 0.108959
149.000000 74.405000 4.000000 -3.000000 5.000000 83.842159 22.026205 539.576171 1066.264488 13.451676 0.000000 0.125877
150.000000 72.898000 5.000000 -3.000000 5.000000 91.358541 27.453431 415.828049 912.235949 13.727557 0.000000 0.110981
151.000000 69.956000 6.000000 -3.000000 5.000000 97.206283 32.566376 287.570712 779.523257 14.303043 0.000000 0.078591
152.000000 66.360000 7.000000 -3.000000 5.000000 101.728445 37.317861 154.553120 660.034986 15.076793 0.000000 0.055654
153.000000 62.571000 8.000000 -3.000000 5.000000 105.219587 41.686688 16.505249 548.899483 15.988541 0.000000 0.091388
154.000000 58.844000 9.000000 -3.000000 5.000000 107.917494 45.672566 -126.863744 442.978408 17.000198 0.000000 0.163898
155.000000 55.308000 10.000000 -3.000000 5.000000 110.007790 49.290038 -275.867561 340.131166 18.086513 0.000000 0.252179
158.000000 57.641000 0.000000 -2.000000 5.000000 43.056233 -8.838610 1142.361907 2106.758912 17.375470 0.000000 0.239873
159.000000 75.766000 1.000000 -2.000000 5.000000 60.586511 -2.536708 1022.682913 1548.389748 13.216044 0.000000 0.022021
160.000000 85.734000 2.000000 -2.000000 5.000000 75.589077 4.072014 898.378664 1218.264047 11.676394 0.000000 0.119552
161.000000 88.807000 3.000000 -2.000000 5.000000 87.686043 10.826201 769.175749 985.279154 11.269694 0.000000 0.152761
162.000000 87.351000 4.000000 -2.000000 5.000000 97.037061 17.541968 634.778772 801.661189 11.455241 0.000000 0.142414
163.000000 83.449000 5.000000 -2.000000 5.000000 104.063720 24.041518 494.868101 645.766611 11.989177 0.000000 0.104351
164.000000 78.489000 6.000000 -2.000000 5.000000 109.246023 30.179495 349.097325 506.304066 12.745365 0.000000 0.048086
165.000000 73.271000 7.000000 -2.000000 5.000000 113.020168 35.858148 197.090399 376.750676 13.652003 0.000000 0.031689
166.000000 68.205000 8.000000 -2.000000 5.000000 115.743578 41.028892 38.438396 253.024513 14.665211 0.000000 0.113354
167.000000 63.478000 9.000000 -2.000000 5.000000 117.693221 45.684011 -127.304161 132.393374 15.756660 0.000000 0.209401
171.000000 76.123000 0.000000 -1.000000 5.000000 54.585641 -18.554243 1336.256406 1748.246978 13.154809 0.000000 0.121592
172.000000 94.416000 1.000000 -1.000000 5.000000 73.417161 -11.914933 1202.103764 1268.563571 10.602974 0.000000 0.111881
173.000000 102.592000 2.000000 -1.000000 5.000000 89.211974 -4.618013 1061.937158 955.852120 9.755114 0.000000 0.163247
174.000000 102.993000 3.000000 -1.000000 5.000000 101.577901 3.172557 915.342915 720.162631 9.714809 0.000000 0.165540
175.000000 98.846000 4.000000 -1.000000 5.000000 110.761340 11.200997 761.868529 525.062077 10.120608 0.000000 0.134691
176.000000 92.627000 5.000000 -1.000000 5.000000 117.301108 19.160902 601.017999 352.874946 10.798763 0.000000 0.082009
177.000000 85.812000 6.000000 -1.000000 5.000000 121.790802 26.760889 432.246475 193.887804 11.655387 0.000000 0.020638
178.000000 79.153000 7.000000 -1.000000 5.000000 124.763111 33.782708 254.954089 42.227597 12.635297 0.000000 0.076339
179.000000 72.978000 8.000000 -1.000000 5.000000 126.649269 40.106143 68.478834 -105.951860 13.703936 0.000000 0.173064
182.000000 99.602000 0.000000 1.000000 5.000000 73.737161 -43.059776 1980.762009 1370.722002 10.049509 0.000000 0.206438
183.000000 115.671000 1.000000 1.000000 5.000000 94.164836 -37.674127 1806.078658 841.980326 8.650487 0.000000 0.085780
184.000000 120.776000 2.000000 1.000000 5.000000 111.526777 -30.928670 1619.880513 446.081759 8.282468 0.000000 0.037402
185.000000 118.047000 3.000000 1.000000 5.000000 125.270464 -22.507930 1420.990221 117.007508 8.472216 0.000000 0.031214
186.000000 111.138000 4.000000 1.000000 5.000000 135.428458 -12.218368 1208.064255 -176.834003 8.997687 0.000000 0.025808
187.000000 102.650000 5.000000 1.000000 5.000000 142.325849 -0.242882 979.562528 -452.873797 9.740886 0.000000 0.002667
197.000000 48.025000 4.000000 -5.000000 6.000000 63.616445 22.658830 525.684770 1519.547220 20.847978 0.000000 0.095045
198.000000 49.830000 5.000000 -5.000000 6.000000 71.239280 26.562856 436.904400 1349.719980 20.089942 0.000000 0.108623
199.000000 50.275000 6.000000 -5.000000 6.000000 77.715270 30.309710 345.819699 1212.477949 19.909655 0.000000 0.113626
200.000000 49.776000 7.000000 -5.000000 6.000000 83.176680 33.878742 252.339773 1096.121250 20.106971 0.000000 0.108995
201.000000 48.663000 8.000000 -5.000000 6.000000 87.764988 37.256676 156.368884 993.775579 20.564622 0.000000 0.102128
202.000000 47.180000 9.000000 -5.000000 6.000000 91.615120 40.436893 57.806122 901.127391 21.209343 0.000000 0.104296
203.000000 45.496000 10.000000 -5.000000 6.000000 94.847888 43.418375 -43.454948 815.324516 21.993001 0.000000 0.124872
204.000000 54.880000 3.000000 -4.000000 6.000000 64.499457 15.113904 684.313297 1472.772901 18.244216 0.000000 0.068156
205.000000 58.391000 5.000000 -4.000000 6.000000 81.064517 24.108520 493.358229 1126.397743 17.141774 0.000000 0.118622
206.000000 56.194000 7.000000 -4.000000 6.000000 92.448172 32.424381 291.320247 886.484394 17.807353 0.000000 0.091607
207.000000 51.885000 9.000000 -4.000000 6.000000 100.075197 39.833284 77.205645 691.965413 19.283244 0.000000 0.075027
208.000000 47.194000 11.000000 -4.000000 6.000000 105.172230 46.270105 -150.101737 518.781470 21.197648 0.000000 0.169186
209.000000 53.122000 1.000000 -3.000000 6.000000 51.631933 0.307725 969.219368 1793.096359 18.851938 0.000000 0.091428
210.000000 61.695000 2.000000 -3.000000 6.000000 64.317774 5.461522 872.094111 1460.934629 16.229436 0.000000 0.048081
211.000000 67.847000 4.000000 -3.000000 6.000000 84.293623 15.878405 668.848048 1052.815818 14.751970 0.000000 0.138551
212.000000 67.201000 5.000000 -3.000000 6.000000 91.685156 20.972350 562.445170 907.088927 14.891416 0.000000 0.133543
213.000000 62.525000 7.000000 -3.000000 6.000000 102.325912 30.567462 339.306062 667.862264 16.001607 0.000000 0.072471
214.000000 59.500000 8.000000 -3.000000 6.000000 106.046863 34.969298 222.229819 563.219977 16.813906 0.000000 0.037516
215.000000 53.359000 10.000000 -3.000000 6.000000 111.278133 42.863370 -23.872840 369.145875 18.747036 0.000000 0.123445
216.000000 50.463000 11.000000 -3.000000 6.000000 113.086154 46.351667 -153.312885 276.336181 19.822135 0.000000 0.197880
217.000000 66.455000 1.000000 -2.000000 6.000000 62.037018 -6.513055 1097.876660 1516.095811 15.067280 0.000000 0.042847
218.000000 77.874000 3.000000 -2.000000 6.000000 86.605722 4.988011 881.063388 1005.078470 12.852205 0.000000 0.156837
219.000000 75.633000 5.000000 -2.000000 6.000000 102.886951 16.854022 648.939979 683.701827 13.228604 0.000000 0.137265
220.000000 68.387000 7.000000 -2.000000 6.000000 112.676485 28.120168 399.825408 431.108170 14.627442 0.000000 0.047838
221.000000 60.496000 9.000000 -2.000000 6.000000 118.232957 38.076728 131.783201 206.864024 16.533631 0.000000 0.083945
224.000000 65.850000 0.000000 -1.000000 6.000000 56.478057 -20.363754 1374.495393 1701.506473 15.206329 0.000000 0.118246
225.000000 79.124000 1.000000 -1.000000 6.000000 72.527953 -14.873760 1260.852009 1291.521753 12.652298 0.000000 0.108847
226.000000 86.254000 2.000000 -1.000000 6.000000 86.512768 -8.865543 1142.880108 1007.381320 11.603493 0.000000 0.155930
227.000000 88.191000 3.000000 -1.000000 6.000000 98.082247 -2.411558 1020.327589 788.025388 11.346136 0.000000 0.169074
228.000000 86.573000 4.000000 -1.000000 6.000000 107.259298 4.360904 892.922386 605.639312 11.556149 0.000000 0.155252
229.000000 82.910000 5.000000 -1.000000 6.000000 114.290718 11.277717 760.370450 445.680164 12.065140 0.000000 0.122567
230.000000 78.283000 6.000000 -1.000000 6.000000 119.517488 18.141320 622.353487 299.752766 12.776937 0.000000 0.076639
231.000000 73.364000 7.000000 -1.000000 6.000000 123.292923 24.762956 478.526404 162.624263 13.632623 0.000000 0.026962
232.000000 68.528000 8.000000 -1.000000 6.000000 125.939786 30.991501 328.514428 30.819255 14.594086 0.000000 0.058130
233.000000 63.961000 9.000000 -1.000000 6.000000 127.731936 36.728910 171.909847 -98.102266 15.635582 0.000000 0.133691
237.000000 88.999000 1.000000 0.000000 6.000000 82.121795 -24.873294 1473.989548 1105.158177 11.246060 0.000000 0.125309
238.000000 95.135000 2.000000 0.000000 6.000000 96.716455 -18.836213 1342.159711 807.079014 10.517968 0.000000 0.143178
239.000000 93.018000 4.000000 0.000000 6.000000 118.198697 -4.529469 1060.263220 362.119654 10.753217 0.000000 0.119968
240.000000 88.276000 5.000000 0.000000 6.000000 125.307414 3.491262 909.335782 177.314742 11.329639 0.000000 0.085426
241.000000 77.083000 7.000000 0.000000 6.000000 133.878845 19.915820 585.050752 -159.810970 12.973014 0.000000 0.044496
242.000000 71.649000 8.000000 0.000000 6.000000 136.078335 27.674082 410.553782 -320.951572 13.956423 0.000000 0.106188
245.000000 82.352000 0.000000 1.000000 6.000000 72.559596 -40.862887 1906.095760 1388.089759 12.154897 0.000000 0.187733
246.000000 94.368000 1.000000 1.000000 6.000000 89.737456 -36.266930 1764.660743 947.116921 10.604209 0.000000 0.098900
247.000000 99.752000 2.000000 1.000000 6.000000 104.843444 -30.769652 1615.827747 609.025878 10.029351 0.000000 0.067922
248.000000 99.810000 3.000000 1.000000 6.000000 117.452643 -24.213060 1459.000739 327.911391 10.021439 0.000000 0.057111
249.000000 96.422000 4.000000 1.000000 6.000000 127.487860 -16.485562 1293.517894 80.102206 10.372029 0.000000 0.045927
250.000000 91.209000 5.000000 1.000000 6.000000 135.083601 -7.601775 1118.642254 -148.010581 10.963705 0.000000 0.027395
251.000000 85.279000 6.000000 1.000000 6.000000 140.485896 2.205432 933.550758 -364.962073 11.725276 0.000000 0.010597
255.000000 94.792000 1.000000 2.000000 6.000000 94.627506 -48.337011 2184.578418 809.947852 10.555414 0.000000 0.210074
256.000000 99.841000 3.000000 2.000000 6.000000 123.131393 -38.605035 1834.349290 42.089051 10.017224 0.000000 0.119807
258.000000 45.733000 4.000000 -5.000000 7.000000 65.632737 18.097751 623.259573 1453.859669 21.892758 0.000000 0.079852
259.000000 47.404000 5.000000 -5.000000 7.000000 72.890520 21.834098 543.769821 1297.909313 21.117998 0.000000 0.104876
260.000000 47.935000 6.000000 -5.000000 7.000000 79.147145 25.466395 462.408636 1169.549736 20.881514 0.000000 0.114808
261.000000 47.638000 7.000000 -5.000000 7.000000 84.496108 28.971128 379.109142 1059.543181 21.009367 0.000000 0.111285
262.000000 46.774000 8.000000 -5.000000 7.000000 89.045058 32.330180 293.801238 962.231417 21.395270 0.000000 0.098977
263.000000 45.545000 9.000000 -5.000000 7.000000 92.902326 35.530873 206.411401 873.948684 21.970618 0.000000 0.084414
264.000000 46.462000 2.000000 -4.000000 7.000000 56.384707 6.337221 855.468237 1660.901357 21.552957 0.000000 0.040554
265.000000 51.079000 3.000000 -4.000000 7.000000 66.119673 10.588555 773.799511 1425.760371 19.601590 0.000000 0.066307
266.000000 53.628000 4.000000 -4.000000 7.000000 74.604396 14.827189 690.084313 1247.580503 18.666904 0.000000 0.110642
267.000000 54.538000 5.000000 -4.000000 7.000000 81.864671 19.007491 604.244746 1103.729158 18.352810 0.000000 0.128324
268.000000 54.257000 6.000000 -4.000000 7.000000 87.994971 23.087508 516.198907 981.960238 18.445322 0.000000 0.126472
269.000000 53.175000 7.000000 -4.000000 7.000000 93.123761 27.031267 425.860631 875.058815 18.818691 0.000000 0.110722
270.000000 51.592000 8.000000 -4.000000 7.000000 97.388978 30.810236 333.139204 778.488856 19.394174 0.000000 0.085865
271.000000 49.727000 9.000000 -4.000000 7.000000 100.923271 34.403873 237.939064 689.247219 20.119950 0.000000 0.059171
272.000000 47.730000 10.000000 -4.000000 7.000000 103.846504 37.799372 140.159469 605.259005 20.960517 0.000000 0.051793
273.000000 45.700000 11.000000 -4.000000 7.000000 106.262918 40.990827 39.694143 525.037646 21.890739 0.000000 0.082574
274.000000 49.041000 1.000000 -3.000000 7.000000 54.033353 -3.193681 1035.055119 1723.231573 20.420170 0.000000 0.064305
275.000000 55.939000 2.000000 -3.000000 7.000000 65.486786 1.379555 949.080220 1431.937665 17.898874 0.000000 0.056205
276.000000 60.025000 3.000000 -3.000000 7.000000 75.555082 6.058196 860.771509 1219.802035 16.677559 0.000000 0.118648
277.000000 61.752000 4.000000 -3.000000 7.000000 84.169374 10.782187 770.032651 1052.882487 16.208253 0.000000 0.145695
278.000000 61.725000 5.000000 -3.000000 7.000000 91.388089 15.487901 676.761932 913.937075 16.213018 0.000000 0.148330
279.000000 60.512000 6.000000 -3.000000 7.000000 97.344575 20.113160 580.851886 793.262652 16.535861 0.000000 0.133604
280.000000 58.570000 7.000000 -3.000000 7.000000 102.204458 24.601986 482.188876 684.967036 17.082460 0.000000 0.106137
281.000000 56.228000 8.000000 -3.000000 7.000000 106.137475 28.908200 380.652644 585.253151 17.792435 0.000000 0.069358
282.000000 53.710000 9.000000 -3.000000 7.000000 109.301727 32.997397 276.115829 491.552734 18.625337 0.000000 0.029295
283.000000 51.159000 10.000000 -3.000000 7.000000 111.836510 36.847264 168.443425 402.056185 19.553049 0.000000 0.039793
284.000000 48.662000 11.000000 -3.000000 7.000000 113.860324 40.446572 57.492206 315.442110 20.555425 0.000000 0.095160
285.000000 46.270000 12.000000 -3.000000 7.000000 115.471675 43.793366 -56.889912 230.714060 21.617647 0.000000 0.159266
286.000000 48.799000 0.000000 -2.000000 7.000000 49.643811 -14.149571 1246.336580 1884.195808 20.521983 0.000000 0.152343
287.000000 58.858000 1.000000 -2.000000 7.000000 62.963399 -9.532982 1155.746858 1497.956991 17.011767 0.000000 0.056537
288.000000 65.447000 2.000000 -2.000000 7.000000 74.948055 -4.646439 1062.474632 1231.392642 15.295999 0.000000 0.118347
289.000000 68.785000 3.000000 -2.000000 7.000000 85.337298 0.457861 966.398959 1028.784965 14.550740 0.000000 0.155988
290.000000 69.544000 4.000000 -2.000000 7.000000 94.073824 5.709489 867.391518 863.962305 14.389521 0.000000 0.165731
291.000000 68.498000 5.000000 -2.000000 7.000000 101.245147 11.024289 765.316035 722.983289 14.607024 0.000000 0.155291
292.000000 66.324000 6.000000 -2.000000 7.000000 107.019786 16.311861 660.027657 597.719333 15.084074 0.000000 0.130102
293.000000 63.527000 7.000000 -2.000000 7.000000 111.597945 21.484521 551.372266 483.092611 15.746753 0.000000 0.093727
294.000000 60.452000 8.000000 -2.000000 7.000000 115.180237 26.465614 439.185727 375.750740 16.546777 0.000000 0.048510
295.000000 57.315000 9.000000 -2.000000 7.000000 117.950773 31.195324 323.293061 273.375692 17.451272 0.000000 0.006494
296.000000 54.249000 10.000000 -2.000000 7.000000 120.069756 35.633120 203.507534 174.298867 18.437080 0.000000 0.064305
297.000000 51.323000 11.000000 -2.000000 7.000000 121.671732 39.757106 79.629652 77.274816 19.487416 0.000000 0.130285
298.000000 48.574000 12.000000 -2.000000 7.000000 122.866915 43.561247 -48.553946 -18.657905 20.589817 0.000000 0.202940
300.000000 57.874000 0.000000 -1.000000 7.000000 57.812842 -21.688458 1403.058375 1670.053705 17.301613 0.000000 0.118248
301.000000 67.931000 1.000000 -1.000000 7.000000 71.783955 -17.021238 1304.492485 1311.427675 14.737099 0.000000 0.107077
302.000000 74.011000 2.000000 -1.000000 7.000000 84.274809 -11.943435 1202.663073 1051.294001 13.523522 0.000000 0.148385
303.000000 76.518000 3.000000 -1.000000 7.000000 95.002508 -6.488285 1097.405327 846.181662 13.077768 0.000000 0.167049
304.000000 76.316000 4.000000 -1.000000 7.000000 103.909387 -0.720922 988.543147 674.435856 13.110105 0.000000 0.163834
305.000000 74.321000 5.000000 -1.000000 7.000000 111.095859 5.261312 875.888164 524.025195 13.460282 0.000000 0.144308
306.000000 71.283000 6.000000 -1.000000 7.000000 116.750354 11.335651 759.238650 387.701226 14.032473 0.000000 0.112761
307.000000 67.737000 7.000000 -1.000000 7.000000 121.096781 17.367590 638.378311 260.809932 14.765853 0.000000 0.072554
308.000000 64.029000 8.000000 -1.000000 7.000000 124.361320 23.228090 513.074954 140.201653 15.619957 0.000000 0.031080
309.000000 60.367000 9.000000 -1.000000 7.000000 126.753634 28.809124 383.078991 23.645611 16.566819 0.000000 0.046900
310.000000 56.865000 10.000000 -1.000000 7.000000 128.457523 34.033229 248.121786 -90.504234 17.586491 0.000000 0.107214
315.000000 70.087000 0.000000 1.000000 7.000000 71.661133 -39.299655 1855.925823 1402.023708 14.282374 0.000000 0.177182
316.000000 79.369000 1.000000 1.000000 7.000000 86.469496 -35.302148 1737.119417 1022.366092 12.608921 0.000000 0.107778
317.000000 84.378000 2.000000 1.000000 7.000000 99.798095 -30.664780 1613.162246 724.912109 11.857751 0.000000 0.085684
318.000000 85.694000 3.000000 1.000000 7.000000 111.325295 -25.297822 1483.711928 476.253125 11.673390 0.000000 0.077703
319.000000 84.317000 4.000000 1.000000 7.000000 120.941854 -19.133017 1348.395046 258.057228 11.862246 0.000000 0.067968
320.000000 81.242000 5.000000 1.000000 7.000000 128.687471 -12.154246 1206.803553 59.349266 12.309877 0.000000 0.052688
321.000000 77.254000 6.000000 1.000000 7.000000 134.690174 -4.435685 1058.490663 -126.915345 12.944292 0.000000 0.031474
322.000000 72.893000 7.000000 1.000000 7.000000 139.128364 3.828962 902.966139 -305.534172 13.717935 0.000000 0.015927
327.000000 71.823000 0.000000 2.000000 7.000000 76.323224 -48.711451 2200.613976 1337.922828 13.935259 0.000000 0.284190
328.000000 80.502000 1.000000 2.000000 7.000000 91.169845 -45.473353 2069.226611 909.657768 12.430028 0.000000 0.164670
329.000000 85.164000 2.000000 2.000000 7.000000 104.693927 -41.615530 1931.100576 563.482938 11.746986 0.000000 0.089097
330.000000 86.336000 3.000000 2.000000 7.000000 116.580763 -36.988382 1785.703802 266.807757 11.585339 0.000000 0.056445
331.000000 84.932000 4.000000 2.000000 7.000000 126.698805 -31.418374 1632.446690 0.965491 11.775070 0.000000 0.062010
332.000000 81.879000 5.000000 2.000000 7.000000 135.040950 -24.727854 1470.674122 -245.643208 12.212835 0.000000 0.070860
344.000000 47.399000 3.000000 -4.000000 8.000000 67.215526 6.763417 847.356602 1396.257473 21.123246 0.000000 0.070016
345.000000 50.781000 5.000000 -4.000000 8.000000 82.189976 14.585486 694.937468 1093.541771 19.710592 0.000000 0.135809
346.000000 50.103000 7.000000 -4.000000 8.000000 93.295106 22.220595 535.321080 874.062353 19.972480 0.000000 0.128996
347.000000 47.432000 9.000000 -4.000000 8.000000 101.249438 29.422380 367.985327 695.222890 21.093669 0.000000 0.082414
348.000000 50.872000 2.000000 -3.000000 8.000000 66.232211 -1.934006 1011.343874 1415.249877 19.681465 0.000000 0.063653
349.000000 54.478000 3.000000 -3.000000 8.000000 75.562210 2.269477 932.345831 1218.319732 18.375500 0.000000 0.119999
350.000000 56.285000 4.000000 -3.000000 8.000000 83.722151 6.551752 851.386883 1060.181182 17.782810 0.000000 0.148715
351.000000 56.673000 5.000000 -3.000000 8.000000 90.725861 10.866389 768.393103 927.115092 17.658589 0.000000 0.156692
352.000000 56.032000 6.000000 -3.000000 8.000000 96.648540 15.164822 683.286798 811.018063 17.858556 0.000000 0.149362
353.000000 54.698000 7.000000 -3.000000 8.000000 101.599192 19.399559 595.986271 706.786935 18.292165 0.000000 0.130443
354.000000 52.935000 8.000000 -3.000000 8.000000 105.699899 23.527231 506.405555 611.039931 18.899716 0.000000 0.102513
355.000000 50.935000 9.000000 -3.000000 8.000000 109.072272 27.510995 414.454135 521.440009 19.640251 0.000000 0.067439
356.000000 48.833000 10.000000 -3.000000 8.000000 111.829642 31.322000 320.036640 436.313625 20.484738 0.000000 0.027401
357.000000 46.716000 11.000000 -3.000000 8.000000 114.073270 34.939878 223.052513 354.424591 21.412020 0.000000 0.024815
358.000000 52.655000 1.000000 -2.000000 8.000000 63.583053 -11.892404 1201.661765 1487.401772 19.015667 0.000000 0.066190
359.000000 61.274000 3.000000 -2.000000 8.000000 84.060309 -3.118128 1033.631546 1053.143837 16.334960 0.000000 0.152844
360.000000 62.164000 5.000000 -2.000000 8.000000 99.426012 6.292291 856.322576 761.235625 16.096030 0.000000 0.164531
361.000000 58.895000 7.000000 -2.000000 8.000000 110.086724 15.873656 668.944461 531.811461 16.985803 0.000000 0.122942
362.000000 54.098000 9.000000 -2.000000 8.000000 117.081380 25.109276 470.614416 333.240471 18.489576 0.000000 0.049224
363.000000 49.114000 11.000000 -2.000000 8.000000 121.468731 33.584059 260.343353 150.259504 20.364300 0.000000 0.050860
364.000000 51.553000 0.000000 -1.000000 8.000000 58.802632 -22.699178 1425.205505 1647.480843 19.422754 0.000000 0.119288
365.000000 59.429000 1.000000 -1.000000 8.000000 71.164873 -18.646653 1338.188934 1328.476200 16.845464 0.000000 0.106275
366.000000 64.597000 2.000000 -1.000000 8.000000 82.421232 -14.264020 1248.624294 1088.757666 15.494803 0.000000 0.141600
367.000000 67.231000 3.000000 -1.000000 8.000000 92.348823 -9.566691 1156.398003 896.230296 14.884921 0.000000 0.162762
368.000000 67.805000 4.000000 -1.000000 8.000000 100.865973 -4.589053 1061.389624 733.736771 14.756628 0.000000 0.166302
369.000000 66.878000 5.000000 -1.000000 8.000000 108.000843 0.613697 963.471342 591.253221 14.959021 0.000000 0.155761
370.000000 64.963000 6.000000 -1.000000 8.000000 113.853097 5.966802 862.507392 462.513421 15.398281 0.000000 0.134438
371.000000 62.464000 7.000000 -1.000000 8.000000 118.561058 11.380948 758.353430 343.382898 16.013012 0.000000 0.104872
372.000000 59.671000 8.000000 -1.000000 8.000000 122.278111 16.760560 650.855844 231.008695 16.761349 0.000000 0.069366
373.000000 56.781000 9.000000 -1.000000 8.000000 125.157385 22.013631 539.850998 123.344748 17.613765 0.000000 0.033903
374.000000 53.916000 10.000000 -1.000000 8.000000 127.342468 27.060667 425.164402 18.872430 18.548835 0.000000 0.039961
375.000000 51.152000 11.000000 -1.000000 8.000000 128.962233 31.840721 306.609795 -83.571482 19.550639 0.000000 0.088527
376.000000 48.529000 12.000000 -1.000000 8.000000 130.128509 36.313659 183.988138 -184.904820 20.607096 0.000000 0.147767
378.000000 46.850000 -1.000000 0.000000 8.000000 51.842790 -33.652408 1691.508132 1956.911051 21.373226 0.000000 0.258078
379.000000 64.829000 1.000000 0.000000 8.000000 78.107725 -26.262579 1506.063384 1193.749090 15.439868 0.000000 0.120773
380.000000 71.813000 3.000000 0.000000 8.000000 99.969778 -17.205855 1308.289256 742.942135 13.933020 0.000000 0.144698
381.000000 70.471000 5.000000 0.000000 8.000000 116.066585 -6.462456 1096.913879 411.140170 14.194322 0.000000 0.126706
382.000000 65.200000 7.000000 0.000000 8.000000 126.756631 5.546435 870.484221 133.317486 15.339019 0.000000 0.075362
383.000000 58.865000 9.000000 0.000000 8.000000 133.144246 17.901629 627.332632 -119.060615 16.988264 0.000000 0.036041
386.000000 50.915000 -1.000000 1.000000 8.000000 57.229602 -41.245002 1918.718671 1862.452391 19.664258 0.000000 0.296296
387.000000 60.948000 0.000000 1.000000 8.000000 70.956693 -38.132078 1819.895988 1413.302354 16.424296 0.000000 0.170486
388.000000 68.316000 1.000000 1.000000 8.000000 83.964094 -34.599849 1717.481516 1079.257609 14.649729 0.000000 0.113594
389.000000 72.787000 2.000000 1.000000 8.000000 95.868399 -30.590421 1611.275812 812.490719 13.747072 0.000000 0.096544
390.000000 74.630000 3.000000 1.000000 8.000000 106.424863 -26.048170 1501.064386 587.850711 13.405202 0.000000 0.091431
391.000000 74.396000 4.000000 1.000000 8.000000 115.523063 -20.928773 1386.616259 390.802935 13.445285 0.000000 0.084624
392.000000 72.701000 5.000000 1.000000 8.000000 123.156617 -15.212872 1267.682346 212.321434 13.757222 0.000000 0.072813
393.000000 70.084000 6.000000 1.000000 8.000000 129.388168 -8.923404 1143.993644 46.467184 14.269517 0.000000 0.055853
394.000000 66.962000 7.000000 1.000000 8.000000 134.322258 -2.142172 1015.259205 -110.863290 14.933727 0.000000 0.034709
395.000000 63.627000 8.000000 1.000000 8.000000 138.088885 4.982703 881.163846 -262.630104 15.715859 0.000000 0.019704
396.000000 60.267000 9.000000 1.000000 8.000000 140.834341 12.247358 741.365579 -411.054837 16.591359 0.000000 0.044674
401.000000 69.675000 1.000000 2.000000 8.000000 88.397230 -43.374942 1991.909637 982.431733 14.362320 0.000000 0.145202
402.000000 75.545000 3.000000 2.000000 8.000000 111.276830 -35.889172 1753.797188 423.655037 13.241397 0.000000 0.028481
403.000000 73.481000 5.000000 2.000000 8.000000 128.767000 -25.743151 1493.984142 -18.580901 13.609891 0.000000 0.035777
404.000000 67.695000 7.000000 2.000000 8.000000 140.801864 -12.284357 1209.362307 -409.680435 14.770946 0.000000 0.038395
408.000000 69.051000 1.000000 3.000000 8.000000 91.270895 -52.197980 2362.449210 902.043934 14.490859 0.000000 0.311411
409.000000 73.032000 2.000000 3.000000 8.000000 103.322787 -49.481071 2234.335998 548.699712 13.698433 0.000000 0.237791
410.000000 74.688000 3.000000 3.000000 8.000000 114.272154 -46.257623 2099.611168 239.056093 13.392369 0.000000 0.200356
411.000000 74.467000 4.000000 3.000000 8.000000 123.999109 -42.398770 1957.749348 -42.039907 13.430187 0.000000 0.187387
416.000000 46.149000 4.000000 -4.000000 9.000000 75.509150 7.127540 840.415059 1221.331546 21.692224 0.000000 0.117991
417.000000 47.249000 5.000000 -4.000000 9.000000 82.198072 10.758571 770.492330 1091.109422 21.184426 0.000000 0.140528
418.000000 47.497000 6.000000 -4.000000 9.000000 88.046317 14.378972 699.075606 978.901210 21.071179 0.000000 0.147471
419.000000 47.104000 7.000000 -4.000000 9.000000 93.109811 17.960233 626.116488 879.529751 21.244369 0.000000 0.142546
420.000000 46.256000 8.000000 -4.000000 9.000000 97.460555 21.475661 551.564464 789.541644 21.632076 0.000000 0.128399
421.000000 46.474000 2.000000 -3.000000 9.000000 66.710298 -4.660456 1062.739682 1405.833108 21.543936 0.000000 0.069503
422.000000 51.463000 4.000000 -3.000000 9.000000 83.106693 3.019841 918.220075 1071.299285 19.449180 0.000000 0.149109
423.000000 52.115000 5.000000 -3.000000 9.000000 89.867316 6.966737 843.481901 943.510991 19.203352 0.000000 0.160734
424.000000 51.024000 7.000000 -3.000000 9.000000 100.688712 14.893109 688.758837 730.790117 19.609501 0.000000 0.146609
425.000000 49.735000 8.000000 -3.000000 9.000000 104.904499 18.797606 608.649718 638.389314 20.116258 0.000000 0.126076
426.000000 46.472000 10.000000 -3.000000 9.000000 111.394647 26.319639 442.603138 470.551617 21.525728 0.000000 0.066055
427.000000 47.543000 1.000000 -2.000000 9.000000 64.013698 -13.780721 1238.979261 1481.174494 21.059748 0.000000 0.073394
428.000000 52.152000 2.000000 -2.000000 9.000000 73.914820 -9.979378 1164.380328 1256.122560 19.195470 0.000000 0.113897
429.000000 55.043000 3.000000 -2.000000 9.000000 82.851206 -5.991900 1087.969247 1076.731989 18.184257 0.000000 0.148764
430.000000 56.430000 4.000000 -2.000000 9.000000 90.744680 -1.845483 1009.679174 927.003238 17.734673 0.000000 0.166029
431.000000 56.615000 5.000000 -2.000000 9.000000 97.589580 2.423911 929.439939 797.462467 17.674465 0.000000 0.168568
432.000000 55.910000 6.000000 -2.000000 9.000000 103.432749 6.772802 847.177831 682.133872 17.895284 0.000000 0.159597
433.000000 54.592000 7.000000 -2.000000 9.000000 108.353867 11.152486 762.815379 577.053992 18.325571 0.000000 0.141594
434.000000 52.883000 8.000000 -2.000000 9.000000 112.449524 15.512164 676.271101 479.483437 18.916159 0.000000 0.116386
435.000000 50.951000 9.000000 -2.000000 9.000000 115.821772 19.802402 587.459248 387.461758 19.632155 0.000000 0.085346
436.000000 48.915000 10.000000 -2.000000 9.000000 118.570607 23.978378 496.289517 299.542937 20.448104 0.000000 0.049787
437.000000 46.858000 11.000000 -2.000000 9.000000 120.789437 28.002384 402.666745 214.631375 21.345006 0.000000 0.016185
438.000000 46.441000 0.000000 -1.000000 9.000000 59.564876 -23.495261 1442.880220 1630.510552 21.560442 0.000000 0.120591
439.000000 52.773000 1.000000 -1.000000 9.000000 70.646717 -19.917857 1364.992536 1343.089101 18.970279 0.000000 0.106141
440.000000 57.183000 2.000000 -1.000000 9.000000 80.874641 -16.070711 1285.060434 1120.913921 17.504010 0.000000 0.135833
441.000000 59.746000 3.000000 -1.000000 9.000000 90.073237 -11.960722 1203.002352 939.593712 16.750353 0.000000 0.157719
442.000000 60.729000 4.000000 -1.000000 9.000000 98.158949 -7.606486 1118.732326 785.320804 16.476883 0.000000 0.165571
443.000000 60.480000 5.000000 -1.000000 9.000000 105.124979 -3.040001 1032.159698 649.680111 16.542342 0.000000 0.161309
444.000000 59.349000 6.000000 -1.000000 9.000000 111.019907 1.692955 943.188787 527.239619 16.855929 0.000000 0.147407
445.000000 57.632000 7.000000 -1.000000 9.000000 115.927227 6.534326 851.718534 414.326028 17.356618 0.000000 0.125908
446.000000 55.562000 8.000000 -1.000000 9.000000 119.949073 11.417334 757.642124 308.356939 18.001880 0.000000 0.098465
447.000000 53.310000 9.000000 -1.000000 9.000000 123.194580 16.271698 660.846564 207.455143 18.761167 0.000000 0.066820
448.000000 50.995000 10.000000 -1.000000 9.000000 125.772079 21.029554 561.212237 110.215077 19.611971 0.000000 0.035922
449.000000 48.696000 11.000000 -1.000000 9.000000 127.784065 25.630896 458.612403 15.555656 20.537343 0.000000 0.035778
450.000000 46.462000 12.000000 -1.000000 9.000000 129.324162 30.027483 352.912665 -77.375676 21.524274 0.000000 0.074887
451.000000 46.027000 -1.000000 1.000000 9.000000 58.222496 -40.058396 1879.989061 1812.120318 21.752655 0.000000 0.271252
452.000000 53.888000 0.000000 1.000000 9.000000 70.391077 -37.227511 1792.766669 1422.563693 18.576180 0.000000 0.165862
453.000000 59.870000 1.000000 1.000000 9.000000 81.984847 -34.065889 1702.771900 1123.948666 16.717025 0.000000 0.117522
454.000000 63.805000 2.000000 1.000000 9.000000 92.728007 -30.534950 1609.870438 881.458753 15.683117 0.000000 0.103478
455.000000 65.821000 3.000000 1.000000 9.000000 102.431966 -26.597920 1513.919148 675.649910 15.200324 0.000000 0.100472
456.000000 66.232000 4.000000 1.000000 9.000000 110.996072 -22.224537 1414.765343 494.784018 15.103828 0.000000 0.096391
457.000000 65.424000 5.000000 1.000000 9.000000 118.392844 -17.397857 1312.245968 331.332179 15.288574 0.000000 0.087875
458.000000 63.766000 6.000000 1.000000 9.000000 124.647836 -12.122861 1206.186708 180.221581 15.684432 0.000000 0.074664
459.000000 61.569000 7.000000 1.000000 9.000000 129.821529 -6.435498 1096.401001 37.889234 16.242803 0.000000 0.057284
460.000000 59.071000 8.000000 1.000000 9.000000 133.996369 -0.409308 982.688938 -98.260011 16.928939 0.000000 0.037041
461.000000 56.440000 9.000000 1.000000 9.000000 137.268727 5.844149 864.836052 -230.179495 17.717341 0.000000 0.022565
462.000000 53.792000 10.000000 1.000000 9.000000 139.743861 12.183978 742.611966 -359.385181 18.588870 0.000000 0.040412
467.000000 55.551000 0.000000 2.000000 9.000000 74.469154 -44.526959 2033.667379 1360.551517 18.018214 0.000000 0.222041
468.000000 61.253000 1.000000 2.000000 9.000000 86.138059 -41.775140 1936.478167 1038.424981 16.337797 0.000000 0.137239
469.000000 64.973000 2.000000 2.000000 9.000000 97.015782 -38.650250 1835.740992 771.399689 15.399613 0.000000 0.078646
470.000000 66.836000 3.000000 2.000000 9.000000 106.916815 -35.093788 1731.257961 540.922463 14.967978 0.000000 0.037944
471.000000 67.143000 4.000000 2.000000 9.000000 115.735296 -31.043526 1622.816184 335.471350 14.897443 0.000000 0.014031
472.000000 66.264000 5.000000 2.000000 9.000000 123.431243 -26.438819 1510.186328 147.478111 15.093378 0.000000 0.018967
473.000000 64.554000 6.000000 2.000000 9.000000 130.011460 -21.230254 1393.120997 -28.266526 15.491563 0.000000 0.028513
474.000000 62.316000 7.000000 2.000000 9.000000 135.512405 -15.394660 1271.352917 -195.496778 16.046879 0.000000 0.030629
475.000000 59.780000 8.000000 2.000000 9.000000 139.988827 -8.954535 1144.592903 -356.989416 16.726699 0.000000 0.023288
481.000000 61.198000 1.000000 3.000000 9.000000 89.080955 -49.580068 2238.750499 967.628688 16.351252 0.000000 0.249005
482.000000 64.733000 2.000000 3.000000 9.000000 99.972142 -47.002108 2129.269449 663.510104 15.455495 0.000000 0.178634
483.000000 66.848000 4.000000 3.000000 9.000000 119.005659 -40.551530 1895.917541 155.633195 14.962053 0.000000 0.121245
484.000000 66.031000 5.000000 3.000000 9.000000 126.996708 -36.499527 1771.402113 -67.816428 15.145551 0.000000 0.120464
497.000000 47.240000 4.000000 -3.000000 10.000000 82.415142 0.047831 974.101507 1084.318878 21.188245 0.000000 0.147926
498.000000 48.049000 5.000000 -3.000000 10.000000 88.918294 3.660879 906.137089 961.363685 20.828723 0.000000 0.161992
499.000000 48.112000 6.000000 -3.000000 10.000000 94.632742 7.320495 836.732197 853.067606 20.799407 0.000000 0.164200
500.000000 47.607000 7.000000 -3.000000 10.000000 99.600929 10.997386 765.840545 755.534599 21.017667 0.000000 0.157014
501.000000 46.695000 8.000000 -3.000000 10.000000 103.881544 14.661425 693.413844 666.059473 21.426320 0.000000 0.142289
502.000000 45.506000 9.000000 -3.000000 10.000000 107.541456 18.283108 619.401687 582.701738 21.984533 0.000000 0.121401
503.000000 49.837000 3.000000 -2.000000 10.000000 81.737847 -8.340802 1132.797201 1098.959117 20.084140 0.000000 0.144445
504.000000 51.778000 5.000000 -2.000000 10.000000 95.818767 -0.770297 989.470811 831.307921 19.326241 0.000000 0.169490
505.000000 50.654000 7.000000 -2.000000 10.000000 106.537127 7.175725 839.495661 618.905599 19.750861 0.000000 0.153417
506.000000 47.941000 9.000000 -2.000000 10.000000 114.324028 15.208883 682.398122 436.832984 20.865462 0.000000 0.110562
507.000000 47.431000 1.000000 -1.000000 10.000000 70.208978 -20.938329 1386.822018 1355.682596 21.107031 0.000000 0.106447
508.000000 51.221000 2.000000 -1.000000 10.000000 79.571258 -17.514534 1314.654471 1148.725130 19.542069 0.000000 0.131071
509.000000 53.629000 3.000000 -1.000000 10.000000 88.117207 -13.869595 1240.749851 977.443319 18.661700 0.000000 0.152627
510.000000 54.810000 4.000000 -1.000000 10.000000 95.769529 -10.013679 1165.044676 830.570022 18.256822 0.000000 0.163182
511.000000 54.988000 5.000000 -1.000000 10.000000 102.505323 -5.965734 1087.472333 700.986536 18.195619 0.000000 0.163366
512.000000 54.398000 6.000000 -1.000000 10.000000 108.343917 -1.754208 1007.962883 583.966941 18.390879 0.000000 0.154953
513.000000 53.259000 7.000000 -1.000000 10.000000 113.334038 2.583155 926.442849 476.244004 18.782595 0.000000 0.139585
514.000000 51.752000 8.000000 -1.000000 10.000000 117.542707 7.000665 842.834992 375.480530 19.328127 0.000000 0.118611
515.000000 50.019000 9.000000 -1.000000 10.000000 121.046638 11.447205 757.058064 279.954663 19.996342 0.000000 0.093195
516.000000 48.167000 10.000000 -1.000000 10.000000 123.926038 15.869613 669.026545 188.364465 20.763977 0.000000 0.064745
517.000000 46.273000 11.000000 -1.000000 10.000000 126.260289 20.216430 578.650362 99.702126 21.613303 0.000000 0.037418
518.000000 50.817000 1.000000 0.000000 10.000000 75.637241 -27.073648 1525.143108 1250.515898 19.697919 0.000000 0.119400
519.000000 54.443000 2.000000 0.000000 10.000000 85.233887 -23.727678 1448.080404 1039.024086 18.382979 0.000000 0.129719
520.000000 56.639000 3.000000 0.000000 10.000000 93.996773 -20.105668 1368.988517 860.918973 17.667634 0.000000 0.140949
521.000000 57.581000 4.000000 0.000000 10.000000 101.843037 -16.204606 1287.786230 705.969070 17.376193 0.000000 0.144929
522.000000 56.677000 6.000000 0.000000 10.000000 114.714777 -7.604969 1118.703323 441.227627 17.649383 0.000000 0.130313
523.000000 55.308000 7.000000 0.000000 10.000000 119.798232 -2.959167 1030.637077 323.821589 18.084683 0.000000 0.113967
524.000000 53.590000 8.000000 0.000000 10.000000 124.057912 1.857838 940.088498 213.063816 18.663176 0.000000 0.093150
525.000000 51.667000 9.000000 0.000000 10.000000 127.568315 6.784702 846.951130 107.250926 19.356671 0.000000 0.069174
526.000000 47.600000 11.000000 0.000000 10.000000 132.663196 16.682581 652.452877 -94.480006 21.008614 0.000000 0.033714
527.000000 45.583000 12.000000 0.000000 10.000000 134.409267 21.508758 550.846346 -192.243645 21.938008 0.000000 0.054173
528.000000 48.278000 0.000000 1.000000 10.000000 69.927647 -36.506415 1771.602381 1430.280605 20.735225 0.000000 0.162475
529.000000 53.226000 1.000000 1.000000 10.000000 80.383052 -33.646288 1691.342216 1160.068786 18.804333 0.000000 0.120283
530.000000 56.679000 2.000000 1.000000 10.000000 90.164402 -30.491982 1608.782921 937.416058 17.655782 0.000000 0.108080
531.000000 58.696000 3.000000 1.000000 10.000000 99.124239 -27.017956 1523.824270 746.962055 17.046486 0.000000 0.106468
532.000000 59.462000 4.000000 1.000000 10.000000 107.174544 -23.202690 1436.360126 579.082143 16.824613 0.000000 0.104555
533.000000 59.223000 5.000000 1.000000 10.000000 114.279441 -19.032364 1346.277996 427.424516 16.890443 0.000000 0.098864
534.000000 58.233000 6.000000 1.000000 10.000000 120.443523 -14.505485 1253.458551 287.614888 17.175773 0.000000 0.088894
535.000000 56.721000 7.000000 1.000000 10.000000 125.700049 -9.637960 1157.775098 156.530192 17.632378 0.000000 0.075010
536.000000 54.872000 8.000000 1.000000 10.000000 130.101380 -4.467557 1059.093006 31.869458 18.225199 0.000000 0.057833
537.000000 52.832000 9.000000 1.000000 10.000000 133.712303 0.943809 957.269066 -88.111022 18.928130 0.000000 0.038727
538.000000 50.705000 10.000000 1.000000 10.000000 136.605694 6.511611 852.150806 -204.767335 19.721340 0.000000 0.024824
539.000000 48.566000 11.000000 1.000000 10.000000 138.859533 12.134949 743.575726 -319.180143 20.589488 0.000000 0.037228
541.000000 54.549000 1.000000 2.000000 10.000000 84.268343 -40.516917 1894.791876 1083.103483 18.346447 0.000000 0.134262
542.000000 59.722000 3.000000 2.000000 10.000000 103.281227 -34.491769 1714.488941 632.761070 16.751978 0.000000 0.054575
543.000000 60.073000 5.000000 2.000000 10.000000 118.858580 -26.945130 1522.101635 275.637218 16.649896 0.000000 0.031547
544.000000 57.461000 7.000000 2.000000 10.000000 130.781755 -17.597692 1316.372946 -33.015534 17.403866 0.000000 0.030436
545.000000 53.489000 9.000000 2.000000 10.000000 139.257802 -6.407335 1095.865260 -316.298529 18.694301 0.000000 0.015330
547.000000 50.285000 0.000000 3.000000 10.000000 76.691842 -49.648224 2241.800188 1334.197485 19.903814 0.000000 0.302382
548.000000 54.803000 1.000000 3.000000 10.000000 87.192530 -47.500660 2149.596254 1019.125596 18.260105 0.000000 0.211754
549.000000 57.937000 2.000000 3.000000 10.000000 97.115861 -45.073849 2054.072338 750.737891 17.269498 0.000000 0.145397
550.000000 59.742000 3.000000 3.000000 10.000000 106.323252 -42.320187 1955.045840 514.698599 16.745186 0.000000 0.100296
551.000000 60.382000 4.000000 3.000000 10.000000 114.725088 -39.184534 1852.320517 301.596670 16.565403 0.000000 0.077291
552.000000 60.078000 5.000000 3.000000 10.000000 122.274627 -35.604722 1745.685189 104.968093 16.647386 0.000000 0.074178
553.000000 59.060000 6.000000 3.000000 10.000000 128.957610 -31.513865 1634.912286 -79.802658 16.932914 0.000000 0.080017
554.000000 57.537000 7.000000 3.000000 10.000000 134.781232 -26.845824 1519.756230 -256.126877 17.379839 0.000000 0.084343
565.000000 46.905000 4.000000 -2.000000 11.000000 87.801038 -6.923754 1105.698693 982.631119 21.337351 0.000000 0.159733
566.000000 47.564000 5.000000 -2.000000 11.000000 94.152409 -3.436933 1039.639928 862.719852 21.038915 0.000000 0.168542
567.000000 47.575000 6.000000 -2.000000 11.000000 99.783666 0.149468 972.192249 755.407044 21.031967 0.000000 0.168330
568.000000 47.084000 7.000000 -2.000000 11.000000 104.721777 3.810665 903.311387 657.575584 21.249390 0.000000 0.160716
569.000000 46.223000 8.000000 -2.000000 11.000000 109.009430 7.518418 832.951170 566.988578 21.643204 0.000000 0.147031
570.000000 46.336000 2.000000 -1.000000 11.000000 78.461381 -18.693443 1339.168235 1172.967104 21.602586 0.000000 0.127208
571.000000 48.561000 3.000000 -1.000000 11.000000 86.426762 -15.424013 1271.946191 1010.721075 20.609866 0.000000 0.147812
572.000000 49.821000 4.000000 -1.000000 11.000000 93.662974 -11.972324 1203.230097 870.565485 20.085750 0.000000 0.159982
573.000000 50.262000 5.000000 -1.000000 11.000000 100.140595 -8.349785 1132.969585 746.433519 19.907413 0.000000 0.163328
574.000000 50.045000 6.000000 -1.000000 11.000000 105.862345 -4.574368 1061.111995 634.196832 19.991507 0.000000 0.159031
575.000000 49.330000 7.000000 -1.000000 11.000000 110.854969 -0.670841 987.602248 530.944028 20.279477 0.000000 0.148387
576.000000 48.256000 8.000000 -1.000000 11.000000 115.161662 3.329635 912.382700 434.558800 20.728984 0.000000 0.132517
577.000000 46.940000 9.000000 -1.000000 11.000000 118.835802 7.390618 835.392997 343.461920 21.308653 0.000000 0.112365
578.000000 45.474000 10.000000 -1.000000 11.000000 121.936134 11.472166 756.569909 256.447320 21.994739 0.000000 0.088804
579.000000 47.874000 1.000000 1.000000 11.000000 79.060821 -33.307893 1682.205469 1189.913572 20.907130 0.000000 0.122300
580.000000 50.909000 2.000000 1.000000 11.000000 88.034039 -30.457717 1607.916381 983.859260 19.657683 0.000000 0.111249
581.000000 52.846000 3.000000 1.000000 11.000000 96.344028 -27.349311 1531.690495 806.280101 18.934393 0.000000 0.110483
582.000000 53.797000 4.000000 1.000000 11.000000 103.915135 -23.966848 1453.451070 649.181985 18.597312 0.000000 0.110184
583.000000 53.922000 5.000000 1.000000 11.000000 110.709462 -20.299247 1373.117255 507.154521 18.552082 0.000000 0.106787
584.000000 53.396000 6.000000 1.000000 11.000000 116.720004 -16.342820 1290.603811 376.396817 18.732767 0.000000 0.099549
585.000000 52.388000 7.000000 1.000000 11.000000 121.963000 -12.104240 1205.820813 254.152550 19.091901 0.000000 0.088666
586.000000 51.041000 8.000000 1.000000 11.000000 126.471105 -7.603400 1118.673317 138.366792 19.594448 0.000000 0.074587
587.000000 49.473000 9.000000 1.000000 11.000000 130.288127 -2.875484 1029.061010 27.469226 20.213977 0.000000 0.057913
588.000000 47.778000 10.000000 1.000000 11.000000 133.465321 2.028560 936.877822 -79.767468 20.930179 0.000000 0.039967
589.000000 46.024000 11.000000 1.000000 11.000000 136.058872 7.043848 842.011511 -184.322853 21.727186 0.000000 0.026662
590.000000 49.105000 1.000000 2.000000 11.000000 82.698783 -39.502334 1862.302184 1119.719485 20.381130 0.000000 0.133405
591.000000 52.011000 2.000000 2.000000 11.000000 91.771847 -36.898243 1783.052986 899.366373 19.239488 0.000000 0.092869
592.000000 53.839000 3.000000 2.000000 11.000000 100.210149 -34.020342 1701.525752 707.115329 18.583349 0.000000 0.068244
593.000000 54.701000 4.000000 2.000000 11.000000 107.936554 -30.840072 1617.620827 535.233171 18.288179 0.000000 0.054807
594.000000 54.754000 5.000000 2.000000 11.000000 114.909021 -27.330079 1531.232656 378.394780 18.268679 0.000000 0.048032
595.000000 54.168000 6.000000 2.000000 11.000000 121.114067 -23.467008 1442.249341 232.801915 18.464464 0.000000 0.043999
596.000000 53.108000 7.000000 2.000000 11.000000 126.559448 -19.235450 1350.552162 95.661664 18.831585 0.000000 0.039998
597.000000 51.715000 8.000000 2.000000 11.000000 131.267725 -14.632966 1256.015041 -35.135910 19.337293 0.000000 0.034305
598.000000 50.108000 9.000000 2.000000 11.000000 135.271556 -9.675669 1158.503969 -161.224444 19.956686 0.000000 0.025698
599.000000 48.375000 10.000000 2.000000 11.000000 138.610860 -4.403177 1057.876374 -283.898068 20.670490 0.000000 0.013273
600.000000 46.586000 11.000000 2.000000 11.000000 141.331469 1.118821 953.980418 -404.204496 21.463557 0.000000 0.006965
601.000000 45.683000 0.000000 3.000000 11.000000 75.972669 -47.857816 2164.396925 1341.755022 21.909342 0.000000 0.269092
602.000000 49.523000 1.000000 3.000000 11.000000 85.558220 -45.813225 2082.288964 1060.951072 20.207464 0.000000 0.188892
603.000000 52.305000 2.000000 3.000000 11.000000 94.664722 -43.534359 1997.592491 819.862042 19.129902 0.000000 0.127724
604.000000 54.054000 3.000000 3.000000 11.000000 103.181049 -40.987105 1910.183139 607.073286 18.508108 0.000000 0.081757
605.000000 54.875000 4.000000 3.000000 11.000000 111.031034 -38.133147 1819.928444 414.898691 18.229194 0.000000 0.050986
606.000000 54.912000 5.000000 3.000000 11.000000 118.170410 -34.930565 1726.687176 237.955654 18.214711 0.000000 0.039946
607.000000 54.329000 6.000000 3.000000 11.000000 124.580685 -31.335410 1630.308598 72.345673 18.408447 0.000000 0.045798
608.000000 53.281000 7.000000 3.000000 11.000000 130.262066 -27.304824 1530.631660 -84.840033 18.769066 0.000000 0.054931
609.000000 51.905000 8.000000 3.000000 11.000000 135.227055 -22.802336 1427.484093 -235.831118 19.265496 0.000000 0.059946
610.000000 50.314000 9.000000 3.000000 11.000000 139.495715 -17.805846 1320.681423 -382.380139 19.873928 0.000000 0.058037
614.000000 49.198000 1.000000 4.000000 11.000000 87.617026 -52.090124 2357.069340 1013.897405 20.339919 0.000000 0.316823
615.000000 51.862000 2.000000 4.000000 11.000000 96.682256 -50.193660 2266.517884 744.032400 19.292291 0.000000 0.251466
616.000000 53.558000 3.000000 4.000000 11.000000 105.211957 -48.055852 2172.691735 503.146427 18.678767 0.000000 0.207198
617.000000 54.376000 4.000000 4.000000 11.000000 113.133312 -45.634754 2075.409982 283.393313 18.395402 0.000000 0.181474
618.000000 54.448000 5.000000 4.000000 11.000000 120.402259 -42.880677 1974.478140 79.183806 18.368982 0.000000 0.169986
619.000000 53.923000 6.000000 4.000000 11.000000 126.998021 -39.735596 1869.686850 -113.596767 18.546453 0.000000 0.166485
632.000000 45.580000 4.000000 -1.000000 12.000000 91.802084 -13.593574 1235.255216 906.160971 21.955385 0.000000 0.156451
633.000000 46.178000 5.000000 -1.000000 12.000000 98.013161 -10.323464 1171.051185 786.991460 21.668650 0.000000 0.162036
634.000000 46.217000 6.000000 -1.000000 12.000000 103.582993 -6.913746 1105.507921 679.050396 21.648407 0.000000 0.160852
635.000000 45.811000 7.000000 -1.000000 12.000000 108.524447 -3.380872 1038.583080 579.737507 21.837832 0.000000 0.153889
636.000000 48.027000 5.000000 0.000000 12.000000 103.058952 -15.527608 1274.041393 681.894221 20.832301 0.000000 0.144808
637.000000 47.382000 7.000000 0.000000 12.000000 113.782776 -8.359022 1133.146844 461.591126 21.111905 0.000000 0.132522
638.000000 46.155000 2.000000 1.000000 12.000000 86.236816 -30.429755 1607.209678 1023.102312 21.683292 0.000000 0.113508
639.000000 47.977000 3.000000 1.000000 12.000000 93.977303 -27.617371 1538.088614 856.543945 20.856880 0.000000 0.113197
640.000000 49.012000 4.000000 1.000000 12.000000 101.108072 -24.580110 1467.314110 708.624235 20.413763 0.000000 0.114044
641.000000 49.367000 5.000000 1.000000 12.000000 107.592285 -21.309080 1394.826119 574.695981 20.264821 0.000000 0.112456
642.000000 49.164000 6.000000 1.000000 12.000000 113.416814 -17.800066 1320.561653 451.434886 20.346576 0.000000 0.107477
643.000000 48.525000 7.000000 1.000000 12.000000 118.587260 -14.055332 1244.454596 336.394854 20.612588 0.000000 0.099133
644.000000 47.563000 8.000000 1.000000 12.000000 123.123151 -10.085465 1166.435513 227.731030 21.028098 0.000000 0.087760
645.000000 46.373000 9.000000 1.000000 12.000000 127.053924 -5.910915 1086.431432 124.021094 21.566571 0.000000 0.073778
646.000000 48.917000 3.000000 2.000000 12.000000 97.585635 -33.641218 1691.204802 768.832154 20.454259 0.000000 0.078779
647.000000 50.165000 5.000000 2.000000 12.000000 111.471508 -27.632607 1538.453214 463.150979 19.940978 0.000000 0.061763
648.000000 49.217000 7.000000 2.000000 12.000000 122.787074 -20.498857 1377.385476 200.852526 20.321394 0.000000 0.052156
649.000000 46.981000 9.000000 2.000000 12.000000 131.577160 -12.179676 1207.303455 -35.798756 21.285902 0.000000 0.037820
650.000000 47.584000 2.000000 3.000000 12.000000 92.545322 -42.278518 1953.615026 876.334354 21.028620 0.000000 0.119238
651.000000 50.158000 4.000000 3.000000 12.000000 107.820235 -37.299899 1794.913511 506.065124 19.944542 0.000000 0.041868
652.000000 50.420000 5.000000 3.000000 12.000000 114.580434 -34.404534 1712.079184 344.296442 19.838604 0.000000 0.018500
653.000000 49.456000 7.000000 3.000000 12.000000 126.239974 -27.652034 1538.918249 50.395248 20.221792 0.000000 0.030485
654.000000 48.452000 8.000000 3.000000 12.000000 131.141336 -23.740253 1448.362293 -86.201431 20.639807 0.000000 0.039888
655.000000 45.852000 10.000000 3.000000 12.000000 139.155744 -14.765287 1258.671720 -346.468359 21.807832 0.000000 0.041955
656.000000 49.002000 3.000000 4.000000 12.000000 102.562452 -46.297453 2101.177388 593.866175 20.416193 0.000000 0.165637
657.000000 50.166000 5.000000 4.000000 12.000000 116.845552 -41.469346 1926.198652 213.998175 19.938139 0.000000 0.123298
658.000000 49.266000 7.000000 4.000000 12.000000 128.831739 -35.382818 1739.396869 -121.606801 20.298956 0.000000 0.121073
668.000000 45.748000 4.000000 2.000000 13.000000 102.154600 -30.712337 1614.370273 671.372094 21.869670 0.000000 0.077938
669.000000 46.187000 5.000000 2.000000 13.000000 108.457913 -27.876612 1544.306109 534.595274 21.659610 0.000000 0.072700
670.000000 46.155000 6.000000 2.000000 13.000000 114.210669 -24.809778 1472.540692 407.846316 21.672364 0.000000 0.068396
671.000000 45.743000 7.000000 2.000000 13.000000 119.408364 -21.502198 1399.011296 288.952073 21.866005 0.000000 0.063566
672.000000 46.094000 4.000000 3.000000 13.000000 105.009634 -36.623548 1775.013195 581.423494 21.704226 0.000000 0.045726
673.000000 46.501000 5.000000 3.000000 13.000000 111.420419 -33.982709 1700.497161 431.792989 21.511690 0.000000 0.021057
674.000000 46.450000 6.000000 3.000000 13.000000 117.301793 -31.089770 1624.000138 292.254137 21.533643 0.000000 0.004719
675.000000 46.025000 7.000000 3.000000 13.000000 122.646065 -27.923843 1545.442067 160.599880 21.730752 0.000000 0.015142
676.000000 45.994000 4.000000 4.000000 13.000000 107.185383 -42.705499 1968.367066 488.025788 21.750020 0.000000 0.107566
677.000000 46.395000 5.000000 4.000000 13.000000 113.680734 -40.336797 1888.952950 321.745369 21.559724 0.000000 0.089683
678.000000 46.352000 6.000000 4.000000 13.000000 119.677325 -37.711716 1807.206372 165.694479 21.577969 0.000000 0.083820
679.000000 45.945000 7.000000 4.000000 13.000000 125.165302 -34.799247 1723.023040 17.587511 21.767463 0.000000 0.085620
680.000000 45.494000 4.000000 5.000000 13.000000 108.671435 -48.825729 2205.555578 388.548098 21.988449 0.000000 0.235542
681.000000 45.908000 5.000000 5.000000 13.000000 115.217539 -46.792154 2120.822518 200.664933 21.787591 0.000000 0.217276
682.000000 45.897000 6.000000 5.000000 13.000000 121.301956 -44.517272 2033.309418 23.171664 21.791214 0.000000 0.207667
#UB matrix in q= (UB) B0 G* 
#[[-0.838206818 -0.35799805  -0.41071818 ]
# [ 0.53795421  -0.667498463 -0.516037067]
# [-0.089524286 -0.653935856  0.752520429]]
#B0 matrix in q= UB (B0) G*
#[[ 0.19670273 -0.          0.03056101]
# [ 0.          0.19187965 -0.        ]
# [ 0.          0.          0.18806537]]
#UBB0 matrix in q= (UB B0) G* i.e. recip. basis vectors are columns in LT frame: astar = UBB0[:,0], bstar = UBB0[:,1], cstar = UBB0[:,2]. (abcstar as columns on xyzlab1, xlab1 = ui, ui = unit vector along incident beam)
#[[-0.16487757 -0.06869254 -0.10285831]
# [ 0.10581706 -0.12807937 -0.08060828]
# [-0.01760967 -0.12547699  0.13878708]]
#Euler angles phi theta psi (deg)
#[352.2    41.272 141.43 ]
#deviatoric strain in direct crystal frame (10-3 unit)
#[[-4.47  0.18  0.82]
# [ 0.18 -5.01  0.64]
# [ 0.82  0.64  9.48]]
#deviatoric strain in sample2 frame (10-3 unit)
#[[-4.5  -0.92  1.03]
# [-0.92 -1.15 -6.32]
# [ 1.02 -6.32  5.65]]
#new lattice parameters
#[ 5.1505     5.2087553  5.314606  89.965086  99.1848169 89.9793428]
#CCDLabel
#sCMOS
#DetectorParameters
#[79.0, 975.0, 941.0, 0.0, 0.0]
#pixelsize
#0.0734
#Frame dimensions
#[2018, 2016]
#
