#Strain and Orientation Refinement from experimental file: /home/micha/LaueProjects/DepthEffects/testZrO2_81.cor
#File created at Wed Jun 28 14:23:22 2023 with indexingSpotsSet.py
#Number of indexed spots: 518
#Element
#ZrO2
#grainIndex
#G_0
#Mean Deviation(pixel): 0.117
##spot_index intensity h k l 2theta Chi Xexp Yexp Energy GrainIndex PixDev
2.000000 192.520000 1.000000 1.000000 1.000000 49.661739 22.171768 536.390978 1927.980954 5.196856 0.000000 0.175232
9.000000 137.976000 2.000000 -1.000000 2.000000 64.091518 -36.000285 1756.981756 1587.240104 7.249234 0.000000 0.179680
10.000000 81.812000 3.000000 -1.000000 2.000000 46.356794 -30.941604 1620.210761 2137.805130 12.229064 0.000000 0.284465
12.000000 147.377000 2.000000 0.000000 2.000000 65.224623 -14.653109 1256.419248 1454.456712 6.787390 0.000000 0.081332
13.000000 83.941000 3.000000 0.000000 2.000000 46.070823 -15.373052 1270.916289 2016.270235 11.919852 0.000000 0.194411
15.000000 128.582000 2.000000 1.000000 2.000000 59.268491 6.139289 859.230808 1584.548440 7.780430 0.000000 0.023741
16.000000 75.810000 3.000000 1.000000 2.000000 42.780057 -0.007323 975.137569 2104.103904 13.199239 0.000000 0.222052
19.000000 144.992000 1.000000 2.000000 2.000000 64.776726 36.421981 180.849902 1571.074718 6.898403 0.000000 0.173882
29.000000 120.394000 2.000000 -2.000000 3.000000 77.333620 -49.569414 2238.274549 1313.983854 8.305547 0.000000 0.290930
30.000000 86.586000 3.000000 -2.000000 3.000000 62.357135 -42.292633 1954.099499 1703.045853 11.551671 0.000000 0.259563
31.000000 62.020000 4.000000 -2.000000 3.000000 50.634628 -37.569518 1802.946353 2055.021585 16.130269 0.000000 0.302003
32.000000 197.122000 1.000000 -1.000000 3.000000 107.989641 -41.215889 1917.751757 476.390689 5.070207 0.000000 0.085927
33.000000 139.854000 2.000000 -1.000000 3.000000 83.538894 -33.246220 1680.547933 1086.743083 7.149635 0.000000 0.113150
34.000000 96.045000 3.000000 -1.000000 3.000000 65.243805 -29.189186 1576.253980 1509.512625 10.414355 0.000000 0.130257
35.000000 66.494000 4.000000 -1.000000 3.000000 51.893818 -26.754753 1517.608951 1886.313850 15.045568 0.000000 0.187389
37.000000 188.872000 1.000000 1.000000 3.000000 101.627391 15.294801 680.664180 711.400122 5.292596 0.000000 0.149246
38.000000 133.730000 2.000000 1.000000 3.000000 79.130524 5.092208 879.090826 1148.485937 7.478289 0.000000 0.140573
39.000000 91.635000 3.000000 1.000000 3.000000 61.906140 -0.382648 982.188111 1515.552231 10.917070 0.000000 0.034008
40.000000 63.286000 4.000000 1.000000 3.000000 49.217762 -3.739618 1045.348197 1871.431321 15.810209 0.000000 0.118341
42.000000 147.561000 1.000000 2.000000 3.000000 85.309145 32.625113 286.016218 1045.859725 6.776036 0.000000 0.106802
43.000000 110.077000 2.000000 2.000000 3.000000 69.672283 20.083234 581.489305 1365.539577 9.086512 0.000000 0.098840
44.000000 78.814000 3.000000 2.000000 3.000000 56.227789 12.090148 744.456076 1677.087471 12.693941 0.000000 0.061403
45.000000 56.175000 4.000000 2.000000 3.000000 45.576635 6.744055 847.725420 2003.195066 17.812053 0.000000 0.177371
46.000000 108.027000 1.000000 3.000000 3.000000 69.952704 42.857020 -23.650859 1476.766663 9.257816 0.000000 0.213750
47.000000 85.136000 2.000000 3.000000 3.000000 59.530769 30.897609 330.912167 1678.929810 11.749655 0.000000 0.156151
48.000000 47.628000 4.000000 3.000000 3.000000 41.216880 15.797991 670.480181 2217.943762 21.008811 0.000000 0.273895
59.000000 62.669000 4.000000 -3.000000 4.000000 61.327940 -45.218045 2059.517513 1776.552231 15.960225 0.000000 0.312964
62.000000 116.290000 2.000000 -2.000000 4.000000 91.002487 -46.453768 2107.346239 913.663030 8.596797 0.000000 0.178258
63.000000 90.146000 3.000000 -2.000000 4.000000 76.245503 -40.151354 1882.973917 1285.684000 11.093198 0.000000 0.159773
64.000000 52.890000 5.000000 -2.000000 4.000000 54.277482 -33.087754 1676.299656 1864.853851 18.914297 0.000000 0.218107
65.000000 164.485000 1.000000 -1.000000 4.000000 117.690616 -37.035034 1787.078204 233.414663 6.075338 0.000000 0.064833
66.000000 128.996000 2.000000 -1.000000 4.000000 96.357784 -30.915987 1619.556797 801.217051 7.749690 0.000000 0.093825
67.000000 97.486000 3.000000 -1.000000 4.000000 79.090949 -27.650283 1538.876320 1175.182344 10.258003 0.000000 0.121003
68.000000 73.055000 4.000000 -1.000000 4.000000 65.549968 -25.631888 1491.410527 1483.775967 13.691785 0.000000 0.114094
69.000000 55.100000 5.000000 -1.000000 4.000000 54.961055 -24.263923 1460.149860 1768.850651 18.156441 0.000000 0.144408
70.000000 170.847000 1.000000 0.000000 4.000000 119.842024 -11.000380 1184.217819 311.994285 5.849073 0.000000 0.102891
71.000000 132.533000 2.000000 0.000000 4.000000 97.051417 -13.003022 1223.541910 804.363534 7.543154 0.000000 0.160651
72.000000 99.146000 3.000000 0.000000 4.000000 79.091981 -14.029402 1243.937023 1154.795026 10.086771 0.000000 0.136525
73.000000 55.223000 5.000000 0.000000 4.000000 54.489311 -15.072157 1264.845450 1736.377954 18.116711 0.000000 0.095310
74.000000 187.930000 0.000000 1.000000 4.000000 132.569933 31.046145 327.116801 -212.964259 5.316307 0.000000 0.102764
75.000000 159.352000 1.000000 1.000000 4.000000 112.004303 12.959707 727.315002 494.686358 6.271881 0.000000 0.130260
76.000000 124.834000 2.000000 1.000000 4.000000 92.302714 4.217660 895.628345 897.602971 8.009209 0.000000 0.170807
77.000000 94.229000 3.000000 1.000000 4.000000 75.963692 -0.709262 988.324087 1210.095470 10.613900 0.000000 0.128643
78.000000 70.525000 4.000000 1.000000 4.000000 63.012053 -3.827891 1047.013636 1490.339684 14.184541 0.000000 0.047352
79.000000 53.119000 5.000000 1.000000 4.000000 52.828193 -5.967700 1087.509663 1761.564326 18.835244 0.000000 0.074987
80.000000 156.938000 0.000000 2.000000 4.000000 112.220958 46.723137 -168.060193 299.612353 6.367924 0.000000 0.196840
81.000000 135.534000 1.000000 2.000000 4.000000 98.647459 29.377860 369.087176 753.157939 7.375617 0.000000 0.094357
82.000000 108.904000 2.000000 2.000000 4.000000 83.817483 18.271658 619.640230 1063.781249 9.182044 0.000000 0.138887
83.000000 84.221000 3.000000 2.000000 4.000000 70.446380 11.057746 764.663622 1330.501052 11.876210 0.000000 0.097832
84.000000 49.155000 5.000000 2.000000 4.000000 50.165190 2.618804 925.771801 1839.781616 20.355226 0.000000 0.102534
86.000000 108.749000 1.000000 3.000000 4.000000 84.714998 39.723914 80.684148 1070.445312 9.194253 0.000000 0.120873
87.000000 90.114000 2.000000 3.000000 4.000000 74.087083 28.765382 384.148773 1291.049832 11.098206 0.000000 0.114388
88.000000 71.897000 3.000000 3.000000 4.000000 63.766343 20.745892 567.316814 1508.162473 13.913154 0.000000 0.087918
89.000000 56.376000 4.000000 3.000000 4.000000 54.616412 14.837050 689.886101 1731.784965 17.746491 0.000000 0.086636
90.000000 85.008000 1.000000 4.000000 4.000000 72.414932 46.432283 -156.496233 1435.930817 11.764059 0.000000 0.252424
91.000000 59.663000 3.000000 4.000000 4.000000 56.957666 28.447428 391.897950 1737.225423 16.767057 0.000000 0.153110
94.000000 57.755000 2.000000 5.000000 4.000000 56.574442 42.068591 3.564684 1897.935156 17.319747 0.000000 0.296844
95.000000 48.841000 3.000000 5.000000 4.000000 50.615092 34.512247 234.944646 2013.327617 20.483389 0.000000 0.261484
102.000000 79.950000 3.000000 -3.000000 5.000000 82.427842 -48.489623 2191.085509 1156.880515 12.506009 0.000000 0.244639
103.000000 65.520000 4.000000 -3.000000 5.000000 72.076465 -43.523435 1997.202119 1421.106656 15.263469 0.000000 0.215580
104.000000 53.322000 5.000000 -3.000000 5.000000 63.109262 -39.844304 1873.145455 1651.894507 18.758027 0.000000 0.223505
106.000000 107.778000 2.000000 -2.000000 5.000000 100.785224 -43.683756 2002.945498 657.486507 9.274293 0.000000 0.118297
107.000000 88.104000 3.000000 -2.000000 5.000000 86.819385 -38.218277 1822.516169 1017.125746 11.348292 0.000000 0.110090
108.000000 70.876000 4.000000 -2.000000 5.000000 74.869794 -34.564062 1716.489767 1294.391603 14.109988 0.000000 0.132395
109.000000 56.770000 5.000000 -2.000000 5.000000 64.863855 -31.968137 1646.711335 1536.279847 17.619127 0.000000 0.146893
110.000000 45.590000 6.000000 -2.000000 5.000000 56.534037 -30.036207 1597.305990 1762.828464 21.942584 0.000000 0.174552
111.000000 139.324000 1.000000 -1.000000 5.000000 123.794391 -33.654061 1691.552941 75.593053 7.171862 0.000000 0.066043
112.000000 116.058000 2.000000 -1.000000 5.000000 105.200474 -28.924937 1569.757688 606.888742 8.612309 0.000000 0.078076
113.000000 93.483000 3.000000 -1.000000 5.000000 89.380466 -26.289979 1506.703553 953.981025 10.695264 0.000000 0.123929
114.000000 74.213000 4.000000 -1.000000 5.000000 76.317928 -24.616962 1468.151456 1229.210100 13.475706 0.000000 0.120756
115.000000 58.787000 5.000000 -1.000000 5.000000 65.637717 -23.462247 1442.143054 1472.301292 17.015076 0.000000 0.106257
116.000000 46.787000 6.000000 -1.000000 5.000000 56.894992 -22.617914 1423.412938 1701.230812 21.382245 0.000000 0.121788
117.000000 154.119000 0.000000 1.000000 5.000000 136.381741 25.938549 451.484417 -315.026859 6.482294 0.000000 0.088237
118.000000 135.858000 1.000000 1.000000 5.000000 118.667059 11.084814 764.135694 341.363088 7.355637 0.000000 0.108454
119.000000 113.093000 2.000000 1.000000 5.000000 101.449130 3.476571 909.612767 722.618523 8.839121 0.000000 0.169743
120.000000 91.028000 3.000000 1.000000 5.000000 86.439643 -0.996052 993.712610 1007.977216 10.984877 0.000000 0.163774
121.000000 72.209000 4.000000 1.000000 5.000000 73.905014 -3.907268 1048.511541 1252.277866 13.851150 0.000000 0.118762
122.000000 57.152000 5.000000 1.000000 5.000000 63.594154 -5.943529 1087.050687 1478.302318 17.503223 0.000000 0.055025
123.000000 136.267000 0.000000 2.000000 5.000000 120.351343 41.927342 8.368873 93.908307 7.333027 0.000000 0.150475
124.000000 121.283000 1.000000 2.000000 5.000000 107.704159 26.585861 436.364146 556.801229 8.240967 0.000000 0.083769
125.000000 102.340000 2.000000 2.000000 5.000000 94.031954 16.688372 652.334314 861.799088 9.769089 0.000000 0.151424
126.000000 83.537000 3.000000 2.000000 5.000000 81.320834 10.137567 782.554620 1107.901322 11.971107 0.000000 0.144524
127.000000 67.098000 4.000000 2.000000 5.000000 70.262626 5.591179 869.635716 1329.007387 14.907121 0.000000 0.096664
128.000000 53.656000 5.000000 2.000000 5.000000 60.912211 2.289556 931.968067 1540.235685 18.644598 0.000000 0.024496
129.000000 114.560000 0.000000 3.000000 5.000000 104.452145 50.314159 -322.054790 506.613105 8.724543 0.000000 0.255914
130.000000 103.241000 1.000000 3.000000 5.000000 95.494334 36.898204 166.948156 811.542109 9.682938 0.000000 0.076330
131.000000 88.701000 2.000000 3.000000 5.000000 85.143741 26.843770 430.292229 1043.487214 11.272729 0.000000 0.119773
132.000000 73.813000 3.000000 3.000000 5.000000 74.930458 19.451243 594.894645 1248.333786 13.549357 0.000000 0.115172
133.000000 60.350000 4.000000 3.000000 5.000000 65.625615 13.956231 707.522833 1443.481795 16.574952 0.000000 0.074742
134.000000 48.995000 5.000000 3.000000 5.000000 57.479827 9.782147 789.437041 1637.331998 20.419369 0.000000 0.043466
136.000000 85.431000 1.000000 4.000000 5.000000 83.963582 43.835849 -58.422588 1098.785289 11.703685 0.000000 0.160631
137.000000 74.777000 2.000000 4.000000 5.000000 76.188094 34.448332 236.711592 1261.869076 13.373510 0.000000 0.123681
138.000000 63.527000 3.000000 4.000000 5.000000 68.164848 26.982399 427.017075 1424.931008 15.744568 0.000000 0.110426
139.000000 52.982000 4.000000 4.000000 5.000000 60.543464 21.089370 559.922009 1592.497761 18.881208 0.000000 0.091518
140.000000 69.801000 1.000000 5.000000 5.000000 73.824754 48.691022 -249.732953 1413.926885 14.326532 0.000000 0.286358
141.000000 62.135000 2.000000 5.000000 5.000000 67.909724 40.169275 66.449700 1512.654216 16.096200 0.000000 0.193628
142.000000 53.827000 3.000000 5.000000 5.000000 61.620498 33.003590 275.950451 1634.330964 18.583099 0.000000 0.161444
143.000000 45.777000 4.000000 5.000000 5.000000 55.442329 27.068955 424.968087 1773.505823 21.854013 0.000000 0.153513
146.000000 51.381000 2.000000 6.000000 5.000000 60.580884 44.548601 -84.467554 1792.650955 19.466955 0.000000 0.301453
151.000000 51.163000 5.000000 -4.000000 6.000000 69.421803 -45.508329 2070.563556 1517.600817 19.547235 0.000000 0.260045
153.000000 65.581000 4.000000 -3.000000 6.000000 80.876155 -41.947588 1942.318432 1173.406489 15.247048 0.000000 0.156315
154.000000 54.998000 5.000000 -3.000000 6.000000 71.909854 -38.586772 1833.787658 1390.786735 18.183862 0.000000 0.165311
156.000000 83.701000 3.000000 -2.000000 6.000000 94.984625 -36.468263 1770.493647 824.270169 11.943610 0.000000 0.080196
157.000000 57.988000 5.000000 -2.000000 6.000000 73.674061 -30.929679 1619.906286 1308.521472 17.246626 0.000000 0.124166
158.000000 120.184000 1.000000 -1.000000 6.000000 127.925783 -30.881460 1618.675921 -36.184860 8.313554 0.000000 0.070288
159.000000 104.087000 2.000000 -1.000000 6.000000 111.577918 -27.207947 1528.328858 462.387668 9.601734 0.000000 0.063922
160.000000 87.598000 3.000000 -1.000000 6.000000 97.199021 -25.080185 1478.719265 790.898877 11.412197 0.000000 0.120358
161.000000 72.555000 4.000000 -1.000000 6.000000 84.878505 -23.695679 1447.363339 1046.345055 13.781575 0.000000 0.131413
162.000000 59.708000 5.000000 -1.000000 6.000000 74.450451 -22.723932 1425.751973 1265.688802 16.750004 0.000000 0.118139
163.000000 49.125000 6.000000 -1.000000 6.000000 65.654622 -22.004689 1409.953570 1466.255234 20.361562 0.000000 0.101588
165.000000 122.030000 1.000000 0.000000 6.000000 128.497331 -9.831366 1161.515144 72.200040 8.187868 0.000000 0.059296
166.000000 105.348000 2.000000 0.000000 6.000000 111.696181 -11.850400 1200.837841 503.448093 9.487051 0.000000 0.134358
167.000000 72.945000 4.000000 0.000000 6.000000 84.576551 -13.747844 1238.324615 1046.198021 13.708390 0.000000 0.150618
168.000000 59.857000 5.000000 0.000000 6.000000 74.063215 -14.268595 1248.715786 1258.120566 16.709140 0.000000 0.118655
169.000000 130.250000 0.000000 1.000000 6.000000 138.761490 21.985780 540.459588 -383.065272 7.670005 0.000000 0.077093
170.000000 117.698000 1.000000 1.000000 6.000000 123.265149 9.549340 793.937168 225.022356 8.489912 0.000000 0.089252
171.000000 101.886000 2.000000 1.000000 6.000000 108.089908 2.840757 921.592953 588.990054 9.810093 0.000000 0.158250
172.000000 85.703000 3.000000 1.000000 6.000000 94.424378 -1.249872 998.482415 857.703182 11.665591 0.000000 0.173481
173.000000 70.949000 4.000000 1.000000 6.000000 82.579200 -3.979029 1049.865981 1081.522282 14.094800 0.000000 0.153538
174.000000 58.355000 5.000000 1.000000 6.000000 72.489191 -5.921343 1086.629415 1282.399075 17.139876 0.000000 0.111491
175.000000 47.985000 6.000000 1.000000 6.000000 63.945572 -7.371160 1114.235361 1471.594933 20.847207 0.000000 0.059889
176.000000 119.114000 0.000000 2.000000 6.000000 125.845526 37.771545 140.996396 -42.666974 8.388439 0.000000 0.126884
177.000000 108.236000 1.000000 2.000000 6.000000 114.139847 24.170487 491.960390 412.301318 9.233371 0.000000 0.073178
178.000000 80.119000 3.000000 2.000000 6.000000 89.760208 9.312661 798.505823 945.564652 12.479802 0.000000 0.163300
179.000000 55.388000 5.000000 2.000000 6.000000 69.871705 1.986125 937.675922 1335.707710 18.058799 0.000000 0.094564
180.000000 95.810000 1.000000 3.000000 6.000000 103.526002 34.348651 239.461880 627.402692 10.432524 0.000000 0.051998
181.000000 84.529000 2.000000 3.000000 6.000000 93.654552 25.106780 470.671610 865.083769 11.827308 0.000000 0.122899
182.000000 61.320000 4.000000 3.000000 6.000000 74.669605 13.146285 723.621768 1243.995323 16.310228 0.000000 0.117706
183.000000 51.341000 5.000000 3.000000 6.000000 66.473173 9.218520 800.321334 1415.716603 19.483282 0.000000 0.073624
184.000000 82.605000 1.000000 4.000000 6.000000 92.999821 41.427452 25.202062 865.775595 12.102270 0.000000 0.104736
185.000000 64.263000 3.000000 4.000000 6.000000 77.342842 25.626659 458.710294 1209.078368 15.561801 0.000000 0.116232
186.000000 46.676000 5.000000 4.000000 6.000000 62.596497 15.660805 673.261624 1520.494218 21.431533 0.000000 0.068130
188.000000 70.125000 1.000000 5.000000 6.000000 83.315570 46.492847 -158.893998 1124.223045 14.258165 0.000000 0.200916
189.000000 63.388000 2.000000 5.000000 6.000000 77.295170 38.385822 122.373229 1250.561292 15.775820 0.000000 0.138565
190.000000 55.989000 3.000000 5.000000 6.000000 70.886480 31.588887 313.147082 1378.863651 17.863188 0.000000 0.123596
191.000000 48.644000 4.000000 5.000000 6.000000 64.534757 25.957336 451.047936 1511.073747 20.563065 0.000000 0.108878
192.000000 59.113000 1.000000 6.000000 6.000000 74.729722 50.242902 -318.777153 1400.460565 16.916458 0.000000 0.314987
195.000000 45.902000 2.000000 7.000000 6.000000 63.393060 46.388246 -154.756144 1722.612112 21.789377 0.000000 0.311329
199.000000 48.008000 5.000000 -5.000000 7.000000 73.974165 -50.238096 2268.556460 1424.346340 20.829825 0.000000 0.324716
201.000000 59.646000 4.000000 -4.000000 7.000000 84.759487 -47.965521 2168.900271 1088.432989 16.762719 0.000000 0.225239
202.000000 51.762000 5.000000 -4.000000 7.000000 76.899393 -44.192626 2021.380961 1290.335314 19.318786 0.000000 0.199637
204.000000 73.870000 3.000000 -3.000000 7.000000 97.863672 -44.571458 2035.313296 732.328272 13.532001 0.000000 0.134442
205.000000 64.070000 4.000000 -3.000000 7.000000 88.117781 -40.480592 1893.611811 987.501158 15.604761 0.000000 0.116749
206.000000 55.058000 5.000000 -3.000000 7.000000 79.335013 -37.408326 1798.136981 1196.168164 18.161918 0.000000 0.131160
207.000000 47.102000 6.000000 -3.000000 7.000000 71.538084 -35.028967 1729.440582 1379.813541 21.232867 0.000000 0.143448
209.000000 89.930000 2.000000 -2.000000 7.000000 113.448033 -39.011097 1846.911135 340.213219 11.112710 0.000000 0.070353
210.000000 78.536000 3.000000 -2.000000 7.000000 101.403109 -34.879327 1725.256115 676.384179 12.727578 0.000000 0.059420
211.000000 67.535000 4.000000 -2.000000 7.000000 90.577355 -32.033938 1648.430093 928.206003 14.803867 0.000000 0.102407
212.000000 57.571000 5.000000 -2.000000 7.000000 81.032186 -29.964479 1595.509430 1137.054072 17.369281 0.000000 0.118590
213.000000 48.897000 6.000000 -2.000000 7.000000 72.696306 -28.395408 1556.838665 1322.163493 20.453789 0.000000 0.120019
214.000000 105.382000 1.000000 -1.000000 7.000000 130.879920 -28.576667 1561.246218 -119.895957 9.480868 0.000000 0.073461
215.000000 93.729000 2.000000 -1.000000 7.000000 116.355874 -25.714613 1493.323585 349.141781 10.662038 0.000000 0.052113
216.000000 81.378000 3.000000 -1.000000 7.000000 103.281526 -23.998153 1454.155515 662.902023 12.283062 0.000000 0.112578
217.000000 69.575000 4.000000 -1.000000 7.000000 91.770923 -22.856067 1428.672280 904.887386 14.370074 0.000000 0.134834
218.000000 58.992000 5.000000 -1.000000 7.000000 81.763832 -22.041970 1410.768488 1109.074667 16.951321 0.000000 0.131781
219.000000 49.864000 6.000000 -1.000000 7.000000 73.114038 -21.432539 1397.500400 1291.986435 20.057380 0.000000 0.115126
221.000000 103.517000 1.000000 1.000000 7.000000 126.612996 8.270482 818.551896 132.890175 9.652447 0.000000 0.073369
222.000000 92.038000 2.000000 1.000000 7.000000 113.098001 2.289402 931.970961 481.599276 10.858771 0.000000 0.143724
223.000000 79.882000 3.000000 1.000000 7.000000 100.655826 -1.476088 1002.734279 738.424161 12.514178 0.000000 0.171572
224.000000 68.270000 4.000000 1.000000 7.000000 89.575283 -4.044221 1051.096625 948.998329 14.645861 0.000000 0.168493
225.000000 57.863000 5.000000 1.000000 7.000000 79.878659 -5.900906 1086.241387 1134.154335 17.283252 0.000000 0.144209
226.000000 48.890000 6.000000 1.000000 7.000000 71.463120 -7.303104 1112.935735 1304.845214 20.458260 0.000000 0.106150
227.000000 105.229000 0.000000 2.000000 7.000000 129.726385 34.171524 244.332865 -140.022157 9.494765 0.000000 0.112724
228.000000 97.054000 1.000000 2.000000 7.000000 118.897087 22.067421 538.674958 299.964291 10.296342 0.000000 0.063605
229.000000 86.714000 2.000000 2.000000 7.000000 107.440134 14.060162 705.448999 592.439202 11.526521 0.000000 0.140883
230.000000 75.674000 3.000000 2.000000 7.000000 96.429262 8.569256 812.816483 818.348401 13.210978 0.000000 0.167707
231.000000 65.026000 4.000000 2.000000 7.000000 86.352498 4.636118 887.720513 1009.835812 15.377486 0.000000 0.161994
232.000000 55.389000 5.000000 2.000000 7.000000 77.368859 1.705606 942.950925 1182.301461 18.056129 0.000000 0.134574
233.000000 47.005000 6.000000 2.000000 7.000000 69.467108 -0.551433 985.358925 1344.133005 21.279545 0.000000 0.092414
234.000000 95.192000 0.000000 3.000000 7.000000 118.004147 43.450762 -44.608695 152.566346 10.497522 0.000000 0.162328
235.000000 88.244000 1.000000 3.000000 7.000000 109.652162 32.045399 301.270285 487.551500 11.325954 0.000000 0.037954
236.000000 79.411000 2.000000 3.000000 7.000000 100.322968 23.531800 506.303467 727.176593 12.588055 0.000000 0.120561
237.000000 69.869000 3.000000 3.000000 7.000000 90.971213 17.193330 641.968568 921.900642 14.310056 0.000000 0.149506
238.000000 60.532000 4.000000 3.000000 7.000000 82.140295 12.399275 738.375631 1093.125044 16.520345 0.000000 0.144403
239.000000 51.957000 5.000000 3.000000 7.000000 74.079724 8.694416 810.411185 1251.571209 19.249699 0.000000 0.116975
240.000000 84.068000 0.000000 4.000000 7.000000 106.624975 49.385507 -280.091439 447.321309 11.888610 0.000000 0.237882
241.000000 78.387000 1.000000 4.000000 7.000000 100.145051 39.195014 97.351752 692.496021 12.751989 0.000000 0.067844
242.000000 71.134000 2.000000 4.000000 7.000000 92.659028 30.939057 329.854282 882.722562 14.054525 0.000000 0.099630
243.000000 63.194000 3.000000 4.000000 7.000000 84.894647 24.369780 487.455596 1046.563635 15.823035 0.000000 0.126209
244.000000 55.294000 4.000000 4.000000 7.000000 77.342116 19.146136 601.328838 1196.875961 18.086567 0.000000 0.122505
245.000000 47.911000 5.000000 4.000000 7.000000 70.276941 14.957863 687.456015 1340.390915 20.876635 0.000000 0.097815
247.000000 68.543000 1.000000 5.000000 7.000000 91.082922 44.419384 -79.698771 912.515031 14.585557 0.000000 0.143750
248.000000 62.737000 2.000000 5.000000 7.000000 85.074989 36.711098 172.430617 1056.690288 15.937505 0.000000 0.107920
249.000000 56.301000 3.000000 5.000000 7.000000 78.685919 30.261200 347.041751 1190.311887 17.761990 0.000000 0.114606
250.000000 49.786000 4.000000 5.000000 7.000000 72.312503 24.912248 475.121141 1319.443182 20.088762 0.000000 0.109227
252.000000 59.380000 1.000000 6.000000 7.000000 82.787331 48.343709 -234.863212 1145.930724 16.838183 0.000000 0.236165
253.000000 54.796000 2.000000 6.000000 7.000000 77.926039 41.250075 31.112758 1247.217094 18.249016 0.000000 0.158037
254.000000 49.658000 3.000000 6.000000 7.000000 72.667347 35.088819 218.881445 1351.505908 20.139470 0.000000 0.134851
256.000000 47.619000 2.000000 7.000000 7.000000 71.374814 44.870786 -96.450659 1452.838563 21.001545 0.000000 0.233543
260.000000 48.102000 5.000000 -5.000000 8.000000 80.461925 -48.916422 2209.493392 1216.192423 20.786853 0.000000 0.261843
261.000000 65.235000 3.000000 -4.000000 8.000000 99.250217 -50.937844 2301.168540 662.834173 15.322631 0.000000 0.269546
262.000000 51.343000 5.000000 -4.000000 8.000000 83.301977 -42.948029 1976.836986 1113.681293 19.474405 0.000000 0.156518
263.000000 77.801000 2.000000 -3.000000 8.000000 113.354037 -47.920019 2166.995455 247.547250 12.844918 0.000000 0.235002
264.000000 69.793000 3.000000 -3.000000 8.000000 103.424181 -42.829588 1972.692320 590.717853 14.321128 0.000000 0.105120
265.000000 61.747000 4.000000 -3.000000 8.000000 94.125491 -39.113282 1850.094987 840.947121 16.190187 0.000000 0.088284
266.000000 54.127000 5.000000 -3.000000 8.000000 85.626614 -36.302644 1765.693221 1043.138418 18.472361 0.000000 0.109360
267.000000 47.194000 6.000000 -3.000000 8.000000 77.967985 -34.112297 1704.042931 1218.075708 21.189332 0.000000 0.124236
269.000000 73.346000 3.000000 -2.000000 8.000000 106.540189 -33.432346 1685.557448 557.992097 13.627018 0.000000 0.043751
270.000000 56.208000 5.000000 -2.000000 8.000000 87.217120 -29.065542 1573.210188 1000.855090 17.788359 0.000000 0.116378
271.000000 93.687000 1.000000 -1.000000 8.000000 133.083322 -26.636380 1514.823059 -185.104667 10.664112 0.000000 0.075289
272.000000 84.930000 2.000000 -1.000000 8.000000 120.050147 -24.405592 1463.355393 257.246643 11.765968 0.000000 0.042993
273.000000 75.446000 3.000000 -1.000000 8.000000 108.118401 -23.025321 1432.421281 558.344847 13.247670 0.000000 0.103070
274.000000 66.078000 4.000000 -1.000000 8.000000 97.398223 -22.088044 1411.776196 790.178499 15.128796 0.000000 0.132848
275.000000 57.364000 5.000000 -1.000000 8.000000 87.881398 -21.410319 1397.018746 983.767180 17.430291 0.000000 0.139115
276.000000 49.569000 6.000000 -1.000000 8.000000 79.490027 -20.897577 1385.944660 1154.732553 20.174592 0.000000 0.129768
277.000000 94.355000 1.000000 0.000000 8.000000 132.995573 -9.065731 1146.734212 -75.199308 10.588762 0.000000 0.036397
278.000000 75.774000 3.000000 0.000000 8.000000 107.826755 -12.193885 1207.582824 586.896099 13.190691 0.000000 0.145204
279.000000 57.445000 5.000000 0.000000 8.000000 87.501040 -13.587503 1235.134516 989.324963 17.406310 0.000000 0.155711
281.000000 92.238000 1.000000 1.000000 8.000000 129.151943 7.189880 839.225554 57.752869 10.832387 0.000000 0.060436
282.000000 83.594000 2.000000 1.000000 8.000000 116.994885 1.806809 941.048049 392.448977 11.954799 0.000000 0.129002
283.000000 74.240000 3.000000 1.000000 8.000000 105.626875 -1.678967 1006.548220 639.819670 13.463932 0.000000 0.164279
284.000000 65.004000 4.000000 1.000000 8.000000 95.297517 -4.103706 1052.219704 840.945723 15.380047 0.000000 0.172698
285.000000 56.415000 5.000000 1.000000 8.000000 86.066758 -5.882018 1085.882815 1015.393438 17.724844 0.000000 0.161502
286.000000 48.734000 6.000000 1.000000 8.000000 77.893499 -7.239595 1111.723306 1173.720513 20.521596 0.000000 0.136369
287.000000 87.634000 1.000000 2.000000 8.000000 122.531062 20.224475 578.478736 209.397709 11.402557 0.000000 0.055432
288.000000 71.019000 3.000000 2.000000 8.000000 101.795912 7.896057 825.727312 714.079102 14.075506 0.000000 0.164802
289.000000 54.363000 5.000000 2.000000 8.000000 83.683527 1.445510 947.840515 1060.175145 18.394607 0.000000 0.156829
290.000000 86.768000 0.000000 3.000000 8.000000 122.412471 40.475094 56.566693 42.648008 11.516047 0.000000 0.140998
291.000000 81.203000 1.000000 3.000000 8.000000 114.431571 29.960863 354.581073 376.638515 12.307085 0.000000 0.030190
292.000000 74.187000 2.000000 3.000000 8.000000 105.644136 22.099252 537.978582 615.700730 13.473123 0.000000 0.114969
293.000000 66.498000 3.000000 3.000000 8.000000 96.805575 16.204430 662.217354 807.239444 15.033789 0.000000 0.151778
294.000000 58.782000 4.000000 3.000000 8.000000 88.362922 11.708368 751.946235 972.414310 17.010104 0.000000 0.158091
295.000000 51.483000 5.000000 3.000000 8.000000 80.542199 8.205899 819.790512 1122.149781 19.424611 0.000000 0.143707
296.000000 73.742000 1.000000 4.000000 8.000000 105.870426 37.126009 160.236723 557.222112 13.554038 0.000000 0.042099
297.000000 61.160000 3.000000 4.000000 8.000000 91.157951 23.202414 513.645998 917.330664 16.347439 0.000000 0.131458
298.000000 48.026000 5.000000 4.000000 8.000000 76.872688 14.298514 700.685754 1200.026499 20.824179 0.000000 0.125601
299.000000 69.896000 0.000000 5.000000 8.000000 102.584715 51.072180 -357.541666 558.597979 14.300058 0.000000 0.272367
300.000000 65.974000 1.000000 5.000000 8.000000 97.478326 42.465296 -10.043373 749.478714 15.151741 0.000000 0.103684
301.000000 61.010000 2.000000 5.000000 8.000000 91.557052 35.138069 217.498866 905.224253 16.386724 0.000000 0.089756
302.000000 55.471000 3.000000 5.000000 8.000000 85.274078 29.014043 378.055448 1042.746903 18.025403 0.000000 0.114128
303.000000 49.778000 4.000000 5.000000 8.000000 78.977273 23.928530 497.410715 1170.367123 20.089654 0.000000 0.120327
304.000000 58.435000 1.000000 6.000000 8.000000 89.591566 46.532536 -160.468186 952.152844 17.108793 0.000000 0.180199
305.000000 49.807000 3.000000 6.000000 8.000000 79.455100 33.824552 253.815696 1182.171067 20.076933 0.000000 0.115983
307.000000 51.449000 1.000000 7.000000 8.000000 82.358136 49.704377 -294.319198 1164.290180 19.434076 0.000000 0.266133
308.000000 48.154000 2.000000 7.000000 8.000000 78.307292 43.417291 -43.416349 1247.658869 20.765795 0.000000 0.179253
311.000000 52.717000 4.000000 -5.000000 9.000000 92.822078 -51.368978 2321.754389 856.016681 18.963120 0.000000 0.282734
312.000000 47.524000 5.000000 -5.000000 9.000000 86.094989 -47.655987 2156.008157 1050.072279 21.038031 0.000000 0.214595
314.000000 62.108000 3.000000 -4.000000 9.000000 104.227828 -49.180306 2221.032810 523.516982 16.092845 0.000000 0.231469
315.000000 56.135000 4.000000 -4.000000 9.000000 96.284393 -45.028371 2052.360694 773.294075 17.807724 0.000000 0.143809
316.000000 50.290000 5.000000 -4.000000 9.000000 88.805976 -41.770011 1936.304951 971.077897 19.880072 0.000000 0.124246
317.000000 72.197000 2.000000 -3.000000 9.000000 117.345962 -45.808596 2082.109971 142.485198 13.841071 0.000000 0.210320
318.000000 59.063000 4.000000 -3.000000 9.000000 99.155842 -37.837240 1810.980440 721.349399 16.924493 0.000000 0.066613
319.000000 52.624000 5.000000 -3.000000 9.000000 90.989726 -35.263939 1736.042289 918.227539 18.998372 0.000000 0.093987
321.000000 75.517000 2.000000 -2.000000 9.000000 121.062483 -35.257904 1735.872256 147.059756 13.232085 0.000000 0.064416
322.000000 68.443000 3.000000 -2.000000 9.000000 110.721550 -32.110731 1650.439064 460.303836 14.602267 0.000000 0.031601
323.000000 61.253000 4.000000 -2.000000 9.000000 101.161790 -29.882529 1593.460037 696.070064 16.319245 0.000000 0.085795
324.000000 54.338000 5.000000 -2.000000 9.000000 92.456419 -28.226673 1552.749183 888.596527 18.398928 0.000000 0.113600
325.000000 47.939000 6.000000 -2.000000 9.000000 84.603001 -26.949702 1522.209725 1055.070396 20.858214 0.000000 0.123213
327.000000 84.253000 1.000000 -1.000000 9.000000 134.782367 -24.984026 1476.518990 -237.418599 11.857935 0.000000 0.076099
328.000000 77.468000 2.000000 -1.000000 9.000000 122.981867 -23.249889 1437.410037 180.795815 12.898654 0.000000 0.036582
329.000000 70.019000 3.000000 -1.000000 9.000000 112.040597 -22.146438 1413.054288 470.553590 14.273594 0.000000 0.093244
330.000000 62.483000 4.000000 -1.000000 9.000000 102.056137 -21.383074 1396.428366 694.130571 15.997964 0.000000 0.127705
331.000000 55.273000 5.000000 -1.000000 9.000000 93.044901 -20.823748 1384.356394 879.746838 18.087910 0.000000 0.141163
332.000000 48.633000 6.000000 -1.000000 9.000000 84.969306 -20.396374 1375.192716 1042.082001 20.560588 0.000000 0.139236
334.000000 83.096000 1.000000 1.000000 9.000000 131.139731 6.265366 856.834494 -4.876051 12.023803 0.000000 0.049906
335.000000 76.388000 2.000000 1.000000 9.000000 120.106191 1.380928 949.054402 316.757349 13.081811 0.000000 0.115170
336.000000 69.028000 3.000000 1.000000 9.000000 109.670511 -1.861937 1009.988582 556.052461 14.479356 0.000000 0.154624
337.000000 61.586000 4.000000 1.000000 9.000000 100.042667 -4.158201 1053.248730 749.890688 16.232116 0.000000 0.170942
338.000000 54.467000 5.000000 1.000000 9.000000 91.295812 -5.864511 1085.550469 916.526088 18.356745 0.000000 0.169396
339.000000 47.913000 6.000000 1.000000 9.000000 83.423770 -7.180192 1110.589584 1066.059744 20.870958 0.000000 0.154492
340.000000 84.729000 0.000000 2.000000 9.000000 134.717696 28.322698 394.925131 -269.670053 11.791336 0.000000 0.094899
341.000000 79.699000 1.000000 2.000000 9.000000 125.383549 18.599393 612.799641 134.458239 12.537184 0.000000 0.048637
342.000000 73.426000 2.000000 2.000000 9.000000 115.668604 11.973383 746.749124 412.236995 13.610492 0.000000 0.119178
343.000000 66.520000 3.000000 2.000000 9.000000 106.188116 7.283732 837.434125 626.007836 15.026258 0.000000 0.158219
344.000000 59.506000 4.000000 2.000000 9.000000 97.264153 3.832401 902.901257 803.500437 16.800408 0.000000 0.172379
345.000000 52.765000 5.000000 2.000000 9.000000 89.044114 1.203693 952.385442 958.961832 18.949871 0.000000 0.168306
346.000000 46.529000 6.000000 2.000000 9.000000 81.571706 -0.857167 991.102976 1100.494289 21.492662 0.000000 0.150785
347.000000 74.879000 1.000000 3.000000 9.000000 118.237265 28.070101 401.033948 285.941612 13.345630 0.000000 0.026584
348.000000 69.220000 2.000000 3.000000 9.000000 109.963906 20.792221 566.321352 522.792349 14.438927 0.000000 0.107854
349.000000 56.554000 4.000000 3.000000 9.000000 93.595073 11.067652 764.470437 872.096712 17.678401 0.000000 0.163610
350.000000 50.354000 5.000000 3.000000 9.000000 86.066441 7.749528 828.531815 1015.689881 19.857985 0.000000 0.158990
351.000000 73.099000 0.000000 4.000000 9.000000 116.706729 44.240118 -73.117723 185.191569 13.670638 0.000000 0.169397
352.000000 69.138000 1.000000 4.000000 9.000000 110.521655 35.207964 215.533834 447.925680 14.455434 0.000000 0.023441
353.000000 64.183000 2.000000 4.000000 9.000000 103.585033 27.930226 404.404343 646.625448 15.573605 0.000000 0.089138
354.000000 58.666000 3.000000 4.000000 9.000000 96.401113 22.116202 537.607629 810.663181 17.040642 0.000000 0.132343
355.000000 52.978000 4.000000 4.000000 9.000000 89.320596 17.454097 636.593491 954.379122 18.873011 0.000000 0.147812
356.000000 47.420000 5.000000 4.000000 9.000000 82.560655 13.678984 713.045947 1085.640430 21.088233 0.000000 0.143830
357.000000 66.357000 0.000000 5.000000 9.000000 107.849111 48.838300 -256.100544 414.434518 15.061551 0.000000 0.228244
358.000000 62.971000 1.000000 5.000000 9.000000 102.786972 40.624733 51.698019 619.163591 15.873067 0.000000 0.074814
359.000000 58.731000 2.000000 5.000000 9.000000 96.996712 33.659911 258.288459 782.303695 17.021203 0.000000 0.077997
360.000000 53.980000 3.000000 5.000000 9.000000 90.870466 27.841385 406.540514 922.506396 18.521715 0.000000 0.114367
361.000000 49.037000 4.000000 5.000000 9.000000 84.710610 23.001460 518.107808 1049.250230 20.391361 0.000000 0.129546
362.000000 56.782000 1.000000 6.000000 9.000000 95.358864 44.806777 -94.059320 798.699823 17.605189 0.000000 0.139230
363.000000 53.211000 2.000000 6.000000 9.000000 90.515053 38.274605 125.768315 928.675373 18.788596 0.000000 0.095001
365.000000 50.856000 1.000000 7.000000 9.000000 88.407909 48.100581 -224.574028 985.794577 19.658652 0.000000 0.212126
366.000000 47.879000 2.000000 7.000000 9.000000 84.331702 42.025555 5.030691 1084.807716 20.882860 0.000000 0.139820
369.000000 51.049000 4.000000 -5.000000 10.000000 97.565418 -49.946103 2255.229902 718.862581 19.581266 0.000000 0.243078
370.000000 58.941000 3.000000 -4.000000 10.000000 108.406272 -47.528496 2150.742520 410.558831 16.956454 0.000000 0.204156
371.000000 48.867000 5.000000 -4.000000 10.000000 93.561653 -40.654289 1899.266199 852.696905 20.457625 0.000000 0.099164
372.000000 67.133000 2.000000 -3.000000 10.000000 120.601098 -43.865354 2009.488346 58.097443 14.884446 0.000000 0.192711
373.000000 61.806000 3.000000 -3.000000 10.000000 111.785148 -39.719014 1869.160257 381.756142 16.169737 0.000000 0.074133
374.000000 56.276000 4.000000 -3.000000 10.000000 103.407958 -36.644771 1775.632313 621.230554 17.761469 0.000000 0.049419
375.000000 50.817000 5.000000 -3.000000 10.000000 95.592437 -34.286929 1708.838447 813.446473 19.672136 0.000000 0.082112
376.000000 45.623000 6.000000 -3.000000 10.000000 88.387315 -32.427027 1658.749503 976.899754 21.914917 0.000000 0.105586
378.000000 63.939000 3.000000 -2.000000 10.000000 114.177319 -30.900105 1619.151515 377.879051 15.629960 0.000000 0.022472
379.000000 52.229000 5.000000 -2.000000 10.000000 96.931230 -27.442370 1533.908112 793.569113 19.140356 0.000000 0.109656
381.000000 76.502000 1.000000 -1.000000 10.000000 136.128101 -23.562168 1444.375332 -280.362483 13.059142 0.000000 0.076213
382.000000 71.111000 2.000000 -1.000000 10.000000 125.359358 -22.222854 1414.728448 115.983520 14.051296 0.000000 0.032674
383.000000 65.140000 3.000000 -1.000000 10.000000 115.275945 -21.348881 1395.687758 395.348698 15.341817 0.000000 0.083815
384.000000 58.994000 4.000000 -1.000000 10.000000 105.961547 -20.733886 1382.425304 611.841127 16.942858 0.000000 0.120913
385.000000 52.986000 5.000000 -1.000000 10.000000 97.443291 -20.277707 1372.657345 791.096315 18.867243 0.000000 0.139651
386.000000 47.322000 6.000000 -1.000000 10.000000 89.707130 -19.925903 1365.163520 946.851895 21.128513 0.000000 0.143936
387.000000 76.768000 1.000000 0.000000 10.000000 135.742358 -8.525588 1136.344696 -175.894154 13.014007 0.000000 0.026060
388.000000 71.312000 2.000000 0.000000 10.000000 124.977718 -10.347889 1171.525267 175.544298 14.011854 0.000000 0.077859
389.000000 65.276000 3.000000 0.000000 10.000000 114.890391 -11.539861 1194.754440 431.317371 15.310124 0.000000 0.123368
390.000000 59.071000 4.000000 0.000000 10.000000 105.571627 -12.379658 1211.238078 633.927798 16.921134 0.000000 0.150247
391.000000 47.310000 6.000000 0.000000 10.000000 89.316475 -13.483967 1233.076876 954.204532 21.134107 0.000000 0.158024
393.000000 75.557000 1.000000 1.000000 10.000000 132.736155 5.465791 872.013173 -57.976108 13.223187 0.000000 0.041282
394.000000 70.221000 2.000000 1.000000 10.000000 122.643848 1.002357 956.168923 251.414439 14.230204 0.000000 0.102597
395.000000 64.314000 3.000000 1.000000 10.000000 113.016252 -2.027789 1013.107690 483.493341 15.539821 0.000000 0.144142
396.000000 58.236000 4.000000 1.000000 10.000000 104.028493 -4.208309 1054.195043 671.354117 17.164525 0.000000 0.165873
397.000000 52.295000 5.000000 1.000000 10.000000 95.755270 -5.848239 1085.241573 831.955321 19.117502 0.000000 0.171489
398.000000 46.696000 6.000000 1.000000 10.000000 88.209490 -7.124511 1109.527145 974.907258 21.412681 0.000000 0.164556
399.000000 72.978000 1.000000 2.000000 10.000000 127.673941 17.157907 642.697554 71.217530 13.691480 0.000000 0.043050
400.000000 62.327000 3.000000 2.000000 10.000000 109.838005 6.724502 848.097841 550.013849 16.035973 0.000000 0.149893
401.000000 50.876000 5.000000 2.000000 10.000000 93.632522 0.978303 956.620909 872.661979 19.651455 0.000000 0.173056
402.000000 73.022000 0.000000 3.000000 10.000000 128.570228 35.314929 212.520066 -110.829446 13.682659 0.000000 0.116811
403.000000 69.278000 1.000000 3.000000 10.000000 121.322867 26.350890 441.872243 210.064704 14.423806 0.000000 0.025533
404.000000 64.644000 2.000000 3.000000 10.000000 113.525886 19.596102 591.831362 443.627970 15.460123 0.000000 0.100233
405.000000 59.484000 3.000000 3.000000 10.000000 105.662960 14.455684 697.539337 629.351469 16.803780 0.000000 0.144055
406.000000 54.133000 4.000000 3.000000 10.000000 98.036838 10.471993 776.064773 786.456875 18.467629 0.000000 0.164092
407.000000 48.856000 5.000000 3.000000 10.000000 90.821249 7.322283 836.698053 925.445030 20.465247 0.000000 0.166813
408.000000 64.788000 1.000000 4.000000 10.000000 114.350610 33.428796 264.538298 357.334344 15.425211 0.000000 0.009666
409.000000 56.006000 3.000000 4.000000 10.000000 100.832656 21.103671 559.613377 720.244053 17.848576 0.000000 0.130259
410.000000 46.368000 5.000000 4.000000 10.000000 87.491583 13.095904 724.619593 989.409459 21.564530 0.000000 0.154597
411.000000 59.845000 1.000000 5.000000 10.000000 107.232834 38.891563 106.801648 512.078684 16.700870 0.000000 0.053871
412.000000 56.213000 2.000000 5.000000 10.000000 101.598385 32.270092 295.381091 679.747194 17.782032 0.000000 0.069629
413.000000 52.134000 3.000000 5.000000 10.000000 95.656125 26.737643 432.794083 821.641606 19.175835 0.000000 0.113414
414.000000 47.849000 4.000000 5.000000 10.000000 89.667876 22.126730 537.377195 947.734990 20.895526 0.000000 0.134990
415.000000 54.753000 1.000000 6.000000 10.000000 100.273032 43.163446 -34.416171 673.559444 18.256090 0.000000 0.108690
416.000000 48.087000 3.000000 6.000000 10.000000 90.378348 31.486615 315.791813 932.665518 20.791180 0.000000 0.101616
418.000000 49.744000 1.000000 7.000000 10.000000 93.648210 46.560556 -161.580926 841.196043 20.096317 0.000000 0.171173
419.000000 47.072000 2.000000 7.000000 10.000000 89.579052 40.693265 49.460960 951.429290 21.239071 0.000000 0.110200
422.000000 49.207000 4.000000 -5.000000 11.000000 101.670122 -48.591572 2195.454269 604.899143 20.312934 0.000000 0.213005
424.000000 55.869000 3.000000 -4.000000 11.000000 111.946088 -45.975660 2088.588269 316.976907 17.887651 0.000000 0.184321
425.000000 51.572000 4.000000 -4.000000 11.000000 104.648853 -42.414606 1958.294997 559.935169 19.380738 0.000000 0.099496
426.000000 47.245000 5.000000 -4.000000 11.000000 97.693909 -39.596830 1865.287780 752.297819 21.158406 0.000000 0.079096
428.000000 62.599000 2.000000 -3.000000 11.000000 123.292442 -42.074944 1946.651895 -11.201978 15.962077 0.000000 0.179654
429.000000 58.172000 3.000000 -3.000000 11.000000 114.977304 -38.328557 1825.877368 301.884434 17.179132 0.000000 0.067678
430.000000 53.528000 4.000000 -3.000000 11.000000 107.035519 -35.528863 1743.531581 535.769442 18.672237 0.000000 0.035373
431.000000 48.877000 5.000000 -3.000000 11.000000 99.570319 -33.366797 1683.790764 723.716319 20.451580 0.000000 0.072306
433.000000 64.558000 2.000000 -2.000000 11.000000 126.044903 -32.201519 1652.818530 15.353060 15.477242 0.000000 0.068210
434.000000 59.856000 3.000000 -2.000000 11.000000 117.072584 -29.788007 1591.100398 307.128302 16.695439 0.000000 0.016645
435.000000 54.942000 4.000000 -2.000000 11.000000 108.632475 -28.035632 1548.134669 529.863029 18.191311 0.000000 0.070746
436.000000 50.043000 5.000000 -2.000000 11.000000 100.784362 -26.707745 1516.501920 711.505721 19.975163 0.000000 0.104781
438.000000 70.031000 1.000000 -1.000000 11.000000 137.217724 -22.327158 1417.016539 -316.271483 14.265706 0.000000 0.075870
439.000000 65.656000 2.000000 -1.000000 11.000000 127.322782 -21.304696 1394.731224 60.215425 15.218352 0.000000 0.030848
440.000000 60.784000 3.000000 -1.000000 11.000000 117.984805 -20.622131 1380.026963 329.935423 16.440447 0.000000 0.075123
441.000000 55.706000 4.000000 -1.000000 11.000000 109.274750 -20.134260 1369.597687 540.121249 17.941929 0.000000 0.113392
442.000000 50.657000 5.000000 -1.000000 11.000000 101.223429 -19.768227 1361.815699 714.056470 19.733226 0.000000 0.135896
443.000000 45.808000 6.000000 -1.000000 11.000000 93.830340 -19.483479 1355.786567 864.563205 21.825295 0.000000 0.145118
445.000000 69.245000 1.000000 1.000000 11.000000 134.045214 4.767691 885.232224 -103.622463 14.428325 0.000000 0.034160
446.000000 64.910000 2.000000 1.000000 11.000000 124.750930 0.663655 962.532765 194.272133 15.393971 0.000000 0.091342
447.000000 60.085000 3.000000 1.000000 11.000000 115.825870 -2.178816 1015.948534 419.722498 16.632517 0.000000 0.133622
448.000000 55.058000 4.000000 1.000000 11.000000 107.416045 -4.254540 1055.068230 602.445831 18.154146 0.000000 0.159020
449.000000 50.060000 5.000000 1.000000 11.000000 99.592428 -5.833074 1084.953730 758.158042 19.969552 0.000000 0.169966
450.000000 70.611000 0.000000 2.000000 11.000000 137.699117 23.840906 499.379488 -352.137008 14.148366 0.000000 0.082369
451.000000 67.237000 1.000000 2.000000 11.000000 129.548409 15.872117 668.975713 17.015750 14.859954 0.000000 0.038460
452.000000 63.100000 2.000000 2.000000 11.000000 121.161132 10.280523 779.782109 279.551488 15.836488 0.000000 0.098438
453.000000 58.488000 3.000000 2.000000 11.000000 112.912431 6.211843 857.851927 483.393507 17.087786 0.000000 0.140884
454.000000 53.671000 4.000000 2.000000 11.000000 105.017356 3.146947 915.825459 651.822279 18.624161 0.000000 0.164676
455.000000 48.870000 5.000000 2.000000 11.000000 97.592234 0.767727 960.577480 797.527284 20.456447 0.000000 0.173536
457.000000 67.477000 0.000000 3.000000 11.000000 130.769111 33.080784 273.886834 -166.552424 14.806789 0.000000 0.109079
458.000000 64.339000 1.000000 3.000000 11.000000 123.864616 24.783607 478.055868 145.452761 15.530489 0.000000 0.025789
459.000000 60.490000 2.000000 3.000000 11.000000 116.504243 18.498271 614.913085 375.038536 16.520969 0.000000 0.092660
460.000000 56.188000 3.000000 3.000000 11.000000 109.080055 13.679510 713.035477 557.850720 17.788176 0.000000 0.137475
461.000000 51.680000 4.000000 3.000000 11.000000 101.842808 9.916917 786.829094 711.887769 19.342558 0.000000 0.161479
462.000000 47.170000 5.000000 3.000000 11.000000 94.942853 6.921506 844.344167 847.234736 21.195094 0.000000 0.169754
464.000000 63.623000 0.000000 4.000000 11.000000 123.349928 39.774681 79.070881 19.366390 15.705187 0.000000 0.136951
465.000000 60.770000 1.000000 4.000000 11.000000 117.541676 31.777033 308.266416 280.752730 16.444064 0.000000 0.002809
466.000000 57.269000 2.000000 4.000000 11.000000 111.178758 25.335427 465.423604 479.615105 17.451654 0.000000 0.078397
467.000000 53.344000 3.000000 4.000000 11.000000 104.613474 20.158141 579.893326 642.064771 18.738037 0.000000 0.126333
468.000000 49.212000 4.000000 4.000000 11.000000 98.095929 15.969956 666.988273 781.752690 20.313799 0.000000 0.151491
470.000000 59.315000 0.000000 5.000000 11.000000 115.884247 44.722792 -90.929701 205.967807 16.847687 0.000000 0.174076
471.000000 56.769000 1.000000 5.000000 11.000000 110.989583 37.259560 156.283339 422.184006 17.604911 0.000000 0.039078
472.000000 53.643000 2.000000 5.000000 11.000000 105.523217 30.962420 329.257581 592.369311 18.632884 0.000000 0.063189
473.000000 50.128000 3.000000 5.000000 11.000000 99.777363 25.697668 457.068494 735.172117 19.941821 0.000000 0.111160
474.000000 46.409000 4.000000 5.000000 11.000000 93.978520 21.300403 555.361677 860.655170 21.542455 0.000000 0.137193
476.000000 54.797000 0.000000 6.000000 11.000000 108.634160 48.477623 -240.572433 393.525707 18.238511 0.000000 0.222259
477.000000 52.558000 1.000000 6.000000 11.000000 104.485496 41.599290 19.445079 569.168478 19.017361 0.000000 0.085799
478.000000 49.808000 2.000000 6.000000 11.000000 99.792993 35.590819 204.709798 712.551749 20.069101 0.000000 0.062474
479.000000 46.707000 3.000000 6.000000 11.000000 94.789259 30.405363 343.406464 836.444298 21.404087 0.000000 0.097813
480.000000 50.273000 0.000000 7.000000 11.000000 101.746672 51.401181 -373.307560 582.260766 19.881980 0.000000 0.280041
481.000000 48.323000 1.000000 7.000000 11.000000 98.203612 45.082670 -104.404654 721.245357 20.685846 0.000000 0.139676
482.000000 45.932000 2.000000 7.000000 11.000000 94.165119 39.418044 90.354124 839.542450 21.764853 0.000000 0.087318
485.000000 47.303000 4.000000 -5.000000 12.000000 105.242438 -47.301986 2141.450071 508.520850 21.129233 0.000000 0.190048
486.000000 52.960000 3.000000 -4.000000 12.000000 114.971126 -44.515251 2033.234729 238.083865 18.869334 0.000000 0.169738
487.000000 45.537000 5.000000 -4.000000 12.000000 101.305309 -38.593855 1834.005450 665.703157 21.950537 0.000000 0.062693
489.000000 58.550000 2.000000 -3.000000 12.000000 125.545403 -40.423132 1891.747740 -69.146408 17.065345 0.000000 0.169598
490.000000 50.893000 4.000000 -3.000000 12.000000 110.157350 -34.483142 1714.250395 461.692401 19.637820 0.000000 0.023663
491.000000 46.907000 5.000000 -3.000000 12.000000 103.032046 -32.499151 1660.652668 645.628363 21.309222 0.000000 0.063875
493.000000 56.174000 3.000000 -2.000000 12.000000 119.527808 -28.763623 1565.808237 245.564037 17.789043 0.000000 0.014791
494.000000 47.874000 5.000000 -2.000000 12.000000 104.128234 -26.018442 1500.372706 639.537285 20.878937 0.000000 0.099332
496.000000 64.552000 1.000000 -1.000000 12.000000 138.116341 -21.245388 1393.448218 -346.757899 15.476281 0.000000 0.075235
497.000000 60.938000 2.000000 -1.000000 12.000000 128.969483 -20.479377 1376.968447 11.645991 16.396157 0.000000 0.030536
498.000000 56.901000 3.000000 -1.000000 12.000000 120.282550 -19.957366 1365.832363 272.349498 17.561671 0.000000 0.067306
499.000000 52.654000 4.000000 -1.000000 12.000000 112.115598 -19.578847 1357.803472 476.780248 18.981097 0.000000 0.105694
500.000000 48.374000 5.000000 -1.000000 12.000000 104.499639 -19.291826 1351.740534 646.099370 20.663082 0.000000 0.130798
501.000000 64.657000 1.000000 0.000000 12.000000 137.591521 -8.124173 1128.642678 -249.287961 15.451293 0.000000 0.023050
502.000000 48.370000 5.000000 0.000000 12.000000 104.096049 -12.496056 1213.530974 664.174713 20.665132 0.000000 0.153032
504.000000 63.888000 1.000000 1.000000 12.000000 135.137341 4.153072 896.848130 -143.313815 15.637758 0.000000 0.028226
505.000000 60.304000 2.000000 1.000000 12.000000 126.527152 0.358859 968.258783 143.778897 16.569164 0.000000 0.081343
506.000000 56.303000 3.000000 1.000000 12.000000 118.215922 -2.316918 1018.546761 363.038449 17.749075 0.000000 0.123473
507.000000 52.094000 4.000000 1.000000 12.000000 110.325826 -4.297326 1055.876452 541.191038 19.185950 0.000000 0.151282
508.000000 47.854000 5.000000 1.000000 12.000000 102.921993 -5.818909 1084.684857 692.781875 20.888637 0.000000 0.166197
509.000000 62.293000 1.000000 2.000000 12.000000 131.107553 14.719199 692.253966 -30.027784 16.038987 0.000000 0.034678
510.000000 54.999000 3.000000 2.000000 12.000000 115.533406 5.740243 866.808010 424.272365 18.170704 0.000000 0.131779
511.000000 46.850000 5.000000 2.000000 12.000000 101.036270 0.570556 964.281826 731.072024 21.337222 0.000000 0.171287
513.000000 59.981000 1.000000 3.000000 12.000000 125.987707 23.351026 510.337711 89.648173 16.658359 0.000000 0.026554
514.000000 56.743000 2.000000 3.000000 12.000000 119.025638 17.487808 635.897491 314.829570 17.611173 0.000000 0.085420
515.000000 49.287000 4.000000 3.000000 12.000000 105.132648 9.398507 796.849449 645.975191 20.280431 0.000000 0.156990
517.000000 57.103000 1.000000 4.000000 12.000000 120.231208 30.241932 347.526817 214.991626 17.499326 0.000000 0.009803
518.000000 50.768000 3.000000 4.000000 12.000000 107.867854 19.273644 598.642834 573.432042 19.687507 0.000000 0.121340
520.000000 56.053000 0.000000 5.000000 12.000000 118.980582 42.832656 -22.799478 128.115292 17.827321 0.000000 0.157254
521.000000 53.829000 1.000000 5.000000 12.000000 114.191581 35.722547 200.961697 345.430046 18.565412 0.000000 0.029625
522.000000 51.123000 2.000000 5.000000 12.000000 108.897662 29.731069 360.318836 516.697087 19.550140 0.000000 0.057964
523.000000 48.080000 3.000000 5.000000 12.000000 103.351414 24.716718 479.579418 659.792333 20.789985 0.000000 0.107916
525.000000 50.324000 1.000000 6.000000 12.000000 108.119171 40.110892 68.326321 480.505338 19.860218 0.000000 0.068804
527.000000 48.495000 0.000000 7.000000 12.000000 105.714748 49.780945 -297.763431 472.011063 20.609820 0.000000 0.245292
528.000000 46.735000 1.000000 7.000000 12.000000 102.180390 43.665085 -52.275075 619.848022 21.387419 0.000000 0.115296
533.000000 50.242000 3.000000 -4.000000 13.000000 117.577431 -43.140991 1983.623630 170.609523 19.889723 0.000000 0.158862
534.000000 47.069000 4.000000 -4.000000 13.000000 110.898516 -40.082866 1880.773977 403.871038 21.232836 0.000000 0.076508
536.000000 54.934000 2.000000 -3.000000 13.000000 127.452425 -38.896873 1843.363032 -118.327483 18.188300 0.000000 0.161576
537.000000 51.771000 3.000000 -3.000000 13.000000 120.019229 -35.829840 1752.100361 173.965082 19.301598 0.000000 0.064216
538.000000 48.407000 4.000000 -3.000000 13.000000 112.865855 -33.501823 1687.432903 396.682808 20.645233 0.000000 0.013773
540.000000 56.164000 2.000000 -2.000000 13.000000 129.517660 -29.677778 1588.354295 -80.825172 17.789511 0.000000 0.072054
541.000000 52.859000 3.000000 -2.000000 13.000000 121.632398 -27.817554 1542.887077 191.394216 18.904148 0.000000 0.016370
542.000000 49.351000 4.000000 -2.000000 13.000000 114.128695 -26.436006 1510.120415 402.604408 20.250270 0.000000 0.057692
543.000000 45.775000 5.000000 -2.000000 13.000000 107.051616 -25.370576 1485.384917 575.646981 21.835091 0.000000 0.093614
545.000000 59.858000 1.000000 -1.000000 13.000000 138.869053 -20.290649 1372.933668 -372.972736 16.689936 0.000000 0.074415
546.000000 56.826000 2.000000 -1.000000 13.000000 130.368961 -19.733791 1361.085426 -31.082158 17.582193 0.000000 0.031166
547.000000 53.436000 3.000000 -1.000000 13.000000 122.253909 -19.347138 1352.907263 221.155671 18.700140 0.000000 0.060398
548.000000 49.842000 4.000000 -1.000000 13.000000 114.574869 -19.063025 1346.922618 420.246766 20.050772 0.000000 0.098139
549.000000 46.185000 5.000000 -1.000000 13.000000 107.361400 -18.845446 1342.353340 585.445895 21.641376 0.000000 0.124952
551.000000 59.290000 1.000000 1.000000 13.000000 136.061855 3.607925 907.135851 -178.164097 16.850478 0.000000 0.023236
552.000000 56.282000 2.000000 1.000000 13.000000 128.043964 0.083136 973.438292 98.775095 17.753079 0.000000 0.072484
553.000000 52.918000 3.000000 1.000000 13.000000 120.272141 -2.443685 1020.932179 312.194400 18.883789 0.000000 0.113887
554.000000 49.355000 4.000000 1.000000 13.000000 112.849174 -4.337038 1056.626699 486.177807 20.249747 0.000000 0.143204
555.000000 45.729000 5.000000 1.000000 13.000000 105.833778 -5.805646 1084.433140 634.180229 21.858395 0.000000 0.161057
558.000000 58.000000 1.000000 2.000000 13.000000 132.422593 13.680375 713.018275 -71.288742 17.226092 0.000000 0.031535
559.000000 55.093000 2.000000 2.000000 13.000000 125.061985 8.881939 806.804395 176.466216 18.136974 0.000000 0.080909
560.000000 51.840000 3.000000 2.000000 13.000000 117.791696 5.305015 875.060173 371.293457 19.277255 0.000000 0.122900
561.000000 48.390000 4.000000 2.000000 13.000000 110.759517 2.555603 926.961447 532.617953 20.654153 0.000000 0.151129
563.000000 58.409000 0.000000 3.000000 13.000000 134.064068 29.189931 373.727671 -252.223781 17.104843 0.000000 0.097357
564.000000 56.125000 1.000000 3.000000 13.000000 127.782950 22.038079 539.316596 40.886364 17.802407 0.000000 0.027411
565.000000 53.369000 2.000000 3.000000 13.000000 121.183782 16.555242 655.058015 261.417559 18.723721 0.000000 0.078649
566.000000 50.282000 3.000000 3.000000 13.000000 114.530903 12.290554 740.515776 438.281232 19.875785 0.000000 0.122861
567.000000 47.001000 4.000000 3.000000 13.000000 107.999540 8.913323 806.200390 587.025703 21.265893 0.000000 0.151402
569.000000 55.901000 0.000000 4.000000 13.000000 127.944364 35.907292 195.684103 -95.105721 17.873469 0.000000 0.119061
570.000000 53.773000 1.000000 4.000000 13.000000 122.521300 28.813541 382.970925 157.795970 18.582347 0.000000 0.016044
571.000000 51.205000 2.000000 4.000000 13.000000 116.687080 23.083435 516.289330 352.897977 19.516308 0.000000 0.068227
572.000000 48.324000 3.000000 4.000000 13.000000 110.692326 18.444837 616.028846 512.451948 20.682427 0.000000 0.115791
574.000000 53.020000 0.000000 5.000000 13.000000 121.619314 41.047652 37.818975 62.356678 18.846481 0.000000 0.144547
575.000000 51.067000 1.000000 5.000000 13.000000 116.943120 34.274492 241.503759 278.986669 19.568892 0.000000 0.025078
576.000000 48.710000 2.000000 5.000000 13.000000 111.821095 28.570590 388.901788 450.300046 20.517778 0.000000 0.053590
577.000000 46.060000 3.000000 5.000000 13.000000 106.472049 23.790434 500.512290 593.204979 21.700293 0.000000 0.104020
579.000000 49.899000 0.000000 6.000000 13.000000 115.316448 45.048398 -103.114112 220.358285 20.026857 0.000000 0.177398
580.000000 48.129000 1.000000 6.000000 13.000000 111.273231 38.694746 112.887713 404.091598 20.765083 0.000000 0.056562
581.000000 45.993000 2.000000 6.000000 13.000000 106.787010 33.168021 271.550403 553.115783 21.731236 0.000000 0.044013
583.000000 46.663000 0.000000 7.000000 13.000000 109.180328 48.222008 -229.700610 379.058928 21.417630 0.000000 0.218185
586.000000 47.719000 3.000000 -4.000000 14.000000 119.840036 -41.846924 1938.905445 112.198910 20.940436 0.000000 0.150614
588.000000 51.697000 2.000000 -3.000000 14.000000 129.082752 -37.484316 1800.401648 -160.601524 19.326700 0.000000 0.154968
589.000000 48.983000 3.000000 -3.000000 14.000000 122.035207 -34.705192 1720.405795 121.793779 20.399639 0.000000 0.064831
590.000000 46.084000 4.000000 -3.000000 14.000000 115.233447 -32.579662 1662.780718 339.045285 21.685295 0.000000 0.005454
592.000000 49.871000 3.000000 -2.000000 14.000000 123.453800 -26.941610 1522.018443 143.286924 20.036055 0.000000 0.019580
594.000000 55.792000 1.000000 -1.000000 14.000000 139.508003 -19.442255 1354.915480 -395.760695 17.906008 0.000000 0.073487
595.000000 53.216000 2.000000 -1.000000 14.000000 131.572046 -19.057135 1346.798765 -68.994456 18.774670 0.000000 0.032299
596.000000 50.334000 3.000000 -1.000000 14.000000 123.962296 -18.785123 1341.088646 175.272296 19.852069 0.000000 0.054385
597.000000 47.263000 4.000000 -1.000000 14.000000 116.722231 -18.582781 1336.852981 369.353809 21.144195 0.000000 0.090910
598.000000 55.826000 1.000000 0.000000 14.000000 138.920453 -7.814151 1122.704804 -305.240951 17.895412 0.000000 0.023353
599.000000 53.236000 2.000000 0.000000 14.000000 131.054982 -9.412383 1153.418367 -9.216063 18.767885 0.000000 0.045866
600.000000 50.339000 3.000000 0.000000 14.000000 123.492290 -10.547848 1175.409191 216.583716 19.850107 0.000000 0.085428
601.000000 47.255000 4.000000 0.000000 14.000000 116.285758 -11.395506 1191.931144 398.704628 21.148126 0.000000 0.118008
603.000000 55.301000 1.000000 1.000000 14.000000 136.854277 3.121184 916.310869 -209.020915 18.065773 0.000000 0.019004
604.000000 52.743000 2.000000 1.000000 14.000000 129.353808 -0.167473 978.145968 58.370344 18.943804 0.000000 0.064641
605.000000 49.882000 3.000000 1.000000 14.000000 122.058792 -2.560456 1023.129904 266.246431 20.032640 0.000000 0.104949
606.000000 46.835000 4.000000 1.000000 14.000000 115.056245 -4.373997 1057.324994 436.359071 21.338386 0.000000 0.135110
608.000000 54.241000 1.000000 2.000000 14.000000 133.545205 12.740097 731.655018 -107.801230 18.419509 0.000000 0.028897
609.000000 48.980000 3.000000 2.000000 14.000000 119.755946 4.902154 882.688265 323.439977 20.402183 0.000000 0.114419
611.000000 54.678000 0.000000 3.000000 14.000000 135.318171 27.493083 414.881795 -285.869301 18.271559 0.000000 0.092571
612.000000 52.700000 1.000000 3.000000 14.000000 129.317496 20.831599 565.474771 -2.138929 18.959087 0.000000 0.028172
613.000000 50.330000 2.000000 3.000000 14.000000 123.049166 15.692342 672.622541 213.621607 19.853669 0.000000 0.072395
614.000000 47.676000 3.000000 3.000000 14.000000 116.732903 11.667050 752.755591 387.469375 20.961299 0.000000 0.115540
616.000000 50.755000 1.000000 4.000000 14.000000 124.489395 27.482710 415.129392 107.518428 19.687014 0.000000 0.020975
617.000000 46.029000 3.000000 4.000000 14.000000 113.162443 17.666938 632.194877 457.742561 21.712596 0.000000 0.110014
619.000000 50.220000 0.000000 5.000000 14.000000 123.885436 39.362434 92.103078 6.067477 19.896507 0.000000 0.134708
620.000000 48.495000 1.000000 5.000000 14.000000 119.325658 32.909587 278.458515 220.807931 20.605845 0.000000 0.024466
621.000000 46.429000 2.000000 5.000000 14.000000 114.371974 27.475911 415.291665 391.415463 21.524547 0.000000 0.049873
623.000000 46.015000 1.000000 6.000000 14.000000 114.027637 37.347326 153.677668 337.432981 21.718180 0.000000 0.048258
628.000000 48.791000 2.000000 -3.000000 15.000000 130.489043 -36.174749 1762.000147 -197.333614 20.477441 0.000000 0.149375
630.000000 49.603000 2.000000 -2.000000 15.000000 132.057136 -27.566271 1536.866532 -154.398779 20.141801 0.000000 0.074525
631.000000 47.174000 3.000000 -2.000000 15.000000 125.043676 -26.128642 1502.938453 100.226573 21.181345 0.000000 0.023180
633.000000 52.238000 1.000000 -1.000000 15.000000 140.056673 -18.683693 1338.964124 -415.756270 19.124011 0.000000 0.072500
634.000000 50.024000 2.000000 -1.000000 15.000000 132.616703 -18.440437 1333.879313 -102.882815 19.972284 0.000000 0.033642
635.000000 47.548000 3.000000 -1.000000 15.000000 125.455989 -18.265921 1330.240258 133.863508 21.014707 0.000000 0.049226
637.000000 51.809000 1.000000 1.000000 15.000000 137.540815 2.684002 924.544443 -236.541991 19.283119 0.000000 0.015385
638.000000 49.610000 2.000000 1.000000 15.000000 130.495995 -0.396242 982.443477 21.865973 20.139947 0.000000 0.057693
639.000000 47.150000 3.000000 1.000000 15.000000 123.624884 -2.668369 1025.161251 224.460899 21.192713 0.000000 0.096676
642.000000 50.927000 1.000000 2.000000 15.000000 134.513700 11.885420 748.475254 -140.360266 19.617954 0.000000 0.026656
643.000000 48.784000 2.000000 2.000000 15.000000 127.964474 7.708342 829.319735 93.522853 20.481376 0.000000 0.066568
644.000000 46.388000 3.000000 2.000000 15.000000 121.478868 4.528214 889.760500 279.928451 21.541683 0.000000 0.106416
646.000000 49.644000 1.000000 3.000000 15.000000 130.641880 19.720093 589.204962 -40.419280 20.125818 0.000000 0.028767
647.000000 47.588000 2.000000 3.000000 15.000000 124.675642 14.891932 688.782506 170.537175 20.997431 0.000000 0.066664
649.000000 49.655000 0.000000 4.000000 15.000000 131.252551 32.554278 287.890628 -178.930752 20.121101 0.000000 0.107393
650.000000 48.017000 1.000000 4.000000 15.000000 126.194996 26.241074 444.438844 62.922826 20.808888 0.000000 0.024846
651.000000 46.070000 2.000000 4.000000 15.000000 120.829462 21.116282 559.341169 252.411621 21.690326 0.000000 0.059339
653.000000 46.114000 1.000000 5.000000 15.000000 121.403315 31.622294 312.281919 169.372802 21.669376 0.000000 0.026120
656.000000 46.173000 2.000000 -3.000000 16.000000 131.711902 -34.958535 1727.469142 -229.550351 21.638197 0.000000 0.144531
660.000000 47.184000 2.000000 -1.000000 16.000000 133.531821 -17.876193 1322.139771 -133.370195 21.174059 0.000000 0.035025
661.000000 49.106000 1.000000 0.000000 16.000000 139.921290 -7.567513 1117.987241 -349.343307 20.343781 0.000000 0.024646
664.000000 48.728000 1.000000 1.000000 16.000000 138.141213 2.289219 931.974405 -261.246290 20.502128 0.000000 0.012268
665.000000 46.818000 2.000000 1.000000 16.000000 131.500543 -0.605900 986.382185 -11.296157 21.340470 0.000000 0.051533
667.000000 47.985000 1.000000 2.000000 16.000000 135.357028 11.105497 763.732222 -169.588681 20.820469 0.000000 0.024729
669.000000 48.428000 0.000000 3.000000 16.000000 137.292141 24.511169 484.251041 -340.539814 20.629184 0.000000 0.084252
670.000000 46.905000 1.000000 3.000000 16.000000 131.794742 18.693517 610.830222 -74.723348 21.300679 0.000000 0.029181
672.000000 45.531000 1.000000 4.000000 16.000000 127.684390 25.081011 471.261826 23.060400 21.944665 0.000000 0.027875
679.000000 45.990000 1.000000 1.000000 17.000000 138.670621 1.930986 938.712930 -283.549244 21.722503 0.000000 0.009570
683.000000 45.791000 0.000000 3.000000 17.000000 138.077987 23.197527 513.754668 -363.052398 21.817216 0.000000 0.080552
#UB matrix in q= (UB) B0 G* 
#[[ 0.120215089  0.058303971 -0.989827832]
# [-0.293552014  0.955408769  0.020624595]
# [ 0.948354126  0.288540199  0.132103754]]
#B0 matrix in q= UB (B0) G*
#[[ 0.19670273 -0.          0.03056101]
# [ 0.          0.19187965 -0.        ]
# [ 0.          0.          0.18806537]]
#UBB0 matrix in q= (UB B0) G* i.e. recip. basis vectors are columns in LT frame: astar = UBB0[:,0], bstar = UBB0[:,1], cstar = UBB0[:,2]. (abcstar as columns on xyzlab1, xlab1 = ui, ui = unit vector along incident beam)
#[[ 0.02364664  0.01118735 -0.18247844]
# [-0.05774248  0.1833235  -0.00509247]
# [ 0.18654385  0.05536499  0.0538268 ]]
#Euler angles phi theta psi (deg)
#[106.917  82.415  88.809]
#deviatoric strain in direct crystal frame (10-3 unit)
#[[ 2.92 -0.08 -0.57]
# [-0.08  3.12 -0.13]
# [-0.57 -0.13 -6.05]]
#deviatoric strain in sample2 frame (10-3 unit)
#[[-0.59  0.08  4.4 ]
# [ 0.08  3.15 -0.13]
# [ 4.4  -0.13 -2.56]]
#new lattice parameters
#[ 5.1505     5.2126529  5.323236  90.006382  99.253845  90.0094461]
#CCDLabel
#sCMOS
#DetectorParameters
#[79.0, 975.0, 941.0, 0.0, 0.0]
#pixelsize
#0.0734
#Frame dimensions
#[2018, 2016]
#
