#Strain and Orientation Refinement from experimental file: /home/micha/LaueProjects/DepthEffects/testZrO2_188.cor
#File created at Wed Jun 28 14:29:33 2023 with indexingSpotsSet.py
#Number of indexed spots: 506
#Element
#ZrO2
#grainIndex
#G_0
#Mean Deviation(pixel): 0.112
##spot_index intensity h k l 2theta Chi Xexp Yexp Energy GrainIndex PixDev
16.000000 108.131000 -4.000000 -1.000000 2.000000 68.492430 -43.576878 1999.113276 1526.447996 9.254110 0.000000 0.228580
17.000000 129.905000 -3.000000 -1.000000 2.000000 66.051199 -33.584940 1689.680501 1514.837775 7.703706 0.000000 0.145647
18.000000 148.250000 -2.000000 -1.000000 2.000000 59.175124 -18.649924 1338.257372 1618.826249 6.751622 0.000000 0.079807
19.000000 132.651000 -1.000000 -1.000000 2.000000 42.771818 2.092533 935.674540 2105.215818 7.547369 0.000000 0.219734
21.000000 143.541000 -4.000000 0.000000 2.000000 93.317361 -49.560142 2237.860535 844.821793 6.968183 0.000000 0.235201
22.000000 187.961000 -3.000000 0.000000 2.000000 98.269711 -38.173770 1821.162531 742.010846 5.321165 0.000000 0.070156
27.000000 63.313000 -6.000000 -2.000000 3.000000 60.554918 -42.066783 1946.373702 1759.434861 15.806994 0.000000 0.256611
28.000000 69.619000 -5.000000 -2.000000 3.000000 57.970182 -36.106924 1760.046540 1774.403697 14.376245 0.000000 0.205703
29.000000 74.910000 -4.000000 -2.000000 3.000000 53.781431 -28.486806 1559.059229 1837.848251 13.362056 0.000000 0.169470
30.000000 76.137000 -3.000000 -2.000000 3.000000 47.004270 -18.810031 1341.610735 2001.129219 13.148511 0.000000 0.179850
35.000000 70.198000 -7.000000 -1.000000 3.000000 76.113850 -50.150585 2264.545387 1356.248760 14.252638 0.000000 0.302163
36.000000 80.630000 -6.000000 -1.000000 3.000000 76.667372 -45.298076 2062.551602 1303.618278 12.408778 0.000000 0.211325
37.000000 93.405000 -5.000000 -1.000000 3.000000 76.781566 -38.853614 1842.022274 1265.632416 10.711972 0.000000 0.144133
38.000000 108.250000 -4.000000 -1.000000 3.000000 75.812511 -30.154853 1600.283400 1255.679571 9.243454 0.000000 0.115804
39.000000 122.670000 -3.000000 -1.000000 3.000000 72.417282 -18.451998 1334.120651 1300.548054 8.157792 0.000000 0.106155
40.000000 128.487000 -2.000000 -1.000000 3.000000 64.278893 -3.436705 1039.635622 1460.407947 7.789763 0.000000 0.052935
41.000000 110.922000 -1.000000 -1.000000 3.000000 49.170932 13.728844 712.053631 1898.336919 9.025032 0.000000 0.150446
45.000000 155.191000 -4.000000 1.000000 3.000000 123.483546 -36.855167 1781.788435 51.247493 6.442083 0.000000 0.106157
46.000000 187.869000 -3.000000 1.000000 3.000000 129.580458 -16.774815 1299.436250 11.684408 5.321150 0.000000 0.032918
48.000000 46.960000 -7.000000 -3.000000 4.000000 54.466062 -37.130502 1789.896031 1905.143369 21.313886 0.000000 0.241652
49.000000 49.266000 -6.000000 -3.000000 4.000000 51.399532 -32.063473 1649.202337 1954.862954 20.317528 0.000000 0.218091
50.000000 50.417000 -5.000000 -3.000000 4.000000 47.168747 -26.023574 1500.492093 2051.322050 19.855093 0.000000 0.215918
51.000000 49.238000 -4.000000 -3.000000 4.000000 41.360921 -18.879135 1343.060049 2233.001570 20.332519 0.000000 0.263458
52.000000 49.327000 -9.000000 -2.000000 4.000000 68.974249 -47.275457 2140.366916 1550.758831 20.285720 0.000000 0.283448
53.000000 59.341000 -7.000000 -2.000000 4.000000 67.602243 -39.083331 1849.160829 1512.437954 16.863479 0.000000 0.182473
54.000000 70.320000 -5.000000 -2.000000 4.000000 63.439842 -26.844899 1519.734403 1544.018181 14.232459 0.000000 0.113982
55.000000 73.911000 -3.000000 -2.000000 4.000000 52.501452 -8.925534 1144.034627 1776.948966 13.544091 0.000000 0.078684
59.000000 56.897000 -9.000000 -1.000000 4.000000 79.959809 -50.031948 2259.131049 1237.653235 17.583402 0.000000 0.282168
60.000000 63.532000 -8.000000 -1.000000 4.000000 80.813780 -46.251090 2099.354500 1192.708127 15.746982 0.000000 0.207605
61.000000 71.390000 -7.000000 -1.000000 4.000000 81.524087 -41.526269 1928.104822 1155.239384 14.013846 0.000000 0.147232
62.000000 80.545000 -6.000000 -1.000000 4.000000 81.864924 -35.548906 1744.100210 1130.095337 12.421327 0.000000 0.114554
63.000000 90.731000 -5.000000 -1.000000 4.000000 81.404333 -27.941232 1545.860533 1125.158562 11.027208 0.000000 0.115582
64.000000 100.805000 -4.000000 -1.000000 4.000000 79.368393 -18.334405 1331.667432 1153.842141 9.925966 0.000000 0.126958
65.000000 107.795000 -3.000000 -1.000000 4.000000 74.550848 -6.599101 1099.514380 1240.438349 9.283374 0.000000 0.117851
66.000000 106.255000 -2.000000 -1.000000 4.000000 65.586559 6.779846 847.043634 1432.973545 9.419408 0.000000 0.068637
67.000000 90.656000 -1.000000 -1.000000 4.000000 51.985852 20.552487 571.465874 1839.510662 11.041874 0.000000 0.153922
71.000000 81.812000 -7.000000 0.000000 4.000000 95.785814 -44.656916 2038.481249 787.685729 12.225430 0.000000 0.139731
72.000000 108.332000 -5.000000 0.000000 4.000000 100.333685 -29.477055 1583.369138 715.569036 9.232301 0.000000 0.085231
73.000000 124.017000 -4.000000 0.000000 4.000000 101.002856 -17.872563 1322.064492 721.122962 8.064787 0.000000 0.137329
74.000000 137.923000 -3.000000 0.000000 4.000000 98.467756 -3.115409 1033.580320 780.528766 7.252105 0.000000 0.168271
75.000000 143.144000 -2.000000 0.000000 4.000000 90.391554 13.659009 713.443374 933.430518 6.988604 0.000000 0.155139
76.000000 130.930000 -1.000000 0.000000 4.000000 75.686470 29.898461 356.141810 1257.774078 7.642256 0.000000 0.119617
81.000000 89.467000 -7.000000 1.000000 4.000000 109.823709 -48.783551 2203.729123 352.155317 11.176663 0.000000 0.240754
82.000000 103.397000 -6.000000 1.000000 4.000000 114.509042 -41.841182 1938.711089 282.338446 9.670321 0.000000 0.122822
83.000000 120.000000 -5.000000 1.000000 4.000000 119.203595 -31.778452 1641.770472 233.300118 8.331851 0.000000 0.020653
84.000000 138.485000 -4.000000 1.000000 4.000000 122.633196 -17.132016 1306.769805 219.801518 7.219443 0.000000 0.062716
85.000000 155.691000 -3.000000 1.000000 4.000000 122.041999 2.612495 925.890565 266.658324 6.421699 0.000000 0.100029
86.000000 164.447000 -2.000000 1.000000 4.000000 113.916213 24.300849 489.015302 417.284994 6.080476 0.000000 0.068833
87.000000 155.353000 -1.000000 1.000000 4.000000 97.362276 42.671482 -17.184355 751.859856 6.437980 0.000000 0.114936
94.000000 45.542000 -8.000000 -3.000000 5.000000 61.020110 -35.183487 1733.777624 1670.350174 21.975508 0.000000 0.179255
95.000000 48.115000 -7.000000 -3.000000 5.000000 58.857160 -30.500851 1609.007302 1695.809625 20.801646 0.000000 0.152867
96.000000 50.140000 -6.000000 -3.000000 5.000000 55.857745 -25.049772 1478.022982 1746.642681 19.963165 0.000000 0.131350
97.000000 50.987000 -5.000000 -3.000000 5.000000 51.733975 -18.749805 1340.348591 1837.548976 19.633087 0.000000 0.125837
98.000000 49.737000 -4.000000 -3.000000 5.000000 46.170488 -11.575819 1195.458149 1995.645276 20.128162 0.000000 0.168335
99.000000 46.357000 -10.000000 -2.000000 5.000000 73.374782 -44.581692 2035.692192 1392.208105 21.584069 0.000000 0.216891
100.000000 50.354000 -9.000000 -2.000000 5.000000 73.188424 -40.989428 1910.259735 1371.811476 19.871133 0.000000 0.175776
101.000000 54.742000 -8.000000 -2.000000 5.000000 72.686541 -36.730736 1778.143530 1359.620813 18.279043 0.000000 0.144319
102.000000 59.394000 -7.000000 -2.000000 5.000000 71.688056 -31.663834 1638.794734 1359.495337 16.848115 0.000000 0.123002
103.000000 63.990000 -6.000000 -2.000000 5.000000 69.922039 -25.640204 1491.602718 1377.367939 15.638844 0.000000 0.107519
104.000000 67.868000 -5.000000 -2.000000 5.000000 67.004550 -18.536525 1335.886126 1422.751663 14.746329 0.000000 0.087847
105.000000 69.851000 -4.000000 -2.000000 5.000000 62.447575 -10.314764 1170.882327 1511.759700 14.329150 0.000000 0.050059
106.000000 68.222000 -3.000000 -2.000000 5.000000 55.757129 -1.103673 995.734927 1673.762659 14.672948 0.000000 0.029625
107.000000 61.232000 -2.000000 -2.000000 5.000000 46.675163 8.742905 809.478895 1968.063779 16.349551 0.000000 0.167853
109.000000 47.692000 -11.000000 -1.000000 5.000000 82.404663 -49.953009 2255.543240 1164.058230 20.976264 0.000000 0.270862
110.000000 52.244000 -10.000000 -1.000000 5.000000 83.312592 -46.856052 2123.386274 1125.541547 19.148757 0.000000 0.207655
111.000000 57.489000 -9.000000 -1.000000 5.000000 84.169960 -43.135632 1983.434579 1091.596862 17.401647 0.000000 0.153201
112.000000 63.492000 -8.000000 -1.000000 5.000000 84.876012 -38.625455 1834.977591 1064.535053 15.756528 0.000000 0.115847
113.000000 70.237000 -7.000000 -1.000000 5.000000 85.252639 -33.121971 1677.215672 1047.725079 14.243487 0.000000 0.105917
114.000000 77.520000 -6.000000 -1.000000 5.000000 84.996599 -26.398658 1509.245703 1046.197717 12.905736 0.000000 0.118982
115.000000 84.734000 -5.000000 -1.000000 5.000000 83.621269 -18.256489 1330.043784 1067.698758 11.807645 0.000000 0.135913
116.000000 90.555000 -4.000000 -1.000000 5.000000 80.425403 -8.634874 1138.444345 1124.632191 11.049497 0.000000 0.140265
117.000000 92.687000 -3.000000 -1.000000 5.000000 74.589098 2.228607 933.114764 1237.905744 10.796594 0.000000 0.119652
118.000000 88.241000 -2.000000 -1.000000 5.000000 65.526195 13.705196 712.524329 1445.258860 11.342144 0.000000 0.079874
119.000000 75.485000 -1.000000 -1.000000 5.000000 53.424671 24.921668 474.906008 1821.605694 13.260641 0.000000 0.169039
124.000000 68.613000 -9.000000 1.000000 5.000000 106.249693 -48.976556 2212.112238 463.059252 14.574457 0.000000 0.232612
125.000000 76.878000 -8.000000 1.000000 5.000000 109.587398 -44.025499 2015.291394 408.360034 13.007127 0.000000 0.139825
126.000000 86.502000 -7.000000 1.000000 5.000000 113.035860 -37.507701 1801.099515 364.078970 11.559468 0.000000 0.053524
127.000000 97.429000 -6.000000 1.000000 5.000000 116.227358 -28.817695 1567.130731 335.811165 10.262635 0.000000 0.023318
128.000000 109.159000 -5.000000 1.000000 5.000000 118.381909 -17.313831 1310.513387 331.889559 9.159623 0.000000 0.082935
129.000000 120.300000 -4.000000 1.000000 5.000000 118.125953 -2.808073 1027.791588 364.994054 8.311485 0.000000 0.118500
130.000000 128.067000 -3.000000 1.000000 5.000000 113.698742 13.592373 714.768658 454.955026 7.807925 0.000000 0.118173
131.000000 128.440000 -2.000000 1.000000 5.000000 103.948343 29.490506 366.297416 633.890175 7.786338 0.000000 0.075382
132.000000 118.122000 -1.000000 1.000000 5.000000 89.405958 42.867151 -24.005079 956.225684 8.468360 0.000000 0.138604
137.000000 90.503000 -7.000000 2.000000 5.000000 126.337854 -41.002290 1910.683879 -108.065203 11.046149 0.000000 0.188664
138.000000 101.700000 -6.000000 2.000000 5.000000 131.222064 -30.919285 1619.640956 -158.155575 9.829332 0.000000 0.100598
139.000000 113.585000 -5.000000 2.000000 5.000000 134.988702 -16.425960 1292.300596 -180.648931 8.800514 0.000000 0.037483
140.000000 124.756000 -4.000000 2.000000 5.000000 135.612589 2.849891 921.420959 -159.920329 8.012399 0.000000 0.020247
141.000000 132.590000 -3.000000 2.000000 5.000000 130.692014 23.915818 497.696497 -71.422678 7.539424 0.000000 0.040179
142.000000 133.479000 -2.000000 2.000000 5.000000 119.447522 41.909729 8.966445 124.500601 7.490246 0.000000 0.154800
146.000000 45.746000 -8.000000 -3.000000 6.000000 64.460459 -29.244128 1577.608871 1530.399348 21.877218 0.000000 0.124470
147.000000 47.905000 -7.000000 -3.000000 6.000000 62.237105 -24.282949 1460.579946 1562.567906 20.892683 0.000000 0.103076
148.000000 49.754000 -5.000000 -3.000000 6.000000 55.041311 -12.330668 1210.273660 1711.241852 20.119368 0.000000 0.066768
149.000000 48.242000 -4.000000 -3.000000 6.000000 49.616158 -5.372918 1076.226500 1860.515025 20.751294 0.000000 0.108863
150.000000 50.321000 -9.000000 -2.000000 6.000000 76.494974 -34.833970 1723.990775 1255.926749 19.883920 0.000000 0.124954
151.000000 57.920000 -7.000000 -2.000000 6.000000 74.540818 -24.719356 1470.480653 1268.683925 17.276415 0.000000 0.112096
152.000000 63.746000 -5.000000 -2.000000 6.000000 69.113837 -11.332186 1190.693640 1359.865023 15.699685 0.000000 0.089348
153.000000 61.756000 -3.000000 -2.000000 6.000000 57.641543 5.027233 880.320942 1625.576419 16.208829 0.000000 0.032548
154.000000 48.034000 -11.000000 -1.000000 6.000000 85.851921 -44.209386 2021.993567 1049.897859 20.826192 0.000000 0.159812
155.000000 52.231000 -10.000000 -1.000000 6.000000 86.654684 -40.603279 1897.602608 1023.863602 19.152592 0.000000 0.121366
156.000000 56.912000 -9.000000 -1.000000 6.000000 87.302159 -36.336019 1766.658951 1003.957887 17.577636 0.000000 0.101633
157.000000 62.036000 -8.000000 -1.000000 6.000000 87.653572 -31.270205 1628.630811 992.597675 16.125906 0.000000 0.104933
158.000000 67.455000 -7.000000 -1.000000 6.000000 87.489348 -25.263669 1482.927261 993.183691 14.830890 0.000000 0.122126
159.000000 72.816000 -6.000000 -1.000000 6.000000 86.484318 -18.201068 1328.889778 1010.607396 13.739421 0.000000 0.140080
160.000000 77.445000 -5.000000 -1.000000 6.000000 84.196493 -10.051753 1165.782283 1052.097848 12.919056 0.000000 0.149352
161.000000 80.234000 -4.000000 -1.000000 6.000000 80.108463 -0.946387 992.779389 1128.705220 12.470969 0.000000 0.142714
162.000000 79.713000 -3.000000 -1.000000 6.000000 73.767812 8.770282 808.952425 1258.055315 12.553826 0.000000 0.115534
163.000000 74.514000 -2.000000 -1.000000 6.000000 65.025857 18.577723 613.252761 1469.850185 13.431393 0.000000 0.090715
164.000000 64.259000 -1.000000 -1.000000 6.000000 54.250299 27.926592 404.491792 1817.932745 15.576821 0.000000 0.184210
166.000000 52.162000 -11.000000 0.000000 6.000000 94.949392 -46.440506 2106.821482 805.744327 19.174935 0.000000 0.170216
167.000000 57.080000 -10.000000 0.000000 6.000000 96.626016 -42.699289 1968.151030 770.877729 17.522488 0.000000 0.111585
168.000000 68.885000 -8.000000 0.000000 6.000000 99.737617 -32.666654 1665.084418 721.593717 14.519164 0.000000 0.070680
169.000000 75.668000 -7.000000 0.000000 6.000000 100.782136 -25.961406 1499.046651 713.028880 13.217659 0.000000 0.102928
170.000000 89.217000 -5.000000 0.000000 6.000000 99.814788 -8.352358 1133.018963 752.809563 11.210888 0.000000 0.161884
171.000000 94.055000 -4.000000 0.000000 6.000000 96.495614 2.360502 930.633160 818.351152 10.635014 0.000000 0.169682
172.000000 91.533000 -2.000000 0.000000 6.000000 81.266747 24.708625 479.763635 1122.998304 10.930741 0.000000 0.123160
173.000000 81.568000 -1.000000 0.000000 6.000000 69.578722 34.775373 227.641859 1428.859775 12.268067 0.000000 0.151243
177.000000 55.556000 -11.000000 1.000000 6.000000 103.944212 -49.092725 2217.189348 532.902185 18.000723 0.000000 0.229423
178.000000 60.993000 -10.000000 1.000000 6.000000 106.505038 -45.248072 2060.654884 488.019389 16.395492 0.000000 0.153443
179.000000 67.190000 -9.000000 1.000000 6.000000 109.164822 -40.468487 1893.218863 449.303490 14.882701 0.000000 0.081498
180.000000 74.171000 -8.000000 1.000000 6.000000 111.779014 -34.463279 1713.701372 419.428745 13.481617 0.000000 0.020045
181.000000 81.845000 -7.000000 1.000000 6.000000 114.064488 -26.887746 1520.745847 402.091569 12.217262 0.000000 0.048813
182.000000 89.897000 -6.000000 1.000000 6.000000 115.519673 -17.423970 1312.784733 402.469876 11.122735 0.000000 0.095389
183.000000 97.622000 -5.000000 1.000000 6.000000 115.365098 -5.993351 1087.996804 427.936724 10.242752 0.000000 0.126909
184.000000 103.739000 -4.000000 1.000000 6.000000 112.621832 6.926253 844.253681 489.203552 9.639243 0.000000 0.136632
185.000000 106.383000 -3.000000 1.000000 6.000000 106.457681 20.197589 579.052240 602.219170 9.400509 0.000000 0.118029
186.000000 103.574000 -2.000000 1.000000 6.000000 96.683584 32.496084 289.428327 791.463975 9.656931 0.000000 0.082678
187.000000 94.293000 -1.000000 1.000000 6.000000 83.987100 42.985585 -28.154502 1095.974957 10.609435 0.000000 0.160126
191.000000 70.301000 -9.000000 2.000000 6.000000 119.743977 -43.403757 1992.934592 94.506269 14.221590 0.000000 0.181178
192.000000 85.583000 -7.000000 2.000000 6.000000 126.978666 -28.176201 1551.528465 21.637451 11.681165 0.000000 0.045892
193.000000 101.937000 -5.000000 2.000000 6.000000 130.219647 -2.513824 1022.252201 29.951272 9.806745 0.000000 0.053347
194.000000 108.343000 -4.000000 2.000000 6.000000 127.588449 13.528724 716.033866 88.842418 9.227214 0.000000 0.049672
195.000000 111.380000 -3.000000 2.000000 6.000000 120.801107 29.098987 375.967222 206.687316 8.976372 0.000000 0.009219
196.000000 109.197000 -2.000000 2.000000 6.000000 110.008301 42.286479 -3.888268 411.233790 9.157252 0.000000 0.114915
202.000000 46.720000 -7.000000 -3.000000 7.000000 64.730367 -18.570461 1336.595417 1476.970784 21.422316 0.000000 0.081575
203.000000 47.672000 -6.000000 -3.000000 7.000000 61.548594 -12.924312 1221.984991 1539.357269 20.995647 0.000000 0.054665
204.000000 47.509000 -5.000000 -3.000000 7.000000 57.369686 -6.757232 1102.525573 1634.941914 21.069395 0.000000 0.027030
205.000000 45.768000 -4.000000 -3.000000 7.000000 52.057110 -0.154527 977.902782 1780.170000 21.872626 0.000000 0.075052
206.000000 46.319000 -10.000000 -2.000000 7.000000 79.438475 -33.275437 1681.332878 1181.029648 21.600791 0.000000 0.115674
207.000000 49.443000 -9.000000 -2.000000 7.000000 78.947507 -28.939792 1570.122007 1181.232028 20.236532 0.000000 0.114611
208.000000 52.567000 -8.000000 -2.000000 7.000000 77.985970 -23.992956 1454.038551 1191.711492 19.034654 0.000000 0.117548
209.000000 55.466000 -7.000000 -2.000000 7.000000 76.366449 -18.386562 1332.755109 1216.093751 18.040553 0.000000 0.118785
210.000000 57.783000 -6.000000 -2.000000 7.000000 73.859390 -12.108997 1205.914273 1259.571056 17.318284 0.000000 0.112841
211.000000 59.004000 -5.000000 -2.000000 7.000000 70.213493 -5.209221 1073.125114 1329.809355 16.961250 0.000000 0.094621
212.000000 58.492000 -4.000000 -2.000000 7.000000 65.205175 2.183723 933.959157 1438.561153 17.111180 0.000000 0.061462
213.000000 55.627000 -3.000000 -2.000000 7.000000 58.718694 9.859225 787.945761 1604.718472 17.994028 0.000000 0.052242
214.000000 50.069000 -2.000000 -2.000000 7.000000 50.833627 17.552227 634.566803 1860.565553 19.993452 0.000000 0.148956
215.000000 47.713000 -11.000000 -1.000000 7.000000 88.551564 -38.511956 1831.489875 975.779880 20.965875 0.000000 0.103375
216.000000 51.438000 -10.000000 -1.000000 7.000000 89.126700 -34.488582 1714.400812 960.904537 19.447668 0.000000 0.096376
217.000000 55.439000 -9.000000 -1.000000 7.000000 89.436113 -29.813613 1591.739177 953.208748 18.044285 0.000000 0.106498
218.000000 59.609000 -8.000000 -1.000000 7.000000 89.316658 -24.394204 1463.097452 955.095473 16.782413 0.000000 0.124601
219.000000 63.730000 -7.000000 -1.000000 7.000000 88.540778 -18.159628 1328.027392 969.854427 15.697701 0.000000 0.142121
220.000000 67.421000 -6.000000 -1.000000 7.000000 86.812514 -11.093554 1186.034805 1002.079694 14.838874 0.000000 0.153236
221.000000 70.093000 -5.000000 -1.000000 7.000000 83.788022 -3.274254 1036.573512 1058.342187 14.274324 0.000000 0.153410
222.000000 70.950000 -4.000000 -1.000000 7.000000 79.139178 5.094981 879.038323 1148.317614 14.103155 0.000000 0.138877
223.000000 69.136000 -3.000000 -1.000000 7.000000 72.665206 13.693512 712.756850 1286.773769 14.474598 0.000000 0.110472
224.000000 64.056000 -2.000000 -1.000000 7.000000 64.418207 22.144876 536.979911 1497.288737 15.624293 0.000000 0.102387
225.000000 55.770000 -1.000000 -1.000000 7.000000 54.766494 30.108916 350.870246 1819.752179 17.947414 0.000000 0.197657
226.000000 46.638000 -13.000000 1.000000 7.000000 102.334908 -49.170323 2220.594004 581.023585 21.443367 0.000000 0.228162
227.000000 50.476000 -12.000000 1.000000 7.000000 104.399027 -46.028810 2090.657451 543.005930 19.812376 0.000000 0.164010
228.000000 54.776000 -11.000000 1.000000 7.000000 106.541317 -42.267816 1953.247875 509.035920 18.256481 0.000000 0.102664
229.000000 59.563000 -10.000000 1.000000 7.000000 108.692557 -37.728208 1807.701498 480.588588 16.788731 0.000000 0.046991
230.000000 64.826000 -9.000000 1.000000 7.000000 110.726722 -32.218859 1653.273526 459.601734 15.425387 0.000000 0.026423
231.000000 70.484000 -8.000000 1.000000 7.000000 112.429783 -25.532923 1489.125411 448.644295 14.186971 0.000000 0.065524
232.000000 76.333000 -7.000000 1.000000 7.000000 113.463687 -17.497837 1314.309611 451.159035 13.099762 0.000000 0.103573
233.000000 81.977000 -6.000000 1.000000 7.000000 113.344882 -8.077663 1127.751290 471.819679 12.197961 0.000000 0.131310
234.000000 86.752000 -5.000000 1.000000 7.000000 111.480072 2.488405 928.226200 517.069033 11.526928 0.000000 0.144503
235.000000 89.706000 -4.000000 1.000000 7.000000 107.306035 13.614243 714.333780 595.952314 11.148135 0.000000 0.138935
236.000000 89.724000 -3.000000 1.000000 7.000000 100.515455 24.501772 484.464235 721.449472 11.147009 0.000000 0.112921
237.000000 85.893000 -2.000000 1.000000 7.000000 91.242733 34.446654 236.757948 912.687178 11.645873 0.000000 0.092604
238.000000 78.001000 -1.000000 1.000000 7.000000 80.074885 43.064974 -30.944945 1198.781018 12.826265 0.000000 0.177810
242.000000 52.649000 -12.000000 2.000000 7.000000 112.462171 -48.629696 2197.092509 267.724335 18.991877 0.000000 0.249172
243.000000 57.174000 -11.000000 2.000000 7.000000 115.304469 -44.755254 2042.138273 224.411100 17.488146 0.000000 0.179421
244.000000 62.207000 -10.000000 2.000000 7.000000 118.241974 -39.951063 1876.552740 186.858788 16.072592 0.000000 0.113821
245.000000 67.735000 -9.000000 2.000000 7.000000 121.139064 -33.935310 1699.202935 157.236898 14.760382 0.000000 0.055045
246.000000 73.672000 -8.000000 2.000000 7.000000 123.744372 -26.379147 1508.788966 138.426981 13.570376 0.000000 0.019894
247.000000 79.811000 -7.000000 2.000000 7.000000 125.633695 -16.988117 1303.812111 134.290732 12.526318 0.000000 0.048200
248.000000 85.751000 -6.000000 2.000000 7.000000 126.175524 -5.705631 1082.535285 150.059038 11.658531 0.000000 0.074274
249.000000 90.834000 -5.000000 2.000000 7.000000 124.601347 6.995489 842.933696 192.907972 11.006361 0.000000 0.081664
250.000000 94.128000 -4.000000 2.000000 7.000000 120.253143 20.029525 582.632704 272.831251 10.621808 0.000000 0.062662
251.000000 94.554000 -3.000000 2.000000 7.000000 112.903151 32.138683 298.828851 403.996990 10.575053 0.000000 0.018209
252.000000 91.220000 -2.000000 2.000000 7.000000 102.886752 42.516476 -11.811510 606.923134 10.963168 0.000000 0.107561
253.000000 83.882000 -1.000000 2.000000 7.000000 90.968677 50.982516 -353.283774 912.093641 11.924357 0.000000 0.288619
260.000000 75.235000 -8.000000 3.000000 7.000000 134.609527 -27.552010 1536.525677 -256.534155 13.286496 0.000000 0.097466
261.000000 81.270000 -7.000000 3.000000 7.000000 137.260471 -16.254579 1288.804495 -272.252309 12.299499 0.000000 0.047344
262.000000 87.049000 -6.000000 3.000000 7.000000 138.244102 -2.231857 1016.946390 -265.551289 11.482793 0.000000 0.010371
263.000000 91.947000 -5.000000 3.000000 7.000000 136.562988 13.467864 717.242994 -227.819276 10.871329 0.000000 0.027797
264.000000 95.110000 -4.000000 3.000000 7.000000 131.556324 28.722965 385.185272 -146.985252 10.510325 0.000000 0.080013
265.000000 95.583000 -3.000000 3.000000 7.000000 123.288919 41.724375 15.235098 -5.861960 10.459336 0.000000 0.178436
272.000000 47.956000 -9.000000 -2.000000 8.000000 80.648768 -23.405471 1440.876149 1134.129629 20.863805 0.000000 0.122044
273.000000 52.485000 -7.000000 -2.000000 8.000000 77.396879 -12.721316 1217.974182 1187.697594 19.065025 0.000000 0.126661
274.000000 54.250000 -5.000000 -2.000000 8.000000 70.655450 -0.052268 975.981853 1318.852798 18.447298 0.000000 0.097817
275.000000 50.190000 -3.000000 -2.000000 8.000000 59.322525 13.714610 712.336961 1598.222889 19.942993 0.000000 0.069351
276.000000 46.853000 -11.000000 -1.000000 8.000000 90.542014 -32.969355 1673.135524 928.863609 21.350271 0.000000 0.095505
277.000000 50.052000 -10.000000 -1.000000 8.000000 90.808088 -28.639301 1562.772779 923.702931 19.985844 0.000000 0.108760
278.000000 53.351000 -9.000000 -1.000000 8.000000 90.711980 -23.707135 1447.620022 926.392131 18.750298 0.000000 0.126507
279.000000 56.609000 -8.000000 -1.000000 8.000000 90.088498 -18.127473 1327.358487 939.250748 17.671698 0.000000 0.143129
280.000000 59.595000 -7.000000 -1.000000 8.000000 88.729989 -11.891320 1201.640484 965.384196 16.786892 0.000000 0.154811
281.000000 61.967000 -6.000000 -1.000000 8.000000 86.397544 -5.048731 1070.086037 1009.024937 16.145244 0.000000 0.158522
282.000000 63.268000 -5.000000 -1.000000 8.000000 82.852880 2.273027 932.279056 1076.064774 15.814438 0.000000 0.151585
283.000000 62.973000 -4.000000 -1.000000 8.000000 77.914424 9.868672 787.762932 1174.915317 15.889851 0.000000 0.132477
284.000000 60.612000 -3.000000 -1.000000 8.000000 71.527476 17.481125 636.035487 1317.958673 16.510319 0.000000 0.107004
285.000000 55.955000 -2.000000 -1.000000 8.000000 63.820261 24.849949 476.543147 1524.120001 17.886087 0.000000 0.114476
286.000000 49.182000 -1.000000 -1.000000 8.000000 55.110787 31.761343 308.674186 1823.721329 20.351481 0.000000 0.209312
287.000000 50.452000 -11.000000 0.000000 8.000000 99.398427 -34.147274 1705.001853 725.739558 19.824132 0.000000 0.066070
288.000000 58.064000 -9.000000 0.000000 8.000000 100.934189 -24.074209 1455.868398 713.263227 17.225060 0.000000 0.111981
289.000000 65.763000 -7.000000 0.000000 8.000000 100.282298 -10.859780 1181.478167 742.187170 15.209113 0.000000 0.157067
290.000000 71.099000 -5.000000 0.000000 8.000000 95.249942 5.161150 877.785342 841.700960 14.068961 0.000000 0.168299
291.000000 69.805000 -3.000000 0.000000 8.000000 83.818841 22.014535 539.831239 1066.732162 14.332472 0.000000 0.130933
292.000000 58.664000 -1.000000 0.000000 8.000000 66.374250 37.084201 161.471457 1531.156592 17.058395 0.000000 0.183757
293.000000 46.170000 -13.000000 1.000000 8.000000 104.654281 -43.474845 1995.467432 553.164977 21.660217 0.000000 0.118928
294.000000 49.638000 -12.000000 1.000000 8.000000 106.461146 -39.843299 1873.113446 526.804477 20.146293 0.000000 0.069297
295.000000 53.429000 -11.000000 1.000000 8.000000 108.226430 -35.561503 1744.457726 505.325251 18.716289 0.000000 0.031578
296.000000 57.523000 -10.000000 1.000000 8.000000 109.844887 -30.500584 1609.000555 490.173943 17.384091 0.000000 0.042371
297.000000 61.853000 -9.000000 1.000000 8.000000 111.153917 -24.530513 1466.187947 483.208413 16.166825 0.000000 0.077201
298.000000 66.285000 -8.000000 1.000000 8.000000 111.916267 -17.550817 1315.404071 486.836086 15.085866 0.000000 0.109273
299.000000 70.579000 -7.000000 1.000000 8.000000 111.811833 -9.544140 1155.962379 504.209141 14.168238 0.000000 0.133833
300.000000 74.358000 -6.000000 1.000000 8.000000 110.456063 -0.643850 987.095147 539.505175 13.448612 0.000000 0.148043
301.000000 77.092000 -5.000000 1.000000 8.000000 107.463757 8.822859 807.941120 598.339463 12.972224 0.000000 0.149105
302.000000 78.140000 -4.000000 1.000000 8.000000 102.557264 18.372854 617.530818 688.385574 12.799221 0.000000 0.134746
303.000000 76.874000 -3.000000 1.000000 8.000000 95.679103 27.497809 414.768980 820.336457 13.011367 0.000000 0.108016
304.000000 72.899000 -2.000000 1.000000 8.000000 87.047942 35.811855 198.413493 1009.442768 13.722700 0.000000 0.104143
305.000000 66.271000 -1.000000 1.000000 8.000000 77.123991 43.121894 -32.950085 1278.073106 15.097216 0.000000 0.192402
308.000000 48.048000 -13.000000 2.000000 8.000000 112.125941 -45.620951 2074.879809 315.314751 20.810660 0.000000 0.180544
309.000000 55.690000 -11.000000 2.000000 8.000000 116.906876 -37.288698 1794.581054 254.470981 17.954004 0.000000 0.068666
310.000000 64.564000 -9.000000 2.000000 8.000000 121.209189 -25.112995 1479.470786 220.864500 15.485518 0.000000 0.027871
311.000000 73.796000 -7.000000 2.000000 8.000000 123.072208 -7.810480 1122.634548 233.553298 13.548006 0.000000 0.088029
312.000000 80.866000 -5.000000 2.000000 8.000000 119.082798 13.570835 715.196864 325.171895 12.364116 0.000000 0.094824
313.000000 81.295000 -3.000000 2.000000 8.000000 106.565268 34.126310 245.572974 554.256959 12.301199 0.000000 0.039517
314.000000 71.391000 -1.000000 2.000000 8.000000 86.857099 49.867064 -301.650355 1032.687371 14.011678 0.000000 0.270824
319.000000 57.191000 -11.000000 3.000000 8.000000 125.323837 -39.441176 1860.374215 -46.639219 17.480482 0.000000 0.156090
320.000000 61.552000 -10.000000 3.000000 8.000000 128.279283 -33.416997 1685.143517 -76.599202 16.241354 0.000000 0.102480
321.000000 66.146000 -9.000000 3.000000 8.000000 130.951866 -25.882200 1497.207271 -97.155906 15.112826 0.000000 0.058340
322.000000 70.831000 -8.000000 3.000000 8.000000 132.977674 -16.564518 1295.131625 -105.298972 14.112846 0.000000 0.031604
323.000000 75.367000 -7.000000 3.000000 8.000000 133.836061 -5.427371 1077.258536 -97.084066 13.263466 0.000000 0.030588
324.000000 79.386000 -6.000000 3.000000 8.000000 132.914066 7.062268 841.660183 -67.296689 12.592093 0.000000 0.032793
325.000000 82.391000 -5.000000 3.000000 8.000000 129.696047 19.867289 586.081762 -8.971405 12.133211 0.000000 0.025207
326.000000 83.795000 -4.000000 3.000000 8.000000 123.986722 31.792316 307.869095 87.308141 11.930823 0.000000 0.051055
327.000000 83.030000 -3.000000 3.000000 8.000000 115.984298 42.059454 3.876109 234.449173 12.041989 0.000000 0.136733
328.000000 79.731000 -2.000000 3.000000 8.000000 106.174940 50.478566 -329.654650 450.430799 12.542044 0.000000 0.281635
336.000000 46.073000 -9.000000 -2.000000 9.000000 81.724423 -18.291858 1330.780640 1105.877050 21.716233 0.000000 0.132318
337.000000 47.906000 -8.000000 -2.000000 9.000000 80.129855 -13.216284 1227.765293 1133.360427 20.886556 0.000000 0.135133
338.000000 49.304000 -7.000000 -2.000000 9.000000 77.845110 -7.716954 1120.845011 1174.934839 20.295383 0.000000 0.131672
339.000000 50.022000 -6.000000 -2.000000 9.000000 74.734570 -1.851562 1009.793473 1234.896373 20.005094 0.000000 0.119905
340.000000 49.785000 -5.000000 -2.000000 9.000000 70.687416 4.284464 894.366521 1319.235291 20.101909 0.000000 0.098879
341.000000 48.330000 -4.000000 -2.000000 9.000000 65.648110 10.562790 774.300373 1436.536506 20.708459 0.000000 0.074520
343.000000 45.587000 -11.000000 -1.000000 9.000000 91.894697 -27.673218 1539.425516 900.796518 21.943215 0.000000 0.111067
344.000000 48.258000 -10.000000 -1.000000 9.000000 91.811520 -23.150666 1435.203742 903.978266 20.729034 0.000000 0.127988
345.000000 50.894000 -9.000000 -1.000000 9.000000 91.295074 -18.101795 1326.824518 915.401046 19.655778 0.000000 0.143599
346.000000 53.348000 -8.000000 -1.000000 9.000000 90.194159 -12.521579 1214.034020 937.263866 18.752313 0.000000 0.155275
347.000000 55.407000 -7.000000 -1.000000 9.000000 88.336514 -6.443715 1096.557328 972.455888 18.055963 0.000000 0.160892
348.000000 56.795000 -6.000000 -1.000000 9.000000 85.546122 0.048113 974.096195 1024.834520 17.615860 0.000000 0.158529
349.000000 57.181000 -5.000000 -1.000000 9.000000 81.673345 6.817486 846.326519 1099.647510 17.498008 0.000000 0.146651
350.000000 56.237000 -4.000000 -1.000000 9.000000 76.634717 13.686546 712.895471 1204.193868 17.793208 0.000000 0.125730
351.000000 53.716000 -3.000000 -1.000000 9.000000 70.451462 20.461309 573.418252 1348.897069 18.629912 0.000000 0.106057
352.000000 49.556000 -2.000000 -1.000000 9.000000 63.270216 26.963063 427.474379 1549.124571 20.195995 0.000000 0.126411
353.000000 48.404000 -12.000000 1.000000 9.000000 107.788286 -33.809999 1695.788248 525.399060 20.659627 0.000000 0.033135
354.000000 51.670000 -11.000000 1.000000 9.000000 109.100475 -29.145106 1575.168010 514.259718 19.353541 0.000000 0.055361
355.000000 55.084000 -10.000000 1.000000 9.000000 110.131774 -23.759271 1448.788711 509.919634 18.153830 0.000000 0.085768
356.000000 58.554000 -9.000000 1.000000 9.000000 110.709894 -17.590672 1316.227812 514.129342 17.078221 0.000000 0.113432
357.000000 61.925000 -8.000000 1.000000 9.000000 110.612194 -10.630723 1177.020401 529.116797 16.148613 0.000000 0.135377
358.000000 64.969000 -7.000000 1.000000 9.000000 109.575996 -2.960052 1030.653745 557.745517 15.392379 0.000000 0.149601
359.000000 67.371000 -6.000000 1.000000 9.000000 107.330680 5.225794 876.560984 603.737489 14.844191 0.000000 0.154162
360.000000 68.743000 -5.000000 1.000000 9.000000 103.652937 13.625305 714.113790 671.993529 14.548627 0.000000 0.147244
361.000000 68.676000 -4.000000 1.000000 9.000000 98.431756 21.887106 542.613803 769.063971 14.563979 0.000000 0.128418
362.000000 66.830000 -3.000000 1.000000 9.000000 91.717103 29.692367 361.282597 903.857918 14.967969 0.000000 0.105304
363.000000 63.052000 -2.000000 1.000000 9.000000 83.729013 36.819762 169.249869 1088.743567 15.866578 0.000000 0.116147
364.000000 57.476000 -1.000000 1.000000 9.000000 74.821682 43.164702 -34.460536 1341.314345 17.408173 0.000000 0.204632
366.000000 47.122000 -13.000000 2.000000 9.000000 113.747156 -39.469404 1861.263674 327.607444 21.219543 0.000000 0.082753
367.000000 50.351000 -12.000000 2.000000 9.000000 115.732140 -35.181585 1733.724153 306.336926 19.858138 0.000000 0.036765
368.000000 53.793000 -11.000000 2.000000 9.000000 117.589263 -30.124398 1599.518444 290.761033 18.586947 0.000000 0.005835
369.000000 57.398000 -10.000000 2.000000 9.000000 119.173497 -24.173601 1458.109883 282.377308 17.419383 0.000000 0.042918
370.000000 61.070000 -9.000000 2.000000 9.000000 120.278106 -17.235644 1308.902613 283.071171 16.371657 0.000000 0.074108
371.000000 64.657000 -8.000000 2.000000 9.000000 120.630000 -9.299131 1151.233188 295.233913 15.463544 0.000000 0.097542
372.000000 67.926000 -7.000000 2.000000 9.000000 119.906239 -0.498299 984.360713 321.923979 14.719428 0.000000 0.111238
373.000000 70.564000 -6.000000 2.000000 9.000000 117.783913 8.848116 807.455203 367.090772 14.169718 0.000000 0.112840
374.000000 72.182000 -5.000000 2.000000 9.000000 114.019444 18.274368 619.583775 435.890414 13.852839 0.000000 0.099905
375.000000 72.369000 -4.000000 2.000000 9.000000 108.526818 27.291126 419.694192 535.139701 13.818055 0.000000 0.072405
376.000000 70.781000 -3.000000 2.000000 9.000000 101.415234 35.524394 206.595147 673.982803 14.129585 0.000000 0.057206
377.000000 67.253000 -2.000000 2.000000 9.000000 92.970798 42.783031 -21.067502 864.894566 14.872739 0.000000 0.126580
378.000000 61.891000 -1.000000 2.000000 9.000000 83.597504 49.039026 -264.839532 1125.233369 16.163355 0.000000 0.263449
381.000000 48.431000 -13.000000 3.000000 9.000000 120.992302 -41.419352 1924.527325 78.862803 20.643570 0.000000 0.155110
382.000000 55.238000 -11.000000 3.000000 9.000000 125.872675 -31.345304 1630.563374 29.663233 18.098339 0.000000 0.063381
383.000000 58.901000 -10.000000 3.000000 9.000000 127.989139 -24.701411 1470.072170 15.775231 16.972396 0.000000 0.033312
384.000000 66.249000 -8.000000 3.000000 9.000000 130.305957 -7.550517 1117.662342 20.058570 15.089633 0.000000 0.047886
385.000000 69.552000 -7.000000 3.000000 9.000000 129.766523 2.732937 923.623133 44.310432 14.373032 0.000000 0.055914
386.000000 73.909000 -5.000000 3.000000 9.000000 123.539482 24.105609 493.423859 159.388219 13.526825 0.000000 0.024521
387.000000 74.207000 -4.000000 3.000000 9.000000 117.609568 33.814046 254.101609 263.497166 13.473673 0.000000 0.030568
388.000000 69.525000 -2.000000 3.000000 9.000000 101.100142 49.446950 -282.818583 616.209235 14.384276 0.000000 0.243878
394.000000 59.613000 -10.000000 4.000000 9.000000 136.485420 -25.396580 1485.983377 -313.869102 16.767816 0.000000 0.094703
395.000000 63.245000 -9.000000 4.000000 9.000000 138.509872 -16.152707 1286.729236 -325.967069 15.804666 0.000000 0.053335
396.000000 66.755000 -8.000000 4.000000 9.000000 139.501388 -5.158123 1072.157338 -324.364742 14.973361 0.000000 0.017604
397.000000 69.927000 -7.000000 4.000000 9.000000 138.961485 7.126719 840.430733 -305.082308 14.294148 0.000000 0.015593
398.000000 72.477000 -6.000000 4.000000 9.000000 136.480636 19.710585 589.406520 -262.951732 13.791650 0.000000 0.053704
399.000000 74.068000 -5.000000 4.000000 9.000000 131.903136 31.456504 316.569382 -191.202303 13.496103 0.000000 0.108240
400.000000 74.355000 -4.000000 4.000000 9.000000 125.368355 41.614114 18.947002 -80.873911 13.445060 0.000000 0.192506
411.000000 46.131000 -7.000000 -2.000000 10.000000 77.885577 -3.327998 1037.586441 1172.411157 21.691372 0.000000 0.133694
412.000000 45.726000 -5.000000 -2.000000 10.000000 70.473320 7.942838 824.831549 1326.397255 21.886313 0.000000 0.098706
413.000000 46.212000 -10.000000 -1.000000 10.000000 92.261902 -18.080817 1326.388396 896.280084 21.646713 0.000000 0.143776
414.000000 48.259000 -9.000000 -1.000000 10.000000 91.348012 -13.031963 1224.114612 915.003530 20.729227 0.000000 0.155183
415.000000 50.040000 -8.000000 -1.000000 10.000000 89.830145 -7.567948 1117.995543 944.218758 19.992098 0.000000 0.161831
416.000000 51.377000 -7.000000 -1.000000 10.000000 87.575596 -1.746086 1007.810171 986.590495 19.472598 0.000000 0.162305
417.000000 52.058000 -6.000000 -1.000000 10.000000 84.464217 4.339848 893.320211 1045.613768 19.219031 0.000000 0.155352
418.000000 51.857000 -5.000000 -1.000000 10.000000 80.411722 10.564436 774.268387 1125.950098 19.295141 0.000000 0.140405
419.000000 50.572000 -4.000000 -1.000000 10.000000 75.394681 16.783952 650.376504 1233.939461 19.786807 0.000000 0.119869
420.000000 48.083000 -3.000000 -1.000000 10.000000 69.469473 22.855363 521.343280 1378.405115 20.812577 0.000000 0.107625
421.000000 47.084000 -11.000000 0.000000 10.000000 100.997850 -22.899188 1429.626537 713.936851 21.241950 0.000000 0.117333
422.000000 52.034000 -9.000000 0.000000 10.000000 100.503735 -12.325028 1210.162654 736.740395 19.221778 0.000000 0.153716
423.000000 54.223000 -8.000000 0.000000 10.000000 99.345294 -6.291005 1093.652970 762.803208 18.446507 0.000000 0.164987
424.000000 55.981000 -7.000000 0.000000 10.000000 97.364915 0.146668 972.244847 801.883447 17.867680 0.000000 0.169762
425.000000 57.078000 -6.000000 0.000000 10.000000 94.414782 6.854421 845.622731 857.306151 17.525406 0.000000 0.166757
426.000000 56.287000 -4.000000 0.000000 10.000000 85.266614 20.371796 575.332718 1036.064899 17.774149 0.000000 0.136118
427.000000 54.011000 -3.000000 0.000000 10.000000 79.106694 26.818755 430.882366 1173.095866 18.524794 0.000000 0.118969
428.000000 50.413000 -2.000000 0.000000 10.000000 72.075782 32.865027 279.645549 1355.471724 19.849131 0.000000 0.133301
429.000000 45.644000 -1.000000 0.000000 10.000000 64.415200 38.426381 121.132505 1598.796699 21.924715 0.000000 0.208457
430.000000 46.881000 -12.000000 1.000000 10.000000 108.466264 -28.049634 1548.472329 533.745644 21.330983 0.000000 0.065537
431.000000 49.638000 -11.000000 1.000000 10.000000 109.295171 -23.147705 1435.137970 531.197603 20.146064 0.000000 0.092294
432.000000 52.425000 -10.000000 1.000000 10.000000 109.743211 -17.621742 1316.870224 535.696301 19.075062 0.000000 0.116581
433.000000 55.140000 -9.000000 1.000000 10.000000 109.649388 -11.467549 1193.339804 548.875338 18.136085 0.000000 0.136366
434.000000 57.635000 -8.000000 1.000000 10.000000 108.826639 -4.737009 1064.187448 572.783312 17.351298 0.000000 0.150183
435.000000 59.712000 -7.000000 1.000000 10.000000 107.079287 2.446203 929.020435 610.012898 16.748120 0.000000 0.156628
436.000000 61.128000 -6.000000 1.000000 10.000000 104.233032 9.886980 787.408591 663.879660 16.360881 0.000000 0.154326
437.000000 61.613000 -5.000000 1.000000 10.000000 100.172739 17.343273 638.879721 738.674162 16.233143 0.000000 0.142351
438.000000 60.913000 -4.000000 1.000000 10.000000 94.876825 24.570052 482.914343 840.024600 16.421034 0.000000 0.122116
439.000000 58.851000 -3.000000 1.000000 10.000000 88.435347 31.364598 318.939625 975.430340 16.998124 0.000000 0.105268
440.000000 55.388000 -2.000000 1.000000 10.000000 81.044201 37.593967 146.322348 1155.067528 18.062774 0.000000 0.127905
441.000000 50.663000 -1.000000 1.000000 10.000000 72.976682 43.198067 -35.639263 1393.042458 19.749540 0.000000 0.215037
442.000000 45.910000 -13.000000 2.000000 10.000000 114.700133 -33.476707 1686.754566 347.501526 21.779693 0.000000 0.014512
443.000000 51.627000 -11.000000 2.000000 10.000000 117.505272 -23.449289 1441.853812 330.141607 19.367210 0.000000 0.055468
444.000000 57.470000 -9.000000 2.000000 10.000000 118.663947 -10.406250 1172.658321 342.786499 17.397854 0.000000 0.104403
445.000000 62.419000 -7.000000 2.000000 10.000000 116.536188 5.288965 875.364279 401.232341 16.018945 0.000000 0.123652
446.000000 64.720000 -5.000000 2.000000 10.000000 109.501044 21.762493 545.330060 530.591817 15.451244 0.000000 0.100925
447.000000 62.351000 -3.000000 2.000000 10.000000 97.171294 36.560221 176.832126 772.406228 16.041230 0.000000 0.072333
448.000000 54.473000 -1.000000 2.000000 10.000000 80.955518 48.400241 -237.269706 1199.049360 18.365456 0.000000 0.261106
449.000000 47.165000 -13.000000 3.000000 10.000000 121.870238 -34.806482 1723.224603 126.030738 21.197279 0.000000 0.069748
450.000000 50.038000 -12.000000 3.000000 10.000000 123.834638 -29.753834 1590.248413 109.984737 19.979896 0.000000 0.035377
451.000000 53.016000 -11.000000 3.000000 10.000000 125.546663 -23.822945 1450.217289 100.337279 18.857179 0.000000 0.024360
452.000000 56.032000 -10.000000 3.000000 10.000000 126.824495 -16.926864 1302.554493 98.616721 17.841909 0.000000 0.042806
453.000000 58.983000 -9.000000 3.000000 10.000000 127.433095 -9.059732 1146.618660 106.717438 16.949272 0.000000 0.061573
454.000000 61.721000 -8.000000 3.000000 10.000000 127.099566 -0.356372 981.694489 127.002101 16.197459 0.000000 0.072678
455.000000 64.051000 -7.000000 3.000000 10.000000 125.554015 8.872721 806.981767 162.438090 15.608443 0.000000 0.072950
456.000000 65.736000 -6.000000 3.000000 10.000000 122.590689 18.178382 621.582390 216.781642 15.209025 0.000000 0.059406
457.000000 66.513000 -5.000000 3.000000 10.000000 118.124687 27.089346 424.484918 294.829800 15.032226 0.000000 0.028982
458.000000 66.136000 -4.000000 3.000000 10.000000 112.216009 35.243051 214.546117 402.770297 15.119207 0.000000 0.027613
459.000000 64.426000 -3.000000 3.000000 10.000000 105.054064 42.450456 -9.531232 548.675601 15.521947 0.000000 0.107597
460.000000 61.332000 -2.000000 3.000000 10.000000 96.918215 48.679239 -249.225162 743.213703 16.307037 0.000000 0.224056
463.000000 47.983000 -13.000000 4.000000 10.000000 128.834255 -36.427544 1769.311507 -135.825370 20.833822 0.000000 0.142350
464.000000 53.809000 -11.000000 4.000000 10.000000 133.347360 -24.297967 1460.919515 -173.669159 18.577069 0.000000 0.064879
465.000000 59.696000 -9.000000 4.000000 10.000000 135.854916 -7.297494 1112.828633 -176.957683 16.744679 0.000000 0.022368
466.000000 64.652000 -7.000000 4.000000 10.000000 133.955030 13.487852 716.845951 -126.167106 15.461454 0.000000 0.023688
467.000000 67.066000 -5.000000 4.000000 10.000000 125.806881 33.509578 262.357587 9.780965 14.906449 0.000000 0.082179
468.000000 65.157000 -3.000000 4.000000 10.000000 111.873347 49.034390 -264.636880 281.936309 15.346054 0.000000 0.264641
480.000000 45.585000 -9.000000 -1.000000 11.000000 91.014082 -8.492618 1135.711501 921.737387 21.945449 0.000000 0.161994
481.000000 46.824000 -8.000000 -1.000000 11.000000 89.153008 -3.220911 1035.568239 956.936974 21.365719 0.000000 0.164273
482.000000 47.615000 -7.000000 -1.000000 11.000000 86.601005 2.295065 931.864416 1004.976039 21.011782 0.000000 0.160658
483.000000 47.802000 -6.000000 -1.000000 11.000000 83.282056 7.965021 824.406703 1069.012220 20.930726 0.000000 0.150437
484.000000 47.234000 -5.000000 -1.000000 11.000000 79.156360 13.681920 712.987517 1153.184839 21.183710 0.000000 0.133967
485.000000 45.794000 -4.000000 -1.000000 11.000000 74.234725 19.333349 597.383682 1263.015100 21.851645 0.000000 0.115526
486.000000 47.450000 -11.000000 1.000000 11.000000 108.951344 -17.646642 1317.385243 553.174803 21.075231 0.000000 0.119036
487.000000 49.682000 -10.000000 1.000000 11.000000 108.860319 -12.131592 1206.358300 564.936246 20.128735 0.000000 0.137021
488.000000 51.759000 -9.000000 1.000000 11.000000 108.187281 -6.140905 1090.799911 585.356442 19.321066 0.000000 0.150262
489.000000 53.553000 -8.000000 1.000000 11.000000 106.786901 0.243445 970.426879 616.313145 18.674448 0.000000 0.157711
490.000000 54.903000 -7.000000 1.000000 11.000000 104.523503 6.890670 844.931904 660.151705 18.216116 0.000000 0.158320
491.000000 55.627000 -6.000000 1.000000 11.000000 101.293595 13.631983 713.980968 719.829837 17.979813 0.000000 0.151213
492.000000 55.544000 -5.000000 1.000000 11.000000 97.048809 20.283904 577.210363 799.118279 18.007859 0.000000 0.136334
493.000000 54.501000 -4.000000 1.000000 11.000000 91.812481 26.676927 434.223320 902.884042 18.354057 0.000000 0.116930
494.000000 52.410000 -3.000000 1.000000 11.000000 85.684302 32.679080 284.586162 1037.498463 19.087871 0.000000 0.107633
495.000000 49.284000 -2.000000 1.000000 11.000000 78.831072 38.207101 127.823915 1211.438843 20.300580 0.000000 0.139062
496.000000 46.886000 -12.000000 2.000000 11.000000 116.114481 -22.873950 1429.067961 368.360430 21.325724 0.000000 0.065485
497.000000 49.309000 -11.000000 2.000000 11.000000 116.823190 -17.374922 1311.772891 370.758256 20.278027 0.000000 0.089861
498.000000 51.684000 -10.000000 2.000000 11.000000 117.049970 -11.261263 1189.308204 380.628891 19.346132 0.000000 0.109520
499.000000 53.912000 -9.000000 2.000000 11.000000 116.631524 -4.585605 1061.324434 399.557941 18.546647 0.000000 0.123432
500.000000 55.863000 -8.000000 2.000000 11.000000 115.397395 2.530184 927.439888 429.499218 17.899515 0.000000 0.130473
501.000000 57.373000 -7.000000 2.000000 11.000000 113.193552 9.895853 787.236849 472.878238 17.428899 0.000000 0.129434
502.000000 58.260000 -6.000000 2.000000 11.000000 109.911094 17.276435 640.257218 532.731341 17.164353 0.000000 0.119260
503.000000 58.339000 -5.000000 2.000000 11.000000 105.511661 24.434151 485.997517 612.895307 17.142422 0.000000 0.100113
504.000000 57.450000 -4.000000 2.000000 11.000000 100.040930 31.171555 323.903124 718.269945 17.408834 0.000000 0.078694
505.000000 55.502000 -3.000000 2.000000 11.000000 93.626179 37.357957 153.361614 855.188141 18.021576 0.000000 0.085613
506.000000 52.497000 -2.000000 2.000000 11.000000 86.459764 42.932852 -26.304976 1031.947824 19.055307 0.000000 0.149867
507.000000 48.548000 -1.000000 2.000000 11.000000 78.773750 47.892598 -215.849157 1259.594066 20.607800 0.000000 0.261266
508.000000 45.692000 -13.000000 3.000000 11.000000 122.092235 -28.494751 1559.252440 173.011645 21.880742 0.000000 0.017184
509.000000 48.155000 -12.000000 3.000000 11.000000 123.501641 -23.144165 1435.059301 166.216530 20.761541 0.000000 0.030249
510.000000 50.642000 -11.000000 3.000000 11.000000 124.546383 -17.041919 1304.917414 165.968684 19.741742 0.000000 0.053379
511.000000 53.082000 -10.000000 3.000000 11.000000 125.057514 -10.186230 1168.388881 173.664761 18.834256 0.000000 0.072343
512.000000 55.375000 -9.000000 3.000000 11.000000 124.840777 -2.659364 1024.991744 191.011705 18.054336 0.000000 0.084749
513.000000 57.392000 -8.000000 3.000000 11.000000 123.698218 5.350712 874.194300 220.108066 17.420122 0.000000 0.088892
514.000000 58.974000 -7.000000 3.000000 11.000000 121.461696 13.560188 715.408513 263.550886 16.953368 0.000000 0.082981
515.000000 59.942000 -6.000000 3.000000 11.000000 118.028964 21.640606 547.982352 324.577788 16.680386 0.000000 0.065202
516.000000 60.115000 -5.000000 3.000000 11.000000 113.388283 29.292752 371.190839 407.258242 16.633301 0.000000 0.036102
517.000000 59.341000 -4.000000 3.000000 11.000000 107.622577 36.305452 184.225555 516.754558 16.851760 0.000000 0.038418
518.000000 57.525000 -3.000000 3.000000 11.000000 100.894843 42.574445 -13.817716 659.683519 17.385259 0.000000 0.109083
519.000000 54.667000 -2.000000 3.000000 11.000000 93.423112 48.085847 -223.953617 844.626085 18.296414 0.000000 0.214540
522.000000 46.498000 -13.000000 4.000000 11.000000 128.948922 -29.388797 1581.183425 -57.471947 21.499230 0.000000 0.069475
523.000000 48.965000 -12.000000 4.000000 11.000000 130.703040 -23.478407 1442.503849 -68.428804 20.415771 0.000000 0.043150
524.000000 51.449000 -11.000000 4.000000 11.000000 132.056669 -16.624299 1296.354350 -72.387227 19.429912 0.000000 0.030429
525.000000 53.878000 -10.000000 4.000000 11.000000 132.805675 -8.825759 1142.114677 -67.802192 18.553717 0.000000 0.033132
526.000000 56.155000 -9.000000 4.000000 11.000000 132.717229 -0.217938 979.093954 -52.782351 17.801323 0.000000 0.038617
527.000000 58.155000 -8.000000 4.000000 11.000000 131.564228 8.896699 806.520336 -24.999928 17.189406 0.000000 0.037940
528.000000 59.726000 -7.000000 4.000000 11.000000 129.174153 18.084801 623.528791 18.427155 16.737778 0.000000 0.028580
529.000000 60.699000 -6.000000 4.000000 11.000000 125.471895 26.892301 429.146591 81.091034 16.470161 0.000000 0.024291
530.000000 60.906000 -5.000000 4.000000 11.000000 120.495143 34.967646 222.276025 167.502011 16.415201 0.000000 0.061155
531.000000 60.205000 -4.000000 4.000000 11.000000 114.379333 42.124018 1.673647 283.370014 16.607813 0.000000 0.129607
532.000000 58.509000 -3.000000 4.000000 11.000000 107.326868 48.325159 -234.074728 435.990420 17.091001 0.000000 0.228927
536.000000 49.336000 -12.000000 5.000000 11.000000 137.670464 -23.902461 1452.003289 -351.452967 20.260313 0.000000 0.092364
537.000000 51.756000 -11.000000 5.000000 11.000000 139.300100 -16.085186 1285.354939 -361.295741 19.312569 0.000000 0.057155
538.000000 54.110000 -10.000000 5.000000 11.000000 140.227088 -7.051148 1108.127713 -361.905021 18.472411 0.000000 0.025316
539.000000 56.302000 -9.000000 5.000000 11.000000 140.169158 2.963503 919.281265 -351.123454 17.753042 0.000000 0.006453
540.000000 58.215000 -8.000000 5.000000 11.000000 138.871312 13.448165 717.634214 -326.280892 17.169914 0.000000 0.037412
541.000000 59.708000 -7.000000 5.000000 11.000000 136.177490 23.731256 501.839405 -284.053644 16.741235 0.000000 0.076119
542.000000 60.625000 -6.000000 5.000000 11.000000 132.072718 33.212633 270.353777 -220.278309 16.488608 0.000000 0.128409
554.000000 47.649000 -7.000000 0.000000 12.000000 93.820609 7.986857 823.988461 868.419720 20.993747 0.000000 0.165426
555.000000 47.114000 -5.000000 0.000000 12.000000 86.195696 19.267140 598.779936 1016.814960 21.234504 0.000000 0.139591
556.000000 46.954000 -10.000000 1.000000 12.000000 107.638418 -7.276796 1112.433469 596.006239 21.298867 0.000000 0.150079
557.000000 48.507000 -9.000000 1.000000 12.000000 106.488863 -1.540263 1003.940623 622.299519 20.617078 0.000000 0.158028
558.000000 49.752000 -8.000000 1.000000 12.000000 104.647186 4.447832 891.279777 658.849883 20.102040 0.000000 0.160506
559.000000 50.562000 -7.000000 1.000000 12.000000 102.025007 10.567643 774.206041 707.779930 19.780633 0.000000 0.156776
560.000000 50.809000 -6.000000 1.000000 12.000000 98.567075 16.682479 652.454959 771.734034 19.685846 0.000000 0.146428
561.000000 50.370000 -5.000000 1.000000 12.000000 94.264150 22.656303 525.740511 854.039701 19.858612 0.000000 0.130287
562.000000 49.157000 -4.000000 1.000000 12.000000 89.160143 28.371033 393.752875 958.931525 20.350354 0.000000 0.113355
563.000000 47.132000 -3.000000 1.000000 12.000000 83.351290 33.738489 256.155893 1091.867818 21.226572 0.000000 0.111823
564.000000 46.933000 -11.000000 2.000000 12.000000 115.702714 -11.941201 1202.619231 411.493475 21.305086 0.000000 0.113447
565.000000 50.493000 -9.000000 2.000000 12.000000 114.378455 0.338492 968.641397 453.250673 19.803359 0.000000 0.134936
566.000000 52.813000 -7.000000 2.000000 12.000000 109.999341 13.605455 714.508542 537.965219 18.934732 0.000000 0.131143
567.000000 52.881000 -5.000000 2.000000 12.000000 101.998719 26.537519 437.499198 685.313067 18.912771 0.000000 0.098753
568.000000 49.867000 -3.000000 2.000000 12.000000 90.627498 37.991004 134.378847 926.042709 20.059275 0.000000 0.097494
569.000000 48.208000 -11.000000 3.000000 12.000000 123.064360 -11.058587 1185.352774 227.069632 20.738892 0.000000 0.080893
570.000000 50.150000 -10.000000 3.000000 12.000000 122.916679 -4.437063 1058.516717 242.175045 19.936069 0.000000 0.093690
571.000000 53.341000 -8.000000 3.000000 12.000000 120.306162 9.904546 787.068578 302.391082 18.743987 0.000000 0.098728
572.000000 54.358000 -7.000000 3.000000 12.000000 117.611548 17.210933 641.606200 351.661256 18.394182 0.000000 0.088562
573.000000 54.593000 -5.000000 3.000000 12.000000 109.243427 30.981944 328.758714 502.755156 18.316894 0.000000 0.043924
574.000000 53.598000 -4.000000 3.000000 12.000000 103.679498 37.125766 160.243901 612.440915 18.658697 0.000000 0.051846
575.000000 49.173000 -2.000000 3.000000 12.000000 90.464553 47.613547 -204.252467 928.054722 20.341523 0.000000 0.210900
576.000000 45.855000 -1.000000 3.000000 12.000000 83.175994 51.983330 -401.767988 1150.124292 21.816099 0.000000 0.339556
577.000000 49.022000 -11.000000 4.000000 12.000000 130.227174 -9.970540 1164.209160 16.624553 20.392384 0.000000 0.044348
578.000000 52.720000 -9.000000 4.000000 12.000000 129.387989 5.411084 873.050162 53.344074 18.961999 0.000000 0.055892
579.000000 55.203000 -7.000000 4.000000 12.000000 124.731745 21.521356 550.572914 138.936789 18.110281 0.000000 0.032728
580.000000 55.518000 -5.000000 4.000000 12.000000 115.853728 36.055336 191.437124 295.879867 18.009617 0.000000 0.047898
581.000000 52.889000 -3.000000 4.000000 12.000000 103.426222 47.775911 -210.984811 558.681818 18.908418 0.000000 0.206835
583.000000 47.379000 -12.000000 5.000000 12.000000 136.317421 -16.327782 1290.297070 -233.325048 21.097662 0.000000 0.043005
584.000000 49.393000 -11.000000 5.000000 12.000000 137.138126 -8.597039 1137.717312 -231.956481 20.237161 0.000000 0.023142
585.000000 51.294000 -10.000000 5.000000 12.000000 137.205756 -0.082870 976.556710 -221.527549 19.487322 0.000000 0.012267
586.000000 52.997000 -9.000000 5.000000 12.000000 136.327361 8.920074 806.070461 -200.156571 18.861259 0.000000 0.017777
587.000000 54.403000 -8.000000 5.000000 12.000000 134.357765 17.993538 625.424998 -165.552089 18.374241 0.000000 0.034134
588.000000 55.400000 -7.000000 5.000000 12.000000 131.233009 26.699831 433.684358 -114.908943 18.044157 0.000000 0.061563
589.000000 55.873000 -6.000000 5.000000 12.000000 126.980343 34.698005 229.793963 -44.773221 17.892103 0.000000 0.104722
590.000000 55.718000 -5.000000 5.000000 12.000000 121.703626 41.803569 12.561213 49.134906 17.943132 0.000000 0.168279
602.000000 46.259000 -8.000000 1.000000 13.000000 102.505864 8.008354 823.576669 699.924710 21.620773 0.000000 0.160231
603.000000 46.676000 -7.000000 1.000000 13.000000 99.645408 13.636452 713.892072 752.775121 21.428748 0.000000 0.153331
604.000000 46.596000 -6.000000 1.000000 13.000000 96.067918 19.201938 600.153859 819.846474 21.466686 0.000000 0.140968
605.000000 45.941000 -5.000000 1.000000 13.000000 91.786027 24.604441 482.133084 904.087297 21.774056 0.000000 0.124849
606.000000 46.028000 -10.000000 2.000000 13.000000 113.472986 -1.439834 1002.052807 473.469582 21.724960 0.000000 0.137935
607.000000 47.268000 -9.000000 2.000000 13.000000 112.041439 4.500477 890.284793 503.895400 21.155568 0.000000 0.141354
608.000000 48.199000 -8.000000 2.000000 13.000000 109.905198 10.569206 774.175654 544.550342 20.747548 0.000000 0.139010
609.000000 48.725000 -7.000000 2.000000 13.000000 107.008951 16.633008 653.467465 597.382238 20.524338 0.000000 0.130387
610.000000 48.752000 -6.000000 2.000000 13.000000 103.333499 22.559174 527.881453 664.774571 20.514144 0.000000 0.115666
611.000000 48.198000 -5.000000 2.000000 13.000000 98.901449 28.232250 397.115853 749.667496 20.751222 0.000000 0.097582
612.000000 47.010000 -4.000000 2.000000 13.000000 93.777315 33.565577 260.843480 855.720570 21.277587 0.000000 0.087357
613.000000 45.785000 -11.000000 3.000000 13.000000 121.264843 -5.848280 1085.242347 284.087957 21.837263 0.000000 0.100492
614.000000 47.305000 -10.000000 3.000000 13.000000 120.575006 0.431853 966.887538 305.096836 21.135852 0.000000 0.108053
615.000000 48.607000 -9.000000 3.000000 13.000000 119.194112 6.961186 843.587722 335.158625 20.569992 0.000000 0.109614
616.000000 49.603000 -8.000000 3.000000 13.000000 117.036127 13.579411 715.026373 375.949844 20.157494 0.000000 0.104295
617.000000 50.198000 -7.000000 3.000000 13.000000 114.049368 20.112809 580.859362 429.498590 19.919431 0.000000 0.091387
618.000000 50.298000 -6.000000 3.000000 13.000000 110.225971 26.400470 440.711885 498.274103 19.880922 0.000000 0.071350
619.000000 49.822000 -5.000000 3.000000 13.000000 105.604758 32.315973 294.174957 585.304181 20.072152 0.000000 0.051735
620.000000 48.716000 -4.000000 3.000000 13.000000 100.267478 37.778029 140.801435 694.330909 20.529719 0.000000 0.064631
621.000000 46.962000 -3.000000 3.000000 13.000000 94.330112 42.749493 -19.898544 830.019909 21.298427 0.000000 0.122550
622.000000 46.598000 -11.000000 4.000000 13.000000 128.057674 -4.291305 1055.762713 95.991696 21.453897 0.000000 0.064974
623.000000 48.134000 -10.000000 4.000000 13.000000 127.438169 2.693185 924.371551 116.063022 20.769607 0.000000 0.069954
624.000000 49.453000 -9.000000 4.000000 13.000000 126.047929 9.913065 786.903676 145.777415 20.215858 0.000000 0.067926
625.000000 50.470000 -8.000000 4.000000 13.000000 123.801227 17.146728 642.927543 186.934350 19.808960 0.000000 0.057435
626.000000 51.094000 -7.000000 4.000000 13.000000 120.657976 24.170072 491.969759 241.706289 19.568060 0.000000 0.036872
627.000000 51.233000 -6.000000 4.000000 13.000000 116.630377 30.795678 333.509877 312.731226 19.515783 0.000000 0.006187
628.000000 50.812000 -5.000000 4.000000 13.000000 111.780366 36.897310 166.974401 403.232919 19.679064 0.000000 0.043868
629.000000 49.776000 -4.000000 4.000000 13.000000 106.210379 42.413885 -8.270145 517.178716 20.090218 0.000000 0.108389
630.000000 48.108000 -3.000000 4.000000 13.000000 100.051211 47.338076 -192.925273 659.489149 20.788364 0.000000 0.193927
631.000000 45.836000 -2.000000 4.000000 13.000000 93.449678 51.698875 -387.769915 836.319800 21.821307 0.000000 0.304750
632.000000 47.021000 -11.000000 5.000000 13.000000 134.607106 -2.371353 1019.571032 -121.543558 21.258995 0.000000 0.027227
633.000000 48.532000 -10.000000 5.000000 13.000000 133.996018 5.470125 871.931019 -102.974965 20.597276 0.000000 0.028133
634.000000 49.827000 -9.000000 5.000000 13.000000 132.520780 13.497956 716.645205 -73.996324 20.061954 0.000000 0.026345
635.000000 50.827000 -8.000000 5.000000 13.000000 130.104478 21.404661 553.103874 -32.622197 19.668082 0.000000 0.027452
636.000000 51.443000 -7.000000 5.000000 13.000000 126.730206 28.909095 380.630714 23.545993 19.433207 0.000000 0.045675
637.000000 51.593000 -6.000000 5.000000 13.000000 122.440773 35.809756 198.473462 97.421469 19.377899 0.000000 0.084540
638.000000 51.204000 -5.000000 5.000000 13.000000 117.327416 42.003156 5.792939 192.563303 19.526437 0.000000 0.143327
639.000000 50.227000 -4.000000 5.000000 13.000000 111.514356 47.470360 -198.349876 313.347617 19.907686 0.000000 0.224239
642.000000 45.483000 -12.000000 6.000000 13.000000 140.696206 -8.373403 1133.422823 -387.963728 21.975825 0.000000 0.031385
643.000000 47.081000 -11.000000 6.000000 13.000000 140.863988 0.048950 974.080474 -381.680839 21.229893 0.000000 0.006905
644.000000 48.534000 -10.000000 6.000000 13.000000 140.182691 8.942867 805.631712 -365.902164 20.594716 0.000000 0.025504
645.000000 49.773000 -9.000000 6.000000 13.000000 138.529219 17.904507 627.272929 -338.758612 20.082439 0.000000 0.056407
646.000000 50.722000 -8.000000 6.000000 13.000000 135.849797 26.511782 438.103094 -297.993332 19.707046 0.000000 0.094388
647.000000 51.303000 -7.000000 6.000000 13.000000 132.166547 34.433960 237.108533 -240.868341 19.484726 0.000000 0.143441
657.000000 45.534000 -9.000000 3.000000 14.000000 116.394289 10.570744 774.145774 397.635234 21.959080 0.000000 0.115253
658.000000 46.184000 -8.000000 3.000000 14.000000 113.944323 16.584353 654.462763 442.310382 21.650779 0.000000 0.107046
659.000000 46.468000 -7.000000 3.000000 14.000000 110.781867 22.463596 529.985280 499.006521 21.519414 0.000000 0.092554
660.000000 46.320000 -6.000000 3.000000 14.000000 106.917741 28.095569 400.419337 569.903997 21.589442 0.000000 0.073401
661.000000 45.687000 -5.000000 3.000000 14.000000 102.396393 33.395112 265.446412 657.649813 21.890048 0.000000 0.059333
662.000000 46.386000 -9.000000 4.000000 14.000000 122.801349 13.553838 715.534728 227.468040 21.553509 0.000000 0.075964
663.000000 47.383000 -7.000000 4.000000 14.000000 116.945076 26.265722 443.863190 330.908511 21.101802 0.000000 0.041093
664.000000 46.696000 -5.000000 4.000000 14.000000 108.187717 37.568113 147.095646 494.874691 21.414597 0.000000 0.047462
665.000000 45.870000 -10.000000 5.000000 14.000000 130.758278 9.921414 786.742041 -0.749320 21.793438 0.000000 0.040697
666.000000 46.832000 -9.000000 5.000000 14.000000 128.857515 17.083783 644.222089 33.829078 21.346211 0.000000 0.032369
667.000000 47.509000 -8.000000 5.000000 14.000000 126.150499 24.041751 494.862860 80.006554 21.042479 0.000000 0.020940
668.000000 47.837000 -7.000000 5.000000 14.000000 122.644091 30.612674 338.159945 139.857883 20.899420 0.000000 0.030822
669.000000 47.753000 -6.000000 5.000000 14.000000 118.385392 36.672507 173.558081 215.874858 20.937073 0.000000 0.069221
670.000000 47.211000 -5.000000 5.000000 14.000000 113.453735 42.159991 0.444581 311.066434 21.178951 0.000000 0.125899
671.000000 46.182000 -4.000000 5.000000 14.000000 107.950958 47.066127 -181.858288 429.087747 21.652831 0.000000 0.201430
672.000000 46.902000 -9.000000 6.000000 14.000000 134.489316 21.290440 555.577268 -193.719524 21.312386 0.000000 0.049826
673.000000 47.870000 -7.000000 6.000000 14.000000 127.798352 35.568597 205.340878 -85.296553 20.883295 0.000000 0.121762
#UB matrix in q= (UB) B0 G* 
#[[ 0.526334457 -0.635158245 -0.564105152]
# [ 0.836452396  0.268212477  0.478423698]
# [-0.152707002 -0.724434065  0.67308151 ]]
#B0 matrix in q= UB (B0) G*
#[[ 0.19670273 -0.          0.03056101]
# [ 0.          0.19187965 -0.        ]
# [ 0.          0.          0.18806537]]
#UBB0 matrix in q= (UB B0) G* i.e. recip. basis vectors are columns in LT frame: astar = UBB0[:,0], bstar = UBB0[:,1], cstar = UBB0[:,2]. (abcstar as columns on xyzlab1, xlab1 = ui, ui = unit vector along incident beam)
#[[ 0.10353143 -0.12187394 -0.09000333]
# [ 0.16453247  0.05146452  0.11553776]
# [-0.03003788 -0.13900416  0.12191644]]
#Euler angles phi theta psi (deg)
#[348.094  47.748  49.751]
#deviatoric strain in direct crystal frame (10-3 unit)
#[[ 2.6  -0.41 -0.42]
# [-0.41  2.44  0.82]
# [-0.42  0.82 -5.04]]
#deviatoric strain in sample2 frame (10-3 unit)
#[[ 2.69 -0.1  -0.98]
# [-0.1   0.54 -3.18]
# [-0.97 -3.18 -3.23]]
#new lattice parameters
#[ 5.1505     5.2107703  5.3165222 89.9433859 99.256542  90.0468477]
#CCDLabel
#sCMOS
#DetectorParameters
#[79.0, 975.0, 941.0, 0.0, 0.0]
#pixelsize
#0.0734
#Frame dimensions
#[2018, 2016]
#
