#Strain and Orientation Refinement from experimental file: /home/micha/LaueProjects/DepthEffects/testZrO2_2.cor
#File created at Wed Jun 28 16:32:03 2023 with indexingSpotsSet.py
#Number of indexed spots: 507
#Element
#ZrO2
#grainIndex
#G_0
#Mean Deviation(pixel): 0.089
##spot_index intensity h k l 2theta Chi Xexp Yexp Energy GrainIndex PixDev
4.000000 176.699000 1.000000 -1.000000 1.000000 45.340942 -14.686447 1257.088418 2040.483367 5.656485 0.000000 0.161467
10.000000 104.295000 1.000000 -3.000000 2.000000 56.687706 -38.166906 1820.953905 1840.658195 9.585283 0.000000 0.195314
12.000000 148.652000 1.000000 -2.000000 2.000000 66.620621 -26.033285 1500.718008 1458.834155 6.725507 0.000000 0.083113
14.000000 104.758000 2.000000 -1.000000 2.000000 47.512797 1.630100 944.370503 1927.198968 9.540982 0.000000 0.115611
16.000000 105.947000 2.000000 0.000000 2.000000 45.591539 21.230409 556.875655 2072.059694 9.434178 0.000000 0.180052
25.000000 88.000000 1.000000 -4.000000 3.000000 65.762189 -39.859386 1873.626150 1572.249878 11.361498 0.000000 0.161409
26.000000 68.371000 2.000000 -4.000000 3.000000 53.877390 -30.364277 1605.556399 1851.375094 14.620640 0.000000 0.153576
27.000000 50.347000 3.000000 -4.000000 3.000000 42.886123 -23.099497 1434.067237 2200.797635 19.852488 0.000000 0.220516
28.000000 140.966000 0.000000 -3.000000 3.000000 90.283826 -45.603604 2074.213832 933.379159 7.094953 0.000000 0.132423
29.000000 114.249000 1.000000 -3.000000 3.000000 74.637487 -31.417961 1632.436031 1287.505415 8.751831 0.000000 0.091249
30.000000 84.392000 2.000000 -3.000000 3.000000 58.957941 -21.559006 1400.244530 1637.506482 11.845376 0.000000 0.078673
31.000000 188.450000 0.000000 -2.000000 3.000000 107.075366 -33.872880 1697.500500 542.813362 5.308286 0.000000 0.028791
32.000000 146.301000 1.000000 -2.000000 3.000000 84.409967 -18.496785 1335.055883 1052.080819 6.835130 0.000000 0.102917
33.000000 101.645000 2.000000 -2.000000 3.000000 63.669450 -9.723473 1159.428211 1481.415425 9.835047 0.000000 0.039558
34.000000 66.853000 3.000000 -2.000000 3.000000 47.120504 -4.292007 1055.775976 1943.247564 14.950659 0.000000 0.121756
35.000000 175.314000 1.000000 -1.000000 3.000000 92.017573 0.837796 959.260985 903.080411 5.704529 0.000000 0.128622
36.000000 114.828000 2.000000 -1.000000 3.000000 66.311775 5.412352 873.026123 1415.311005 8.706176 0.000000 0.052714
37.000000 71.659000 3.000000 -1.000000 3.000000 47.433539 7.947575 824.740815 1939.128211 13.948017 0.000000 0.122650
38.000000 159.603000 1.000000 1.000000 3.000000 81.836294 47.414647 -196.061952 1169.170959 6.265835 0.000000 0.177343
39.000000 103.165000 2.000000 1.000000 3.000000 58.862441 39.123063 99.599763 1779.142818 9.690614 0.000000 0.191747
45.000000 60.979000 1.000000 -6.000000 4.000000 64.501796 -45.580897 2073.342738 1674.424092 16.396090 0.000000 0.230116
46.000000 84.683000 0.000000 -5.000000 4.000000 80.057816 -50.690222 2289.516886 1238.799890 11.809125 0.000000 0.238210
47.000000 74.362000 1.000000 -5.000000 4.000000 71.024100 -40.925717 1908.161267 1430.824460 13.446062 0.000000 0.148571
48.000000 62.235000 2.000000 -5.000000 4.000000 61.414689 -32.888941 1670.991335 1639.391742 16.063598 0.000000 0.128994
49.000000 50.161000 3.000000 -5.000000 4.000000 52.084210 -26.398232 1509.235728 1876.943785 19.927783 0.000000 0.142609
50.000000 91.230000 1.000000 -4.000000 4.000000 78.682858 -34.508445 1714.950149 1202.393871 10.960843 0.000000 0.092360
51.000000 58.088000 3.000000 -4.000000 4.000000 55.322669 -19.609151 1358.444866 1731.476237 17.208422 0.000000 0.086664
53.000000 131.821000 0.000000 -3.000000 4.000000 102.599847 -37.596196 1803.744344 637.367407 7.588310 0.000000 0.043894
54.000000 111.319000 1.000000 -3.000000 4.000000 87.208777 -25.393541 1485.913406 999.086390 8.983601 0.000000 0.091781
55.000000 87.835000 2.000000 -3.000000 4.000000 71.914663 -17.080377 1305.707895 1308.700257 11.382794 0.000000 0.076910
56.000000 66.295000 3.000000 -3.000000 4.000000 58.291268 -11.278577 1189.646358 1619.054203 15.078400 0.000000 0.038519
57.000000 48.782000 4.000000 -3.000000 4.000000 46.779707 -7.078802 1108.655181 1960.193890 20.488793 0.000000 0.128878
59.000000 160.420000 0.000000 -2.000000 4.000000 116.104197 -23.981923 1453.790251 363.803928 6.236465 0.000000 0.045668
60.000000 132.241000 1.000000 -2.000000 4.000000 95.458213 -12.320246 1210.068542 835.732553 7.563018 0.000000 0.119956
61.000000 100.833000 2.000000 -2.000000 4.000000 76.404576 -5.579787 1080.148243 1202.531206 9.915885 0.000000 0.094803
62.000000 73.472000 3.000000 -2.000000 4.000000 60.417250 -1.299206 999.409617 1552.148824 13.605587 0.000000 0.009709
63.000000 183.533000 0.000000 -1.000000 4.000000 126.794090 -0.440684 983.278353 135.978325 5.451755 0.000000 0.058018
64.000000 148.089000 1.000000 -1.000000 4.000000 100.788476 5.496386 871.433173 734.962917 6.754200 0.000000 0.126763
65.000000 109.691000 2.000000 -1.000000 4.000000 78.645206 8.390433 816.250313 1159.473812 9.115464 0.000000 0.103396
66.000000 77.681000 3.000000 -1.000000 4.000000 60.972535 10.095316 783.373563 1547.666992 12.868693 0.000000 0.040155
67.000000 54.018000 4.000000 -1.000000 4.000000 47.190740 11.217213 761.551946 1957.399094 18.503166 0.000000 0.131552
68.000000 189.239000 0.000000 0.000000 4.000000 126.768667 31.441853 316.947541 -1.664880 5.287463 0.000000 0.053381
69.000000 151.098000 1.000000 0.000000 4.000000 99.865719 26.182137 445.814293 732.418829 6.619777 0.000000 0.082304
70.000000 110.407000 2.000000 0.000000 4.000000 77.241225 23.664644 503.331756 1207.089127 9.056485 0.000000 0.093276
71.000000 77.137000 3.000000 0.000000 4.000000 59.387270 22.193804 535.908201 1628.799556 12.959518 0.000000 0.085920
72.000000 138.313000 1.000000 1.000000 4.000000 92.042399 45.104864 -105.241234 886.619359 7.231231 0.000000 0.120917
73.000000 101.763000 2.000000 1.000000 4.000000 72.015393 38.255999 126.335266 1385.939332 9.825574 0.000000 0.127264
74.000000 71.478000 3.000000 1.000000 4.000000 55.657060 33.978533 249.616907 1827.805414 13.985794 0.000000 0.168975
84.000000 54.247000 1.000000 -7.000000 5.000000 68.626188 -45.584025 2073.462682 1542.872089 18.431788 0.000000 0.208400
85.000000 48.020000 2.000000 -7.000000 5.000000 61.915085 -39.121342 1850.346522 1681.287519 20.819828 0.000000 0.173517
87.000000 70.782000 0.000000 -6.000000 5.000000 81.936689 -49.831479 2250.042574 1177.383412 14.128694 0.000000 0.216455
88.000000 63.905000 1.000000 -6.000000 5.000000 74.442368 -41.658665 1932.551266 1342.073270 15.647010 0.000000 0.141933
89.000000 55.811000 2.000000 -6.000000 5.000000 66.441657 -34.704717 1720.392600 1511.844713 17.913956 0.000000 0.121552
90.000000 47.412000 3.000000 -6.000000 5.000000 58.468715 -28.877954 1568.606140 1695.139557 21.084672 0.000000 0.117768
92.000000 75.550000 1.000000 -5.000000 5.000000 81.092165 -36.502612 1771.491791 1150.862814 13.236120 0.000000 0.092859
93.000000 64.922000 2.000000 -5.000000 5.000000 71.405717 -29.143211 1575.121336 1355.576751 15.400633 0.000000 0.088855
94.000000 54.099000 3.000000 -5.000000 5.000000 61.965731 -23.250854 1437.431510 1564.760315 18.478788 0.000000 0.078254
96.000000 101.005000 0.000000 -4.000000 5.000000 99.985683 -39.532167 1863.243860 695.297366 9.903091 0.000000 0.058585
97.000000 89.083000 1.000000 -4.000000 5.000000 88.451439 -29.568196 1585.630263 974.453276 11.226287 0.000000 0.082021
98.000000 75.121000 2.000000 -4.000000 5.000000 76.600712 -22.082505 1411.655008 1217.692539 13.310322 0.000000 0.087013
99.000000 61.251000 3.000000 -4.000000 5.000000 65.408428 -16.431403 1292.411732 1454.548278 16.321620 0.000000 0.057853
100.000000 48.810000 4.000000 -4.000000 5.000000 55.344218 -12.092145 1205.583177 1701.916515 20.478956 0.000000 0.056483
102.000000 119.238000 0.000000 -3.000000 5.000000 110.712522 -30.359188 1605.427988 469.359180 8.389902 0.000000 0.030720
103.000000 103.672000 1.000000 -3.000000 5.000000 96.021017 -20.094928 1368.759751 820.119059 9.647375 0.000000 0.103415
104.000000 85.635000 2.000000 -3.000000 5.000000 81.554691 -13.144702 1226.346877 1105.102784 11.676720 0.000000 0.104649
105.000000 68.234000 3.000000 -3.000000 5.000000 68.430027 -8.259252 1131.232700 1370.941974 14.651594 0.000000 0.060993
106.000000 53.164000 4.000000 -3.000000 5.000000 57.027581 -4.685297 1063.209433 1641.558306 18.801966 0.000000 0.022541
108.000000 136.783000 0.000000 -2.000000 5.000000 121.110914 -15.979923 1283.214313 265.349794 7.314604 0.000000 0.058273
109.000000 117.231000 1.000000 -2.000000 5.000000 102.614454 -7.275761 1112.413709 698.179464 8.532290 0.000000 0.122603
110.000000 94.900000 2.000000 -2.000000 5.000000 85.430682 -2.102126 1014.505901 1027.074446 10.537202 0.000000 0.119893
111.000000 73.993000 3.000000 -2.000000 5.000000 70.497584 1.275593 951.034172 1322.281350 13.511652 0.000000 0.071945
112.000000 56.478000 4.000000 -2.000000 5.000000 57.942532 3.639098 906.547905 1616.407152 17.698961 0.000000 0.019692
114.000000 149.135000 0.000000 -1.000000 5.000000 127.895088 5.623050 869.031257 99.225384 6.709304 0.000000 0.050628
115.000000 126.343000 1.000000 -1.000000 5.000000 106.240675 8.989456 804.734765 623.580033 7.917376 0.000000 0.116612
116.000000 100.673000 2.000000 -1.000000 5.000000 87.116000 10.784167 769.994107 996.196207 9.933333 0.000000 0.119280
117.000000 77.204000 3.000000 -1.000000 5.000000 71.012504 11.897486 748.238549 1319.465309 12.949938 0.000000 0.078075
118.000000 58.028000 4.000000 -1.000000 5.000000 57.774875 12.655025 733.334219 1636.329771 17.226575 0.000000 0.052178
120.000000 119.742000 1.000000 1.000000 5.000000 98.595461 43.370193 -41.740789 717.200551 8.353468 0.000000 0.091523
121.000000 95.026000 2.000000 1.000000 5.000000 81.149418 37.564159 147.213857 1152.427202 10.523514 0.000000 0.098503
122.000000 72.529000 3.000000 1.000000 5.000000 66.135080 33.765717 255.416014 1513.777536 13.784787 0.000000 0.120784
123.000000 54.210000 4.000000 1.000000 5.000000 53.656156 31.108586 325.517793 1865.894912 18.440070 0.000000 0.161984
125.000000 84.544000 2.000000 2.000000 5.000000 74.362402 48.879562 -257.891251 1399.102320 11.827663 0.000000 0.228145
126.000000 65.295000 3.000000 2.000000 5.000000 61.233899 43.548111 -48.084137 1756.220734 15.311761 0.000000 0.223756
133.000000 48.590000 1.000000 -8.000000 6.000000 71.623111 -45.586395 2073.553593 1451.912398 20.578541 0.000000 0.194361
135.000000 60.746000 0.000000 -7.000000 6.000000 83.234193 -49.220478 2222.800285 1136.497095 16.463126 0.000000 0.202075
136.000000 55.850000 1.000000 -7.000000 6.000000 76.836499 -42.193278 1950.694006 1280.755639 17.904339 0.000000 0.137979
137.000000 50.116000 2.000000 -7.000000 6.000000 70.010591 -36.070895 1759.010140 1425.373477 19.950558 0.000000 0.118351
139.000000 64.340000 1.000000 -6.000000 6.000000 82.682776 -37.892840 1812.656250 1116.129512 15.542832 0.000000 0.093826
141.000000 81.753000 0.000000 -5.000000 6.000000 98.280513 -40.716106 1901.285649 734.336870 12.234923 0.000000 0.069595
142.000000 74.011000 1.000000 -5.000000 6.000000 89.096724 -32.339442 1656.442463 961.084578 13.512680 0.000000 0.076092
143.000000 64.919000 2.000000 -5.000000 6.000000 79.525247 -25.654337 1491.929409 1161.749838 15.402811 0.000000 0.088231
144.000000 55.505000 3.000000 -5.000000 6.000000 70.182720 -20.330494 1373.784680 1354.623523 18.012536 0.000000 0.074381
145.000000 46.549000 4.000000 -5.000000 6.000000 61.443674 -16.059195 1284.826176 1550.537182 21.475655 0.000000 0.051836
146.000000 100.771000 -1.000000 -4.000000 6.000000 116.972137 -45.641609 2075.673412 157.556280 9.928364 0.000000 0.159371
147.000000 84.516000 1.000000 -4.000000 6.000000 95.830105 -25.057927 1478.209659 819.684421 11.834059 0.000000 0.088687
148.000000 61.581000 3.000000 -4.000000 6.000000 73.562564 -13.543140 1234.252647 1267.616883 16.235965 0.000000 0.082208
149.000000 114.809000 -1.000000 -3.000000 6.000000 128.732638 -36.923093 1783.783141 -138.854138 8.715486 0.000000 0.110928
150.000000 95.001000 1.000000 -3.000000 6.000000 102.304762 -15.473625 1272.949336 697.406751 10.528818 0.000000 0.109261
151.000000 81.105000 2.000000 -3.000000 6.000000 88.812747 -9.689888 1158.778846 963.628429 12.330216 0.000000 0.120012
152.000000 54.615000 4.000000 -3.000000 6.000000 65.387665 -2.537500 1022.697825 1434.530240 18.304490 0.000000 0.043307
154.000000 118.118000 0.000000 -2.000000 6.000000 123.999502 -9.605493 1157.147685 204.721372 8.470729 0.000000 0.061706
155.000000 103.976000 1.000000 -2.000000 6.000000 107.470589 -3.138181 1034.009378 601.744290 9.620653 0.000000 0.118984
156.000000 71.646000 3.000000 -2.000000 6.000000 78.248122 3.505737 909.062842 1165.326127 13.955715 0.000000 0.102772
157.000000 45.489000 5.000000 -2.000000 6.000000 56.109092 6.839923 845.898996 1669.174443 21.974070 0.000000 0.039277
159.000000 125.265000 0.000000 -1.000000 6.000000 128.344985 9.844688 788.227073 76.897013 7.987854 0.000000 0.043344
160.000000 109.505000 1.000000 -1.000000 6.000000 109.900349 11.687268 752.359576 543.130813 9.135309 0.000000 0.105026
161.000000 91.455000 2.000000 -1.000000 6.000000 93.202541 12.743808 731.581733 879.256966 10.935578 0.000000 0.121468
162.000000 73.989000 3.000000 -1.000000 6.000000 78.626197 13.428433 718.026044 1163.592445 13.514107 0.000000 0.101503
163.000000 58.701000 4.000000 -1.000000 6.000000 66.179458 13.908004 708.484524 1430.514495 17.030683 0.000000 0.062918
164.000000 46.081000 5.000000 -1.000000 6.000000 55.663831 14.262601 701.404088 1699.575970 21.692048 0.000000 0.067318
165.000000 109.920000 1.000000 0.000000 6.000000 108.444630 27.470339 415.424634 536.416238 9.100808 0.000000 0.055577
166.000000 91.408000 2.000000 0.000000 6.000000 91.784487 25.165488 469.326001 903.951237 10.941274 0.000000 0.095411
167.000000 58.122000 4.000000 0.000000 6.000000 64.841400 22.610921 526.741207 1488.606788 17.200441 0.000000 0.080261
169.000000 104.770000 1.000000 1.000000 6.000000 103.120447 42.021898 5.155185 603.309671 9.547701 0.000000 0.074506
170.000000 87.263000 2.000000 1.000000 6.000000 87.782289 36.999455 163.970138 993.188963 11.460665 0.000000 0.080867
171.000000 70.381000 3.000000 1.000000 6.000000 74.121821 33.585831 260.295396 1308.498234 14.206962 0.000000 0.101918
172.000000 55.643000 4.000000 1.000000 6.000000 62.330563 31.130742 324.949907 1600.277655 17.967089 0.000000 0.118937
174.000000 64.824000 3.000000 2.000000 6.000000 69.629880 42.668820 -17.091865 1484.506598 15.424342 0.000000 0.170809
179.000000 46.910000 0.000000 -9.000000 7.000000 78.763968 -51.264724 2316.741094 1282.709459 21.317546 0.000000 0.253861
181.000000 53.178000 0.000000 -8.000000 7.000000 84.183459 -48.763622 2202.867186 1107.331000 18.806150 0.000000 0.191877
182.000000 49.521000 1.000000 -8.000000 7.000000 78.604938 -42.600402 1964.717245 1235.694626 20.193244 0.000000 0.135446
184.000000 55.972000 1.000000 -7.000000 7.000000 83.808525 -38.916299 1843.965640 1091.065900 17.866919 0.000000 0.095196
185.000000 50.788000 2.000000 -7.000000 7.000000 76.951272 -33.149118 1677.942920 1238.935335 19.688361 0.000000 0.092071
186.000000 72.596000 -1.000000 -6.000000 7.000000 103.818712 -50.050648 2259.982696 528.709429 13.779593 0.000000 0.198260
187.000000 68.620000 0.000000 -6.000000 7.000000 97.082724 -41.514310 1927.704069 762.405274 14.576381 0.000000 0.077883
188.000000 63.206000 1.000000 -6.000000 7.000000 89.469496 -34.304675 1709.326864 953.064303 15.822902 0.000000 0.073413
189.000000 56.876000 2.000000 -6.000000 7.000000 81.487675 -28.313589 1554.854076 1123.980904 17.581756 0.000000 0.086717
190.000000 50.174000 3.000000 -6.000000 7.000000 73.543578 -23.357892 1439.815302 1287.303522 19.927721 0.000000 0.082265
191.000000 82.377000 -1.000000 -5.000000 7.000000 112.580855 -45.633592 2075.365322 300.885874 12.144665 0.000000 0.141791
192.000000 77.640000 0.000000 -5.000000 7.000000 104.502807 -36.082474 1759.343106 596.512007 12.884060 0.000000 0.035481
193.000000 71.057000 1.000000 -5.000000 7.000000 95.451371 -28.453890 1558.259091 824.174061 14.075733 0.000000 0.077583
194.000000 63.358000 2.000000 -5.000000 7.000000 86.119028 -22.420027 1419.056662 1019.985587 15.783767 0.000000 0.097643
195.000000 55.288000 3.000000 -5.000000 7.000000 77.005410 -17.627043 1316.979862 1201.611346 18.084953 0.000000 0.090367
196.000000 47.444000 4.000000 -5.000000 7.000000 68.420196 -13.777945 1238.923977 1379.308135 21.072101 0.000000 0.063721
197.000000 92.648000 -1.000000 -4.000000 7.000000 122.143764 -39.161133 1851.589104 68.769165 10.799469 0.000000 0.097086
198.000000 87.051000 0.000000 -4.000000 7.000000 112.270017 -28.683394 1563.848524 438.583476 11.492267 0.000000 0.034437
199.000000 79.127000 1.000000 -4.000000 7.000000 101.446048 -20.972583 1387.559868 707.619658 12.640966 0.000000 0.095327
200.000000 69.880000 2.000000 -4.000000 7.000000 90.561791 -15.252173 1268.475357 930.061188 14.311345 0.000000 0.113950
201.000000 60.299000 3.000000 -4.000000 7.000000 80.180114 -10.919343 1182.638459 1130.728096 16.582478 0.000000 0.103325
202.000000 51.138000 4.000000 -4.000000 7.000000 70.603579 -7.559341 1117.831017 1323.269728 19.550269 0.000000 0.071081
203.000000 102.545000 -1.000000 -3.000000 7.000000 131.958320 -29.126793 1574.717106 -166.765775 9.758138 0.000000 0.065722
204.000000 96.051000 0.000000 -3.000000 7.000000 119.745302 -18.450339 1334.086009 292.637281 10.416314 0.000000 0.055422
205.000000 86.718000 1.000000 -3.000000 7.000000 106.886446 -11.457158 1193.136576 607.632043 11.535262 0.000000 0.110458
206.000000 75.866000 2.000000 -3.000000 7.000000 94.372753 -6.653863 1100.556960 858.140388 13.182703 0.000000 0.126633
207.000000 64.762000 3.000000 -3.000000 7.000000 82.744189 -3.195798 1035.095017 1078.246296 15.440315 0.000000 0.113992
208.000000 54.314000 4.000000 -3.000000 7.000000 72.242133 -0.604622 986.358168 1285.706635 18.407518 0.000000 0.079563
209.000000 110.752000 -1.000000 -2.000000 7.000000 140.609857 -12.991224 1223.308483 -404.192676 9.035737 0.000000 0.032754
210.000000 103.443000 0.000000 -2.000000 7.000000 125.728174 -4.525059 1060.179855 164.380529 9.672572 0.000000 0.060824
211.000000 92.829000 1.000000 -2.000000 7.000000 110.907572 0.283521 969.674040 529.835162 10.776488 0.000000 0.112857
212.000000 80.545000 2.000000 -2.000000 7.000000 96.967769 3.343337 912.124431 809.237963 12.417439 0.000000 0.129586
213.000000 68.117000 3.000000 -2.000000 7.000000 84.315569 5.450509 872.302877 1048.619664 14.680082 0.000000 0.117774
214.000000 56.589000 4.000000 -2.000000 7.000000 73.090711 6.986188 843.111048 1270.641229 17.667856 0.000000 0.084701
215.000000 46.478000 5.000000 -2.000000 7.000000 63.265634 8.153562 820.793959 1488.664803 21.508489 0.000000 0.041786
217.000000 107.840000 0.000000 -1.000000 7.000000 128.516205 12.922224 728.056293 62.121748 9.278562 0.000000 0.037090
218.000000 96.342000 1.000000 -1.000000 7.000000 112.502782 13.824878 710.141186 481.820945 10.383828 0.000000 0.093953
219.000000 83.095000 2.000000 -1.000000 7.000000 97.748680 14.374058 699.173973 789.815291 12.036669 0.000000 0.117945
220.000000 69.806000 3.000000 -1.000000 7.000000 84.538419 14.743333 691.769285 1047.410517 14.325166 0.000000 0.111954
221.000000 57.602000 4.000000 -1.000000 7.000000 72.938352 15.008642 686.433816 1282.989247 17.357359 0.000000 0.085480
222.000000 47.006000 5.000000 -1.000000 7.000000 62.867925 15.208466 682.406542 1512.544921 21.267246 0.000000 0.058019
224.000000 92.789000 1.000000 1.000000 7.000000 106.418143 40.944928 41.206398 521.134666 10.780931 0.000000 0.064120
225.000000 79.875000 2.000000 1.000000 7.000000 92.785454 36.529876 177.715286 875.831817 12.521588 0.000000 0.067881
226.000000 66.956000 3.000000 1.000000 7.000000 80.355249 33.431782 264.457776 1160.169634 14.934769 0.000000 0.091964
227.000000 55.117000 4.000000 1.000000 7.000000 69.326774 31.150135 324.452602 1415.545514 18.139933 0.000000 0.102372
229.000000 74.422000 2.000000 2.000000 7.000000 87.553792 46.171737 -146.241618 1007.396697 13.438545 0.000000 0.144081
230.000000 62.667000 3.000000 2.000000 7.000000 76.264279 41.907277 9.049584 1294.498802 15.956657 0.000000 0.137871
231.000000 51.810000 4.000000 2.000000 7.000000 66.073748 38.663736 113.843565 1552.580659 19.297727 0.000000 0.151820
233.000000 57.141000 3.000000 3.000000 7.000000 71.349543 49.427433 -281.951567 1499.521832 17.499101 0.000000 0.251404
234.000000 47.576000 4.000000 3.000000 7.000000 62.178429 45.521517 -121.068064 1751.662300 21.014768 0.000000 0.243051
238.000000 47.275000 0.000000 -9.000000 8.000000 84.907864 -48.409154 2187.649604 1085.481520 21.154589 0.000000 0.184273
239.000000 55.476000 -1.000000 -8.000000 8.000000 95.347794 -52.221631 2363.632405 776.538747 18.030079 0.000000 0.238745
240.000000 49.504000 1.000000 -8.000000 8.000000 84.646046 -39.700755 1868.580673 1072.099949 20.201618 0.000000 0.096777
241.000000 62.158000 -1.000000 -7.000000 8.000000 102.030462 -49.382997 2229.980181 588.662458 16.093196 0.000000 0.183060
242.000000 59.101000 0.000000 -7.000000 8.000000 96.195947 -42.088679 1947.120284 783.548669 16.923803 0.000000 0.084290
243.000000 55.110000 1.000000 -7.000000 8.000000 89.701916 -35.767728 1750.326741 947.901129 18.147543 0.000000 0.072959
244.000000 50.475000 2.000000 -7.000000 8.000000 82.879880 -30.362246 1605.505160 1096.813694 19.811644 0.000000 0.084674
245.000000 45.509000 3.000000 -7.000000 8.000000 76.008652 -25.764081 1494.468828 1238.779522 21.971213 0.000000 0.085552
246.000000 69.483000 -1.000000 -6.000000 8.000000 109.418855 -45.628367 2075.164628 398.434514 14.397814 0.000000 0.132259
247.000000 61.171000 1.000000 -6.000000 8.000000 95.050374 -30.907951 1619.351709 830.140049 16.350356 0.000000 0.070057
248.000000 49.788000 3.000000 -6.000000 8.000000 79.417407 -20.847752 1384.872618 1156.172022 20.083506 0.000000 0.092541
250.000000 77.234000 -1.000000 -5.000000 8.000000 117.431647 -40.484135 1893.726847 206.497181 12.954069 0.000000 0.089717
251.000000 73.078000 0.000000 -5.000000 8.000000 109.346833 -31.738903 1640.742870 496.648199 13.689167 0.000000 0.028589
252.000000 67.485000 1.000000 -5.000000 8.000000 100.514096 -24.851235 1473.486195 720.862453 14.821693 0.000000 0.083237
253.000000 60.978000 2.000000 -5.000000 8.000000 91.494186 -19.431829 1354.695223 911.229751 16.400891 0.000000 0.106072
254.000000 54.097000 3.000000 -5.000000 8.000000 82.685529 -15.127962 1265.970062 1084.112276 18.484492 0.000000 0.104793
255.000000 47.294000 4.000000 -5.000000 8.000000 74.340110 -11.663686 1197.178519 1249.081376 21.140623 0.000000 0.085369
256.000000 84.992000 -1.000000 -4.000000 8.000000 125.798979 -33.156990 1678.153897 13.811940 11.772669 0.000000 0.059467
257.000000 73.693000 1.000000 -4.000000 8.000000 105.769670 -17.290754 1310.037814 622.668911 13.573903 0.000000 0.099216
258.000000 58.177000 3.000000 -4.000000 8.000000 85.590731 -8.534883 1136.523232 1024.920847 17.188609 0.000000 0.116617
259.000000 92.100000 -1.000000 -3.000000 8.000000 133.879374 -22.363400 1417.812375 -178.168614 10.864941 0.000000 0.039839
260.000000 86.700000 0.000000 -3.000000 8.000000 122.248479 -13.690785 1237.188882 242.090871 11.540074 0.000000 0.060131
261.000000 79.267000 1.000000 -3.000000 8.000000 110.304127 -7.966596 1125.623463 538.897858 12.620104 0.000000 0.108875
262.000000 70.650000 2.000000 -3.000000 8.000000 98.711389 -3.979109 1049.867490 775.686370 14.156829 0.000000 0.128198
263.000000 61.687000 3.000000 -3.000000 8.000000 87.849967 -1.067994 995.064453 981.414090 16.211277 0.000000 0.124056
264.000000 53.027000 4.000000 -3.000000 8.000000 77.907757 1.140258 953.577569 1171.630761 18.855856 0.000000 0.101541
265.000000 97.699000 -1.000000 -2.000000 8.000000 140.375097 -6.474373 1097.140615 -367.208779 10.242872 0.000000 0.013208
266.000000 83.546000 1.000000 -2.000000 8.000000 113.429569 3.141259 915.932638 473.884397 11.974242 0.000000 0.105881
267.000000 64.233000 3.000000 -2.000000 8.000000 89.153331 7.157659 839.840410 957.030655 15.568977 0.000000 0.124260
268.000000 46.319000 5.000000 -2.000000 8.000000 69.272170 9.340747 797.964008 1353.768351 21.584148 0.000000 0.069788
270.000000 94.602000 0.000000 -1.000000 8.000000 128.559410 15.252870 681.510579 51.727881 10.576939 0.000000 0.032029
271.000000 85.865000 1.000000 -1.000000 8.000000 114.437125 15.555888 675.386275 433.333976 11.651163 0.000000 0.083918
272.000000 75.793000 2.000000 -1.000000 8.000000 101.255160 15.749442 671.464934 718.456219 13.196893 0.000000 0.112051
273.000000 65.452000 3.000000 -1.000000 8.000000 89.232150 15.883769 668.739114 955.997460 15.279349 0.000000 0.115291
274.000000 55.623000 4.000000 -1.000000 8.000000 78.450440 15.982446 666.734404 1169.787775 17.976358 0.000000 0.099724
275.000000 46.758000 5.000000 -1.000000 8.000000 68.889329 16.058003 665.198082 1373.409389 21.381560 0.000000 0.073964
277.000000 85.750000 1.000000 0.000000 8.000000 112.899818 28.252198 396.633019 424.874867 11.666679 0.000000 0.036159
278.000000 65.103000 3.000000 0.000000 8.000000 87.943555 24.733679 479.193230 983.550116 15.361292 0.000000 0.097829
279.000000 46.302000 5.000000 0.000000 8.000000 67.749070 22.843739 521.600416 1418.820900 21.592464 0.000000 0.081933
281.000000 83.105000 1.000000 1.000000 8.000000 108.921906 40.065449 69.784769 458.897516 12.037655 0.000000 0.057610
282.000000 73.250000 2.000000 1.000000 8.000000 96.679417 36.133303 189.194045 784.937367 13.654829 0.000000 0.057494
283.000000 63.154000 3.000000 1.000000 8.000000 85.328247 33.298380 268.050377 1046.229615 15.835081 0.000000 0.084576
284.000000 53.576000 4.000000 1.000000 8.000000 75.049111 31.167253 324.013491 1276.885230 18.663179 0.000000 0.095547
285.000000 78.260000 1.000000 2.000000 8.000000 103.083778 50.242982 -318.780831 549.870457 12.782092 0.000000 0.200541
286.000000 59.801000 3.000000 2.000000 8.000000 81.603035 41.241538 31.396410 1152.287663 16.722494 0.000000 0.115288
289.000000 55.410000 3.000000 3.000000 8.000000 77.092074 48.363134 -235.689479 1312.249709 18.046950 0.000000 0.208524
290.000000 47.380000 4.000000 3.000000 8.000000 68.354760 44.769653 -92.674807 1542.622793 21.102959 0.000000 0.199445
294.000000 49.091000 -1.000000 -9.000000 9.000000 94.821311 -51.452356 2325.780287 795.320953 20.374745 0.000000 0.222355
296.000000 54.311000 -1.000000 -8.000000 9.000000 100.657599 -48.889460 2208.321228 632.956153 18.417991 0.000000 0.172906
297.000000 51.891000 0.000000 -8.000000 9.000000 95.513274 -42.521708 1961.992432 800.044757 19.275176 0.000000 0.089372
298.000000 48.830000 1.000000 -8.000000 9.000000 89.855327 -36.897922 1783.043571 944.398333 20.481570 0.000000 0.073862
300.000000 59.990000 -1.000000 -7.000000 9.000000 107.036669 -45.624693 2075.023508 469.409211 16.675625 0.000000 0.126944
301.000000 57.206000 0.000000 -7.000000 9.000000 101.139658 -38.696643 1837.170776 669.451972 17.485681 0.000000 0.051733
302.000000 53.639000 1.000000 -7.000000 9.000000 94.676333 -32.758009 1667.508445 836.310634 18.646278 0.000000 0.065569
303.000000 49.520000 2.000000 -7.000000 9.000000 87.940029 -27.713414 1540.388605 984.729423 20.194960 0.000000 0.086443
305.000000 66.012000 -1.000000 -6.000000 9.000000 113.911031 -41.357164 1922.451893 305.251867 15.155638 0.000000 0.086693
306.000000 58.677000 1.000000 -6.000000 9.000000 99.647234 -27.709679 1540.299081 734.345497 17.046430 0.000000 0.073597
307.000000 53.889000 2.000000 -6.000000 9.000000 91.997248 -22.655712 1424.246450 900.328358 18.558606 0.000000 0.098182
309.000000 72.155000 -1.000000 -5.000000 9.000000 121.132558 -35.619327 1746.100308 141.279024 13.866424 0.000000 0.055611
310.000000 68.514000 0.000000 -5.000000 9.000000 113.131510 -27.704063 1540.164483 421.688264 14.601638 0.000000 0.036835
311.000000 63.747000 1.000000 -5.000000 9.000000 104.572984 -21.527106 1399.551890 640.206038 15.691541 0.000000 0.088182
312.000000 58.233000 2.000000 -5.000000 9.000000 95.903668 -16.677164 1297.436225 824.819243 17.175181 0.000000 0.111738
313.000000 52.364000 3.000000 -5.000000 9.000000 87.438531 -12.819411 1219.911538 990.379787 19.097557 0.000000 0.114823
314.000000 46.484000 4.000000 -5.000000 9.000000 79.380911 -9.703894 1159.049629 1145.723347 21.510795 0.000000 0.102064
316.000000 78.070000 -1.000000 -4.000000 9.000000 128.369865 -27.694666 1539.939321 -21.393839 12.816807 0.000000 0.037059
317.000000 73.971000 0.000000 -4.000000 9.000000 118.960921 -19.757344 1361.584870 308.102661 13.525416 0.000000 0.053542
318.000000 68.556000 1.000000 -4.000000 9.000000 109.141526 -13.981657 1242.984340 556.020127 14.591648 0.000000 0.100704
319.000000 62.297000 2.000000 -4.000000 9.000000 99.401232 -9.671186 1158.417325 760.227744 16.055434 0.000000 0.122438
320.000000 55.673000 3.000000 -4.000000 9.000000 90.055008 -6.365661 1095.072624 939.960280 17.962876 0.000000 0.124232
321.000000 49.094000 4.000000 -4.000000 9.000000 81.288611 -3.766333 1045.852183 1106.272075 20.367493 0.000000 0.110237
323.000000 83.278000 -1.000000 -3.000000 9.000000 134.977491 -16.592945 1295.712962 -181.179038 12.016064 0.000000 0.025246
324.000000 72.717000 1.000000 -3.000000 9.000000 112.908993 -4.926382 1067.770221 484.469932 13.757346 0.000000 0.105738
325.000000 65.759000 2.000000 -3.000000 9.000000 102.157821 -1.614568 1005.337498 709.034081 15.210733 0.000000 0.126881
326.000000 51.224000 4.000000 -3.000000 9.000000 82.634808 2.720485 923.857583 1080.278348 19.520967 0.000000 0.114653
327.000000 87.216000 -1.000000 -2.000000 9.000000 139.861004 -1.426727 1001.806426 -335.772195 11.473959 0.000000 0.001182
328.000000 82.325000 0.000000 -2.000000 9.000000 127.465939 2.882944 920.798501 115.101156 12.154106 0.000000 0.054432
329.000000 75.791000 1.000000 -2.000000 9.000000 115.337606 5.552590 870.367512 428.970943 13.199820 0.000000 0.098805
330.000000 68.263000 2.000000 -2.000000 9.000000 103.807077 7.361463 835.949846 674.297532 14.653107 0.000000 0.122103
331.000000 60.383000 3.000000 -2.000000 9.000000 93.077672 8.665686 810.963448 882.462387 16.562666 0.000000 0.125956
332.000000 52.670000 4.000000 -2.000000 9.000000 83.251412 9.649655 791.998863 1070.188802 18.985275 0.000000 0.113891
333.000000 45.472000 5.000000 -2.000000 9.000000 74.352879 10.418011 777.113285 1247.514124 21.987540 0.000000 0.089674
335.000000 84.223000 0.000000 -1.000000 9.000000 128.541561 17.073537 644.432723 44.072722 11.880465 0.000000 0.028118
336.000000 77.369000 1.000000 -1.000000 9.000000 115.925678 16.983805 646.276453 393.923940 12.930896 0.000000 0.074992
337.000000 69.487000 2.000000 -1.000000 9.000000 104.032521 16.924121 647.501807 659.823279 14.395298 0.000000 0.105291
338.000000 61.267000 3.000000 -1.000000 9.000000 93.032785 16.881556 648.375205 881.408263 16.323894 0.000000 0.114734
339.000000 53.259000 4.000000 -1.000000 9.000000 83.008203 16.849670 649.029243 1078.916868 18.775375 0.000000 0.107425
340.000000 45.825000 5.000000 -1.000000 9.000000 73.967749 16.824891 649.537341 1264.109226 21.818761 0.000000 0.088561
342.000000 75.165000 1.000000 1.000000 9.000000 110.884582 39.334021 92.995602 410.057368 13.309624 0.000000 0.053477
343.000000 67.430000 2.000000 1.000000 9.000000 99.789175 35.793970 198.924267 712.060172 14.833984 0.000000 0.048871
344.000000 59.380000 3.000000 1.000000 9.000000 89.373785 33.181735 271.182699 955.055807 16.842287 0.000000 0.078016
345.000000 51.550000 4.000000 1.000000 9.000000 79.794368 31.182473 323.622923 1167.487425 19.397748 0.000000 0.091543
347.000000 71.533000 1.000000 2.000000 9.000000 105.785096 48.790223 -254.017844 479.175489 13.984546 0.000000 0.176967
348.000000 64.281000 2.000000 2.000000 9.000000 95.646093 44.179709 -70.909103 792.628378 15.560028 0.000000 0.104097
349.000000 56.721000 3.000000 2.000000 9.000000 85.972630 40.654745 50.718930 1040.886105 17.631597 0.000000 0.098645
350.000000 49.343000 4.000000 2.000000 9.000000 76.969953 37.891658 137.379419 1256.617160 20.265148 0.000000 0.110696
352.000000 60.088000 2.000000 3.000000 9.000000 90.620846 51.537841 -379.923176 922.249153 16.645121 0.000000 0.227023
353.000000 46.446000 4.000000 3.000000 9.000000 73.547379 44.092773 -67.738504 1383.549138 21.528784 0.000000 0.168519
357.000000 48.205000 -1.000000 -9.000000 10.000000 99.570978 -48.509835 2191.950249 667.063147 20.750682 0.000000 0.165761
358.000000 46.243000 0.000000 -9.000000 10.000000 94.971650 -42.859816 1973.748605 813.272332 21.629303 0.000000 0.093495
359.000000 52.731000 -1.000000 -8.000000 10.000000 105.178969 -45.621968 2074.918865 523.495072 18.970749 0.000000 0.123942
360.000000 47.726000 1.000000 -8.000000 10.000000 94.341433 -34.199845 1706.444568 842.207235 20.956763 0.000000 0.063433
362.000000 57.528000 -1.000000 -7.000000 10.000000 111.187316 -41.976156 1943.288977 379.821747 17.390026 0.000000 0.086162
363.000000 55.001000 0.000000 -7.000000 10.000000 105.270917 -35.443590 1741.115573 580.304764 18.187303 0.000000 0.032832
364.000000 51.822000 1.000000 -7.000000 10.000000 98.878019 -29.893637 1593.737613 747.079044 19.301091 0.000000 0.066417
365.000000 48.171000 2.000000 -7.000000 10.000000 92.264195 -25.203098 1481.536727 893.967950 20.761969 0.000000 0.091018
366.000000 62.471000 -1.000000 -6.000000 10.000000 117.507894 -37.274082 1794.147359 236.666284 16.015267 0.000000 0.054795
367.000000 55.999000 1.000000 -6.000000 10.000000 103.447252 -24.711152 1470.293884 657.710646 17.862588 0.000000 0.078415
368.000000 47.370000 3.000000 -6.000000 10.000000 88.668275 -16.297511 1289.679721 967.068298 21.111614 0.000000 0.110901
370.000000 67.362000 -1.000000 -5.000000 10.000000 123.952545 -31.080019 1623.750412 94.860972 14.853539 0.000000 0.033800
371.000000 60.083000 1.000000 -5.000000 10.000000 107.852082 -18.470284 1334.502431 575.534353 16.649182 0.000000 0.091483
372.000000 55.385000 2.000000 -5.000000 10.000000 99.548363 -14.141007 1246.165489 754.298494 18.059336 0.000000 0.114951
373.000000 50.362000 3.000000 -5.000000 10.000000 91.441145 -10.687090 1178.116762 913.444598 19.857690 0.000000 0.121142
374.000000 71.924000 -1.000000 -4.000000 10.000000 130.168873 -22.789737 1427.205608 -44.470512 13.912233 0.000000 0.025276
375.000000 63.844000 1.000000 -4.000000 10.000000 111.805706 -11.010394 1184.413053 502.313569 15.669190 0.000000 0.100477
376.000000 53.050000 3.000000 -4.000000 10.000000 93.774175 -4.389237 1057.612958 869.791003 18.852261 0.000000 0.128052
378.000000 75.814000 -1.000000 -3.000000 10.000000 135.558436 -11.705322 1197.994093 -179.789748 13.199087 0.000000 0.018067
379.000000 71.971000 0.000000 -3.000000 10.000000 125.243913 -6.094388 1089.916055 176.199462 13.902152 0.000000 0.061415
380.000000 67.002000 1.000000 -3.000000 10.000000 114.933782 -2.268833 1017.642045 440.236725 14.931341 0.000000 0.101780
381.000000 61.292000 2.000000 -3.000000 10.000000 104.940984 0.483963 965.908593 653.785454 16.319787 0.000000 0.123927
382.000000 55.240000 3.000000 -3.000000 10.000000 95.463677 2.550970 927.048642 837.951137 18.105273 0.000000 0.129825
383.000000 49.186000 4.000000 -3.000000 10.000000 86.617071 4.156220 896.788689 1004.789610 20.331067 0.000000 0.122141
384.000000 78.659000 -1.000000 -2.000000 10.000000 139.241443 2.541139 927.233686 -308.952962 12.722207 0.000000 0.007501
385.000000 69.260000 1.000000 -2.000000 10.000000 116.819001 7.607690 831.244648 392.044536 14.444808 0.000000 0.091969
386.000000 56.739000 3.000000 -2.000000 10.000000 96.311257 10.005743 785.109047 820.123467 17.627211 0.000000 0.124888
388.000000 75.874000 0.000000 -1.000000 10.000000 128.494560 18.532374 614.200620 38.229844 13.187613 0.000000 0.025257
389.000000 70.360000 1.000000 -1.000000 10.000000 117.103505 18.180435 621.539666 361.205176 14.219232 0.000000 0.067098
390.000000 64.041000 2.000000 -1.000000 10.000000 106.281486 17.938235 626.573083 610.585255 15.619786 0.000000 0.098373
391.000000 57.385000 3.000000 -1.000000 10.000000 96.163945 17.761376 630.239875 818.944520 17.429136 0.000000 0.112033
392.000000 50.780000 4.000000 -1.000000 10.000000 86.825958 17.626562 633.030093 1003.625304 19.693102 0.000000 0.110860
394.000000 70.135000 1.000000 0.000000 10.000000 115.619241 28.777034 383.863893 352.159758 14.264754 0.000000 0.022494
395.000000 63.772000 2.000000 0.000000 10.000000 104.957101 26.915934 428.588330 618.539772 15.685752 0.000000 0.068104
396.000000 57.078000 3.000000 0.000000 10.000000 94.954144 25.545251 460.590148 837.596141 17.522722 0.000000 0.091602
397.000000 50.448000 4.000000 0.000000 10.000000 85.704442 24.494814 484.622092 1029.838633 19.822959 0.000000 0.098176
398.000000 73.997000 0.000000 1.000000 10.000000 122.896666 43.159676 -34.283078 -13.413535 13.521716 0.000000 0.154094
399.000000 68.560000 1.000000 1.000000 10.000000 112.462859 38.716351 112.221263 370.673306 14.592047 0.000000 0.050841
400.000000 62.346000 2.000000 1.000000 10.000000 102.326231 35.500337 207.277203 652.113088 16.044107 0.000000 0.041586
401.000000 55.811000 3.000000 1.000000 10.000000 92.721366 33.078877 273.937872 879.945234 17.920302 0.000000 0.071861
402.000000 49.336000 4.000000 1.000000 10.000000 83.780312 31.196095 323.273270 1078.125613 20.269562 0.000000 0.088055
403.000000 65.762000 1.000000 2.000000 10.000000 107.955093 47.540325 -201.230007 424.348066 15.212352 0.000000 0.159305
404.000000 53.670000 3.000000 2.000000 10.000000 89.604077 40.133744 67.592174 950.728019 18.634915 0.000000 0.085736
406.000000 56.551000 2.000000 3.000000 10.000000 94.057420 50.356699 -324.016199 821.336869 17.687004 0.000000 0.199488
407.000000 50.817000 3.000000 3.000000 10.000000 85.805899 46.564491 -161.737262 1055.796191 19.680355 0.000000 0.153786
410.000000 47.011000 -1.000000 -9.000000 11.000000 103.690442 -45.619867 2074.838175 566.141215 21.278495 0.000000 0.122261
412.000000 50.915000 -1.000000 -8.000000 11.000000 109.020439 -42.437809 1959.094931 438.259859 19.648248 0.000000 0.086953
413.000000 48.870000 0.000000 -8.000000 11.000000 103.807783 -36.646380 1775.679273 611.314274 20.468974 0.000000 0.038276
414.000000 46.356000 1.000000 -8.000000 11.000000 98.205548 -31.612032 1637.452263 758.755176 21.577021 0.000000 0.061481
416.000000 54.958000 -1.000000 -7.000000 11.000000 114.624023 -38.460761 1829.920294 310.999550 18.203962 0.000000 0.056133
417.000000 52.669000 0.000000 -7.000000 11.000000 108.726298 -32.340772 1656.477465 509.156874 18.993371 0.000000 0.028122
418.000000 49.836000 1.000000 -7.000000 11.000000 102.434567 -27.177606 1527.608449 674.227508 20.071432 0.000000 0.070263
419.000000 46.598000 2.000000 -7.000000 11.000000 95.968819 -22.829603 1428.086959 818.904461 21.463550 0.000000 0.095637
421.000000 59.023000 -1.000000 -6.000000 11.000000 120.386500 -33.405453 1684.832292 184.985746 16.951421 0.000000 0.032704
422.000000 56.476000 0.000000 -6.000000 11.000000 113.677600 -27.062066 1524.868720 411.015908 17.714214 0.000000 0.038425
423.000000 53.301000 1.000000 -6.000000 11.000000 106.603501 -21.909141 1407.866996 595.088261 18.767292 0.000000 0.082551
424.000000 49.672000 2.000000 -6.000000 11.000000 99.419125 -17.703829 1318.568566 753.575285 20.136491 0.000000 0.107055
425.000000 45.769000 3.000000 -6.000000 11.000000 92.316650 -14.241588 1248.175729 896.077692 21.850805 0.000000 0.116435
427.000000 62.943000 -1.000000 -5.000000 11.000000 126.100221 -26.885690 1520.697288 61.030942 15.896653 0.000000 0.021930
428.000000 60.133000 0.000000 -5.000000 11.000000 118.453451 -20.565347 1378.809663 318.052491 16.637856 0.000000 0.052248
429.000000 56.610000 1.000000 -5.000000 11.000000 110.523072 -15.665180 1276.827028 522.553206 17.671304 0.000000 0.093253
430.000000 52.580000 2.000000 -5.000000 11.000000 102.585206 -11.807177 1199.990298 695.517524 19.023306 0.000000 0.116306
431.000000 48.261000 3.000000 -5.000000 11.000000 94.835312 -8.716837 1140.019868 848.889072 20.723422 0.000000 0.124723
433.000000 66.505000 -1.000000 -4.000000 11.000000 131.418847 -18.422315 1333.501089 -59.798343 15.045940 0.000000 0.021229
434.000000 63.441000 0.000000 -4.000000 11.000000 122.745267 -12.610234 1215.782138 231.720559 15.770921 0.000000 0.060758
435.000000 59.582000 1.000000 -4.000000 11.000000 113.937508 -8.341480 1132.810215 458.100245 16.790470 0.000000 0.099095
436.000000 55.169000 2.000000 -4.000000 11.000000 105.263249 -5.106482 1071.179436 646.130777 18.131407 0.000000 0.121270
437.000000 50.452000 3.000000 -4.000000 11.000000 96.902420 -2.585129 1023.594324 810.575224 19.823915 0.000000 0.129353
438.000000 45.659000 4.000000 -4.000000 11.000000 88.970197 -0.571959 985.744528 960.347763 21.902074 0.000000 0.125610
440.000000 69.463000 -1.000000 -3.000000 11.000000 135.814825 -7.569032 1118.016268 -176.084123 14.405834 0.000000 0.015751
441.000000 66.174000 0.000000 -3.000000 11.000000 126.140557 -3.065859 1032.646810 153.858512 15.120330 0.000000 0.060029
442.000000 62.016000 1.000000 -3.000000 11.000000 116.535810 0.064494 973.788496 403.538959 16.132108 0.000000 0.097429
443.000000 57.264000 2.000000 -3.000000 11.000000 107.222341 2.354200 930.751736 607.089489 17.468554 0.000000 0.120070
444.000000 52.200000 3.000000 -3.000000 11.000000 98.347793 4.096681 897.912934 782.664074 19.160525 0.000000 0.128942
445.000000 47.077000 4.000000 -3.000000 11.000000 90.003703 5.464835 872.031307 940.930117 21.242916 0.000000 0.125972
447.000000 71.565000 -1.000000 -2.000000 11.000000 138.599982 5.713978 867.306356 -285.911593 13.983171 0.000000 0.013313
448.000000 68.099000 0.000000 -2.000000 11.000000 128.170182 7.911113 825.439039 86.817081 14.693308 0.000000 0.046885
449.000000 63.708000 1.000000 -2.000000 11.000000 117.994780 9.375783 797.287988 361.103182 15.703874 0.000000 0.085517
450.000000 58.695000 2.000000 -2.000000 11.000000 108.237258 10.420678 777.061489 580.409238 17.042873 0.000000 0.110823
451.000000 53.367000 3.000000 -2.000000 11.000000 99.013236 11.203163 761.826248 766.960429 18.741900 0.000000 0.122216
452.000000 47.995000 4.000000 -2.000000 11.000000 90.393990 11.810852 749.937659 933.438747 20.836738 0.000000 0.121422
453.000000 72.594000 -1.000000 -1.000000 11.000000 139.118800 20.529177 571.965232 -386.646052 13.785084 0.000000 0.060947
454.000000 69.019000 0.000000 -1.000000 11.000000 128.434379 19.726055 589.078587 33.641285 14.497407 0.000000 0.023319
455.000000 64.490000 1.000000 -1.000000 11.000000 118.056900 19.196930 600.259349 333.575987 15.513779 0.000000 0.060121
456.000000 59.322000 2.000000 -1.000000 11.000000 108.136656 18.822076 608.136722 568.532823 16.862880 0.000000 0.091634
457.000000 53.841000 3.000000 -1.000000 11.000000 98.782762 18.542632 613.986266 765.607294 18.577113 0.000000 0.108174
458.000000 48.329000 4.000000 -1.000000 11.000000 90.061958 18.326292 618.501709 939.773941 20.693231 0.000000 0.111571
459.000000 67.465000 0.000000 1.000000 11.000000 123.325013 42.165363 0.260908 -13.743578 14.830919 0.000000 0.142621
460.000000 62.993000 1.000000 1.000000 11.000000 113.758691 38.187931 128.406955 338.222075 15.881951 0.000000 0.049164
461.000000 57.902000 2.000000 1.000000 11.000000 104.433369 35.243767 214.525950 601.815253 17.276105 0.000000 0.035375
462.000000 52.510000 3.000000 1.000000 11.000000 95.532754 32.987499 276.380144 816.706146 19.047643 0.000000 0.066035
463.000000 47.094000 4.000000 1.000000 11.000000 87.167996 31.208357 322.958424 1003.250575 21.235547 0.000000 0.084464
465.000000 60.785000 1.000000 2.000000 11.000000 109.732615 46.454545 -157.376973 380.622897 16.458212 0.000000 0.145671
466.000000 55.918000 2.000000 2.000000 11.000000 101.049435 42.656180 -16.652760 655.216950 17.888521 0.000000 0.081931
467.000000 50.761000 3.000000 2.000000 11.000000 92.663383 39.668131 82.454083 875.956686 19.703495 0.000000 0.075358
468.000000 45.574000 4.000000 2.000000 11.000000 84.713239 37.268203 156.027020 1066.147977 21.943395 0.000000 0.088875
470.000000 53.247000 2.000000 3.000000 11.000000 96.929628 49.302396 -276.413373 740.390665 18.785075 0.000000 0.178254
471.000000 48.423000 3.000000 3.000000 11.000000 89.166604 45.798449 -131.717745 963.456524 20.654318 0.000000 0.135472
473.000000 45.642000 3.000000 4.000000 11.000000 85.227278 51.321749 -369.480423 1084.793053 21.911765 0.000000 0.233369
475.000000 46.907000 -2.000000 -9.000000 12.000000 111.444952 -48.616743 2196.535621 301.498824 21.327963 0.000000 0.189329
476.000000 45.628000 -1.000000 -9.000000 12.000000 107.256978 -42.795305 1971.495626 485.360075 21.924326 0.000000 0.088398
478.000000 48.987000 -1.000000 -8.000000 12.000000 112.280732 -39.352657 1857.589726 370.688664 20.422417 0.000000 0.058674
480.000000 53.921000 -2.000000 -7.000000 12.000000 122.770594 -41.854774 1939.171193 10.808001 18.556137 0.000000 0.133334
481.000000 52.396000 -1.000000 -7.000000 12.000000 117.468744 -35.096249 1731.327014 257.125699 19.094822 0.000000 0.033987
482.000000 50.323000 0.000000 -7.000000 12.000000 111.621857 -29.394926 1581.335088 451.351217 19.879550 0.000000 0.032768
483.000000 47.794000 1.000000 -7.000000 12.000000 105.454206 -24.609948 1467.992061 613.713964 20.929681 0.000000 0.074489
484.000000 55.751000 -1.000000 -6.000000 12.000000 122.691012 -29.767194 1590.581419 145.273550 17.946549 0.000000 0.018969
485.000000 50.679000 1.000000 -6.000000 12.000000 109.239137 -19.297066 1351.851033 543.010229 19.739159 0.000000 0.085561
487.000000 60.698000 -2.000000 -5.000000 12.000000 134.659900 -30.354056 1605.298529 -291.551188 16.486193 0.000000 0.090088
488.000000 58.918000 -1.000000 -5.000000 12.000000 127.735286 -23.038314 1432.709457 35.898076 16.982799 0.000000 0.018959
489.000000 56.436000 0.000000 -5.000000 12.000000 120.322029 -17.439625 1313.107801 281.179374 17.728137 0.000000 0.056698
490.000000 53.377000 1.000000 -5.000000 12.000000 112.716914 -13.093815 1225.339049 478.374933 18.742176 0.000000 0.093813
491.000000 49.897000 2.000000 -5.000000 12.000000 105.136091 -9.659270 1158.186981 645.679304 20.047084 0.000000 0.116319
492.000000 46.160000 3.000000 -5.000000 12.000000 97.733983 -6.895014 1105.150881 793.764369 21.667534 0.000000 0.126339
493.000000 61.734000 -1.000000 -4.000000 12.000000 132.277670 -14.551582 1254.382633 -70.017535 16.208978 0.000000 0.021420
494.000000 55.751000 1.000000 -4.000000 12.000000 115.663804 -5.940968 1087.002055 421.059140 17.944708 0.000000 0.096963
495.000000 47.956000 3.000000 -4.000000 12.000000 99.557934 -0.934893 992.563404 759.747024 20.856402 0.000000 0.128981
497.000000 64.020000 -1.000000 -3.000000 12.000000 135.867990 -4.057652 1051.350181 -171.196506 15.630703 0.000000 0.015861
498.000000 57.654000 1.000000 -3.000000 12.000000 117.823634 2.123031 935.100857 372.576717 17.352980 0.000000 0.092943
499.000000 53.647000 2.000000 -3.000000 12.000000 109.117659 4.028069 899.208305 567.004298 18.646866 0.000000 0.115743
500.000000 65.603000 -1.000000 -2.000000 12.000000 137.975861 8.294255 818.095865 -265.958079 15.253817 0.000000 0.017594
501.000000 58.944000 1.000000 -2.000000 12.000000 118.945793 10.910306 767.537609 334.773046 16.973476 0.000000 0.079503
502.000000 50.280000 3.000000 -2.000000 12.000000 101.299308 12.278672 740.749554 720.914189 19.893378 0.000000 0.118626
504.000000 66.340000 -1.000000 -1.000000 12.000000 138.150134 21.670642 547.329185 -352.053797 15.084396 0.000000 0.061513
505.000000 63.292000 0.000000 -1.000000 12.000000 128.369269 20.720043 567.871971 29.952958 15.809192 0.000000 0.022164
506.000000 59.507000 1.000000 -1.000000 12.000000 118.843338 20.070600 581.758352 309.916201 16.812958 0.000000 0.053948
507.000000 55.209000 2.000000 -1.000000 12.000000 109.691238 19.598881 591.772527 532.128140 18.119712 0.000000 0.085227
508.000000 50.629000 3.000000 -1.000000 12.000000 101.002098 19.240759 599.335953 719.368851 19.756314 0.000000 0.103723
509.000000 45.976000 4.000000 -1.000000 12.000000 92.834416 18.959631 605.250198 884.655554 21.752893 0.000000 0.110547
511.000000 59.275000 1.000000 0.000000 12.000000 117.449580 29.153636 374.621917 300.819656 16.878477 0.000000 0.012880
513.000000 61.984000 0.000000 1.000000 12.000000 123.671340 41.325046 28.618447 -13.786716 16.142254 0.000000 0.133439
514.000000 58.243000 1.000000 1.000000 12.000000 114.841137 37.730793 142.220874 311.009958 17.177392 0.000000 0.048111
515.000000 54.002000 2.000000 1.000000 12.000000 106.210105 35.017669 220.875883 558.939265 18.524128 0.000000 0.030065
516.000000 49.490000 3.000000 1.000000 12.000000 97.924500 32.905781 278.559954 762.553679 20.210718 0.000000 0.060537
517.000000 56.466000 1.000000 2.000000 12.000000 111.212923 45.503198 -120.367297 344.959856 17.717382 0.000000 0.134883
518.000000 48.042000 3.000000 2.000000 12.000000 95.271905 39.249573 95.644063 812.755092 20.819145 0.000000 0.066807
520.000000 50.205000 2.000000 3.000000 12.000000 99.360630 48.356152 -235.392421 674.002137 19.923962 0.000000 0.161509
524.000000 48.341000 -2.000000 -8.000000 13.000000 119.780055 -42.348170 1956.007788 107.646939 20.697087 0.000000 0.124253
525.000000 47.029000 -1.000000 -8.000000 13.000000 115.047022 -36.378957 1767.902594 316.291586 21.273020 0.000000 0.036901
527.000000 51.330000 -2.000000 -7.000000 13.000000 125.143298 -38.206795 1822.166777 -23.194316 19.493200 0.000000 0.103108
528.000000 49.910000 -1.000000 -7.000000 13.000000 119.824356 -31.894748 1644.797322 214.271316 20.046362 0.000000 0.018308
529.000000 48.032000 0.000000 -7.000000 13.000000 114.054474 -26.608821 1514.175305 403.664520 20.828523 0.000000 0.039541
530.000000 45.769000 1.000000 -7.000000 13.000000 108.027249 -22.188313 1413.971481 562.711638 21.856372 0.000000 0.078131
532.000000 54.222000 -2.000000 -6.000000 13.000000 130.547759 -32.897862 1671.229033 -155.654170 18.454247 0.000000 0.085130
533.000000 52.694000 -1.000000 -6.000000 13.000000 124.537288 -26.366012 1508.481576 114.249205 18.988086 0.000000 0.014746
534.000000 50.652000 0.000000 -6.000000 13.000000 118.098661 -21.114110 1390.611939 324.988700 19.752086 0.000000 0.051312
535.000000 48.181000 1.000000 -6.000000 13.000000 111.452489 -16.866048 1301.306675 499.057165 20.763176 0.000000 0.087487
537.000000 56.907000 -2.000000 -5.000000 13.000000 135.784847 -25.989307 1499.695170 -289.639602 17.584566 0.000000 0.067943
538.000000 55.274000 -1.000000 -5.000000 13.000000 128.979145 -19.527079 1356.708361 16.933592 18.102727 0.000000 0.021112
539.000000 53.071000 0.000000 -5.000000 13.000000 121.817909 -14.585493 1255.062684 250.965676 18.852408 0.000000 0.059492
540.000000 50.397000 1.000000 -5.000000 13.000000 114.533617 -10.737290 1179.093500 440.987237 19.850799 0.000000 0.093466
541.000000 47.371000 2.000000 -5.000000 13.000000 107.295728 -7.681284 1120.162709 602.825218 21.116834 0.000000 0.115380
544.000000 57.525000 -1.000000 -4.000000 13.000000 132.856988 -11.127162 1186.690461 -76.782724 17.394984 0.000000 0.022882
545.000000 55.174000 0.000000 -4.000000 13.000000 124.970498 -6.923543 1105.694663 182.666402 18.134410 0.000000 0.061614
546.000000 52.313000 1.000000 -4.000000 13.000000 117.077380 -3.777581 1046.064404 389.570385 19.124399 0.000000 0.094356
547.000000 49.074000 2.000000 -4.000000 13.000000 109.328724 -1.348223 1000.330879 563.376703 20.384212 0.000000 0.116100
548.000000 45.600000 3.000000 -4.000000 13.000000 101.831768 0.577937 964.143158 715.516062 21.935139 0.000000 0.127494
550.000000 59.318000 -1.000000 -3.000000 13.000000 135.794708 -1.060716 994.927701 -165.762827 16.869727 0.000000 0.016739
551.000000 56.841000 0.000000 -3.000000 13.000000 127.274771 1.847590 940.281214 121.406113 17.603196 0.000000 0.055671
552.000000 53.820000 1.000000 -3.000000 13.000000 118.873701 3.948138 900.717090 346.086175 18.589333 0.000000 0.088473
553.000000 50.402000 2.000000 -3.000000 13.000000 110.711348 5.532500 870.748446 532.154118 19.847753 0.000000 0.111211
554.000000 46.740000 3.000000 -3.000000 13.000000 102.874870 6.768382 847.262025 693.265952 21.400157 0.000000 0.123786
556.000000 60.531000 -1.000000 -2.000000 13.000000 137.386370 10.425728 776.963413 -248.541509 16.532007 0.000000 0.020864
557.000000 57.958000 0.000000 -2.000000 13.000000 128.453122 11.496694 756.090136 68.814360 17.264064 0.000000 0.040070
558.000000 54.818000 1.000000 -2.000000 13.000000 119.727665 12.252850 741.257534 312.077106 18.251167 0.000000 0.073932
559.000000 51.266000 2.000000 -2.000000 13.000000 111.304101 12.815039 730.174844 510.559887 19.513312 0.000000 0.099376
560.000000 47.467000 3.000000 -2.000000 13.000000 103.255039 13.249331 721.579597 680.533316 21.072644 0.000000 0.114536
562.000000 61.066000 -1.000000 -1.000000 13.000000 137.319018 22.597649 527.033754 -323.204036 16.387061 0.000000 0.061736
563.000000 58.438000 0.000000 -1.000000 13.000000 128.303558 21.560106 549.731586 26.930375 17.122513 0.000000 0.021639
564.000000 55.228000 1.000000 -1.000000 13.000000 119.502456 20.829237 565.525561 289.416431 18.115682 0.000000 0.048472
565.000000 51.601000 2.000000 -1.000000 13.000000 111.011601 20.286743 577.149734 500.259813 19.386978 0.000000 0.079214
566.000000 47.725000 3.000000 -1.000000 13.000000 102.904709 19.868179 586.062857 678.795409 20.959023 0.000000 0.099018
568.000000 57.322000 0.000000 1.000000 13.000000 123.956624 40.605812 52.314843 -13.662406 17.455225 0.000000 0.125930
569.000000 54.147000 1.000000 1.000000 13.000000 115.758566 37.331474 154.148752 287.856188 18.477045 0.000000 0.047466
570.000000 50.564000 2.000000 1.000000 13.000000 107.727747 34.816924 226.484414 521.911258 19.784239 0.000000 0.025533
571.000000 46.740000 3.000000 1.000000 13.000000 99.982336 32.832268 280.517454 715.549195 21.400509 0.000000 0.055375
573.000000 52.692000 1.000000 2.000000 13.000000 112.463281 44.663212 -88.715042 315.330823 18.986647 0.000000 0.126172
574.000000 49.226000 2.000000 2.000000 13.000000 104.889931 41.454831 24.286848 559.164511 20.321301 0.000000 0.068697
575.000000 45.527000 3.000000 2.000000 13.000000 97.519902 38.871318 107.429221 758.512263 21.969859 0.000000 0.059639
577.000000 47.423000 2.000000 3.000000 13.000000 101.441368 47.502610 -199.676534 618.558054 21.093432 0.000000 0.148057
581.000000 48.858000 -2.000000 -7.000000 14.000000 127.079998 -34.723149 1720.905016 -48.646736 20.479803 0.000000 0.080099
582.000000 47.539000 -1.000000 -7.000000 14.000000 121.776543 -28.863201 1568.244766 179.707371 21.046610 0.000000 0.010603
584.000000 49.862000 -1.000000 -6.000000 14.000000 126.017752 -23.201122 1436.325255 89.667559 20.066800 0.000000 0.017917
585.000000 45.830000 1.000000 -6.000000 14.000000 113.321865 -14.605778 1255.469557 461.491545 21.828497 0.000000 0.088499
587.000000 53.478000 -2.000000 -5.000000 14.000000 136.570767 -22.011043 1410.092434 -285.375175 18.712182 0.000000 0.051330
588.000000 51.981000 -1.000000 -5.000000 14.000000 129.923804 -16.332865 1290.400747 2.441957 19.249661 0.000000 0.024352
589.000000 50.017000 0.000000 -5.000000 14.000000 123.022954 -11.981467 1203.409558 225.853536 20.003699 0.000000 0.061051
590.000000 47.664000 1.000000 -5.000000 14.000000 116.049890 -8.576802 1137.328504 408.945540 20.989252 0.000000 0.092460
592.000000 53.800000 -1.000000 -4.000000 14.000000 133.235855 -8.096694 1128.116001 -81.164970 18.599312 0.000000 0.024324
593.000000 49.226000 1.000000 -4.000000 14.000000 118.246886 -1.823175 1009.259694 362.468750 20.324154 0.000000 0.091465
596.000000 55.225000 -1.000000 -3.000000 14.000000 135.643898 1.513829 946.556296 -160.145703 18.120019 0.000000 0.017699
597.000000 53.049000 0.000000 -3.000000 14.000000 127.630632 3.853837 902.496766 109.344204 18.861415 0.000000 0.053170
598.000000 50.433000 1.000000 -3.000000 14.000000 119.740883 5.574245 869.956852 323.152629 19.837862 0.000000 0.084107
599.000000 47.488000 2.000000 -3.000000 14.000000 112.065979 6.890189 844.941072 501.532611 21.066279 0.000000 0.106635
600.000000 56.167000 -1.000000 -2.000000 14.000000 136.837876 12.211499 742.070824 -233.225023 17.816188 0.000000 0.023440
601.000000 51.215000 1.000000 -2.000000 14.000000 120.379674 13.436089 717.874022 292.299921 19.535204 0.000000 0.068787
603.000000 56.561000 -1.000000 -1.000000 14.000000 136.598858 23.365072 510.024659 -298.769192 17.692383 0.000000 0.061758
604.000000 54.271000 0.000000 -1.000000 14.000000 128.239496 22.279139 534.037256 24.412648 18.437044 0.000000 0.021590
605.000000 51.516000 1.000000 -1.000000 14.000000 120.062408 21.493938 551.167949 271.475980 19.421182 0.000000 0.043606
606.000000 48.417000 2.000000 -1.000000 14.000000 112.146171 20.899943 564.004416 472.100227 20.662352 0.000000 0.073609
608.000000 51.305000 1.000000 0.000000 14.000000 118.764816 29.437012 367.623007 262.575666 19.500981 0.000000 0.007040
609.000000 48.198000 2.000000 0.000000 14.000000 110.978079 27.903896 405.037808 474.028760 20.755815 0.000000 0.045006
611.000000 53.308000 0.000000 1.000000 14.000000 124.195361 39.983433 72.412052 -13.440835 18.769478 0.000000 0.119682
612.000000 50.580000 1.000000 1.000000 14.000000 116.545829 36.979688 164.552165 267.911623 19.779978 0.000000 0.047092
613.000000 47.516000 2.000000 1.000000 14.000000 109.038640 34.637498 231.474229 489.582976 21.053695 0.000000 0.021702
614.000000 49.372000 1.000000 2.000000 14.000000 113.532401 43.916421 -61.335433 290.332356 20.263752 0.000000 0.119015
619.000000 46.525000 -2.000000 -7.000000 15.000000 128.656792 -31.416912 1632.408976 -67.841773 21.506957 0.000000 0.062488
620.000000 48.552000 -2.000000 -6.000000 15.000000 133.046794 -25.616104 1491.045811 -173.886327 20.609973 0.000000 0.051007
621.000000 47.252000 -1.000000 -6.000000 15.000000 127.205830 -20.266081 1372.409141 69.952645 21.175756 0.000000 0.022658
623.000000 50.378000 -2.000000 -5.000000 15.000000 137.101122 -18.403568 1333.109886 -279.707515 19.863655 0.000000 0.038698
624.000000 49.006000 -1.000000 -5.000000 15.000000 130.638947 -13.431924 1232.043274 -8.744311 20.418522 0.000000 0.027186
626.000000 51.928000 -2.000000 -4.000000 15.000000 140.543868 -9.520478 1155.505361 -384.950892 19.271509 0.000000 0.021784
627.000000 50.491000 -1.000000 -4.000000 15.000000 133.470459 -5.410213 1076.933339 -83.876653 19.818491 0.000000 0.025396
628.000000 48.642000 0.000000 -4.000000 15.000000 126.323514 -2.374558 1019.631348 149.022949 20.570215 0.000000 0.059571
629.000000 46.448000 1.000000 -4.000000 15.000000 119.223717 -0.052815 975.992126 338.894393 21.540006 0.000000 0.088420
631.000000 51.636000 -1.000000 -3.000000 15.000000 135.446950 3.740907 904.627481 -154.552740 19.379425 0.000000 0.018550
632.000000 47.426000 1.000000 -3.000000 15.000000 120.465273 7.029978 842.276017 303.096997 21.096140 0.000000 0.079897
634.000000 52.378000 -1.000000 -2.000000 15.000000 136.331344 13.726600 712.098307 -219.661450 19.105207 0.000000 0.025527
635.000000 50.398000 0.000000 -2.000000 15.000000 128.548452 14.163410 703.386903 56.502728 19.853961 0.000000 0.034410
636.000000 48.045000 1.000000 -2.000000 15.000000 120.930199 14.485937 696.933202 274.904637 20.824312 0.000000 0.064043
638.000000 52.668000 -1.000000 -1.000000 15.000000 135.969281 24.010637 495.563475 -277.803328 18.999845 0.000000 0.061662
639.000000 50.657000 0.000000 -1.000000 15.000000 128.178208 22.901356 520.325488 22.286035 19.752545 0.000000 0.021883
640.000000 48.266000 1.000000 -1.000000 15.000000 120.543708 22.080981 538.378333 255.638939 20.728894 0.000000 0.039275
641.000000 45.589000 2.000000 -1.000000 15.000000 113.131045 21.449889 552.123418 447.017837 21.944154 0.000000 0.068403
643.000000 49.818000 0.000000 1.000000 15.000000 124.397859 39.439702 89.672201 -13.164371 20.084755 0.000000 0.114405
644.000000 47.449000 1.000000 1.000000 15.000000 117.228654 36.667447 173.705812 250.549516 21.085514 0.000000 0.046899
646.000000 46.431000 1.000000 2.000000 15.000000 114.456339 43.248347 -37.418041 268.963157 21.547064 0.000000 0.113047
650.000000 47.573000 -2.000000 -5.000000 16.000000 137.439473 -15.142180 1266.256684 -273.238498 21.034845 0.000000 0.029020
651.000000 46.314000 -1.000000 -5.000000 16.000000 131.177418 -10.798607 1180.287001 -17.447766 21.605431 0.000000 0.029330
653.000000 47.537000 -1.000000 -4.000000 16.000000 133.600943 -3.022303 1031.826311 -85.402610 21.049871 0.000000 0.026076
655.000000 49.823000 -2.000000 -3.000000 16.000000 142.404508 3.603226 907.224464 -459.592803 20.085796 0.000000 0.014022
656.000000 48.467000 -1.000000 -3.000000 16.000000 135.224119 5.680869 867.934488 -149.101312 20.646309 0.000000 0.019268
657.000000 46.754000 0.000000 -3.000000 16.000000 128.091764 7.192046 839.184209 90.636711 21.401172 0.000000 0.048115
659.000000 49.057000 -1.000000 -2.000000 16.000000 135.865155 15.026523 686.073758 -207.573212 20.398188 0.000000 0.027259
661.000000 49.273000 -1.000000 -1.000000 16.000000 135.414493 24.561102 483.117590 -259.613740 20.309058 0.000000 0.061495
662.000000 47.492000 0.000000 -1.000000 16.000000 128.120198 23.444954 508.242935 20.468043 21.068836 0.000000 0.022407
665.000000 46.754000 0.000000 1.000000 16.000000 124.571634 38.960678 104.656432 -12.859081 21.400862 0.000000 0.109891
670.000000 46.091000 -2.000000 -4.000000 17.000000 140.139200 -3.793869 1046.371716 -350.855655 21.711832 0.000000 0.006404
672.000000 46.889000 -2.000000 -3.000000 17.000000 141.795669 5.750455 866.614224 -433.429857 21.342565 0.000000 0.018547
673.000000 45.652000 -1.000000 -3.000000 17.000000 134.988521 7.382177 835.554225 -143.855281 21.919404 0.000000 0.019876
676.000000 46.126000 -1.000000 -2.000000 17.000000 135.436547 16.152973 663.265339 -196.736660 21.694455 0.000000 0.028726
678.000000 46.285000 -1.000000 -1.000000 17.000000 134.922097 25.035957 472.293170 -243.681263 21.619722 0.000000 0.061290
#UB matrix in q= (UB) B0 G* 
#[[ 0.285246459  0.111304279 -0.952890328]
# [ 0.274340124  0.942419287  0.192203859]
# [ 0.918352848 -0.315879879  0.238068757]]
#B0 matrix in q= UB (B0) G*
#[[ 0.19670273 -0.          0.03056101]
# [ 0.          0.19187965 -0.        ]
# [ 0.          0.          0.18806537]]
#UBB0 matrix in q= (UB B0) G* i.e. recip. basis vectors are columns in LT frame: astar = UBB0[:,0], bstar = UBB0[:,1], cstar = UBB0[:,2]. (abcstar as columns on xyzlab1, xlab1 = ui, ui = unit vector along incident beam)
#[[ 0.05610876  0.02135703 -0.17048825]
# [ 0.05396345  0.18083109  0.044531  ]
# [ 0.18064251 -0.06061092  0.07283828]]
#Euler angles phi theta psi (deg)
#[71.011 76.217 78.581]
#deviatoric strain in direct crystal frame (10-3 unit)
#[[-3.51 -0.11  0.64]
# [-0.11 -3.58  0.09]
# [ 0.64  0.09  7.09]]
#deviatoric strain in sample2 frame (10-3 unit)
#[[-0.56 -1.3  -4.6 ]
# [-1.3  -3.14  1.86]
# [-4.59  1.86  3.7 ]]
#new lattice parameters
#[ 5.1505     5.211236   5.3134877 89.9928343 99.1976636 90.012647 ]
#CCDLabel
#sCMOS
#DetectorParameters
#[79.0, 975.0, 941.0, 0.0, 0.0]
#pixelsize
#0.0734
#Frame dimensions
#[2018, 2016]
#
