#Strain and Orientation Refinement from experimental file: /home/micha/LaueProjects/DepthEffects/testZrO2_160.cor
#File created at Wed Jun 28 14:27:54 2023 with indexingSpotsSet.py
#Number of indexed spots: 520
#Element
#ZrO2
#grainIndex
#G_0
#Mean Deviation(pixel): 0.117
##spot_index intensity h k l 2theta Chi Xexp Yexp Energy GrainIndex PixDev
13.000000 131.674000 2.000000 -1.000000 1.000000 48.368284 -26.346184 1508.017672 2008.530155 7.598454 0.000000 0.192941
14.000000 88.027000 3.000000 -1.000000 1.000000 43.311484 -17.014839 1304.361001 2134.937003 11.367185 0.000000 0.214142
15.000000 63.971000 4.000000 -1.000000 1.000000 39.896425 -11.747948 1198.829324 2255.941146 15.642457 0.000000 0.261529
17.000000 131.786000 3.000000 1.000000 1.000000 67.074254 17.915069 627.053798 1419.410991 7.590366 0.000000 0.087281
18.000000 91.010000 4.000000 1.000000 1.000000 58.073504 14.840441 689.817931 1634.767046 10.992897 0.000000 0.068655
19.000000 67.662000 5.000000 1.000000 1.000000 52.205526 13.001163 726.494876 1797.653054 14.787367 0.000000 0.103557
20.000000 53.022000 6.000000 1.000000 1.000000 48.109394 11.779594 750.550439 1927.153369 18.871509 0.000000 0.150283
21.000000 174.393000 2.000000 2.000000 1.000000 81.196657 46.730682 -168.361840 1184.181387 5.733820 0.000000 0.229520
22.000000 123.777000 3.000000 2.000000 1.000000 70.644504 34.934205 223.211094 1402.184348 8.080414 0.000000 0.141965
23.000000 90.958000 4.000000 2.000000 1.000000 62.668389 28.122394 399.771652 1571.731580 10.997803 0.000000 0.126771
24.000000 69.755000 5.000000 2.000000 1.000000 56.824543 23.801380 500.266706 1710.057319 14.342189 0.000000 0.127753
25.000000 55.540000 6.000000 2.000000 1.000000 52.467378 20.847169 565.139927 1825.766674 18.014331 0.000000 0.144535
26.000000 45.597000 7.000000 2.000000 1.000000 49.131674 18.710250 610.479873 1924.235544 21.943532 0.000000 0.169933
28.000000 106.785000 3.000000 3.000000 1.000000 70.057869 48.370667 -236.010086 1528.841619 9.365720 0.000000 0.325542
29.000000 84.448000 4.000000 3.000000 1.000000 64.348950 39.701217 81.404641 1612.773892 11.844507 0.000000 0.220568
30.000000 67.725000 5.000000 3.000000 1.000000 59.449664 33.711538 256.887761 1704.678441 14.770933 0.000000 0.189072
31.000000 55.422000 6.000000 3.000000 1.000000 55.429791 29.412033 368.241505 1792.395853 18.051210 0.000000 0.181099
32.000000 46.285000 7.000000 3.000000 1.000000 52.156116 26.208959 445.188497 1873.000128 21.616040 0.000000 0.185680
35.000000 63.219000 5.000000 4.000000 1.000000 60.503154 42.338322 -5.669147 1764.695369 15.822537 0.000000 0.287573
36.000000 53.377000 6.000000 4.000000 1.000000 57.158066 37.176175 158.753366 1812.932840 18.741629 0.000000 0.245293
37.000000 45.548000 7.000000 4.000000 1.000000 54.222846 33.188357 271.005081 1867.775415 21.964463 0.000000 0.227851
40.000000 50.206000 6.000000 5.000000 1.000000 57.934283 44.005689 -64.571852 1878.423036 19.924241 0.000000 0.340076
49.000000 83.124000 3.000000 -2.000000 2.000000 51.574202 -34.050955 1702.363154 1971.547381 12.035480 0.000000 0.222434
50.000000 53.216000 5.000000 -2.000000 2.000000 45.597918 -20.945824 1386.983431 2069.643931 18.802309 0.000000 0.196106
51.000000 161.531000 2.000000 -1.000000 2.000000 76.804606 -33.207906 1679.519376 1242.607097 6.191196 0.000000 0.120499
52.000000 114.980000 3.000000 -1.000000 2.000000 67.168004 -22.458538 1419.903467 1431.328208 8.699641 0.000000 0.104625
53.000000 85.095000 4.000000 -1.000000 2.000000 59.952457 -16.113790 1285.937032 1589.050511 11.756458 0.000000 0.071433
54.000000 65.729000 5.000000 -1.000000 2.000000 54.652708 -12.020451 1204.174972 1721.507273 15.221803 0.000000 0.064557
55.000000 52.662000 6.000000 -1.000000 2.000000 50.682528 -9.187392 1149.078582 1833.940030 18.999654 0.000000 0.092424
56.000000 140.160000 3.000000 0.000000 2.000000 81.592642 -6.893232 1105.116923 1101.232788 7.135164 0.000000 0.155322
57.000000 100.368000 4.000000 0.000000 2.000000 70.492937 -3.713396 1044.853518 1323.087306 9.966110 0.000000 0.106389
58.000000 75.810000 5.000000 0.000000 2.000000 62.897494 -1.802769 1008.875975 1492.099794 13.196135 0.000000 0.050913
59.000000 59.764000 6.000000 0.000000 2.000000 57.435216 -0.530501 984.965685 1628.416641 16.740774 0.000000 0.003248
60.000000 48.717000 7.000000 0.000000 2.000000 53.341036 0.376714 967.923368 1742.063847 20.537826 0.000000 0.049996
61.000000 148.208000 3.000000 1.000000 2.000000 90.963512 11.699647 752.117077 922.514784 6.746460 0.000000 0.161763
62.000000 107.403000 4.000000 1.000000 2.000000 78.192545 10.154875 782.219072 1169.576459 9.311887 0.000000 0.135966
63.000000 81.495000 5.000000 1.000000 2.000000 69.385265 9.247579 799.761021 1351.199651 12.274210 0.000000 0.094731
64.000000 64.305000 6.000000 1.000000 2.000000 63.018117 8.650932 811.247019 1495.276677 15.557027 0.000000 0.054769
65.000000 52.374000 7.000000 1.000000 2.000000 58.229075 8.228795 819.351448 1614.508999 19.102365 0.000000 0.036323
66.000000 186.126000 2.000000 2.000000 2.000000 108.587876 41.051880 37.679324 461.020953 5.369921 0.000000 0.095398
67.000000 139.283000 3.000000 2.000000 2.000000 93.596418 30.004202 353.495970 862.884503 7.178040 0.000000 0.096683
68.000000 105.563000 4.000000 2.000000 2.000000 82.122551 24.035272 495.008773 1104.054039 9.473196 0.000000 0.121026
69.000000 82.225000 5.000000 2.000000 2.000000 73.558413 20.372846 575.310287 1279.813466 12.164042 0.000000 0.108943
70.000000 54.166000 7.000000 2.000000 2.000000 62.052357 16.157475 663.173675 1535.497203 18.468944 0.000000 0.070439
72.000000 121.855000 3.000000 3.000000 2.000000 91.345587 44.970897 -100.201430 905.264942 8.204601 0.000000 0.163881
73.000000 97.655000 4.000000 3.000000 2.000000 82.728003 36.464908 179.603800 1111.776248 10.239691 0.000000 0.112917
74.000000 78.946000 5.000000 3.000000 2.000000 75.469092 30.785359 333.772548 1265.724900 12.668290 0.000000 0.113582
75.000000 64.839000 6.000000 3.000000 2.000000 69.547712 26.796413 431.409211 1390.677795 15.426258 0.000000 0.108030
76.000000 54.181000 7.000000 3.000000 2.000000 64.732220 23.867125 498.790658 1496.526851 18.462678 0.000000 0.099971
77.000000 46.023000 8.000000 3.000000 2.000000 60.786667 21.635502 548.093326 1588.464288 21.736612 0.000000 0.095811
79.000000 73.271000 5.000000 4.000000 2.000000 75.618058 39.961319 73.119393 1301.067440 13.648783 0.000000 0.162168
80.000000 52.767000 7.000000 4.000000 2.000000 66.345936 31.107785 325.538322 1491.610905 18.956084 0.000000 0.132417
82.000000 66.643000 5.000000 5.000000 2.000000 74.626620 47.728435 -209.011877 1380.938983 15.005891 0.000000 0.282559
83.000000 57.855000 6.000000 5.000000 2.000000 70.700824 42.137559 1.211152 1449.263134 17.286951 0.000000 0.212323
84.000000 50.379000 7.000000 5.000000 2.000000 67.072268 37.715537 142.678947 1516.506118 19.854035 0.000000 0.181536
86.000000 47.438000 7.000000 6.000000 2.000000 67.125678 43.618647 -50.609335 1568.222643 21.084113 0.000000 0.256584
92.000000 60.036000 4.000000 -3.000000 3.000000 52.677147 -37.344606 1796.241495 1973.193259 16.663553 0.000000 0.245818
93.000000 51.186000 5.000000 -3.000000 3.000000 50.472644 -31.156126 1625.701059 1978.780744 19.545741 0.000000 0.207238
94.000000 115.796000 2.000000 -2.000000 3.000000 73.872286 -49.389376 2230.262966 1419.127632 8.636254 0.000000 0.279704
95.000000 94.852000 3.000000 -2.000000 3.000000 69.100421 -37.965347 1814.845448 1462.304721 10.544587 0.000000 0.157062
96.000000 77.056000 4.000000 -2.000000 3.000000 64.186971 -29.879988 1593.396545 1541.415733 12.981382 0.000000 0.126370
97.000000 63.168000 5.000000 -2.000000 3.000000 59.816817 -24.070138 1455.776650 1626.611448 15.836852 0.000000 0.106371
98.000000 52.574000 6.000000 -2.000000 3.000000 56.115943 -19.775095 1361.961396 1709.101644 19.029651 0.000000 0.094846
99.000000 154.408000 2.000000 -1.000000 3.000000 94.692724 -39.239363 1854.036147 826.928035 6.474631 0.000000 0.078312
100.000000 119.834000 3.000000 -1.000000 3.000000 84.540713 -27.564528 1536.824866 1057.034578 8.344499 0.000000 0.125447
101.000000 93.490000 4.000000 -1.000000 3.000000 75.928696 -20.332691 1373.831616 1228.699781 10.697818 0.000000 0.127767
102.000000 74.408000 5.000000 -1.000000 3.000000 69.079660 -15.554457 1274.584763 1368.075895 13.443091 0.000000 0.103898
103.000000 60.590000 6.000000 -1.000000 3.000000 63.675761 -12.205154 1207.804398 1485.819048 16.510536 0.000000 0.072676
104.000000 50.411000 7.000000 -1.000000 3.000000 59.370491 -9.742643 1159.798903 1587.592365 19.846010 0.000000 0.045493
105.000000 188.308000 2.000000 1.000000 3.000000 127.522137 4.730889 885.928313 111.643902 5.306328 0.000000 0.069978
106.000000 144.245000 3.000000 1.000000 3.000000 108.126419 5.104646 878.855317 587.260437 6.929554 0.000000 0.157104
107.000000 111.253000 4.000000 1.000000 3.000000 94.118694 5.280223 875.529889 863.167015 8.986973 0.000000 0.173322
108.000000 87.654000 5.000000 1.000000 3.000000 83.812418 5.382210 873.597394 1058.203693 11.408824 0.000000 0.158647
109.000000 70.736000 6.000000 1.000000 3.000000 76.027917 5.448857 872.334195 1210.008906 14.139530 0.000000 0.131323
110.000000 58.379000 7.000000 1.000000 3.000000 69.991987 5.495819 871.443911 1334.719398 17.134268 0.000000 0.099541
111.000000 49.142000 8.000000 1.000000 3.000000 65.199586 5.530696 870.782648 1440.653245 20.356490 0.000000 0.067469
112.000000 172.912000 2.000000 2.000000 3.000000 127.626929 34.019744 248.490579 -59.988726 5.778651 0.000000 0.104131
113.000000 137.878000 3.000000 2.000000 3.000000 111.057445 24.449956 485.639297 485.788845 7.248989 0.000000 0.079421
114.000000 109.410000 4.000000 2.000000 3.000000 97.945644 19.624623 591.227582 781.513754 9.137450 0.000000 0.137808
115.000000 87.855000 5.000000 2.000000 3.000000 87.813385 16.755504 650.959434 983.917366 11.381574 0.000000 0.147174
116.000000 71.790000 6.000000 2.000000 3.000000 79.925406 14.862314 689.378149 1138.843729 13.930751 0.000000 0.135290
117.000000 59.737000 7.000000 2.000000 3.000000 73.685639 13.522178 716.163939 1265.004907 16.743536 0.000000 0.114332
118.000000 50.557000 8.000000 2.000000 3.000000 68.662062 12.524641 735.905626 1371.700256 19.785670 0.000000 0.090503
119.000000 102.281000 4.000000 3.000000 3.000000 98.206949 32.894328 278.865132 756.130996 9.773905 0.000000 0.072631
120.000000 84.441000 5.000000 3.000000 3.000000 89.393928 27.642856 411.301473 953.852430 11.841018 0.000000 0.111589
121.000000 59.384000 7.000000 3.000000 3.000000 76.144729 21.423187 552.702336 1226.167127 16.841709 0.000000 0.114944
122.000000 50.761000 8.000000 3.000000 3.000000 71.201175 19.452043 594.877746 1329.554299 19.704535 0.000000 0.101965
124.000000 92.543000 4.000000 4.000000 3.000000 96.034786 44.042997 -65.927343 782.707144 10.802454 0.000000 0.139471
125.000000 78.744000 5.000000 4.000000 3.000000 89.040147 37.383757 152.594253 963.694082 12.697238 0.000000 0.097212
126.000000 67.156000 6.000000 4.000000 3.000000 82.826628 32.545463 288.123684 1101.694041 14.890304 0.000000 0.106370
127.000000 57.656000 7.000000 4.000000 3.000000 77.451967 28.918710 380.394977 1214.681814 17.345717 0.000000 0.110981
128.000000 49.926000 8.000000 4.000000 3.000000 72.842728 26.119763 447.268443 1311.083928 20.033095 0.000000 0.107992
130.000000 72.028000 5.000000 5.000000 3.000000 87.408747 45.689811 -127.527425 1010.730324 13.881183 0.000000 0.187222
131.000000 62.869000 6.000000 5.000000 3.000000 82.393401 40.137427 67.473813 1129.010990 15.905172 0.000000 0.136223
132.000000 54.977000 7.000000 5.000000 3.000000 77.799192 35.808692 198.503859 1227.961910 18.190299 0.000000 0.124280
133.000000 48.297000 8.000000 5.000000 3.000000 73.689233 32.375587 292.605999 1313.917814 20.707880 0.000000 0.120392
136.000000 51.752000 7.000000 6.000000 3.000000 77.420470 41.990995 6.206534 1264.143732 19.323474 0.000000 0.175874
137.000000 46.135000 8.000000 6.000000 3.000000 73.885382 38.123233 130.372517 1336.271251 21.677886 0.000000 0.153054
140.000000 48.302000 7.000000 7.000000 3.000000 76.539262 47.447641 -197.416322 1321.939415 20.703329 0.000000 0.266135
143.000000 46.860000 5.000000 -4.000000 4.000000 53.216844 -39.160102 1851.556891 1978.778916 21.348511 0.000000 0.261818
145.000000 76.345000 3.000000 -3.000000 4.000000 68.233997 -48.112258 2175.065993 1584.647680 13.100108 0.000000 0.286703
146.000000 66.333000 4.000000 -3.000000 4.000000 65.342614 -40.056286 1879.921402 1586.495700 15.078736 0.000000 0.191310
147.000000 57.278000 5.000000 -3.000000 4.000000 62.254403 -33.722116 1693.399426 1621.693832 17.464101 0.000000 0.153791
148.000000 49.551000 6.000000 -3.000000 4.000000 59.293108 -28.724603 1564.854736 1669.934695 20.188852 0.000000 0.133072
150.000000 96.059000 3.000000 -2.000000 4.000000 82.271858 -41.541282 1928.608081 1136.141358 10.409646 0.000000 0.133059
151.000000 67.894000 5.000000 -2.000000 4.000000 71.683225 -27.069948 1525.055448 1341.133949 14.731546 0.000000 0.117395
152.000000 49.184000 7.000000 -2.000000 4.000000 63.279226 -18.909628 1343.699965 1513.717719 20.339042 0.000000 0.087362
153.000000 138.345000 2.000000 -1.000000 4.000000 106.117010 -44.472276 2031.648199 505.171630 7.224872 0.000000 0.124613
154.000000 114.631000 3.000000 -1.000000 4.000000 96.952600 -32.290302 1655.150034 785.740950 8.721136 0.000000 0.087777
155.000000 94.011000 4.000000 -1.000000 4.000000 88.315265 -24.368869 1462.523787 975.752871 10.635969 0.000000 0.135712
156.000000 77.485000 5.000000 -1.000000 4.000000 80.920328 -18.995728 1345.508080 1122.909036 12.906393 0.000000 0.141408
157.000000 64.605000 6.000000 -1.000000 4.000000 74.775213 -15.173502 1266.888254 1244.503584 15.481458 0.000000 0.127624
158.000000 54.602000 7.000000 -1.000000 4.000000 69.694106 -12.338599 1210.429771 1348.675782 18.319506 0.000000 0.105240
159.000000 46.776000 8.000000 -1.000000 4.000000 65.472318 -10.162042 1167.919882 1439.950896 21.386142 0.000000 0.079689
160.000000 156.500000 2.000000 0.000000 4.000000 124.449004 -30.190511 1601.179631 86.832046 6.385004 0.000000 0.037940
161.000000 127.888000 3.000000 0.000000 4.000000 110.430930 -19.209139 1349.997823 516.429826 7.815458 0.000000 0.117388
162.000000 103.685000 4.000000 0.000000 4.000000 98.640998 -13.166800 1226.784671 773.021985 9.641937 0.000000 0.163835
163.000000 84.676000 5.000000 0.000000 4.000000 89.167998 -9.421816 1153.600439 956.843886 11.808791 0.000000 0.169020
164.000000 58.873000 7.000000 0.000000 4.000000 75.483110 -5.077701 1070.634497 1220.785138 16.988685 0.000000 0.132802
165.000000 161.389000 2.000000 1.000000 4.000000 137.624253 -5.972049 1087.592265 -245.132491 6.190549 0.000000 0.016814
166.000000 132.661000 3.000000 1.000000 4.000000 120.099102 -1.719080 1007.302394 316.835636 7.533046 0.000000 0.115012
167.000000 108.017000 4.000000 1.000000 4.000000 106.343579 0.278739 969.763881 625.376970 9.253981 0.000000 0.164922
168.000000 88.450000 5.000000 1.000000 4.000000 95.592471 1.436457 948.010679 835.578091 11.303471 0.000000 0.176497
169.000000 73.311000 6.000000 1.000000 4.000000 87.107728 2.191346 933.815748 995.416962 13.640030 0.000000 0.168292
170.000000 61.624000 7.000000 1.000000 4.000000 80.313721 2.722327 923.822905 1124.916642 16.228875 0.000000 0.150065
171.000000 52.530000 8.000000 1.000000 4.000000 74.788388 3.116091 916.406821 1234.090276 19.040623 0.000000 0.126965
173.000000 128.856000 3.000000 2.000000 4.000000 123.886773 18.269695 619.681127 179.747180 7.754939 0.000000 0.052149
174.000000 106.768000 4.000000 2.000000 4.000000 110.408794 14.908794 688.443338 526.591291 9.361415 0.000000 0.127790
175.000000 88.574000 5.000000 2.000000 4.000000 99.620242 12.964434 727.221506 753.795377 11.286743 0.000000 0.157523
176.000000 62.706000 7.000000 2.000000 4.000000 83.948357 10.811953 769.453173 1057.166175 15.947749 0.000000 0.152433
177.000000 46.527000 9.000000 2.000000 4.000000 73.409264 9.649000 792.011520 1266.269350 21.497441 0.000000 0.115994
178.000000 119.094000 3.000000 3.000000 4.000000 122.083933 36.531090 177.679965 101.287369 8.390640 0.000000 0.094135
179.000000 101.172000 4.000000 3.000000 4.000000 110.845059 28.967183 379.205965 472.585345 9.878958 0.000000 0.048987
180.000000 85.603000 5.000000 3.000000 4.000000 101.176140 24.280179 489.482664 707.719000 11.677785 0.000000 0.111306
181.000000 72.703000 6.000000 3.000000 4.000000 93.067869 21.130018 559.044634 879.157314 13.752075 0.000000 0.135584
182.000000 62.218000 7.000000 3.000000 4.000000 86.300103 18.879789 606.926219 1014.556245 16.071865 0.000000 0.139807
183.000000 53.734000 8.000000 3.000000 4.000000 80.629894 17.196828 641.896570 1126.913786 18.611386 0.000000 0.133112
184.000000 46.849000 9.000000 3.000000 4.000000 75.844714 15.892713 668.557505 1223.239032 21.348352 0.000000 0.120543
186.000000 80.534000 5.000000 4.000000 4.000000 100.665442 34.590977 232.764441 694.778792 12.412668 0.000000 0.058719
187.000000 60.446000 7.000000 4.000000 4.000000 87.439988 26.619321 435.577931 994.827037 16.542076 0.000000 0.116094
188.000000 46.413000 9.000000 4.000000 4.000000 77.532662 22.005543 540.027765 1197.663630 21.547891 0.000000 0.117369
189.000000 84.057000 4.000000 5.000000 4.000000 104.820368 50.731965 -341.472421 491.076641 11.891047 0.000000 0.289319
190.000000 74.377000 5.000000 5.000000 4.000000 98.725229 43.470163 -45.300424 713.393880 13.440165 0.000000 0.127206
191.000000 65.536000 6.000000 5.000000 4.000000 92.893707 37.996210 134.221399 871.963648 15.255303 0.000000 0.087273
192.000000 57.762000 7.000000 5.000000 4.000000 87.555508 33.793151 254.670092 996.288257 17.310209 0.000000 0.097279
193.000000 51.066000 8.000000 5.000000 4.000000 82.772308 30.497247 341.083886 1099.411834 19.581978 0.000000 0.107944
194.000000 67.918000 5.000000 6.000000 4.000000 95.965052 50.859950 -347.489954 762.837525 14.718742 0.000000 0.283932
195.000000 54.528000 7.000000 6.000000 4.000000 86.886860 40.264568 63.379752 1017.713437 18.336637 0.000000 0.120992
197.000000 56.217000 6.000000 7.000000 4.000000 89.289656 50.942703 -351.398420 962.178347 17.784332 0.000000 0.295510
198.000000 51.044000 7.000000 7.000000 4.000000 85.671200 45.991726 -139.213288 1058.264644 19.588461 0.000000 0.198359
199.000000 46.280000 8.000000 7.000000 4.000000 82.152186 41.879293 9.998265 1140.245920 21.606231 0.000000 0.154205
200.000000 47.527000 7.000000 8.000000 4.000000 84.109932 51.000602 -354.141283 1117.439668 21.038141 0.000000 0.312863
205.000000 56.585000 4.000000 -4.000000 5.000000 65.149161 -47.451610 2147.579342 1678.160357 17.675756 0.000000 0.294234
206.000000 50.792000 5.000000 -4.000000 5.000000 63.132115 -41.228690 1918.176804 1666.020361 19.692916 0.000000 0.215950
208.000000 77.081000 3.000000 -3.000000 5.000000 78.873681 -50.609823 2285.760197 1274.556063 12.972758 0.000000 0.282390
209.000000 68.304000 4.000000 -3.000000 5.000000 75.660876 -42.588524 1964.305534 1314.695465 14.641121 0.000000 0.168373
210.000000 60.007000 5.000000 -3.000000 5.000000 72.159962 -36.159559 1761.562323 1370.031452 16.667087 0.000000 0.136888
211.000000 52.636000 6.000000 -3.000000 5.000000 68.723069 -31.012443 1622.021014 1430.035428 19.002340 0.000000 0.124564
212.000000 46.295000 7.000000 -3.000000 5.000000 65.517687 -26.860965 1520.113569 1490.368142 21.606895 0.000000 0.113393
214.000000 92.364000 3.000000 -2.000000 5.000000 92.182096 -44.796424 2043.673038 883.207731 10.824153 0.000000 0.133518
215.000000 80.100000 4.000000 -2.000000 5.000000 86.782814 -36.326932 1766.395930 1016.092218 12.482923 0.000000 0.101470
216.000000 69.071000 5.000000 -2.000000 5.000000 81.462672 -29.937125 1594.824984 1127.447173 14.477842 0.000000 0.119834
217.000000 59.650000 6.000000 -2.000000 5.000000 76.579112 -25.057080 1478.190261 1224.505945 16.766205 0.000000 0.124347
218.000000 51.791000 7.000000 -2.000000 5.000000 72.238187 -21.259230 1393.747569 1310.944072 19.312248 0.000000 0.117041
220.000000 106.084000 3.000000 -1.000000 5.000000 105.896147 -36.619817 1774.904402 559.106194 9.422171 0.000000 0.035106
221.000000 90.553000 4.000000 -1.000000 5.000000 97.857366 -28.196714 1552.024449 772.468498 11.040099 0.000000 0.108197
222.000000 77.044000 5.000000 -1.000000 5.000000 90.521307 -22.324153 1416.950563 930.413585 12.977840 0.000000 0.142381
223.000000 65.802000 6.000000 -1.000000 5.000000 84.128376 -18.078173 1326.333435 1057.433333 15.197056 0.000000 0.148850
224.000000 56.614000 7.000000 -1.000000 5.000000 78.650088 -14.897353 1261.326515 1164.554123 17.665301 0.000000 0.140902
225.000000 49.138000 8.000000 -1.000000 5.000000 73.972635 -12.439524 1212.417108 1257.611608 20.354930 0.000000 0.125357
227.000000 119.674000 3.000000 1.000000 5.000000 128.405485 -8.585370 1137.493104 78.102722 8.349471 0.000000 0.061122
228.000000 101.649000 4.000000 1.000000 5.000000 115.619919 -4.776521 1064.934816 423.067294 9.832103 0.000000 0.133813
229.000000 86.092000 5.000000 1.000000 5.000000 105.073851 -2.553962 1023.007664 650.832197 11.611022 0.000000 0.167543
230.000000 73.221000 6.000000 1.000000 5.000000 96.405379 -1.101575 995.695510 820.149605 13.654309 0.000000 0.177095
231.000000 62.752000 7.000000 1.000000 5.000000 89.244666 -0.079362 976.490798 955.189694 15.934470 0.000000 0.172676
232.000000 54.268000 8.000000 1.000000 5.000000 83.279020 0.678700 962.250115 1067.843980 18.427694 0.000000 0.160216
233.000000 47.370000 9.000000 1.000000 5.000000 78.260371 1.263094 951.269083 1164.720654 21.113260 0.000000 0.143197
235.000000 117.646000 3.000000 2.000000 5.000000 133.177473 11.518544 755.662670 -89.669122 8.492751 0.000000 0.025409
236.000000 101.012000 4.000000 2.000000 5.000000 120.074921 9.925052 786.671615 308.253638 9.893302 0.000000 0.102262
237.000000 86.307000 5.000000 2.000000 5.000000 109.244693 9.022212 804.103982 560.545933 11.581162 0.000000 0.147619
238.000000 73.905000 6.000000 2.000000 5.000000 100.299695 8.441255 815.274731 743.268053 13.526868 0.000000 0.166548
239.000000 63.665000 7.000000 2.000000 5.000000 92.874164 8.036163 823.043915 886.427957 15.704856 0.000000 0.169331
240.000000 55.269000 8.000000 2.000000 5.000000 86.661065 7.737604 828.759934 1004.369563 18.092830 0.000000 0.162438
241.000000 48.380000 9.000000 2.000000 5.000000 81.415227 7.508450 833.141682 1104.886876 20.671262 0.000000 0.149797
242.000000 111.055000 3.000000 3.000000 5.000000 132.479679 31.329260 319.849758 -212.766772 8.996724 0.000000 0.113428
243.000000 96.920000 4.000000 3.000000 5.000000 120.989059 24.669936 480.644004 229.650029 10.310690 0.000000 0.030918
244.000000 83.961000 5.000000 3.000000 5.000000 110.980823 20.698970 568.324388 499.782153 11.904142 0.000000 0.101046
245.000000 72.703000 6.000000 3.000000 5.000000 102.447953 18.085161 623.521300 691.069301 13.749738 0.000000 0.136920
246.000000 63.183000 7.000000 3.000000 5.000000 95.209914 16.241354 661.465029 838.782478 15.823592 0.000000 0.151449
247.000000 55.229000 8.000000 3.000000 5.000000 89.058388 14.873582 689.151563 959.302902 18.104742 0.000000 0.153137
248.000000 48.604000 9.000000 3.000000 5.000000 83.803271 13.819674 710.244857 1061.344496 20.574717 0.000000 0.147016
250.000000 90.566000 4.000000 4.000000 5.000000 119.027394 37.722217 142.478397 185.901559 11.034158 0.000000 0.090388
251.000000 79.754000 5.000000 4.000000 5.000000 110.570194 31.569877 313.639123 466.924355 12.531922 0.000000 0.031378
252.000000 70.017000 6.000000 4.000000 5.000000 102.974031 27.306315 419.332851 661.934462 14.276710 0.000000 0.089620
253.000000 61.538000 7.000000 4.000000 5.000000 96.299767 24.209037 491.090105 810.723314 16.246118 0.000000 0.120114
254.000000 54.280000 8.000000 4.000000 5.000000 90.482675 21.869653 542.994520 931.229665 18.420372 0.000000 0.133182
255.000000 48.117000 9.000000 4.000000 5.000000 85.419090 20.045918 582.283808 1032.796887 20.781952 0.000000 0.135553
257.000000 66.334000 6.000000 5.000000 5.000000 102.187750 35.705085 201.459250 654.727698 15.069358 0.000000 0.052215
258.000000 59.033000 7.000000 5.000000 5.000000 96.313280 31.664778 311.180787 801.096635 16.935160 0.000000 0.083311
259.000000 52.613000 8.000000 5.000000 5.000000 91.026889 28.533001 389.816967 919.040837 19.003504 0.000000 0.106653
260.000000 47.038000 9.000000 5.000000 5.000000 86.312748 26.048028 448.938925 1018.202066 21.257739 0.000000 0.118016
262.000000 68.696000 5.000000 6.000000 5.000000 105.645126 48.981707 -262.336871 481.727163 14.549694 0.000000 0.244878
263.000000 62.105000 6.000000 6.000000 5.000000 100.468073 43.081395 -31.523018 668.733571 16.095470 0.000000 0.119994
264.000000 55.977000 7.000000 6.000000 5.000000 95.484743 38.433529 120.913701 809.068218 17.859303 0.000000 0.081154
265.000000 50.436000 8.000000 6.000000 5.000000 90.836350 34.722946 229.100620 921.883867 19.823464 0.000000 0.088735
266.000000 45.508000 9.000000 6.000000 5.000000 86.574633 31.715565 309.863128 1016.730900 21.972095 0.000000 0.101914
268.000000 57.690000 6.000000 7.000000 5.000000 98.166143 49.411448 -281.241991 703.616239 17.327839 0.000000 0.245935
269.000000 52.639000 7.000000 7.000000 5.000000 94.056639 44.444720 -80.632141 834.082734 18.991885 0.000000 0.149312
270.000000 47.943000 8.000000 7.000000 5.000000 90.076016 40.360672 60.274895 939.126002 20.854093 0.000000 0.111025
272.000000 49.224000 7.000000 8.000000 5.000000 92.242185 49.708185 -294.490257 875.835416 20.310126 0.000000 0.257987
278.000000 52.548000 5.000000 -4.000000 6.000000 71.585975 -43.186810 1985.241450 1432.448670 19.032128 0.000000 0.193438
279.000000 67.690000 4.000000 -3.000000 6.000000 84.055411 -44.949610 2049.402819 1099.352862 14.771644 0.000000 0.160707
280.000000 60.488000 5.000000 -3.000000 6.000000 80.445090 -38.469711 1830.194549 1172.398433 16.531906 0.000000 0.122641
281.000000 47.933000 7.000000 -3.000000 6.000000 73.328716 -28.917808 1569.582909 1309.228739 20.865754 0.000000 0.119615
282.000000 86.807000 3.000000 -2.000000 6.000000 99.735298 -47.753735 2160.062812 666.343188 11.515375 0.000000 0.178521
283.000000 68.088000 5.000000 -2.000000 6.000000 89.493697 -32.666884 1665.090490 952.298206 14.684687 0.000000 0.103611
284.000000 52.818000 7.000000 -2.000000 6.000000 80.003982 -23.547727 1444.052498 1147.934535 18.934087 0.000000 0.131757
286.000000 97.076000 3.000000 -1.000000 6.000000 112.462442 -40.557568 1896.114023 355.297387 10.295279 0.000000 0.081480
287.000000 85.437000 4.000000 -1.000000 6.000000 105.242579 -31.800538 1642.344709 595.917091 11.699471 0.000000 0.061928
288.000000 74.649000 5.000000 -1.000000 6.000000 98.284936 -25.523930 1488.917932 767.324873 13.392185 0.000000 0.121169
289.000000 65.163000 6.000000 -1.000000 6.000000 91.960328 -20.906804 1386.143266 901.564761 15.343690 0.000000 0.146728
290.000000 57.048000 7.000000 -1.000000 6.000000 86.359067 -17.409745 1312.491237 1012.774731 17.528205 0.000000 0.153238
291.000000 50.195000 8.000000 -1.000000 6.000000 81.450936 -14.687997 1257.119544 1108.261587 19.923260 0.000000 0.148763
293.000000 91.377000 4.000000 0.000000 6.000000 114.898263 -22.107100 1412.193156 401.799548 10.937328 0.000000 0.084942
294.000000 79.490000 5.000000 0.000000 6.000000 106.227440 -16.827943 1300.525234 613.734547 12.574894 0.000000 0.139801
295.000000 60.314000 7.000000 0.000000 6.000000 92.091859 -10.498686 1174.453818 901.017875 16.577529 0.000000 0.170130
296.000000 52.914000 8.000000 0.000000 6.000000 86.454773 -8.475906 1135.390571 1008.418132 18.897861 0.000000 0.165901
298.000000 107.565000 3.000000 1.000000 6.000000 134.180531 -15.301109 1269.463193 -143.377784 9.288592 0.000000 0.030877
299.000000 94.328000 4.000000 1.000000 6.000000 122.647734 -9.807673 1161.056739 241.189339 10.593898 0.000000 0.092247
300.000000 82.141000 5.000000 1.000000 6.000000 112.662816 -6.550813 1098.595243 488.643454 12.167809 0.000000 0.143404
301.000000 71.478000 6.000000 1.000000 6.000000 104.147241 -4.408522 1057.977363 668.904914 13.985091 0.000000 0.168460
302.000000 62.394000 7.000000 1.000000 6.000000 96.905862 -2.896138 1029.449989 810.475640 16.023574 0.000000 0.176810
303.000000 54.748000 8.000000 1.000000 6.000000 90.732032 -1.772888 1008.314113 927.241542 18.263703 0.000000 0.174697
304.000000 48.337000 9.000000 1.000000 6.000000 85.440864 -0.906318 992.026487 1026.834769 20.688160 0.000000 0.166027
305.000000 106.637000 3.000000 2.000000 6.000000 139.846681 4.323645 893.626335 -338.370058 9.368733 0.000000 0.011231
306.000000 82.477000 5.000000 2.000000 6.000000 117.028133 4.958895 881.614465 389.871937 12.117266 0.000000 0.125926
307.000000 63.202000 7.000000 2.000000 6.000000 100.566299 5.205851 876.938731 739.400592 15.817461 0.000000 0.170906
308.000000 49.228000 9.000000 2.000000 6.000000 88.587917 5.337185 874.450622 967.646703 20.312210 0.000000 0.168361
309.000000 91.277000 4.000000 3.000000 6.000000 129.058567 20.002988 583.197345 11.541150 10.946812 0.000000 0.024279
310.000000 80.732000 5.000000 3.000000 6.000000 119.062759 16.907882 647.835052 315.834595 12.378568 0.000000 0.083739
311.000000 62.799000 7.000000 3.000000 6.000000 102.952440 13.514248 716.321515 686.409597 15.918024 0.000000 0.151271
312.000000 55.577000 8.000000 3.000000 6.000000 96.524186 12.487152 736.644509 814.929239 17.988942 0.000000 0.161024
314.000000 77.383000 5.000000 4.000000 6.000000 118.924040 28.310218 395.227624 265.465516 12.914191 0.000000 0.013665
315.000000 61.362000 7.000000 4.000000 6.000000 104.082777 21.688787 546.934453 650.426299 16.290346 0.000000 0.117628
316.000000 48.923000 9.000000 4.000000 6.000000 92.554906 18.026945 624.731109 890.495339 20.436920 0.000000 0.146330
318.000000 72.986000 5.000000 5.000000 6.000000 117.096015 38.416915 121.422203 238.171562 13.692400 0.000000 0.089049
319.000000 65.772000 6.000000 5.000000 6.000000 110.331698 33.255873 269.192789 464.085236 15.195951 0.000000 0.024429
320.000000 59.131000 7.000000 5.000000 6.000000 104.099568 29.420208 368.039122 630.638111 16.904618 0.000000 0.072798
321.000000 53.168000 8.000000 5.000000 6.000000 98.461376 26.481758 438.807262 762.119645 18.802852 0.000000 0.105300
322.000000 47.891000 9.000000 5.000000 6.000000 93.404323 24.169923 491.973119 870.822769 20.876636 0.000000 0.123211
323.000000 68.049000 5.000000 6.000000 6.000000 114.165763 46.930136 -176.366373 233.809597 14.686170 0.000000 0.228349
324.000000 56.362000 7.000000 6.000000 6.000000 103.221420 36.492167 178.811806 626.464496 17.735236 0.000000 0.050266
326.000000 58.054000 6.000000 7.000000 6.000000 106.179486 47.765000 -210.531057 476.425308 17.216805 0.000000 0.216852
327.000000 53.283000 7.000000 7.000000 6.000000 101.688311 42.800280 -21.669186 637.534285 18.760085 0.000000 0.115313
328.000000 48.793000 8.000000 7.000000 6.000000 97.344331 38.761402 110.830313 763.095254 20.488120 0.000000 0.077537
329.000000 50.081000 7.000000 8.000000 6.000000 99.720262 48.333720 -234.438533 663.670477 19.959966 0.000000 0.220521
333.000000 46.094000 5.000000 -5.000000 7.000000 70.571166 -48.630077 2197.108907 1515.401010 21.696807 0.000000 0.282679
335.000000 57.564000 4.000000 -4.000000 7.000000 81.160888 -51.199625 2313.622176 1208.106883 17.370590 0.000000 0.287153
336.000000 52.825000 5.000000 -4.000000 7.000000 78.781379 -45.038862 2052.755297 1243.104984 18.930019 0.000000 0.182947
337.000000 48.175000 6.000000 -4.000000 7.000000 76.159887 -39.794682 1871.565360 1286.109366 20.758729 0.000000 0.143566
339.000000 65.667000 4.000000 -3.000000 7.000000 90.916218 -47.149087 2135.222335 915.690952 15.224831 0.000000 0.173644
340.000000 59.578000 5.000000 -3.000000 7.000000 87.376787 -40.655354 1899.300966 1005.999289 16.782336 0.000000 0.109173
341.000000 53.770000 6.000000 -3.000000 7.000000 83.713308 -35.310420 1737.352722 1086.301773 18.596746 0.000000 0.109316
342.000000 48.442000 7.000000 -3.000000 7.000000 80.134358 -30.905979 1619.301397 1159.153804 20.643501 0.000000 0.118683
343.000000 80.831000 3.000000 -2.000000 7.000000 105.590623 -50.438558 2277.800414 469.474813 12.365457 0.000000 0.254908
344.000000 73.335000 4.000000 -2.000000 7.000000 101.013388 -41.951466 1942.450138 659.343131 13.630836 0.000000 0.082251
345.000000 65.907000 5.000000 -2.000000 7.000000 96.102141 -35.257372 1735.857274 800.088960 15.168673 0.000000 0.076349
346.000000 58.975000 6.000000 -2.000000 7.000000 91.264915 -29.976503 1595.810404 913.564875 16.953253 0.000000 0.111574
347.000000 52.733000 7.000000 -2.000000 7.000000 86.710349 -25.770467 1494.616742 1009.695984 18.962003 0.000000 0.131068
348.000000 47.226000 8.000000 -2.000000 7.000000 82.524914 -22.375462 1418.077326 1093.719099 21.175019 0.000000 0.137610
349.000000 88.668000 3.000000 -1.000000 7.000000 117.386344 -44.122061 2018.805584 164.283283 11.270597 0.000000 0.169961
350.000000 79.869000 4.000000 -1.000000 7.000000 111.014596 -35.173466 1733.495877 435.177471 12.513775 0.000000 0.016742
351.000000 71.303000 5.000000 -1.000000 7.000000 104.580150 -28.583637 1561.415994 622.187507 14.018854 0.000000 0.086611
352.000000 63.425000 6.000000 -1.000000 7.000000 98.509492 -23.649141 1446.321113 765.200649 15.762168 0.000000 0.129589
353.000000 56.414000 7.000000 -1.000000 7.000000 92.970350 -19.867657 1363.926057 881.617882 17.722819 0.000000 0.149711
354.000000 50.292000 8.000000 -1.000000 7.000000 87.998224 -16.901238 1302.028610 980.316612 19.882284 0.000000 0.156013
355.000000 96.952000 3.000000 1.000000 7.000000 138.207928 -21.697237 1403.249391 -354.920363 10.304849 0.000000 0.079470
356.000000 87.091000 4.000000 1.000000 7.000000 127.986510 -14.739014 1258.143974 71.917380 11.473169 0.000000 0.049185
357.000000 77.551000 5.000000 1.000000 7.000000 118.733912 -10.515494 1174.780421 340.838482 12.886569 0.000000 0.110880
358.000000 68.815000 6.000000 1.000000 7.000000 110.573885 -7.707556 1120.665238 533.324217 14.524637 0.000000 0.148962
359.000000 61.069000 7.000000 1.000000 7.000000 103.447473 -5.714466 1082.702901 682.362657 16.369168 0.000000 0.168720
360.000000 54.324000 8.000000 1.000000 7.000000 97.238770 -4.229772 1054.600412 803.919073 18.403870 0.000000 0.176219
361.000000 48.504000 9.000000 1.000000 7.000000 91.822366 -3.082376 1032.957976 906.705904 20.614122 0.000000 0.175566
363.000000 87.226000 4.000000 2.000000 7.000000 133.242027 -0.597782 986.229670 -71.249367 11.454600 0.000000 0.036535
364.000000 77.986000 5.000000 2.000000 7.000000 123.301786 0.811200 959.760679 233.887916 12.813713 0.000000 0.097945
365.000000 69.444000 6.000000 2.000000 7.000000 114.658102 1.710278 942.863098 446.692978 14.391929 0.000000 0.138743
366.000000 61.808000 7.000000 2.000000 7.000000 107.159478 2.333554 931.140217 608.389389 16.172144 0.000000 0.162110
367.000000 55.113000 8.000000 2.000000 7.000000 100.647680 2.790961 922.530634 738.409515 18.138990 0.000000 0.173053
368.000000 49.304000 9.000000 2.000000 7.000000 94.975717 3.140894 915.939510 847.155109 20.278619 0.000000 0.175429
370.000000 85.253000 4.000000 3.000000 7.000000 135.442440 14.986258 686.884484 -190.532148 11.719297 0.000000 0.028547
371.000000 76.743000 5.000000 3.000000 7.000000 125.689767 12.923897 728.023205 147.802260 13.020684 0.000000 0.062945
372.000000 68.752000 6.000000 3.000000 7.000000 117.126638 11.612930 753.815379 378.077704 14.536190 0.000000 0.111866
373.000000 61.510000 7.000000 3.000000 7.000000 109.639686 10.706868 771.498463 550.103311 16.249692 0.000000 0.142649
374.000000 55.087000 8.000000 3.000000 7.000000 103.096038 10.043521 784.377210 686.720245 18.146646 0.000000 0.159620
375.000000 49.459000 9.000000 3.000000 7.000000 97.365746 9.537007 794.175396 799.918117 20.213900 0.000000 0.166861
376.000000 81.654000 4.000000 4.000000 7.000000 134.671896 29.914651 355.737056 -286.590328 12.235926 0.000000 0.116886
377.000000 74.142000 5.000000 4.000000 7.000000 125.927224 24.806263 477.539439 81.839918 13.477317 0.000000 0.019952
378.000000 66.944000 6.000000 4.000000 7.000000 117.980784 21.436195 552.420352 326.692471 14.928305 0.000000 0.066420
379.000000 60.306000 7.000000 4.000000 7.000000 110.875266 19.061285 603.113966 506.724023 16.573647 0.000000 0.109397
380.000000 54.328000 8.000000 4.000000 7.000000 104.564547 17.302998 639.709876 648.102375 18.399545 0.000000 0.135463
381.000000 49.021000 9.000000 4.000000 7.000000 98.970877 15.951123 667.370971 764.288463 20.393473 0.000000 0.149633
383.000000 70.580000 5.000000 5.000000 7.000000 124.389252 35.547532 205.938788 35.607645 14.157631 0.000000 0.097951
384.000000 64.296000 6.000000 5.000000 7.000000 117.420215 30.641545 337.427518 292.002389 15.543101 0.000000 0.001100
385.000000 58.382000 7.000000 5.000000 7.000000 110.975603 27.057125 425.248314 477.664613 17.119571 0.000000 0.062339
386.000000 52.961000 8.000000 5.000000 7.000000 105.113179 24.343218 488.056814 621.963185 18.873918 0.000000 0.100853
387.000000 48.075000 9.000000 5.000000 7.000000 99.822983 22.225814 535.206661 739.689744 20.794194 0.000000 0.124072
389.000000 61.091000 6.000000 6.000000 7.000000 115.766369 38.871886 107.411615 273.706926 16.358703 0.000000 0.088674
390.000000 55.942000 7.000000 6.000000 7.000000 110.136255 34.435082 237.077534 462.513345 17.866153 0.000000 0.025532
391.000000 51.132000 8.000000 6.000000 7.000000 104.863061 30.976434 328.899513 607.848802 19.548976 0.000000 0.060045
392.000000 46.723000 9.000000 6.000000 7.000000 99.997883 28.223181 397.335297 725.659980 21.395753 0.000000 0.092246
394.000000 57.582000 6.000000 7.000000 7.000000 113.364948 45.992901 -139.259017 271.731541 17.356008 0.000000 0.203545
395.000000 48.983000 8.000000 7.000000 7.000000 103.968584 37.077581 161.666845 605.431078 20.406449 0.000000 0.050760
397.000000 50.254000 7.000000 8.000000 7.000000 106.552323 46.870879 -173.982061 473.092816 19.888863 0.000000 0.197602
398.000000 46.644000 8.000000 8.000000 7.000000 102.590108 42.587550 -14.271784 614.498000 21.430220 0.000000 0.112058
402.000000 46.334000 5.000000 -5.000000 8.000000 76.944251 -50.128274 2263.525117 1330.325727 21.582028 0.000000 0.280201
404.000000 52.150000 5.000000 -4.000000 8.000000 84.915763 -46.789667 2120.722875 1080.858680 19.172887 0.000000 0.184425
406.000000 62.956000 4.000000 -3.000000 8.000000 96.566435 -49.197145 2221.773316 751.404757 15.878821 0.000000 0.209080
407.000000 57.865000 5.000000 -3.000000 8.000000 93.196937 -42.720428 1968.886507 859.172458 17.277093 0.000000 0.105987
408.000000 52.870000 6.000000 -3.000000 8.000000 89.623352 -37.320457 1795.523988 949.896981 18.911046 0.000000 0.092989
409.000000 48.163000 7.000000 -3.000000 8.000000 86.056414 -32.824313 1669.270920 1029.294353 20.760744 0.000000 0.108998
411.000000 63.138000 5.000000 -2.000000 8.000000 101.567958 -37.709196 1807.130720 662.530499 15.832364 0.000000 0.051430
412.000000 51.909000 7.000000 -2.000000 8.000000 92.496900 -27.923853 1545.442310 887.881815 19.260975 0.000000 0.119039
414.000000 74.419000 4.000000 -1.000000 8.000000 115.578869 -38.315847 1825.489471 284.381833 13.429174 0.000000 0.064675
415.000000 67.597000 5.000000 -1.000000 8.000000 109.713821 -31.496000 1634.450640 488.704177 14.786101 0.000000 0.044071
416.000000 61.089000 6.000000 -1.000000 8.000000 103.995544 -26.297117 1506.870382 641.771006 16.363095 0.000000 0.102670
417.000000 55.102000 7.000000 -1.000000 8.000000 98.635899 -22.264113 1415.633121 764.367506 18.142913 0.000000 0.135383
418.000000 49.717000 8.000000 -1.000000 8.000000 93.717199 -19.073635 1347.145744 867.012780 20.110068 0.000000 0.151859
420.000000 70.910000 5.000000 0.000000 8.000000 117.221469 -23.799937 1449.700923 335.891617 14.093577 0.000000 0.064064
421.000000 57.562000 7.000000 0.000000 8.000000 104.228613 -15.792054 1279.399363 657.378628 17.365871 0.000000 0.148049
422.000000 46.783000 9.000000 0.000000 8.000000 93.638248 -11.094768 1186.058485 871.260540 21.371757 0.000000 0.169758
424.000000 80.369000 4.000000 1.000000 8.000000 132.059093 -19.503564 1356.211136 -89.225154 12.432116 0.000000 0.033913
425.000000 72.852000 5.000000 1.000000 8.000000 123.600827 -14.411232 1251.570313 202.656986 13.716518 0.000000 0.074578
426.000000 65.711000 6.000000 1.000000 8.000000 115.907830 -10.977054 1183.763119 408.454086 15.209126 0.000000 0.122767
427.000000 59.163000 7.000000 1.000000 8.000000 109.022713 -8.520761 1136.251983 565.783302 16.894746 0.000000 0.152476
428.000000 53.288000 8.000000 1.000000 8.000000 102.902504 -6.682939 1101.110625 692.759483 18.759625 0.000000 0.168704
429.000000 48.085000 9.000000 1.000000 8.000000 97.473220 -5.258822 1074.064667 799.218127 20.791290 0.000000 0.175542
431.000000 73.353000 5.000000 2.000000 8.000000 128.353229 -3.379142 1038.550480 87.886003 13.621980 0.000000 0.067401
432.000000 59.852000 7.000000 2.000000 8.000000 112.794942 -0.566980 985.650998 488.657203 16.699092 0.000000 0.146390
433.000000 48.811000 9.000000 2.000000 8.000000 100.642032 0.925689 957.609523 738.733271 20.480849 0.000000 0.174074
435.000000 79.370000 4.000000 3.000000 8.000000 140.466342 9.663858 791.724327 -381.859728 12.587295 0.000000 0.031218
436.000000 72.501000 5.000000 3.000000 8.000000 131.106529 8.773136 808.897543 -9.245219 13.781451 0.000000 0.041119
437.000000 65.854000 6.000000 3.000000 8.000000 122.777454 8.213638 819.642117 240.792384 15.174335 0.000000 0.091936
438.000000 59.659000 7.000000 3.000000 8.000000 115.394450 7.829643 826.998688 425.257650 16.752377 0.000000 0.128334
439.000000 54.020000 8.000000 3.000000 8.000000 108.857640 7.549793 832.351486 570.176232 18.503212 0.000000 0.151520
440.000000 48.965000 9.000000 3.000000 8.000000 103.065775 7.336788 836.421058 689.154150 20.415555 0.000000 0.164673
441.000000 70.511000 5.000000 4.000000 8.000000 131.775189 21.058675 560.584227 -89.289831 14.170130 0.000000 0.033364
442.000000 58.679000 7.000000 4.000000 8.000000 116.778114 16.331276 659.631670 375.003719 17.031366 0.000000 0.097107
443.000000 48.587000 9.000000 4.000000 8.000000 104.713528 13.821690 710.204705 649.939901 20.573496 0.000000 0.146918
445.000000 67.665000 5.000000 5.000000 8.000000 130.616245 32.427431 291.239851 -152.539401 14.766345 0.000000 0.110010
446.000000 62.253000 6.000000 5.000000 8.000000 123.563119 27.856845 406.169019 133.313523 16.051696 0.000000 0.018619
447.000000 57.056000 7.000000 5.000000 8.000000 117.019913 24.574574 482.811623 337.461331 17.515631 0.000000 0.051539
448.000000 52.201000 8.000000 5.000000 8.000000 111.036790 22.118027 537.567686 494.174416 19.146931 0.000000 0.093281
449.000000 47.746000 9.000000 5.000000 8.000000 105.605372 20.216871 578.640940 620.647988 20.935296 0.000000 0.120664
451.000000 54.949000 7.000000 6.000000 8.000000 116.287181 32.257405 295.714399 312.332565 18.187135 0.000000 0.010738
452.000000 46.527000 9.000000 6.000000 8.000000 105.806097 26.371818 441.382578 600.924129 21.483758 0.000000 0.086605
454.000000 56.514000 6.000000 7.000000 8.000000 119.778205 44.084003 -67.419167 83.644677 17.682276 0.000000 0.200728
455.000000 52.517000 7.000000 7.000000 8.000000 114.795568 39.192922 97.417183 299.448688 19.029897 0.000000 0.088705
456.000000 48.659000 8.000000 7.000000 8.000000 109.976705 35.305472 212.786841 461.583231 20.540147 0.000000 0.029996
457.000000 49.896000 7.000000 8.000000 8.000000 112.764155 45.312958 -113.116735 298.766576 20.029701 0.000000 0.186389
461.000000 45.891000 5.000000 -5.000000 9.000000 82.470337 -51.547161 2330.375818 1169.767579 21.788622 0.000000 0.291058
463.000000 50.896000 5.000000 -4.000000 9.000000 90.165050 -48.444296 2189.148771 936.326053 19.643699 0.000000 0.199776
464.000000 47.292000 6.000000 -4.000000 9.000000 87.572121 -43.207602 1985.976375 1003.609577 21.141783 0.000000 0.128282
465.000000 59.977000 4.000000 -3.000000 9.000000 101.261456 -51.104178 2309.065155 599.687985 16.666256 0.000000 0.261533
466.000000 55.733000 5.000000 -3.000000 9.000000 98.110347 -44.669705 2038.956172 725.330896 17.936403 0.000000 0.121952
467.000000 47.357000 7.000000 -3.000000 9.000000 91.213202 -34.672353 1719.493383 913.285098 21.112238 0.000000 0.092933
469.000000 65.061000 4.000000 -2.000000 9.000000 110.284111 -46.812565 2121.640804 359.758776 15.361629 0.000000 0.185605
470.000000 60.143000 5.000000 -2.000000 9.000000 106.119174 -40.024925 1878.916288 534.809190 16.619209 0.000000 0.058117
471.000000 55.267000 6.000000 -2.000000 9.000000 101.780108 -34.504714 1714.846954 668.623837 18.087090 0.000000 0.058885
472.000000 50.619000 7.000000 -2.000000 9.000000 97.495379 -30.005288 1596.531235 777.475840 19.749869 0.000000 0.099048
473.000000 46.301000 8.000000 -2.000000 9.000000 93.395833 -26.310036 1507.172367 869.754490 21.593613 0.000000 0.125131
475.000000 69.329000 4.000000 -1.000000 9.000000 119.231846 -41.233520 1918.337225 140.092682 14.414188 0.000000 0.131266
476.000000 63.855000 5.000000 -1.000000 9.000000 113.930052 -34.257462 1708.027850 363.124615 15.651233 0.000000 0.009045
477.000000 58.477000 6.000000 -1.000000 9.000000 108.607589 -28.844815 1567.794523 527.300369 17.092401 0.000000 0.069295
478.000000 53.389000 7.000000 -1.000000 9.000000 103.496692 -24.593337 1467.614596 656.897852 18.723242 0.000000 0.113601
479.000000 48.694000 8.000000 -1.000000 9.000000 98.710342 -21.200248 1392.472395 764.135189 20.530635 0.000000 0.139574
481.000000 74.297000 4.000000 1.000000 9.000000 135.179287 -24.047788 1455.273137 -244.987996 13.447587 0.000000 0.073073
482.000000 68.318000 5.000000 1.000000 9.000000 127.515149 -18.205025 1328.972147 71.136851 14.626094 0.000000 0.040628
483.000000 62.465000 6.000000 1.000000 9.000000 120.341537 -14.196534 1247.275041 291.171624 15.998344 0.000000 0.092750
484.000000 56.944000 7.000000 1.000000 9.000000 113.774137 -11.301786 1190.099714 457.502163 17.551478 0.000000 0.130813
485.000000 51.861000 8.000000 1.000000 9.000000 107.826487 -9.123457 1147.846382 590.456039 19.273747 0.000000 0.154843
486.000000 47.255000 9.000000 1.000000 9.000000 102.466983 -7.429392 1115.347688 701.027344 21.154400 0.000000 0.168569
488.000000 74.732000 4.000000 2.000000 9.000000 140.970545 -11.298373 1190.033029 -412.955904 13.368374 0.000000 0.043387
489.000000 68.853000 5.000000 2.000000 9.000000 132.419929 -7.567754 1117.991849 -51.120014 14.511329 0.000000 0.038417
490.000000 63.071000 6.000000 2.000000 9.000000 124.630238 -5.159192 1072.177584 194.652000 15.843595 0.000000 0.088405
491.000000 57.592000 7.000000 2.000000 9.000000 117.606647 -3.481159 1040.473727 377.127500 17.352985 0.000000 0.126148
492.000000 52.527000 8.000000 2.000000 9.000000 111.303597 -2.247004 1017.231359 520.969593 19.028338 0.000000 0.151277
493.000000 47.921000 9.000000 2.000000 9.000000 105.656264 -1.301986 999.461851 639.275713 20.859410 0.000000 0.166565
495.000000 68.295000 5.000000 3.000000 9.000000 135.522748 4.490841 890.466913 -158.490785 14.629252 0.000000 0.019576
496.000000 57.491000 7.000000 3.000000 9.000000 120.336698 4.894926 882.825039 308.833694 17.382408 0.000000 0.110354
497.000000 52.578000 8.000000 3.000000 9.000000 113.896552 5.014120 880.569176 462.297610 19.008895 0.000000 0.138709
499.000000 66.788000 5.000000 4.000000 9.000000 136.642861 17.076499 644.371824 -251.425942 14.959103 0.000000 0.042583
500.000000 61.662000 6.000000 4.000000 9.000000 128.911485 14.959314 687.426813 41.706079 16.204401 0.000000 0.038080
501.000000 56.714000 7.000000 4.000000 9.000000 121.893876 13.505737 716.490628 252.177075 17.620233 0.000000 0.082264
502.000000 52.063000 8.000000 4.000000 9.000000 115.553898 12.447289 737.429925 414.003388 19.196454 0.000000 0.116315
503.000000 47.770000 9.000000 4.000000 9.000000 109.837410 11.642641 753.233638 544.559580 20.923708 0.000000 0.139649
505.000000 64.530000 5.000000 5.000000 9.000000 135.917587 29.043309 377.336366 -330.178838 15.482518 0.000000 0.118448
506.000000 59.896000 6.000000 5.000000 9.000000 128.870763 24.899031 475.422961 -15.454995 16.682014 0.000000 0.034659
507.000000 55.365000 7.000000 5.000000 9.000000 122.316552 21.973294 540.732344 206.828299 18.049114 0.000000 0.041127
508.000000 51.057000 8.000000 5.000000 9.000000 116.294690 19.807929 587.341963 375.742242 19.574120 0.000000 0.083328
509.000000 47.039000 9.000000 5.000000 9.000000 110.796963 18.144980 622.277358 510.827624 21.248065 0.000000 0.113791
511.000000 53.571000 7.000000 6.000000 9.000000 121.740499 29.955073 354.725958 172.566143 18.653579 0.000000 0.020896
512.000000 49.654000 8.000000 6.000000 9.000000 116.202625 26.865189 429.786712 347.254700 20.126785 0.000000 0.039080
515.000000 51.458000 7.000000 7.000000 9.000000 120.361743 37.216882 157.548233 149.273904 19.419780 0.000000 0.091805
516.000000 47.953000 8.000000 7.000000 9.000000 115.406635 33.441609 264.192679 328.361553 20.840900 0.000000 0.019364
518.000000 49.142000 7.000000 8.000000 9.000000 118.392435 43.652918 -51.838393 136.938266 20.335289 0.000000 0.183518
519.000000 46.046000 8.000000 8.000000 9.000000 114.055780 39.431563 89.928527 318.960585 21.704282 0.000000 0.088908
522.000000 49.312000 5.000000 -4.000000 10.000000 94.678946 -50.007918 2258.037638 803.934726 20.272980 0.000000 0.228507
524.000000 53.420000 5.000000 -3.000000 10.000000 102.284631 -46.508512 2109.515030 600.471446 18.711810 0.000000 0.155767
525.000000 49.788000 6.000000 -3.000000 10.000000 99.058023 -41.069177 1912.892201 713.407620 20.078191 0.000000 0.076052
526.000000 46.215000 7.000000 -3.000000 10.000000 95.712713 -36.450256 1769.970713 807.144636 21.632167 0.000000 0.074120
527.000000 57.131000 5.000000 -2.000000 10.000000 109.936909 -42.208631 1951.219518 413.936854 17.494133 0.000000 0.097315
528.000000 49.057000 7.000000 -2.000000 10.000000 101.823479 -32.013102 1647.885567 675.281420 20.376992 0.000000 0.073722
529.000000 64.681000 4.000000 -1.000000 10.000000 122.189805 -43.936184 2012.051090 0.159896 15.449175 0.000000 0.201049
530.000000 60.248000 5.000000 -1.000000 10.000000 117.419252 -36.867614 1782.153692 243.074772 16.587256 0.000000 0.056366
531.000000 55.787000 6.000000 -1.000000 10.000000 112.502760 -31.288333 1629.097028 419.241412 17.915462 0.000000 0.031648
532.000000 51.465000 7.000000 -1.000000 10.000000 107.677088 -26.850758 1519.872672 556.534053 19.421517 0.000000 0.086621
533.000000 47.389000 8.000000 -1.000000 10.000000 103.073362 -23.276846 1438.010025 668.920288 21.094179 0.000000 0.121425
535.000000 57.886000 6.000000 0.000000 10.000000 118.640259 -24.908183 1474.786011 292.922169 17.264018 0.000000 0.049976
536.000000 53.335000 7.000000 0.000000 10.000000 113.081186 -20.876429 1385.489558 450.113077 18.739249 0.000000 0.099311
537.000000 49.051000 8.000000 0.000000 10.000000 107.876095 -17.726990 1319.048045 576.557869 20.377542 0.000000 0.131864
539.000000 64.071000 5.000000 1.000000 10.000000 130.674946 -21.869093 1406.993267 -55.663153 15.594647 0.000000 0.034851
540.000000 59.249000 6.000000 1.000000 10.000000 124.035821 -17.347387 1311.205093 179.409602 16.865695 0.000000 0.061530
541.000000 54.591000 7.000000 1.000000 10.000000 117.827930 -14.045013 1244.248598 355.356113 18.306732 0.000000 0.105684
542.000000 50.206000 8.000000 1.000000 10.000000 112.107368 -11.542666 1194.809326 494.776530 19.907615 0.000000 0.136528
543.000000 46.151000 9.000000 1.000000 10.000000 106.876405 -9.587922 1156.808176 609.855165 21.658994 0.000000 0.156515
544.000000 64.620000 5.000000 2.000000 10.000000 135.693735 -11.710366 1198.092904 -185.117363 15.461343 0.000000 0.026687
545.000000 55.201000 7.000000 2.000000 10.000000 121.714990 -6.393972 1095.611092 271.714854 18.103118 0.000000 0.103127
546.000000 46.765000 9.000000 2.000000 10.000000 110.087869 -3.535464 1041.497692 546.640058 21.373270 0.000000 0.154567
548.000000 64.278000 5.000000 3.000000 10.000000 139.113049 0.120293 972.740312 -302.082801 15.542789 0.000000 0.002377
549.000000 59.671000 6.000000 3.000000 10.000000 131.501276 1.188084 952.678795 -11.472236 16.744581 0.000000 0.047474
550.000000 55.178000 7.000000 3.000000 10.000000 124.576697 1.916763 938.980401 198.744894 18.109817 0.000000 0.090194
551.000000 50.912000 8.000000 3.000000 10.000000 118.297500 2.445581 929.032136 361.007554 19.629262 0.000000 0.122670
552.000000 46.936000 9.000000 3.000000 10.000000 112.611740 2.846785 921.479440 492.169266 21.294366 0.000000 0.145607
553.000000 63.145000 5.000000 4.000000 10.000000 140.680313 12.878929 728.912241 -406.963595 15.821346 0.000000 0.045397
554.000000 54.573000 7.000000 4.000000 10.000000 126.319545 10.593985 773.693941 136.098026 18.310199 0.000000 0.066024
555.000000 46.689000 9.000000 4.000000 10.000000 114.399621 9.418731 796.459107 446.108075 21.406518 0.000000 0.129041
556.000000 57.400000 6.000000 5.000000 10.000000 133.446189 21.768690 545.195093 -156.726085 17.406378 0.000000 0.046580
557.000000 53.465000 7.000000 5.000000 10.000000 126.947839 19.256044 599.013819 83.516713 18.689343 0.000000 0.032225
558.000000 49.664000 8.000000 5.000000 10.000000 120.951128 17.415901 637.381752 264.535026 20.121683 0.000000 0.071830
559.000000 46.065000 9.000000 5.000000 10.000000 115.446989 16.012801 666.117327 408.182507 21.695524 0.000000 0.104331
561.000000 51.951000 7.000000 6.000000 10.000000 126.563984 27.525160 414.115813 40.830567 19.233822 0.000000 0.035556
563.000000 50.133000 7.000000 7.000000 10.000000 125.340684 35.117504 218.076371 7.954719 19.931521 0.000000 0.099697
564.000000 46.974000 8.000000 7.000000 10.000000 120.301308 31.482940 315.886764 203.462799 21.273840 0.000000 0.024942
565.000000 48.107000 7.000000 8.000000 10.000000 123.479427 41.883456 9.857183 -15.109937 20.771479 0.000000 0.185512
569.000000 47.563000 5.000000 -4.000000 11.000000 98.581770 -51.485696 2327.394191 680.165994 21.016885 0.000000 0.267962
571.000000 51.068000 5.000000 -3.000000 11.000000 105.854725 -48.242501 2180.568222 482.019976 19.572185 0.000000 0.200993
572.000000 47.972000 6.000000 -3.000000 11.000000 102.834283 -42.812486 1972.095193 606.742242 20.836824 0.000000 0.093065
574.000000 54.215000 5.000000 -2.000000 11.000000 113.163554 -44.265471 2024.046030 297.959287 18.434223 0.000000 0.147790
575.000000 50.773000 6.000000 -2.000000 11.000000 109.423492 -38.636762 1835.325653 455.134661 19.685390 0.000000 0.045301
576.000000 47.355000 7.000000 -2.000000 11.000000 105.583072 -33.946464 1699.507382 579.164672 21.107854 0.000000 0.045823
578.000000 56.855000 5.000000 -1.000000 11.000000 120.328973 -39.328604 1856.834325 126.977436 17.576265 0.000000 0.109438
579.000000 53.133000 6.000000 -1.000000 11.000000 115.809289 -33.625594 1690.781433 315.885864 18.809075 0.000000 0.009324
580.000000 49.456000 7.000000 -1.000000 11.000000 111.283680 -29.032970 1572.409562 461.465504 20.209129 0.000000 0.055992
581.000000 45.921000 8.000000 -1.000000 11.000000 106.892227 -25.299919 1483.760111 579.480462 21.766693 0.000000 0.099013
583.000000 60.160000 5.000000 1.000000 11.000000 133.235173 -25.381711 1485.641136 -179.069576 16.608100 0.000000 0.067756
584.000000 56.159000 6.000000 1.000000 11.000000 127.122735 -20.413428 1375.557418 71.744465 17.792886 0.000000 0.034919
585.000000 52.217000 7.000000 1.000000 11.000000 121.292683 -16.738936 1298.701170 257.843674 19.137874 0.000000 0.078682
586.000000 48.435000 8.000000 1.000000 11.000000 115.832188 -13.932361 1242.001118 404.159358 20.634225 0.000000 0.115156
588.000000 60.705000 5.000000 2.000000 11.000000 138.328442 -15.765558 1278.861896 -315.481167 16.457929 0.000000 0.048985
589.000000 56.724000 6.000000 2.000000 11.000000 131.553440 -11.973514 1203.253454 -34.233405 17.614382 0.000000 0.037183
590.000000 52.793000 7.000000 2.000000 11.000000 125.224937 -9.290453 1151.065809 170.955174 18.927948 0.000000 0.078762
591.000000 49.012000 8.000000 2.000000 11.000000 119.376460 -7.299976 1112.876015 330.170718 20.390176 0.000000 0.113796
593.000000 60.521000 5.000000 3.000000 11.000000 142.021357 -4.289409 1055.726894 -441.525299 16.507188 0.000000 0.023038
594.000000 56.662000 6.000000 3.000000 11.000000 134.834875 -2.388753 1019.898458 -130.039073 17.633144 0.000000 0.026412
595.000000 52.831000 7.000000 3.000000 11.000000 128.212361 -1.089452 995.467689 93.510670 18.913354 0.000000 0.069027
596.000000 49.131000 8.000000 3.000000 11.000000 122.138851 -0.145981 977.742244 264.822246 20.339727 0.000000 0.104524
597.000000 45.625000 9.000000 3.000000 11.000000 116.583480 0.569870 964.294703 402.393411 21.904726 0.000000 0.131290
599.000000 56.021000 6.000000 4.000000 11.000000 136.791816 7.965682 824.394038 -215.972321 17.834424 0.000000 0.015385
600.000000 52.369000 7.000000 4.000000 11.000000 130.143169 7.607685 831.244746 25.228425 19.079743 0.000000 0.049214
601.000000 48.819000 8.000000 4.000000 11.000000 124.042722 7.349914 836.170404 207.837979 20.468898 0.000000 0.086574
603.000000 54.880000 6.000000 5.000000 11.000000 137.381755 18.470587 615.491254 -292.242150 18.204909 0.000000 0.053818
604.000000 51.466000 7.000000 5.000000 11.000000 130.990445 16.427918 657.659427 -34.100491 19.414138 0.000000 0.025988
605.000000 48.122000 8.000000 5.000000 11.000000 125.068278 14.946277 687.689184 159.001075 20.765024 0.000000 0.059504
608.000000 50.197000 7.000000 6.000000 11.000000 130.822719 24.966239 473.887614 -84.614126 19.904773 0.000000 0.047880
609.000000 47.097000 8.000000 6.000000 11.000000 125.257485 22.381951 531.780115 118.151075 21.216605 0.000000 0.025689
611.000000 48.643000 7.000000 7.000000 11.000000 129.786476 32.889058 279.005542 -126.380147 20.540956 0.000000 0.108405
612.000000 45.809000 8.000000 7.000000 11.000000 124.705072 29.426976 367.871526 85.182148 21.813170 0.000000 0.036851
617.000000 48.762000 5.000000 -3.000000 12.000000 108.928553 -49.877470 2252.120962 368.245068 20.496612 0.000000 0.252924
618.000000 51.450000 5.000000 -2.000000 12.000000 115.910804 -46.201332 2097.401525 185.543701 19.423882 0.000000 0.202739
619.000000 45.600000 7.000000 -2.000000 12.000000 108.860746 -35.805283 1751.398773 487.646387 21.918554 0.000000 0.024234
621.000000 53.707000 5.000000 -1.000000 12.000000 122.773590 -41.644540 1932.076001 13.742801 18.605917 0.000000 0.164215
622.000000 50.581000 6.000000 -1.000000 12.000000 118.630960 -35.856110 1752.851318 216.044774 19.757112 0.000000 0.051632
623.000000 47.442000 7.000000 -1.000000 12.000000 114.406362 -31.137661 1625.227504 370.422562 21.066028 0.000000 0.022800
624.000000 55.440000 5.000000 0.000000 12.000000 129.324260 -35.931704 1755.015106 -147.896360 18.022770 0.000000 0.134887
625.000000 48.887000 7.000000 0.000000 12.000000 119.595248 -25.689529 1492.743232 262.646847 20.441681 0.000000 0.040097
627.000000 56.586000 5.000000 1.000000 12.000000 135.317031 -28.727411 1564.923335 -300.020873 17.656526 0.000000 0.109717
628.000000 53.242000 6.000000 1.000000 12.000000 129.709858 -23.381259 1440.336214 -32.836701 18.766919 0.000000 0.035241
629.000000 49.892000 7.000000 1.000000 12.000000 124.260382 -19.373329 1353.459992 163.889661 20.028708 0.000000 0.051822
630.000000 46.624000 8.000000 1.000000 12.000000 119.077518 -16.284942 1289.423436 317.479068 21.434125 0.000000 0.091831
632.000000 50.435000 7.000000 2.000000 12.000000 128.226450 -12.156132 1206.840624 73.789983 19.811916 0.000000 0.054770
634.000000 50.520000 7.000000 3.000000 12.000000 131.328953 -4.107421 1052.289856 -7.949054 19.777534 0.000000 0.048081
635.000000 47.308000 8.000000 3.000000 12.000000 125.491133 -2.750174 1026.701394 172.653089 21.122259 0.000000 0.085166
637.000000 50.175000 7.000000 4.000000 12.000000 133.442817 4.560710 889.146220 -81.563370 19.913048 0.000000 0.032403
639.000000 52.408000 6.000000 5.000000 12.000000 140.758410 15.014425 686.317369 -423.289077 19.062964 0.000000 0.055800
640.000000 49.444000 7.000000 5.000000 12.000000 134.513697 13.496578 716.672593 -147.230032 20.207065 0.000000 0.022939
641.000000 46.505000 8.000000 5.000000 12.000000 128.704126 12.404821 738.266412 57.983725 21.485823 0.000000 0.046910
643.000000 48.385000 7.000000 6.000000 12.000000 134.576892 22.278784 534.045058 -205.068254 20.649189 0.000000 0.056973
645.000000 47.062000 7.000000 7.000000 12.000000 133.750511 30.526649 340.339745 -255.139296 21.229913 0.000000 0.115527
649.000000 46.384000 6.000000 -2.000000 13.000000 115.094601 -42.384934 1957.272867 258.591194 21.545888 0.000000 0.124386
651.000000 48.163000 6.000000 -1.000000 13.000000 121.051559 -37.980725 1815.310307 118.864632 20.748013 0.000000 0.095550
652.000000 45.472000 7.000000 -1.000000 13.000000 117.120289 -33.163514 1678.328759 282.488270 21.977747 0.000000 0.012350
654.000000 50.518000 6.000000 1.000000 13.000000 131.884606 -26.240413 1505.545734 -135.074806 19.778308 0.000000 0.063668
655.000000 47.656000 7.000000 1.000000 13.000000 126.808291 -21.939407 1408.527653 72.703614 20.967343 0.000000 0.031225
657.000000 51.032000 6.000000 2.000000 13.000000 136.374554 -18.548049 1336.126943 -250.083922 19.577973 0.000000 0.050595
658.000000 48.168000 7.000000 2.000000 13.000000 130.795921 -14.977455 1262.938318 -20.565274 20.743506 0.000000 0.035345
660.000000 51.102000 6.000000 3.000000 13.000000 139.954624 -9.533934 1155.765251 -357.552558 19.550427 0.000000 0.032253
661.000000 48.289000 7.000000 3.000000 13.000000 133.999934 -7.120462 1109.449888 -106.441033 20.690803 0.000000 0.030019
662.000000 45.495000 8.000000 3.000000 13.000000 128.416770 -5.356295 1075.911502 83.683127 21.963342 0.000000 0.065436
664.000000 50.752000 6.000000 4.000000 13.000000 142.420958 0.619354 963.365056 -457.736381 19.684383 0.000000 0.016430
665.000000 48.038000 7.000000 4.000000 13.000000 136.286813 1.468861 947.401576 -185.128817 20.798226 0.000000 0.016183
668.000000 47.450000 7.000000 5.000000 13.000000 137.579211 10.472405 776.056781 -256.786161 21.055690 0.000000 0.022189
670.000000 46.568000 7.000000 6.000000 13.000000 137.880889 19.465571 594.591888 -321.523484 21.453939 0.000000 0.062375
674.000000 45.894000 6.000000 -1.000000 14.000000 123.138777 -40.001373 1878.162070 23.716432 21.773274 0.000000 0.140540
676.000000 47.123000 6.000000 0.000000 14.000000 128.633975 -35.020731 1729.209865 -109.425159 21.203864 0.000000 0.117982
678.000000 47.989000 6.000000 1.000000 14.000000 133.718040 -28.983327 1571.190287 -235.524790 20.819967 0.000000 0.099038
679.000000 45.532000 7.000000 1.000000 14.000000 129.001059 -24.429928 1463.906775 -16.308882 21.944846 0.000000 0.035458
681.000000 46.014000 7.000000 2.000000 14.000000 132.997932 -17.742138 1319.361703 -112.704741 21.714005 0.000000 0.032873
684.000000 46.160000 7.000000 3.000000 14.000000 136.288274 -10.112052 1166.950807 -202.580318 21.644370 0.000000 0.024331
686.000000 45.985000 7.000000 4.000000 14.000000 138.734573 -1.650556 1006.014070 -286.121171 21.726175 0.000000 0.006828
688.000000 45.514000 7.000000 5.000000 14.000000 140.241265 7.368497 835.815503 -363.474543 21.950431 0.000000 0.022105
#UB matrix in q= (UB) B0 G* 
#[[-0.223336595 -0.322927117 -0.918443042]
# [ 0.097915258  0.930919742 -0.351142071]
# [ 0.969810996 -0.168622448 -0.176609048]]
#B0 matrix in q= UB (B0) G*
#[[ 0.19670273 -0.          0.03056101]
# [ 0.          0.19187965 -0.        ]
# [ 0.          0.          0.18806537]]
#UBB0 matrix in q= (UB B0) G* i.e. recip. basis vectors are columns in LT frame: astar = UBB0[:,0], bstar = UBB0[:,1], cstar = UBB0[:,2]. (abcstar as columns on xyzlab1, xlab1 = ui, ui = unit vector along incident beam)
#[[-0.04393092 -0.06196314 -0.17955272]
# [ 0.0192602   0.17862456 -0.06304528]
# [ 0.19076447 -0.03235522 -0.00357565]]
#Euler angles phi theta psi (deg)
#[ 80.148 100.157 110.888]
#deviatoric strain in direct crystal frame (10-3 unit)
#[[-1.61  0.09  0.19]
# [ 0.09 -1.22  0.52]
# [ 0.19  0.52  2.83]]
#deviatoric strain in sample2 frame (10-3 unit)
#[[ 1.55  0.8  -1.91]
# [ 0.8  -1.06 -0.45]
# [-1.91 -0.45 -0.49]]
#new lattice parameters
#[ 5.1505     5.2136668  5.322867  89.9704644 99.2089052 89.9900613]
#CCDLabel
#sCMOS
#DetectorParameters
#[79.0, 975.0, 941.0, 0.0, 0.0]
#pixelsize
#0.0734
#Frame dimensions
#[2018, 2016]
#
