File Version;BWSpec4.11_1
Date;2022-03-10 13:30:00
title;BWS415-785S
model;BTC162E-785S-SYS
c code;RUW
operator;
port1;0
baud1;3
pixel_start;0
pixel_end;2047
step;1
units;1
bkcolor;16777215
show_mode;3
data_mode;0
pixel_mode;0
intigration times(ms);50
average number;1
time_multiply;1
spectrometer_type;14
yaxis;0
yaxis_min;-266
yaxis_max;70000
xaxis;0
xaxis_min;0
xaxis_max;2047
irrands_DispWLMin;100
irrands_DispWLMax;1000
yaxis_min_6;0
yaxis_max_6;65535
irradiance_unit;0
Color_Data_Flag;1
Color_StartWL;770
Color_EndWL;770
Color_IncWL;10
power_unit_index;3
photometric_index;0
Illuminant_index;3
observer_index;0
lab_l;0
lab_a;0
lab_b;0
radiometric_flag;0
coefs_a0;769.442641318084
coefs_a1;0.150837541487052
coefs_a2;-4.21236584275246E-06
coefs_a3;-7.19457279026531E-10
coefs_b0;-6127.71068059252
coefs_b1;11.2913125594865
coefs_b2;-0.00694085820780636
coefs_b3;3.39987272601653E-06
coefs_r0;1
coefs_r1;0
coefs_r2;0
coefs_r3;0
coefs_j0;1
coefs_j1;0
coefs_j2;0
coefs_j3;0
enable_coefs_r;0
all_data_save;1
select_option;-1
interval_time;50
pixel_num;2048
sel_pixel_start;0
sel_pixel_end;2047
sel_pixel_delta;1
dark_compensate;1
dark_compensate_value_1;0
dark_compensate_value_2;0
dark_compensate_value_3;0
monitor pixel_0;0
monitor pixel_1;0
monitor pixel_2;0
monitor pixel_3;0
monitor pixel_4;0
monitor pixel_5;0
vertical_select_flag;0
vertical_line3;0
vertical_line4;0
vertical_line3_wv;1
vertical_line4_wv;1
vertical_line_flag;0
vertical_line_ratio;0
laser_wavelength;784.82
laser_powerlevel;100
overlay_js;0
Relative Intensity Correction Flag;0
Pixel;Wavelength;Wavenumber;Raman Shift;Dark;Reference;Raw data #1;Dark Subtracted #1;%TR #1;Absorbance #1;Irradiance (W/cm^2/nm) #1;
0;769.44;12996.42;-254.65;968.0000;65535.0000;896.0000;-59.7222;0.0000;0.0000;0.0000E+00;
1;769.59;12993.87;-252.10;858.0000;65535.0000;865.0000;19.2778;0.0000;0.0000;0.0000E+00;
2;769.74;12991.33;-249.55;942.0000;65535.0000;958.0000;28.2778;0.0000;0.0000;0.0000E+00;
3;769.90;12988.78;-247.01;924.0000;65535.0000;911.0000;-0.7222;0.0000;0.0000;0.0000E+00;
4;770.05;12986.24;-244.46;992.0000;65535.0000;882.0000;-97.7222;0.0000;0.0000;0.0000E+00;
5;770.20;12983.70;-241.92;946.0000;65535.0000;944.0000;10.2778;0.0000;0.0000;0.0000E+00;
6;770.35;12981.15;-239.38;900.0000;65535.0000;1016.0000;128.2778;0.0000;0.0000;0.0000E+00;
7;770.50;12978.61;-236.84;976.0000;65535.0000;903.0000;-60.7222;0.0000;0.0000;0.0000E+00;
8;770.65;12976.07;-234.30;947.0000;65535.0000;971.0000;36.2778;0.0000;0.0000;0.0000E+00;
9;770.80;12973.54;-231.76;936.0000;65535.0000;890.0000;-33.7222;0.0000;0.0000;0.0000E+00;
10;770.95;12971.00;-229.22;960.0000;65535.0000;904.0000;-43.7222;0.0000;0.0000;0.0000E+00;
11;771.10;12968.46;-226.69;897.0000;65535.0000;946.0000;61.2778;0.0000;0.0000;0.0000E+00;
12;771.25;12965.93;-224.15;1010.0000;65535.0000;900.0000;-97.7222;0.0000;0.0000;0.0000E+00;
13;771.40;12963.40;-221.62;904.0000;65535.0000;969.0000;77.2778;0.0000;0.0000;0.0000E+00;
14;771.55;12960.86;-219.09;969.0000;65535.0000;890.0000;-66.7222;0.0000;0.0000;0.0000E+00;
15;771.70;12958.33;-216.56;901.0000;65535.0000;947.0000;58.2778;0.0000;0.0000;0.0000E+00;
16;771.85;12955.80;-214.03;982.0000;65535.0000;932.0000;-37.7222;0.0000;0.0000;0.0000E+00;
17;772.01;12953.27;-211.50;963.0000;65535.0000;1048.0000;97.2778;0.0000;0.0000;0.0000E+00;
18;772.16;12950.75;-208.97;912.0000;65535.0000;870.0000;-29.7222;0.0000;0.0000;0.0000E+00;
19;772.31;12948.22;-206.44;985.0000;65535.0000;958.0000;-14.7222;0.0000;0.0000;0.0000E+00;
20;772.46;12945.69;-203.92;1009.0000;65535.0000;994.0000;-2.7222;0.0000;0.0000;0.0000E+00;
21;772.61;12943.17;-201.39;964.0000;65535.0000;984.0000;32.2778;0.0000;0.0000;0.0000E+00;
22;772.76;12940.64;-198.87;896.0000;65535.0000;850.0000;-33.7222;0.0000;0.0000;0.0000E+00;
23;772.91;12938.12;-196.35;896.0000;65535.0000;952.0000;68.2778;0.0000;0.0000;0.0000E+00;
24;773.06;12935.60;-193.83;937.0000;65535.0000;1019.0000;94.2778;0.0000;0.0000;0.0000E+00;
25;773.21;12933.08;-191.31;859.0000;65535.0000;924.0000;77.2778;0.0000;0.0000;0.0000E+00;
26;773.36;12930.56;-188.79;1005.0000;65535.0000;852.0000;-140.7222;0.0000;0.0000;0.0000E+00;
27;773.51;12928.04;-186.27;873.0000;65535.0000;904.0000;43.2778;0.0000;0.0000;0.0000E+00;
28;773.66;12925.53;-183.75;948.0000;65535.0000;940.0000;4.2778;0.0000;0.0000;0.0000E+00;
29;773.81;12923.01;-181.24;895.0000;65535.0000;942.0000;59.2778;0.0000;0.0000;0.0000E+00;
30;773.96;12920.50;-178.72;896.0000;65535.0000;886.0000;2.2778;0.0000;0.0000;0.0000E+00;
31;774.11;12917.99;-176.21;891.0000;65535.0000;922.0000;43.2778;0.0000;0.0000;0.0000E+00;
32;774.27;12915.47;-173.70;864.0000;65535.0000;976.0000;124.2778;0.0000;0.0000;0.0000E+00;
33;774.42;12912.96;-171.19;926.0000;65535.0000;899.0000;-14.7222;0.0000;0.0000;0.0000E+00;
34;774.57;12910.45;-168.68;889.0000;65535.0000;914.0000;37.2778;0.0000;0.0000;0.0000E+00;
35;774.72;12907.94;-166.17;889.0000;65535.0000;971.0000;94.2778;0.0000;0.0000;0.0000E+00;
36;774.87;12905.44;-163.66;975.0000;65535.0000;859.0000;-103.7222;0.0000;0.0000;0.0000E+00;
37;775.02;12902.93;-161.15;968.0000;65535.0000;944.0000;-11.7222;0.0000;0.0000;0.0000E+00;
38;775.17;12900.42;-158.65;851.0000;65535.0000;947.0000;108.2778;0.0000;0.0000;0.0000E+00;
39;775.32;12897.92;-156.14;968.0000;65535.0000;926.0000;-29.7222;0.0000;0.0000;0.0000E+00;
40;775.47;12895.42;-153.64;895.0000;65535.0000;973.0000;90.2778;0.0000;0.0000;0.0000E+00;
41;775.62;12892.91;-151.14;965.0000;65535.0000;920.0000;-32.7222;0.0000;0.0000;0.0000E+00;
42;775.77;12890.41;-148.64;935.0000;65535.0000;917.0000;-5.7222;0.0000;0.0000;0.0000E+00;
43;775.92;12887.91;-146.14;875.0000;65535.0000;956.0000;93.2778;0.0000;0.0000;0.0000E+00;
44;776.07;12885.41;-143.64;997.0000;65535.0000;961.0000;-23.7222;0.0000;0.0000;0.0000E+00;
45;776.22;12882.92;-141.14;937.0000;65535.0000;902.0000;-22.7222;0.0000;0.0000;0.0000E+00;
46;776.37;12880.42;-138.65;890.0000;65535.0000;968.0000;90.2778;0.0000;0.0000;0.0000E+00;
47;776.52;12877.92;-136.15;972.0000;65535.0000;959.0000;-0.7222;0.0000;0.0000;0.0000E+00;
48;776.67;12875.43;-133.66;945.0000;65535.0000;864.0000;-68.7222;0.0000;0.0000;0.0000E+00;
49;776.82;12872.94;-131.16;910.0000;65535.0000;995.0000;97.2778;0.0000;0.0000;0.0000E+00;
50;776.97;12870.45;-128.67;941.0000;65535.0000;965.0000;36.2778;0.0000;0.0000;0.0000E+00;
51;777.12;12867.95;-126.18;920.0000;65535.0000;902.0000;-5.7222;0.0000;0.0000;0.0000E+00;
52;777.27;12865.46;-123.69;904.0000;65535.0000;938.0000;46.2778;0.0000;0.0000;0.0000E+00;
53;777.43;12862.98;-121.20;952.0000;65535.0000;977.0000;37.2778;0.0000;0.0000;0.0000E+00;
54;777.58;12860.49;-118.71;932.0000;65535.0000;918.0000;-1.7222;0.0000;0.0000;0.0000E+00;
55;777.73;12858.00;-116.23;950.0000;65535.0000;918.0000;-19.7222;0.0000;0.0000;0.0000E+00;
56;777.88;12855.52;-113.74;873.0000;65535.0000;938.0000;77.2778;0.0000;0.0000;0.0000E+00;
57;778.03;12853.03;-111.26;950.0000;65535.0000;955.0000;17.2778;0.0000;0.0000;0.0000E+00;
58;778.18;12850.55;-108.77;930.0000;65535.0000;904.0000;-13.7222;0.0000;0.0000;0.0000E+00;
59;778.33;12848.07;-106.29;920.0000;65535.0000;968.0000;60.2778;0.0000;0.0000;0.0000E+00;
60;778.48;12845.59;-103.81;996.0000;65535.0000;844.0000;-139.7222;0.0000;0.0000;0.0000E+00;
61;778.63;12843.11;-101.33;866.0000;65535.0000;852.0000;-1.7222;0.0000;0.0000;0.0000E+00;
62;778.78;12840.63;-98.85;905.0000;65535.0000;936.0000;43.2778;0.0000;0.0000;0.0000E+00;
63;778.93;12838.15;-96.37;932.0000;65535.0000;1000.0000;80.2778;0.0000;0.0000;0.0000E+00;
64;779.08;12835.67;-93.90;901.0000;65535.0000;979.0000;90.2778;0.0000;0.0000;0.0000E+00;
65;779.23;12833.20;-91.42;950.0000;65535.0000;968.0000;30.2778;0.0000;0.0000;0.0000E+00;
66;779.38;12830.72;-88.95;973.0000;65535.0000;873.0000;-87.7222;0.0000;0.0000;0.0000E+00;
67;779.53;12828.25;-86.47;965.0000;65535.0000;907.0000;-45.7222;0.0000;0.0000;0.0000E+00;
68;779.68;12825.78;-84.00;939.0000;65535.0000;870.0000;-56.7222;0.0000;0.0000;0.0000E+00;
69;779.83;12823.31;-81.53;990.0000;65535.0000;1005.0000;27.2778;0.0000;0.0000;0.0000E+00;
70;779.98;12820.84;-79.06;920.0000;65535.0000;956.0000;48.2778;0.0000;0.0000;0.0000E+00;
71;780.13;12818.37;-76.59;944.0000;65535.0000;948.0000;16.2778;0.0000;0.0000;0.0000E+00;
72;780.28;12815.90;-74.12;899.0000;65535.0000;1014.0000;127.2778;0.0000;0.0000;0.0000E+00;
73;780.43;12813.43;-71.66;944.0000;65535.0000;958.0000;26.2778;0.0000;0.0000;0.0000E+00;
74;780.58;12810.97;-69.19;938.0000;65535.0000;906.0000;-19.7222;0.0000;0.0000;0.0000E+00;
75;780.73;12808.50;-66.73;819.0000;65535.0000;940.0000;133.2778;0.0000;0.0000;0.0000E+00;
76;780.88;12806.04;-64.26;878.0000;65535.0000;1014.0000;148.2778;0.0000;0.0000;0.0000E+00;
77;781.03;12803.58;-61.80;939.0000;65535.0000;914.0000;-12.7222;0.0000;0.0000;0.0000E+00;
78;781.18;12801.11;-59.34;974.0000;65535.0000;996.0000;34.2778;0.0000;0.0000;0.0000E+00;
79;781.33;12798.65;-56.88;1021.0000;65535.0000;990.0000;-18.7222;0.0000;0.0000;0.0000E+00;
80;781.48;12796.19;-54.42;954.0000;65535.0000;954.0000;12.2778;0.0000;0.0000;0.0000E+00;
81;781.63;12793.74;-51.96;893.0000;65535.0000;928.0000;47.2778;0.0000;0.0000;0.0000E+00;
82;781.78;12791.28;-49.50;1018.0000;65535.0000;952.0000;-53.7222;0.0000;0.0000;0.0000E+00;
83;781.93;12788.82;-47.05;900.0000;65535.0000;938.0000;50.2778;0.0000;0.0000;0.0000E+00;
84;782.08;12786.37;-44.59;1019.0000;65535.0000;990.0000;-16.7222;0.0000;0.0000;0.0000E+00;
85;782.23;12783.92;-42.14;1019.0000;65535.0000;862.0000;-144.7222;0.0000;0.0000;0.0000E+00;
86;782.38;12781.46;-39.69;930.0000;65535.0000;924.0000;6.2778;0.0000;0.0000;0.0000E+00;
87;782.53;12779.01;-37.24;1000.0000;65535.0000;935.0000;-52.7222;0.0000;0.0000;0.0000E+00;
88;782.68;12776.56;-34.79;935.0000;65535.0000;838.0000;-84.7222;0.0000;0.0000;0.0000E+00;
89;782.83;12774.11;-32.34;948.0000;65535.0000;930.0000;-5.7222;0.0000;0.0000;0.0000E+00;
90;782.98;12771.66;-29.89;969.0000;65535.0000;917.0000;-39.7222;0.0000;0.0000;0.0000E+00;
91;783.13;12769.22;-27.44;895.0000;65535.0000;864.0000;-18.7222;0.0000;0.0000;0.0000E+00;
92;783.28;12766.77;-24.99;926.0000;65535.0000;912.0000;-1.7222;0.0000;0.0000;0.0000E+00;
93;783.43;12764.32;-22.55;901.0000;65535.0000;946.0000;57.2778;0.0000;0.0000;0.0000E+00;
94;783.58;12761.88;-20.11;911.0000;65535.0000;953.0000;54.2778;0.0000;0.0000;0.0000E+00;
95;783.73;12759.44;-17.66;937.0000;65535.0000;872.0000;-52.7222;0.0000;0.0000;0.0000E+00;
96;783.88;12757.00;-15.22;950.0000;65535.0000;984.0000;46.2778;0.0000;0.0000;0.0000E+00;
97;784.03;12754.56;-12.78;929.0000;65535.0000;951.0000;34.2778;0.0000;0.0000;0.0000E+00;
98;784.18;12752.12;-10.34;966.0000;65535.0000;939.0000;-14.7222;0.0000;0.0000;0.0000E+00;
99;784.33;12749.68;-7.90;945.0000;65535.0000;908.0000;-24.7222;0.0000;0.0000;0.0000E+00;
100;784.48;12747.24;-5.46;934.0000;65535.0000;980.0000;58.2778;0.0000;0.0000;0.0000E+00;
101;784.63;12744.80;-3.03;884.0000;65535.0000;856.0000;-15.7222;0.0000;0.0000;0.0000E+00;
102;784.78;12742.37;-0.59;996.0000;65535.0000;922.0000;-61.7222;0.0000;0.0000;0.0000E+00;
103;784.93;12739.93;1.84;971.0000;65535.0000;928.0000;-30.7222;0.0000;0.0000;0.0000E+00;
104;785.08;12737.50;4.27;868.0000;65535.0000;909.0000;53.2778;0.0000;0.0000;0.0000E+00;
105;785.23;12735.07;6.71;980.0000;65535.0000;946.0000;-21.7222;0.0000;0.0000;0.0000E+00;
106;785.38;12732.64;9.14;906.0000;65535.0000;962.0000;68.2778;0.0000;0.0000;0.0000E+00;
107;785.53;12730.21;11.57;985.0000;65535.0000;880.0000;-92.7222;0.0000;0.0000;0.0000E+00;
108;785.68;12727.78;14.00;890.0000;65535.0000;916.0000;38.2778;0.0000;0.0000;0.0000E+00;
109;785.83;12725.35;16.42;921.0000;65535.0000;890.0000;-18.7222;0.0000;0.0000;0.0000E+00;
110;785.98;12722.92;18.85;996.0000;65535.0000;847.0000;-136.7222;0.0000;0.0000;0.0000E+00;
111;786.13;12720.50;21.28;1003.0000;65535.0000;860.0000;-130.7222;0.0000;0.0000;0.0000E+00;
112;786.28;12718.07;23.70;929.0000;65535.0000;894.0000;-22.7222;0.0000;0.0000;0.0000E+00;
113;786.43;12715.65;26.13;874.0000;65535.0000;910.0000;48.2778;0.0000;0.0000;0.0000E+00;
114;786.58;12713.23;28.55;894.0000;65535.0000;932.0000;50.2778;0.0000;0.0000;0.0000E+00;
115;786.73;12710.81;30.97;938.0000;65535.0000;905.0000;-20.7222;0.0000;0.0000;0.0000E+00;
116;786.88;12708.39;33.39;920.0000;65535.0000;902.0000;-5.7222;0.0000;0.0000;0.0000E+00;
117;787.03;12705.97;35.81;971.0000;65535.0000;922.0000;-36.7222;0.0000;0.0000;0.0000E+00;
118;787.18;12703.55;38.23;947.0000;65535.0000;938.0000;3.2778;0.0000;0.0000;0.0000E+00;
119;787.33;12701.13;40.64;898.0000;65535.0000;910.0000;24.2778;0.0000;0.0000;0.0000E+00;
120;787.48;12698.72;43.06;922.0000;65535.0000;844.0000;-65.7222;0.0000;0.0000;0.0000E+00;
121;787.63;12696.30;45.48;828.0000;65535.0000;1037.0000;221.2778;0.0000;0.0000;0.0000E+00;
122;787.78;12693.89;47.89;964.0000;65535.0000;927.0000;-24.7222;0.0000;0.0000;0.0000E+00;
123;787.93;12691.47;50.30;968.0000;65535.0000;872.0000;-83.7222;0.0000;0.0000;0.0000E+00;
124;788.08;12689.06;52.71;897.0000;65535.0000;966.0000;81.2778;0.0000;0.0000;0.0000E+00;
125;788.23;12686.65;55.12;944.0000;65535.0000;888.0000;-43.7222;0.0000;0.0000;0.0000E+00;
126;788.38;12684.24;57.53;976.0000;65535.0000;922.0000;-41.7222;0.0000;0.0000;0.0000E+00;
127;788.53;12681.83;59.94;960.0000;65535.0000;894.0000;-53.7222;0.0000;0.0000;0.0000E+00;
128;788.68;12679.42;62.35;948.0000;65535.0000;892.0000;-43.7222;0.0000;0.0000;0.0000E+00;
129;788.83;12677.02;64.76;930.0000;65535.0000;886.0000;-31.7222;0.0000;0.0000;0.0000E+00;
130;788.98;12674.61;67.16;932.0000;65535.0000;977.0000;57.2778;0.0000;0.0000;0.0000E+00;
131;789.13;12672.21;69.57;923.0000;65535.0000;959.0000;48.2778;0.0000;0.0000;0.0000E+00;
132;789.28;12669.80;71.97;872.0000;65535.0000;890.0000;30.2778;0.0000;0.0000;0.0000E+00;
133;789.43;12667.40;74.37;1014.0000;65535.0000;836.0000;-165.7222;0.0000;0.0000;0.0000E+00;
134;789.58;12665.00;76.77;896.0000;65535.0000;862.0000;-21.7222;0.0000;0.0000;0.0000E+00;
135;789.73;12662.60;79.17;979.0000;65535.0000;969.0000;2.2778;0.0000;0.0000;0.0000E+00;
136;789.88;12660.20;81.57;871.0000;65535.0000;920.0000;61.2778;0.0000;0.0000;0.0000E+00;
137;790.03;12657.80;83.97;895.0000;65535.0000;874.0000;-8.7222;0.0000;0.0000;0.0000E+00;
138;790.18;12655.41;86.37;944.0000;65535.0000;956.0000;24.2778;0.0000;0.0000;0.0000E+00;
139;790.33;12653.01;88.76;882.0000;65535.0000;862.0000;-7.7222;0.0000;0.0000;0.0000E+00;
140;790.48;12650.62;91.16;915.0000;65535.0000;942.0000;39.2778;0.0000;0.0000;0.0000E+00;
141;790.62;12648.22;93.55;934.0000;65535.0000;1028.0000;106.2778;0.0000;0.0000;0.0000E+00;
142;790.77;12645.83;95.95;885.0000;65535.0000;920.0000;47.2778;0.0000;0.0000;0.0000E+00;
143;790.92;12643.44;98.34;931.0000;65535.0000;931.0000;12.2778;0.0000;0.0000;0.0000E+00;
144;791.07;12641.05;100.73;990.0000;65535.0000;949.0000;-28.7222;0.0000;0.0000;0.0000E+00;
145;791.22;12638.66;103.12;928.0000;65535.0000;965.0000;49.2778;0.0000;0.0000;0.0000E+00;
146;791.37;12636.27;105.51;938.0000;65535.0000;920.0000;-5.7222;0.0000;0.0000;0.0000E+00;
147;791.52;12633.88;107.89;975.0000;65535.0000;1010.0000;47.2778;0.0000;0.0000;0.0000E+00;
148;791.67;12631.49;110.28;916.0000;65535.0000;929.0000;25.2778;0.0000;0.0000;0.0000E+00;
149;791.82;12629.11;112.67;875.0000;65535.0000;939.0000;76.2778;0.0000;0.0000;0.0000E+00;
150;791.97;12626.72;115.05;924.0000;65535.0000;905.0000;-6.7222;0.0000;0.0000;0.0000E+00;
151;792.12;12624.34;117.43;937.0000;65535.0000;931.0000;6.2778;0.0000;0.0000;0.0000E+00;
152;792.27;12621.96;119.82;907.0000;65535.0000;925.0000;30.2778;0.0000;0.0000;0.0000E+00;
153;792.42;12619.58;122.20;962.0000;65535.0000;948.0000;-1.7222;0.0000;0.0000;0.0000E+00;
154;792.57;12617.20;124.58;893.0000;65535.0000;970.0000;89.2778;0.0000;0.0000;0.0000E+00;
155;792.72;12614.82;126.96;998.0000;65535.0000;896.0000;-89.7222;0.0000;0.0000;0.0000E+00;
156;792.87;12612.44;129.34;889.0000;65535.0000;874.0000;-2.7222;0.0000;0.0000;0.0000E+00;
157;793.02;12610.06;131.71;916.0000;65535.0000;948.0000;44.2778;0.0000;0.0000;0.0000E+00;
158;793.17;12607.69;134.09;956.0000;65535.0000;934.0000;-9.7222;0.0000;0.0000;0.0000E+00;
159;793.32;12605.31;136.46;932.0000;65535.0000;910.0000;-9.7222;0.0000;0.0000;0.0000E+00;
160;793.47;12602.94;138.84;920.0000;65535.0000;1050.0000;142.2778;0.0000;0.0000;0.0000E+00;
161;793.62;12600.56;141.21;918.0000;65535.0000;994.0000;88.2778;0.0000;0.0000;0.0000E+00;
162;793.76;12598.19;143.58;944.0000;65535.0000;1155.0000;223.2778;0.0000;0.0000;0.0000E+00;
163;793.91;12595.82;145.95;976.0000;65535.0000;1312.0000;348.2778;0.0000;0.0000;0.0000E+00;
164;794.06;12593.45;148.32;838.0000;65535.0000;1400.0000;574.2778;0.0000;0.0000;0.0000E+00;
165;794.21;12591.08;150.69;877.0000;65535.0000;1735.0000;870.2778;0.0000;0.0000;0.0000E+00;
166;794.36;12588.71;153.06;947.0000;65535.0000;1974.0000;1039.2778;0.0000;0.0000;0.0000E+00;
167;794.51;12586.35;155.43;971.0000;65535.0000;1628.0000;669.2778;0.0000;0.0000;0.0000E+00;
168;794.66;12583.98;157.79;923.0000;65535.0000;1059.0000;148.2778;0.0000;0.0000;0.0000E+00;
169;794.81;12581.62;160.16;968.0000;65535.0000;1104.0000;148.2778;0.0000;0.0000;0.0000E+00;
170;794.96;12579.25;162.52;960.0000;65535.0000;1078.0000;130.2778;0.0000;0.0000;0.0000E+00;
171;795.11;12576.89;164.88;953.0000;65535.0000;966.0000;25.2778;0.0000;0.0000;0.0000E+00;
172;795.26;12574.53;167.25;933.0000;65535.0000;939.0000;18.2778;0.0000;0.0000;0.0000E+00;
173;795.41;12572.17;169.61;1016.0000;65535.0000;912.0000;-91.7222;0.0000;0.0000;0.0000E+00;
174;795.56;12569.81;171.97;962.0000;65535.0000;920.0000;-29.7222;0.0000;0.0000;0.0000E+00;
175;795.71;12567.45;174.32;901.0000;65535.0000;959.0000;70.2778;0.0000;0.0000;0.0000E+00;
176;795.86;12565.09;176.68;906.0000;65535.0000;865.0000;-28.7222;0.0000;0.0000;0.0000E+00;
177;796.00;12562.74;179.04;891.0000;65535.0000;868.0000;-10.7222;0.0000;0.0000;0.0000E+00;
178;796.15;12560.38;181.39;1000.0000;65535.0000;920.0000;-67.7222;0.0000;0.0000;0.0000E+00;
179;796.30;12558.03;183.75;915.0000;65535.0000;924.0000;21.2778;0.0000;0.0000;0.0000E+00;
180;796.45;12555.67;186.10;906.0000;65535.0000;929.0000;35.2778;0.0000;0.0000;0.0000E+00;
181;796.60;12553.32;188.45;889.0000;65535.0000;945.0000;68.2778;0.0000;0.0000;0.0000E+00;
182;796.75;12550.97;190.81;993.0000;65535.0000;876.0000;-104.7222;0.0000;0.0000;0.0000E+00;
183;796.90;12548.62;193.16;967.0000;65535.0000;922.0000;-32.7222;0.0000;0.0000;0.0000E+00;
184;797.05;12546.27;195.51;885.0000;65535.0000;904.0000;31.2778;0.0000;0.0000;0.0000E+00;
185;797.20;12543.92;197.85;926.0000;65535.0000;942.0000;28.2778;0.0000;0.0000;0.0000E+00;
186;797.35;12541.57;200.20;915.0000;65535.0000;968.0000;65.2778;0.0000;0.0000;0.0000E+00;
187;797.50;12539.23;202.55;932.0000;65535.0000;970.0000;50.2778;0.0000;0.0000;0.0000E+00;
188;797.65;12536.88;204.89;931.0000;65535.0000;947.0000;28.2778;0.0000;0.0000;0.0000E+00;
189;797.80;12534.54;207.24;909.0000;65535.0000;965.0000;68.2778;0.0000;0.0000;0.0000E+00;
190;797.94;12532.20;209.58;891.0000;65535.0000;958.0000;79.2778;0.0000;0.0000;0.0000E+00;
191;798.09;12529.85;211.92;952.0000;65535.0000;1012.0000;72.2778;0.0000;0.0000;0.0000E+00;
192;798.24;12527.51;214.26;819.0000;65535.0000;838.0000;31.2778;0.0000;0.0000;0.0000E+00;
193;798.39;12525.17;216.60;875.0000;65535.0000;939.0000;76.2778;0.0000;0.0000;0.0000E+00;
194;798.54;12522.83;218.94;909.0000;65535.0000;896.0000;-0.7222;0.0000;0.0000;0.0000E+00;
195;798.69;12520.50;221.28;930.0000;65535.0000;963.0000;45.2778;0.0000;0.0000;0.0000E+00;
196;798.84;12518.16;223.62;931.0000;65535.0000;870.0000;-48.7222;0.0000;0.0000;0.0000E+00;
197;798.99;12515.82;225.95;928.0000;65535.0000;827.0000;-88.7222;0.0000;0.0000;0.0000E+00;
198;799.14;12513.49;228.29;928.0000;65535.0000;919.0000;3.2778;0.0000;0.0000;0.0000E+00;
199;799.29;12511.15;230.62;945.0000;65535.0000;952.0000;19.2778;0.0000;0.0000;0.0000E+00;
200;799.44;12508.82;232.95;933.0000;65535.0000;902.0000;-18.7222;0.0000;0.0000;0.0000E+00;
201;799.58;12506.49;235.29;899.0000;65535.0000;899.0000;12.2778;0.0000;0.0000;0.0000E+00;
202;799.73;12504.16;237.62;945.0000;65535.0000;846.0000;-86.7222;0.0000;0.0000;0.0000E+00;
203;799.88;12501.83;239.95;977.0000;65535.0000;898.0000;-66.7222;0.0000;0.0000;0.0000E+00;
204;800.03;12499.50;242.28;915.0000;65535.0000;1010.0000;107.2778;0.0000;0.0000;0.0000E+00;
205;800.18;12497.17;244.60;882.0000;65535.0000;960.0000;90.2778;0.0000;0.0000;0.0000E+00;
206;800.33;12494.84;246.93;969.0000;65535.0000;972.0000;15.2778;0.0000;0.0000;0.0000E+00;
207;800.48;12492.52;249.26;912.0000;65535.0000;1016.0000;116.2778;0.0000;0.0000;0.0000E+00;
208;800.63;12490.19;251.58;934.0000;65535.0000;999.0000;77.2778;0.0000;0.0000;0.0000E+00;
209;800.78;12487.87;253.91;909.0000;65535.0000;1026.0000;129.2778;0.0000;0.0000;0.0000E+00;
210;800.93;12485.55;256.23;923.0000;65535.0000;927.0000;16.2778;0.0000;0.0000;0.0000E+00;
211;801.08;12483.22;258.55;955.0000;65535.0000;956.0000;13.2778;0.0000;0.0000;0.0000E+00;
212;801.22;12480.90;260.87;960.0000;65535.0000;1023.0000;75.2778;0.0000;0.0000;0.0000E+00;
213;801.37;12478.58;263.19;897.0000;65535.0000;982.0000;97.2778;0.0000;0.0000;0.0000E+00;
214;801.52;12476.27;265.51;943.0000;65535.0000;1036.0000;105.2778;0.0000;0.0000;0.0000E+00;
215;801.67;12473.95;267.83;955.0000;65535.0000;970.0000;27.2778;0.0000;0.0000;0.0000E+00;
216;801.82;12471.63;270.14;914.0000;65535.0000;960.0000;58.2778;0.0000;0.0000;0.0000E+00;
217;801.97;12469.31;272.46;899.0000;65535.0000;946.0000;59.2778;0.0000;0.0000;0.0000E+00;
218;802.12;12467.00;274.78;919.0000;65535.0000;899.0000;-7.7222;0.0000;0.0000;0.0000E+00;
219;802.27;12464.69;277.09;889.0000;65535.0000;922.0000;45.2778;0.0000;0.0000;0.0000E+00;
220;802.42;12462.37;279.40;891.0000;65535.0000;895.0000;16.2778;0.0000;0.0000;0.0000E+00;
221;802.56;12460.06;281.71;995.0000;65535.0000;874.0000;-108.7222;0.0000;0.0000;0.0000E+00;
222;802.71;12457.75;284.02;907.0000;65535.0000;970.0000;75.2778;0.0000;0.0000;0.0000E+00;
223;802.86;12455.44;286.33;873.0000;65535.0000;906.0000;45.2778;0.0000;0.0000;0.0000E+00;
224;803.01;12453.13;288.64;1018.0000;65535.0000;936.0000;-69.7222;0.0000;0.0000;0.0000E+00;
225;803.16;12450.82;290.95;901.0000;65535.0000;988.0000;99.2778;0.0000;0.0000;0.0000E+00;
226;803.31;12448.52;293.26;947.0000;65535.0000;876.0000;-58.7222;0.0000;0.0000;0.0000E+00;
227;803.46;12446.21;295.56;931.0000;65535.0000;860.0000;-58.7222;0.0000;0.0000;0.0000E+00;
228;803.61;12443.91;297.87;986.0000;65535.0000;927.0000;-46.7222;0.0000;0.0000;0.0000E+00;
229;803.75;12441.60;300.17;880.0000;65535.0000;986.0000;118.2778;0.0000;0.0000;0.0000E+00;
230;803.90;12439.30;302.47;943.0000;65535.0000;880.0000;-50.7222;0.0000;0.0000;0.0000E+00;
231;804.05;12437.00;304.78;967.0000;65535.0000;984.0000;29.2778;0.0000;0.0000;0.0000E+00;
232;804.20;12434.70;307.08;926.0000;65535.0000;952.0000;38.2778;0.0000;0.0000;0.0000E+00;
233;804.35;12432.40;309.38;947.0000;65535.0000;902.0000;-32.7222;0.0000;0.0000;0.0000E+00;
234;804.50;12430.10;311.68;873.0000;65535.0000;927.0000;66.2778;0.0000;0.0000;0.0000E+00;
235;804.65;12427.80;313.97;901.0000;65535.0000;892.0000;3.2778;0.0000;0.0000;0.0000E+00;
236;804.80;12425.51;316.27;936.0000;65535.0000;922.0000;-1.7222;0.0000;0.0000;0.0000E+00;
237;804.94;12423.21;318.57;965.0000;65535.0000;1017.0000;64.2778;0.0000;0.0000;0.0000E+00;
238;805.09;12420.91;320.86;984.0000;65535.0000;978.0000;6.2778;0.0000;0.0000;0.0000E+00;
239;805.24;12418.62;323.15;883.0000;65535.0000;908.0000;37.2778;0.0000;0.0000;0.0000E+00;
240;805.39;12416.33;325.45;871.0000;65535.0000;994.0000;135.2778;0.0000;0.0000;0.0000E+00;
241;805.54;12414.04;327.74;952.0000;65535.0000;870.0000;-69.7222;0.0000;0.0000;0.0000E+00;
242;805.69;12411.75;330.03;920.0000;65535.0000;870.0000;-37.7222;0.0000;0.0000;0.0000E+00;
243;805.84;12409.46;332.32;920.0000;65535.0000;931.0000;23.2778;0.0000;0.0000;0.0000E+00;
244;805.99;12407.17;334.61;896.0000;65535.0000;954.0000;70.2778;0.0000;0.0000;0.0000E+00;
245;806.13;12404.88;336.90;1010.0000;65535.0000;996.0000;-1.7222;0.0000;0.0000;0.0000E+00;
246;806.28;12402.59;339.18;934.0000;65535.0000;896.0000;-25.7222;0.0000;0.0000;0.0000E+00;
247;806.43;12400.31;341.47;875.0000;65535.0000;980.0000;117.2778;0.0000;0.0000;0.0000E+00;
248;806.58;12398.02;343.75;914.0000;65535.0000;921.0000;19.2778;0.0000;0.0000;0.0000E+00;
249;806.73;12395.74;346.04;991.0000;65535.0000;916.0000;-62.7222;0.0000;0.0000;0.0000E+00;
250;806.88;12393.45;348.32;938.0000;65535.0000;902.0000;-23.7222;0.0000;0.0000;0.0000E+00;
251;807.03;12391.17;350.60;890.0000;65535.0000;957.0000;79.2778;0.0000;0.0000;0.0000E+00;
252;807.17;12388.89;352.88;926.0000;65535.0000;930.0000;16.2778;0.0000;0.0000;0.0000E+00;
253;807.32;12386.61;355.16;977.0000;65535.0000;938.0000;-26.7222;0.0000;0.0000;0.0000E+00;
254;807.47;12384.33;357.44;918.0000;65535.0000;999.0000;93.2778;0.0000;0.0000;0.0000E+00;
255;807.62;12382.06;359.72;983.0000;65535.0000;986.0000;15.2778;0.0000;0.0000;0.0000E+00;
256;807.77;12379.78;362.00;860.0000;65535.0000;1086.0000;238.2778;0.0000;0.0000;0.0000E+00;
257;807.92;12377.50;364.27;887.0000;65535.0000;1350.0000;475.2778;0.0000;0.0000;0.0000E+00;
258;808.07;12375.23;366.55;905.0000;65535.0000;1752.0000;859.2778;0.0000;0.0000;0.0000E+00;
259;808.21;12372.95;368.82;906.0000;65535.0000;2213.0000;1319.2778;0.0000;0.0000;0.0000E+00;
260;808.36;12370.68;371.10;955.0000;65535.0000;2186.0000;1243.2778;0.0000;0.0000;0.0000E+00;
261;808.51;12368.41;373.37;925.0000;65535.0000;1186.0000;273.2778;0.0000;0.0000;0.0000E+00;
262;808.66;12366.14;375.64;987.0000;65535.0000;952.0000;-22.7222;0.0000;0.0000;0.0000E+00;
263;808.81;12363.87;377.91;892.0000;65535.0000;935.0000;55.2778;0.0000;0.0000;0.0000E+00;
264;808.96;12361.60;380.18;917.0000;65535.0000;938.0000;33.2778;0.0000;0.0000;0.0000E+00;
265;809.11;12359.33;382.45;878.0000;65535.0000;904.0000;38.2778;0.0000;0.0000;0.0000E+00;
266;809.25;12357.06;384.71;952.0000;65535.0000;983.0000;43.2778;0.0000;0.0000;0.0000E+00;
267;809.40;12354.80;386.98;869.0000;65535.0000;942.0000;85.2778;0.0000;0.0000;0.0000E+00;
268;809.55;12352.53;389.24;905.0000;65535.0000;947.0000;54.2778;0.0000;0.0000;0.0000E+00;
269;809.70;12350.27;391.51;1007.0000;65535.0000;992.0000;-2.7222;0.0000;0.0000;0.0000E+00;
270;809.85;12348.00;393.77;926.0000;65535.0000;912.0000;-1.7222;0.0000;0.0000;0.0000E+00;
271;810.00;12345.74;396.03;902.0000;65535.0000;984.0000;94.2778;0.0000;0.0000;0.0000E+00;
272;810.14;12343.48;398.30;810.0000;65535.0000;1030.0000;232.2778;0.0000;0.0000;0.0000E+00;
273;810.29;12341.22;400.56;883.0000;65535.0000;1027.0000;156.2778;0.0000;0.0000;0.0000E+00;
274;810.44;12338.96;402.82;971.0000;65535.0000;1038.0000;79.2778;0.0000;0.0000;0.0000E+00;
275;810.59;12336.70;405.07;875.0000;65535.0000;1004.0000;141.2778;0.0000;0.0000;0.0000E+00;
276;810.74;12334.44;407.33;894.0000;65535.0000;958.0000;76.2778;0.0000;0.0000;0.0000E+00;
277;810.89;12332.19;409.59;856.0000;65535.0000;980.0000;136.2778;0.0000;0.0000;0.0000E+00;
278;811.03;12329.93;411.84;953.0000;65535.0000;980.0000;39.2778;0.0000;0.0000;0.0000E+00;
279;811.18;12327.68;414.10;873.0000;65535.0000;1084.0000;223.2778;0.0000;0.0000;0.0000E+00;
280;811.33;12325.42;416.35;924.0000;65535.0000;1220.0000;308.2778;0.0000;0.0000;0.0000E+00;
281;811.48;12323.17;418.60;909.0000;65535.0000;1494.0000;597.2778;0.0000;0.0000;0.0000E+00;
282;811.63;12320.92;420.86;910.0000;65535.0000;1912.0000;1014.2778;0.0000;0.0000;0.0000E+00;
283;811.78;12318.67;423.11;877.0000;65535.0000;1554.0000;689.2778;0.0000;0.0000;0.0000E+00;
284;811.92;12316.42;425.36;925.0000;65535.0000;1404.0000;491.2778;0.0000;0.0000;0.0000E+00;
285;812.07;12314.17;427.60;944.0000;65535.0000;1142.0000;210.2778;0.0000;0.0000;0.0000E+00;
286;812.22;12311.92;429.85;963.0000;65535.0000;926.0000;-24.7222;0.0000;0.0000;0.0000E+00;
287;812.37;12309.68;432.10;954.0000;65535.0000;876.0000;-65.7222;0.0000;0.0000;0.0000E+00;
288;812.52;12307.43;434.34;985.0000;65535.0000;866.0000;-106.7222;0.0000;0.0000;0.0000E+00;
289;812.67;12305.19;436.59;892.0000;65535.0000;1088.0000;208.2778;0.0000;0.0000;0.0000E+00;
290;812.81;12302.94;438.83;880.0000;65535.0000;1080.0000;212.2778;0.0000;0.0000;0.0000E+00;
291;812.96;12300.70;441.08;980.0000;65535.0000;1118.0000;150.2778;0.0000;0.0000;0.0000E+00;
292;813.11;12298.46;443.32;937.0000;65535.0000;1020.0000;95.2778;0.0000;0.0000;0.0000E+00;
293;813.26;12296.22;445.56;941.0000;65535.0000;1256.0000;327.2778;0.0000;0.0000;0.0000E+00;
294;813.41;12293.98;447.80;898.0000;65535.0000;2008.0000;1122.2778;0.0000;0.0000;0.0000E+00;
295;813.55;12291.74;450.04;913.0000;65535.0000;2703.0000;1802.2778;0.0000;0.0000;0.0000E+00;
296;813.70;12289.50;452.28;964.0000;65535.0000;3156.0000;2204.2778;0.0000;0.0000;0.0000E+00;
297;813.85;12287.26;454.51;966.0000;65535.0000;1870.0000;916.2778;0.0000;0.0000;0.0000E+00;
298;814.00;12285.03;456.75;924.0000;65535.0000;920.0000;8.2778;0.0000;0.0000;0.0000E+00;
299;814.15;12282.79;458.98;954.0000;65535.0000;862.0000;-79.7222;0.0000;0.0000;0.0000E+00;
300;814.30;12280.56;461.22;960.0000;65535.0000;990.0000;42.2778;0.0000;0.0000;0.0000E+00;
301;814.44;12278.32;463.45;925.0000;65535.0000;962.0000;49.2778;0.0000;0.0000;0.0000E+00;
302;814.59;12276.09;465.68;907.0000;65535.0000;891.0000;-3.7222;0.0000;0.0000;0.0000E+00;
303;814.74;12273.86;467.92;934.0000;65535.0000;888.0000;-33.7222;0.0000;0.0000;0.0000E+00;
304;814.89;12271.63;470.15;966.0000;65535.0000;909.0000;-44.7222;0.0000;0.0000;0.0000E+00;
305;815.04;12269.40;472.38;864.0000;65535.0000;948.0000;96.2778;0.0000;0.0000;0.0000E+00;
306;815.18;12267.17;474.60;990.0000;65535.0000;922.0000;-55.7222;0.0000;0.0000;0.0000E+00;
307;815.33;12264.94;476.83;900.0000;65535.0000;1021.0000;133.2778;0.0000;0.0000;0.0000E+00;
308;815.48;12262.72;479.06;904.0000;65535.0000;971.0000;79.2778;0.0000;0.0000;0.0000E+00;
309;815.63;12260.49;481.28;955.0000;65535.0000;898.0000;-44.7222;0.0000;0.0000;0.0000E+00;
310;815.78;12258.27;483.51;880.0000;65535.0000;951.0000;83.2778;0.0000;0.0000;0.0000E+00;
311;815.92;12256.04;485.73;944.0000;65535.0000;976.0000;44.2778;0.0000;0.0000;0.0000E+00;
312;816.07;12253.82;487.96;1029.0000;65535.0000;896.0000;-120.7222;0.0000;0.0000;0.0000E+00;
313;816.22;12251.60;490.18;909.0000;65535.0000;932.0000;35.2778;0.0000;0.0000;0.0000E+00;
314;816.37;12249.38;492.40;914.0000;65535.0000;965.0000;63.2778;0.0000;0.0000;0.0000E+00;
315;816.52;12247.16;494.62;886.0000;65535.0000;952.0000;78.2778;0.0000;0.0000;0.0000E+00;
316;816.66;12244.94;496.84;877.0000;65535.0000;942.0000;77.2778;0.0000;0.0000;0.0000E+00;
317;816.81;12242.72;499.05;914.0000;65535.0000;978.0000;76.2778;0.0000;0.0000;0.0000E+00;
318;816.96;12240.50;501.27;953.0000;65535.0000;1046.0000;105.2778;0.0000;0.0000;0.0000E+00;
319;817.11;12238.29;503.49;986.0000;65535.0000;958.0000;-15.7222;0.0000;0.0000;0.0000E+00;
320;817.26;12236.07;505.70;982.0000;65535.0000;961.0000;-8.7222;0.0000;0.0000;0.0000E+00;
321;817.40;12233.86;507.92;997.0000;65535.0000;885.0000;-99.7222;0.0000;0.0000;0.0000E+00;
322;817.55;12231.64;510.13;930.0000;65535.0000;994.0000;76.2778;0.0000;0.0000;0.0000E+00;
323;817.70;12229.43;512.34;871.0000;65535.0000;937.0000;78.2778;0.0000;0.0000;0.0000E+00;
324;817.85;12227.22;514.55;955.0000;65535.0000;928.0000;-14.7222;0.0000;0.0000;0.0000E+00;
325;818.00;12225.01;516.76;864.0000;65535.0000;905.0000;53.2778;0.0000;0.0000;0.0000E+00;
326;818.14;12222.80;518.97;920.0000;65535.0000;983.0000;75.2778;0.0000;0.0000;0.0000E+00;
327;818.29;12220.59;521.18;1008.0000;65535.0000;918.0000;-77.7222;0.0000;0.0000;0.0000E+00;
328;818.44;12218.38;523.39;894.0000;65535.0000;914.0000;32.2778;0.0000;0.0000;0.0000E+00;
329;818.59;12216.18;525.60;894.0000;65535.0000;856.0000;-25.7222;0.0000;0.0000;0.0000E+00;
330;818.73;12213.97;527.80;976.0000;65535.0000;900.0000;-63.7222;0.0000;0.0000;0.0000E+00;
331;818.88;12211.77;530.01;928.0000;65535.0000;954.0000;38.2778;0.0000;0.0000;0.0000E+00;
332;819.03;12209.56;532.21;907.0000;65535.0000;968.0000;73.2778;0.0000;0.0000;0.0000E+00;
333;819.18;12207.36;534.41;913.0000;65535.0000;944.0000;43.2778;0.0000;0.0000;0.0000E+00;
334;819.33;12205.16;536.62;844.0000;65535.0000;960.0000;128.2778;0.0000;0.0000;0.0000E+00;
335;819.47;12202.96;538.82;882.0000;65535.0000;950.0000;80.2778;0.0000;0.0000;0.0000E+00;
336;819.62;12200.76;541.02;960.0000;65535.0000;936.0000;-11.7222;0.0000;0.0000;0.0000E+00;
337;819.77;12198.56;543.22;1001.0000;65535.0000;968.0000;-20.7222;0.0000;0.0000;0.0000E+00;
338;819.92;12196.36;545.41;921.0000;65535.0000;936.0000;27.2778;0.0000;0.0000;0.0000E+00;
339;820.06;12194.16;547.61;979.0000;65535.0000;923.0000;-43.7222;0.0000;0.0000;0.0000E+00;
340;820.21;12191.97;549.81;959.0000;65535.0000;915.0000;-31.7222;0.0000;0.0000;0.0000E+00;
341;820.36;12189.77;552.00;915.0000;65535.0000;921.0000;18.2778;0.0000;0.0000;0.0000E+00;
342;820.51;12187.58;554.20;939.0000;65535.0000;974.0000;47.2778;0.0000;0.0000;0.0000E+00;
343;820.66;12185.38;556.39;939.0000;65535.0000;1008.0000;81.2778;0.0000;0.0000;0.0000E+00;
344;820.80;12183.19;558.58;913.0000;65535.0000;918.0000;17.2778;0.0000;0.0000;0.0000E+00;
345;820.95;12181.00;560.78;945.0000;65535.0000;894.0000;-38.7222;0.0000;0.0000;0.0000E+00;
346;821.10;12178.81;562.97;878.0000;65535.0000;948.0000;82.2778;0.0000;0.0000;0.0000E+00;
347;821.25;12176.62;565.16;946.0000;65535.0000;866.0000;-67.7222;0.0000;0.0000;0.0000E+00;
348;821.39;12174.43;567.34;896.0000;65535.0000;850.0000;-33.7222;0.0000;0.0000;0.0000E+00;
349;821.54;12172.24;569.53;961.0000;65535.0000;917.0000;-31.7222;0.0000;0.0000;0.0000E+00;
350;821.69;12170.06;571.72;931.0000;65535.0000;960.0000;41.2778;0.0000;0.0000;0.0000E+00;
351;821.84;12167.87;573.91;897.0000;65535.0000;883.0000;-1.7222;0.0000;0.0000;0.0000E+00;
352;821.98;12165.68;576.09;896.0000;65535.0000;930.0000;46.2778;0.0000;0.0000;0.0000E+00;
353;822.13;12163.50;578.27;953.0000;65535.0000;946.0000;5.2778;0.0000;0.0000;0.0000E+00;
354;822.28;12161.32;580.46;976.0000;65535.0000;934.0000;-29.7222;0.0000;0.0000;0.0000E+00;
355;822.43;12159.14;582.64;904.0000;65535.0000;872.0000;-19.7222;0.0000;0.0000;0.0000E+00;
356;822.57;12156.95;584.82;910.0000;65535.0000;928.0000;30.2778;0.0000;0.0000;0.0000E+00;
357;822.72;12154.77;587.00;974.0000;65535.0000;1022.0000;60.2778;0.0000;0.0000;0.0000E+00;
358;822.87;12152.59;589.18;965.0000;65535.0000;928.0000;-24.7222;0.0000;0.0000;0.0000E+00;
359;823.02;12150.42;591.36;968.0000;65535.0000;909.0000;-46.7222;0.0000;0.0000;0.0000E+00;
360;823.16;12148.24;593.54;942.0000;65535.0000;923.0000;-6.7222;0.0000;0.0000;0.0000E+00;
361;823.31;12146.06;595.71;990.0000;65535.0000;823.0000;-154.7222;0.0000;0.0000;0.0000E+00;
362;823.46;12143.89;597.89;947.0000;65535.0000;872.0000;-62.7222;0.0000;0.0000;0.0000E+00;
363;823.61;12141.71;600.06;916.0000;65535.0000;896.0000;-7.7222;0.0000;0.0000;0.0000E+00;
364;823.75;12139.54;602.24;914.0000;65535.0000;892.0000;-9.7222;0.0000;0.0000;0.0000E+00;
365;823.90;12137.36;604.41;925.0000;65535.0000;859.0000;-53.7222;0.0000;0.0000;0.0000E+00;
366;824.05;12135.19;606.58;936.0000;65535.0000;1021.0000;97.2778;0.0000;0.0000;0.0000E+00;
367;824.20;12133.02;608.76;942.0000;65535.0000;924.0000;-5.7222;0.0000;0.0000;0.0000E+00;
368;824.34;12130.85;610.93;938.0000;65535.0000;901.0000;-24.7222;0.0000;0.0000;0.0000E+00;
369;824.49;12128.68;613.09;900.0000;65535.0000;976.0000;88.2778;0.0000;0.0000;0.0000E+00;
370;824.64;12126.51;615.26;934.0000;65535.0000;886.0000;-35.7222;0.0000;0.0000;0.0000E+00;
371;824.79;12124.34;617.43;880.0000;65535.0000;971.0000;103.2778;0.0000;0.0000;0.0000E+00;
372;824.93;12122.18;619.60;961.0000;65535.0000;980.0000;31.2778;0.0000;0.0000;0.0000E+00;
373;825.08;12120.01;621.76;983.0000;65535.0000;939.0000;-31.7222;0.0000;0.0000;0.0000E+00;
374;825.23;12117.85;623.93;953.0000;65535.0000;974.0000;33.2778;0.0000;0.0000;0.0000E+00;
375;825.38;12115.68;626.09;880.0000;65535.0000;958.0000;90.2778;0.0000;0.0000;0.0000E+00;
376;825.52;12113.52;628.25;878.0000;65535.0000;1083.0000;217.2778;0.0000;0.0000;0.0000E+00;
377;825.67;12111.36;630.42;960.0000;65535.0000;1046.0000;98.2778;0.0000;0.0000;0.0000E+00;
378;825.82;12109.20;632.58;936.0000;65535.0000;1218.0000;294.2778;0.0000;0.0000;0.0000E+00;
379;825.97;12107.04;634.74;840.0000;65535.0000;1352.0000;524.2778;0.0000;0.0000;0.0000E+00;
380;826.11;12104.88;636.90;950.0000;65535.0000;1137.0000;199.2778;0.0000;0.0000;0.0000E+00;
381;826.26;12102.72;639.05;1016.0000;65535.0000;1120.0000;116.2778;0.0000;0.0000;0.0000E+00;
382;826.41;12100.56;641.21;970.0000;65535.0000;1499.0000;541.2778;0.0000;0.0000;0.0000E+00;
383;826.56;12098.41;643.37;923.0000;65535.0000;1931.0000;1020.2778;0.0000;0.0000;0.0000E+00;
384;826.70;12096.25;645.52;952.0000;65535.0000;1902.0000;962.2778;0.0000;0.0000;0.0000E+00;
385;826.85;12094.10;647.68;870.0000;65535.0000;1191.0000;333.2778;0.0000;0.0000;0.0000E+00;
386;827.00;12091.94;649.83;1010.0000;65535.0000;940.0000;-57.7222;0.0000;0.0000;0.0000E+00;
387;827.14;12089.79;651.98;982.0000;65535.0000;923.0000;-46.7222;0.0000;0.0000;0.0000E+00;
388;827.29;12087.64;654.14;900.0000;65535.0000;984.0000;96.2778;0.0000;0.0000;0.0000E+00;
389;827.44;12085.49;656.29;921.0000;65535.0000;1023.0000;114.2778;0.0000;0.0000;0.0000E+00;
390;827.59;12083.34;658.44;870.0000;65535.0000;870.0000;12.2778;0.0000;0.0000;0.0000E+00;
391;827.73;12081.19;660.59;870.0000;65535.0000;864.0000;6.2778;0.0000;0.0000;0.0000E+00;
392;827.88;12079.04;662.73;912.0000;65535.0000;924.0000;24.2778;0.0000;0.0000;0.0000E+00;
393;828.03;12076.89;664.88;958.0000;65535.0000;931.0000;-14.7222;0.0000;0.0000;0.0000E+00;
394;828.17;12074.75;667.03;923.0000;65535.0000;993.0000;82.2778;0.0000;0.0000;0.0000E+00;
395;828.32;12072.60;669.17;966.0000;65535.0000;904.0000;-49.7222;0.0000;0.0000;0.0000E+00;
396;828.47;12070.46;671.32;905.0000;65535.0000;832.0000;-60.7222;0.0000;0.0000;0.0000E+00;
397;828.62;12068.31;673.46;859.0000;65535.0000;958.0000;111.2778;0.0000;0.0000;0.0000E+00;
398;828.76;12066.17;675.60;921.0000;65535.0000;988.0000;79.2778;0.0000;0.0000;0.0000E+00;
399;828.91;12064.03;677.75;968.0000;65535.0000;997.0000;41.2778;0.0000;0.0000;0.0000E+00;
400;829.06;12061.89;679.89;882.0000;65535.0000;876.0000;6.2778;0.0000;0.0000;0.0000E+00;
401;829.20;12059.75;682.03;923.0000;65535.0000;906.0000;-4.7222;0.0000;0.0000;0.0000E+00;
402;829.35;12057.61;684.17;882.0000;65535.0000;1076.0000;206.2778;0.0000;0.0000;0.0000E+00;
403;829.50;12055.47;686.30;968.0000;65535.0000;1247.0000;291.2778;0.0000;0.0000;0.0000E+00;
404;829.65;12053.33;688.44;954.0000;65535.0000;1960.0000;1018.2778;0.0000;0.0000;0.0000E+00;
405;829.79;12051.20;690.58;888.0000;65535.0000;3778.0000;2902.2778;0.0000;0.0000;0.0000E+00;
406;829.94;12049.06;692.71;883.0000;65535.0000;7496.0000;6625.2778;0.0000;0.0000;0.0000E+00;
407;830.09;12046.93;694.85;970.0000;65535.0000;10312.0000;9354.2778;0.0000;0.0000;0.0000E+00;
408;830.23;12044.79;696.98;978.0000;65535.0000;4548.0000;3582.2778;0.0000;0.0000;0.0000E+00;
409;830.38;12042.66;699.12;949.0000;65535.0000;1136.0000;199.2778;0.0000;0.0000;0.0000E+00;
410;830.53;12040.53;701.25;929.0000;65535.0000;1068.0000;151.2778;0.0000;0.0000;0.0000E+00;
411;830.68;12038.40;703.38;988.0000;65535.0000;944.0000;-31.7222;0.0000;0.0000;0.0000E+00;
412;830.82;12036.27;705.51;898.0000;65535.0000;1010.0000;124.2778;0.0000;0.0000;0.0000E+00;
413;830.97;12034.14;707.64;846.0000;65535.0000;999.0000;165.2778;0.0000;0.0000;0.0000E+00;
414;831.12;12032.01;709.77;969.0000;65535.0000;898.0000;-58.7222;0.0000;0.0000;0.0000E+00;
415;831.26;12029.88;711.89;901.0000;65535.0000;994.0000;105.2778;0.0000;0.0000;0.0000E+00;
416;831.41;12027.76;714.02;875.0000;65535.0000;920.0000;57.2778;0.0000;0.0000;0.0000E+00;
417;831.56;12025.63;716.14;915.0000;65535.0000;952.0000;49.2778;0.0000;0.0000;0.0000E+00;
418;831.70;12023.51;718.27;801.0000;65535.0000;919.0000;130.2778;0.0000;0.0000;0.0000E+00;
419;831.85;12021.38;720.39;895.0000;65535.0000;904.0000;21.2778;0.0000;0.0000;0.0000E+00;
420;832.00;12019.26;722.52;958.0000;65535.0000;972.0000;26.2778;0.0000;0.0000;0.0000E+00;
421;832.14;12017.14;724.64;864.0000;65535.0000;940.0000;88.2778;0.0000;0.0000;0.0000E+00;
422;832.29;12015.02;726.76;910.0000;65535.0000;912.0000;14.2778;0.0000;0.0000;0.0000E+00;
423;832.44;12012.90;728.88;934.0000;65535.0000;844.0000;-77.7222;0.0000;0.0000;0.0000E+00;
424;832.59;12010.78;731.00;935.0000;65535.0000;927.0000;4.2778;0.0000;0.0000;0.0000E+00;
425;832.73;12008.66;733.12;969.0000;65535.0000;958.0000;1.2778;0.0000;0.0000;0.0000E+00;
426;832.88;12006.54;735.23;946.0000;65535.0000;966.0000;32.2778;0.0000;0.0000;0.0000E+00;
427;833.03;12004.42;737.35;944.0000;65535.0000;872.0000;-59.7222;0.0000;0.0000;0.0000E+00;
428;833.17;12002.31;739.47;975.0000;65535.0000;933.0000;-29.7222;0.0000;0.0000;0.0000E+00;
429;833.32;12000.19;741.58;1022.0000;65535.0000;900.0000;-109.7222;0.0000;0.0000;0.0000E+00;
430;833.47;11998.08;743.70;950.0000;65535.0000;982.0000;44.2778;0.0000;0.0000;0.0000E+00;
431;833.61;11995.97;745.81;894.0000;65535.0000;954.0000;72.2778;0.0000;0.0000;0.0000E+00;
432;833.76;11993.85;747.92;952.0000;65535.0000;948.0000;8.2778;0.0000;0.0000;0.0000E+00;
433;833.91;11991.74;750.03;976.0000;65535.0000;924.0000;-39.7222;0.0000;0.0000;0.0000E+00;
434;834.05;11989.63;752.14;964.0000;65535.0000;944.0000;-7.7222;0.0000;0.0000;0.0000E+00;
435;834.20;11987.52;754.25;870.0000;65535.0000;874.0000;16.2778;0.0000;0.0000;0.0000E+00;
436;834.35;11985.41;756.36;1000.0000;65535.0000;942.0000;-45.7222;0.0000;0.0000;0.0000E+00;
437;834.49;11983.31;758.47;886.0000;65535.0000;964.0000;90.2778;0.0000;0.0000;0.0000E+00;
438;834.64;11981.20;760.57;872.0000;65535.0000;978.0000;118.2778;0.0000;0.0000;0.0000E+00;
439;834.79;11979.09;762.68;1017.0000;65535.0000;943.0000;-61.7222;0.0000;0.0000;0.0000E+00;
440;834.93;11976.99;764.79;952.0000;65535.0000;886.0000;-53.7222;0.0000;0.0000;0.0000E+00;
441;835.08;11974.89;766.89;991.0000;65535.0000;968.0000;-10.7222;0.0000;0.0000;0.0000E+00;
442;835.23;11972.78;768.99;931.0000;65535.0000;962.0000;43.2778;0.0000;0.0000;0.0000E+00;
443;835.37;11970.68;771.10;899.0000;65535.0000;972.0000;85.2778;0.0000;0.0000;0.0000E+00;
444;835.52;11968.58;773.20;1034.0000;65535.0000;984.0000;-37.7222;0.0000;0.0000;0.0000E+00;
445;835.67;11966.48;775.30;860.0000;65535.0000;1028.0000;180.2778;0.0000;0.0000;0.0000E+00;
446;835.81;11964.38;777.40;913.0000;65535.0000;923.0000;22.2778;0.0000;0.0000;0.0000E+00;
447;835.96;11962.28;779.50;1032.0000;65535.0000;934.0000;-85.7222;0.0000;0.0000;0.0000E+00;
448;836.11;11960.18;781.59;986.0000;65535.0000;1003.0000;29.2778;0.0000;0.0000;0.0000E+00;
449;836.25;11958.08;783.69;985.0000;65535.0000;1124.0000;151.2778;0.0000;0.0000;0.0000E+00;
450;836.40;11955.99;785.79;886.0000;65535.0000;1480.0000;606.2778;0.0000;0.0000;0.0000E+00;
451;836.55;11953.89;787.88;1001.0000;65535.0000;2196.0000;1207.2778;0.0000;0.0000;0.0000E+00;
452;836.69;11951.80;789.98;915.0000;65535.0000;2009.0000;1106.2778;0.0000;0.0000;0.0000E+00;
453;836.84;11949.70;792.07;859.0000;65535.0000;1274.0000;427.2778;0.0000;0.0000;0.0000E+00;
454;836.99;11947.61;794.16;897.0000;65535.0000;1400.0000;515.2778;0.0000;0.0000;0.0000E+00;
455;837.13;11945.52;796.25;920.0000;65535.0000;1955.0000;1047.2778;0.0000;0.0000;0.0000E+00;
456;837.28;11943.43;798.35;957.0000;65535.0000;3847.0000;2902.2778;0.0000;0.0000;0.0000E+00;
457;837.43;11941.34;800.44;790.0000;65535.0000;7704.0000;6926.2778;0.0000;0.0000;0.0000E+00;
458;837.57;11939.25;802.52;890.0000;65535.0000;22636.0000;21758.2778;0.0000;0.0000;0.0000E+00;
459;837.72;11937.16;804.61;906.0000;65535.0000;51870.0000;50976.2778;0.0000;0.0000;0.0000E+00;
460;837.87;11935.07;806.70;952.0000;65535.0000;47068.0000;46128.2778;0.0000;0.0000;0.0000E+00;
461;838.01;11932.99;808.79;827.0000;65535.0000;8434.0000;7619.2778;0.0000;0.0000;0.0000E+00;
462;838.16;11930.90;810.87;865.0000;65535.0000;1332.0000;479.2778;0.0000;0.0000;0.0000E+00;
463;838.31;11928.82;812.96;945.0000;65535.0000;1184.0000;251.2778;0.0000;0.0000;0.0000E+00;
464;838.45;11926.73;815.04;859.0000;65535.0000;1096.0000;249.2778;0.0000;0.0000;0.0000E+00;
465;838.60;11924.65;817.12;920.0000;65535.0000;1072.0000;164.2778;0.0000;0.0000;0.0000E+00;
466;838.75;11922.57;819.21;904.0000;65535.0000;1028.0000;136.2778;0.0000;0.0000;0.0000E+00;
467;838.89;11920.49;821.29;986.0000;65535.0000;926.0000;-47.7222;0.0000;0.0000;0.0000E+00;
468;839.04;11918.41;823.37;984.0000;65535.0000;954.0000;-17.7222;0.0000;0.0000;0.0000E+00;
469;839.18;11916.33;825.45;904.0000;65535.0000;960.0000;68.2778;0.0000;0.0000;0.0000E+00;
470;839.33;11914.25;827.53;872.0000;65535.0000;952.0000;92.2778;0.0000;0.0000;0.0000E+00;
471;839.48;11912.17;829.60;869.0000;65535.0000;1018.0000;161.2778;0.0000;0.0000;0.0000E+00;
472;839.62;11910.10;831.68;952.0000;65535.0000;918.0000;-21.7222;0.0000;0.0000;0.0000E+00;
473;839.77;11908.02;833.76;895.0000;65535.0000;916.0000;33.2778;0.0000;0.0000;0.0000E+00;
474;839.92;11905.94;835.83;1024.0000;65535.0000;999.0000;-12.7222;0.0000;0.0000;0.0000E+00;
475;840.06;11903.87;837.91;896.0000;65535.0000;974.0000;90.2778;0.0000;0.0000;0.0000E+00;
476;840.21;11901.80;839.98;896.0000;65535.0000;1030.0000;146.2778;0.0000;0.0000;0.0000E+00;
477;840.36;11899.72;842.05;907.0000;65535.0000;942.0000;47.2778;0.0000;0.0000;0.0000E+00;
478;840.50;11897.65;844.12;978.0000;65535.0000;976.0000;10.2778;0.0000;0.0000;0.0000E+00;
479;840.65;11895.58;846.19;905.0000;65535.0000;1028.0000;135.2778;0.0000;0.0000;0.0000E+00;
480;840.79;11893.51;848.26;891.0000;65535.0000;1120.0000;241.2778;0.0000;0.0000;0.0000E+00;
481;840.94;11891.44;850.33;859.0000;65535.0000;1074.0000;227.2778;0.0000;0.0000;0.0000E+00;
482;841.09;11889.37;852.40;863.0000;65535.0000;1003.0000;152.2778;0.0000;0.0000;0.0000E+00;
483;841.23;11887.31;854.47;899.0000;65535.0000;1086.0000;199.2778;0.0000;0.0000;0.0000E+00;
484;841.38;11885.24;856.53;960.0000;65535.0000;1428.0000;480.2778;0.0000;0.0000;0.0000E+00;
485;841.53;11883.18;858.60;941.0000;65535.0000;2108.0000;1179.2778;0.0000;0.0000;0.0000E+00;
486;841.67;11881.11;860.66;889.0000;65535.0000;4524.0000;3647.2778;0.0000;0.0000;0.0000E+00;
487;841.82;11879.05;862.73;968.0000;65535.0000;8040.0000;7084.2778;0.0000;0.0000;0.0000E+00;
488;841.96;11876.98;864.79;855.0000;65535.0000;5978.0000;5135.2778;0.0000;0.0000;0.0000E+00;
489;842.11;11874.92;866.85;931.0000;65535.0000;1618.0000;699.2778;0.0000;0.0000;0.0000E+00;
490;842.26;11872.86;868.91;971.0000;65535.0000;1084.0000;125.2778;0.0000;0.0000;0.0000E+00;
491;842.40;11870.80;870.97;973.0000;65535.0000;1153.0000;192.2778;0.0000;0.0000;0.0000E+00;
492;842.55;11868.74;873.03;904.0000;65535.0000;1134.0000;242.2778;0.0000;0.0000;0.0000E+00;
493;842.70;11866.68;875.09;899.0000;65535.0000;1018.0000;131.2778;0.0000;0.0000;0.0000E+00;
494;842.84;11864.62;877.15;896.0000;65535.0000;924.0000;40.2778;0.0000;0.0000;0.0000E+00;
495;842.99;11862.57;879.21;921.0000;65535.0000;976.0000;67.2778;0.0000;0.0000;0.0000E+00;
496;843.13;11860.51;881.26;880.0000;65535.0000;931.0000;63.2778;0.0000;0.0000;0.0000E+00;
497;843.28;11858.46;883.32;886.0000;65535.0000;891.0000;17.2778;0.0000;0.0000;0.0000E+00;
498;843.43;11856.40;885.37;952.0000;65535.0000;908.0000;-31.7222;0.0000;0.0000;0.0000E+00;
499;843.57;11854.35;887.43;977.0000;65535.0000;966.0000;1.2778;0.0000;0.0000;0.0000E+00;
500;843.72;11852.30;889.48;893.0000;65535.0000;879.0000;-1.7222;0.0000;0.0000;0.0000E+00;
501;843.86;11850.24;891.53;886.0000;65535.0000;934.0000;60.2778;0.0000;0.0000;0.0000E+00;
502;844.01;11848.19;893.58;891.0000;65535.0000;978.0000;99.2778;0.0000;0.0000;0.0000E+00;
503;844.16;11846.14;895.63;848.0000;65535.0000;890.0000;54.2778;0.0000;0.0000;0.0000E+00;
504;844.30;11844.09;897.68;949.0000;65535.0000;924.0000;-12.7222;0.0000;0.0000;0.0000E+00;
505;844.45;11842.05;899.73;931.0000;65535.0000;890.0000;-28.7222;0.0000;0.0000;0.0000E+00;
506;844.59;11840.00;901.78;846.0000;65535.0000;886.0000;52.2778;0.0000;0.0000;0.0000E+00;
507;844.74;11837.95;903.82;936.0000;65535.0000;886.0000;-37.7222;0.0000;0.0000;0.0000E+00;
508;844.89;11835.91;905.87;987.0000;65535.0000;933.0000;-41.7222;0.0000;0.0000;0.0000E+00;
509;845.03;11833.86;907.91;1025.0000;65535.0000;937.0000;-75.7222;0.0000;0.0000;0.0000E+00;
510;845.18;11831.82;909.96;963.0000;65535.0000;994.0000;43.2778;0.0000;0.0000;0.0000E+00;
511;845.32;11829.77;912.00;931.0000;65535.0000;887.0000;-31.7222;0.0000;0.0000;0.0000E+00;
512;845.47;11827.73;914.04;955.0000;65535.0000;934.0000;-8.7222;0.0000;0.0000;0.0000E+00;
513;845.62;11825.69;916.08;901.0000;65535.0000;937.0000;48.2778;0.0000;0.0000;0.0000E+00;
514;845.76;11823.65;918.13;901.0000;65535.0000;964.0000;75.2778;0.0000;0.0000;0.0000E+00;
515;845.91;11821.61;920.17;922.0000;65535.0000;976.0000;66.2778;0.0000;0.0000;0.0000E+00;
516;846.05;11819.57;922.20;939.0000;65535.0000;1016.0000;89.2778;0.0000;0.0000;0.0000E+00;
517;846.20;11817.53;924.24;915.0000;65535.0000;1412.0000;509.2778;0.0000;0.0000;0.0000E+00;
518;846.35;11815.50;926.28;963.0000;65535.0000;1850.0000;899.2778;0.0000;0.0000;0.0000E+00;
519;846.49;11813.46;928.32;964.0000;65535.0000;1466.0000;514.2778;0.0000;0.0000;0.0000E+00;
520;846.64;11811.42;930.35;978.0000;65535.0000;938.0000;-27.7222;0.0000;0.0000;0.0000E+00;
521;846.78;11809.39;932.39;903.0000;65535.0000;914.0000;23.2778;0.0000;0.0000;0.0000E+00;
522;846.93;11807.36;934.42;881.0000;65535.0000;934.0000;65.2778;0.0000;0.0000;0.0000E+00;
523;847.08;11805.32;936.45;827.0000;65535.0000;892.0000;77.2778;0.0000;0.0000;0.0000E+00;
524;847.22;11803.29;938.48;905.0000;65535.0000;926.0000;33.2778;0.0000;0.0000;0.0000E+00;
525;847.37;11801.26;940.52;917.0000;65535.0000;983.0000;78.2778;0.0000;0.0000;0.0000E+00;
526;847.51;11799.23;942.55;871.0000;65535.0000;946.0000;87.2778;0.0000;0.0000;0.0000E+00;
527;847.66;11797.20;944.58;961.0000;65535.0000;888.0000;-60.7222;0.0000;0.0000;0.0000E+00;
528;847.80;11795.17;946.60;897.0000;65535.0000;973.0000;88.2778;0.0000;0.0000;0.0000E+00;
529;847.95;11793.14;948.63;919.0000;65535.0000;988.0000;81.2778;0.0000;0.0000;0.0000E+00;
530;848.10;11791.12;950.66;945.0000;65535.0000;1002.0000;69.2778;0.0000;0.0000;0.0000E+00;
531;848.24;11789.09;952.69;918.0000;65535.0000;1066.0000;160.2778;0.0000;0.0000;0.0000E+00;
532;848.39;11787.06;954.71;846.0000;65535.0000;1286.0000;452.2778;0.0000;0.0000;0.0000E+00;
533;848.53;11785.04;956.74;898.0000;65535.0000;1245.0000;359.2778;0.0000;0.0000;0.0000E+00;
534;848.68;11783.02;958.76;907.0000;65535.0000;1112.0000;217.2778;0.0000;0.0000;0.0000E+00;
535;848.82;11780.99;960.78;891.0000;65535.0000;1304.0000;425.2778;0.0000;0.0000;0.0000E+00;
536;848.97;11778.97;962.80;836.0000;65535.0000;1729.0000;905.2778;0.0000;0.0000;0.0000E+00;
537;849.12;11776.95;964.83;928.0000;65535.0000;2931.0000;2015.2778;0.0000;0.0000;0.0000E+00;
538;849.26;11774.93;966.85;985.0000;65535.0000;5636.0000;4663.2778;0.0000;0.0000;0.0000E+00;
539;849.41;11772.91;968.86;939.0000;65535.0000;16474.0000;15547.2778;0.0000;0.0000;0.0000E+00;
540;849.55;11770.89;970.88;868.0000;65535.0000;32461.0000;31605.2778;0.0000;0.0000;0.0000E+00;
541;849.70;11768.87;972.90;896.0000;65535.0000;15578.0000;14694.2778;0.0000;0.0000;0.0000E+00;
542;849.84;11766.86;974.92;878.0000;65535.0000;1798.0000;932.2778;0.0000;0.0000;0.0000E+00;
543;849.99;11764.84;976.93;953.0000;65535.0000;1024.0000;83.2778;0.0000;0.0000;0.0000E+00;
544;850.14;11762.83;978.95;875.0000;65535.0000;1060.0000;197.2778;0.0000;0.0000;0.0000E+00;
545;850.28;11760.81;980.96;828.0000;65535.0000;980.0000;164.2778;0.0000;0.0000;0.0000E+00;
546;850.43;11758.80;982.98;924.0000;65535.0000;1048.0000;136.2778;0.0000;0.0000;0.0000E+00;
547;850.57;11756.79;984.99;889.0000;65535.0000;993.0000;116.2778;0.0000;0.0000;0.0000E+00;
548;850.72;11754.77;987.00;868.0000;65535.0000;958.0000;102.2778;0.0000;0.0000;0.0000E+00;
549;850.86;11752.76;989.01;997.0000;65535.0000;998.0000;13.2778;0.0000;0.0000;0.0000E+00;
550;851.01;11750.75;991.02;832.0000;65535.0000;992.0000;172.2778;0.0000;0.0000;0.0000E+00;
551;851.15;11748.74;993.03;989.0000;65535.0000;1014.0000;37.2778;0.0000;0.0000;0.0000E+00;
552;851.30;11746.73;995.04;966.0000;65535.0000;919.0000;-34.7222;0.0000;0.0000;0.0000E+00;
553;851.45;11744.73;997.05;908.0000;65535.0000;929.0000;33.2778;0.0000;0.0000;0.0000E+00;
554;851.59;11742.72;999.06;949.0000;65535.0000;960.0000;23.2778;0.0000;0.0000;0.0000E+00;
555;851.74;11740.71;1001.06;990.0000;65535.0000;925.0000;-52.7222;0.0000;0.0000;0.0000E+00;
556;851.88;11738.71;1003.07;965.0000;65535.0000;992.0000;39.2778;0.0000;0.0000;0.0000E+00;
557;852.03;11736.70;1005.07;932.0000;65535.0000;1018.0000;98.2778;0.0000;0.0000;0.0000E+00;
558;852.17;11734.70;1007.07;930.0000;65535.0000;1086.0000;168.2778;0.0000;0.0000;0.0000E+00;
559;852.32;11732.70;1009.08;891.0000;65535.0000;959.0000;80.2778;0.0000;0.0000;0.0000E+00;
560;852.46;11730.70;1011.08;945.0000;65535.0000;964.0000;31.2778;0.0000;0.0000;0.0000E+00;
561;852.61;11728.70;1013.08;900.0000;65535.0000;990.0000;102.2778;0.0000;0.0000;0.0000E+00;
562;852.76;11726.70;1015.08;874.0000;65535.0000;955.0000;93.2778;0.0000;0.0000;0.0000E+00;
563;852.90;11724.70;1017.08;931.0000;65535.0000;899.0000;-19.7222;0.0000;0.0000;0.0000E+00;
564;853.05;11722.70;1019.08;920.0000;65535.0000;921.0000;13.2778;0.0000;0.0000;0.0000E+00;
565;853.19;11720.70;1021.08;943.0000;65535.0000;973.0000;42.2778;0.0000;0.0000;0.0000E+00;
566;853.34;11718.70;1023.07;912.0000;65535.0000;886.0000;-13.7222;0.0000;0.0000;0.0000E+00;
567;853.48;11716.71;1025.07;908.0000;65535.0000;1002.0000;106.2778;0.0000;0.0000;0.0000E+00;
568;853.63;11714.71;1027.06;1000.0000;65535.0000;993.0000;5.2778;0.0000;0.0000;0.0000E+00;
569;853.77;11712.72;1029.06;924.0000;65535.0000;1042.0000;130.2778;0.0000;0.0000;0.0000E+00;
570;853.92;11710.72;1031.05;948.0000;65535.0000;906.0000;-29.7222;0.0000;0.0000;0.0000E+00;
571;854.06;11708.73;1033.04;995.0000;65535.0000;1098.0000;115.2778;0.0000;0.0000;0.0000E+00;
572;854.21;11706.74;1035.04;985.0000;65535.0000;1058.0000;85.2778;0.0000;0.0000;0.0000E+00;
573;854.35;11704.75;1037.03;904.0000;65535.0000;1138.0000;246.2778;0.0000;0.0000;0.0000E+00;
574;854.50;11702.76;1039.02;913.0000;65535.0000;1358.0000;457.2778;0.0000;0.0000;0.0000E+00;
575;854.64;11700.77;1041.01;894.0000;65535.0000;1070.0000;188.2778;0.0000;0.0000;0.0000E+00;
576;854.79;11698.78;1043.00;890.0000;65535.0000;844.0000;-33.7222;0.0000;0.0000;0.0000E+00;
577;854.94;11696.79;1044.98;980.0000;65535.0000;960.0000;-7.7222;0.0000;0.0000;0.0000E+00;
578;855.08;11694.80;1046.97;940.0000;65535.0000;896.0000;-31.7222;0.0000;0.0000;0.0000E+00;
579;855.23;11692.82;1048.96;904.0000;65535.0000;933.0000;41.2778;0.0000;0.0000;0.0000E+00;
580;855.37;11690.83;1050.94;912.0000;65535.0000;891.0000;-8.7222;0.0000;0.0000;0.0000E+00;
581;855.52;11688.85;1052.93;828.0000;65535.0000;902.0000;86.2778;0.0000;0.0000;0.0000E+00;
582;855.66;11686.87;1054.91;854.0000;65535.0000;896.0000;54.2778;0.0000;0.0000;0.0000E+00;
583;855.81;11684.88;1056.89;926.0000;65535.0000;942.0000;28.2778;0.0000;0.0000;0.0000E+00;
584;855.95;11682.90;1058.87;942.0000;65535.0000;944.0000;14.2778;0.0000;0.0000;0.0000E+00;
585;856.10;11680.92;1060.86;931.0000;65535.0000;906.0000;-12.7222;0.0000;0.0000;0.0000E+00;
586;856.24;11678.94;1062.84;988.0000;65535.0000;910.0000;-65.7222;0.0000;0.0000;0.0000E+00;
587;856.39;11676.96;1064.82;972.0000;65535.0000;915.0000;-44.7222;0.0000;0.0000;0.0000E+00;
588;856.53;11674.98;1066.79;898.0000;65535.0000;934.0000;48.2778;0.0000;0.0000;0.0000E+00;
589;856.68;11673.00;1068.77;904.0000;65535.0000;975.0000;83.2778;0.0000;0.0000;0.0000E+00;
590;856.82;11671.03;1070.75;895.0000;65535.0000;996.0000;113.2778;0.0000;0.0000;0.0000E+00;
591;856.97;11669.05;1072.73;910.0000;65535.0000;1122.0000;224.2778;0.0000;0.0000;0.0000E+00;
592;857.11;11667.07;1074.70;972.0000;65535.0000;1167.0000;207.2778;0.0000;0.0000;0.0000E+00;
593;857.26;11665.10;1076.68;906.0000;65535.0000;1142.0000;248.2778;0.0000;0.0000;0.0000E+00;
594;857.40;11663.13;1078.65;927.0000;65535.0000;963.0000;48.2778;0.0000;0.0000;0.0000E+00;
595;857.55;11661.15;1080.62;994.0000;65535.0000;920.0000;-61.7222;0.0000;0.0000;0.0000E+00;
596;857.69;11659.18;1082.59;1004.0000;65535.0000;874.0000;-117.7222;0.0000;0.0000;0.0000E+00;
597;857.84;11657.21;1084.57;866.0000;65535.0000;978.0000;124.2778;0.0000;0.0000;0.0000E+00;
598;857.98;11655.24;1086.54;966.0000;65535.0000;977.0000;23.2778;0.0000;0.0000;0.0000E+00;
599;858.13;11653.27;1088.51;978.0000;65535.0000;1066.0000;100.2778;0.0000;0.0000;0.0000E+00;
600;858.27;11651.30;1090.47;952.0000;65535.0000;1142.0000;202.2778;0.0000;0.0000;0.0000E+00;
601;858.42;11649.33;1092.44;876.0000;65535.0000;1180.0000;316.2778;0.0000;0.0000;0.0000E+00;
602;858.56;11647.36;1094.41;944.0000;65535.0000;1094.0000;162.2778;0.0000;0.0000;0.0000E+00;
603;858.71;11645.40;1096.38;997.0000;65535.0000;1344.0000;359.2778;0.0000;0.0000;0.0000E+00;
604;858.85;11643.43;1098.34;970.0000;65535.0000;1832.0000;874.2778;0.0000;0.0000;0.0000E+00;
605;859.00;11641.47;1100.31;899.0000;65535.0000;3846.0000;2959.2778;0.0000;0.0000;0.0000E+00;
606;859.14;11639.50;1102.27;992.0000;65535.0000;6732.0000;5752.2778;0.0000;0.0000;0.0000E+00;
607;859.29;11637.54;1104.23;1016.0000;65535.0000;3493.0000;2489.2778;0.0000;0.0000;0.0000E+00;
608;859.43;11635.58;1106.20;995.0000;65535.0000;1030.0000;47.2778;0.0000;0.0000;0.0000E+00;
609;859.58;11633.62;1108.16;930.0000;65535.0000;954.0000;36.2778;0.0000;0.0000;0.0000E+00;
610;859.72;11631.66;1110.12;944.0000;65535.0000;946.0000;14.2778;0.0000;0.0000;0.0000E+00;
611;859.87;11629.70;1112.08;952.0000;65535.0000;943.0000;3.2778;0.0000;0.0000;0.0000E+00;
612;860.01;11627.74;1114.04;985.0000;65535.0000;982.0000;9.2778;0.0000;0.0000;0.0000E+00;
613;860.16;11625.78;1116.00;851.0000;65535.0000;916.0000;77.2778;0.0000;0.0000;0.0000E+00;
614;860.30;11623.82;1117.95;932.0000;65535.0000;1028.0000;108.2778;0.0000;0.0000;0.0000E+00;
615;860.45;11621.86;1119.91;973.0000;65535.0000;834.0000;-126.7222;0.0000;0.0000;0.0000E+00;
616;860.59;11619.91;1121.87;1020.0000;65535.0000;870.0000;-137.7222;0.0000;0.0000;0.0000E+00;
617;860.74;11617.95;1123.82;901.0000;65535.0000;968.0000;79.2778;0.0000;0.0000;0.0000E+00;
618;860.88;11616.00;1125.78;907.0000;65535.0000;874.0000;-20.7222;0.0000;0.0000;0.0000E+00;
619;861.03;11614.05;1127.73;836.0000;65535.0000;948.0000;124.2778;0.0000;0.0000;0.0000E+00;
620;861.17;11612.09;1129.68;927.0000;65535.0000;892.0000;-22.7222;0.0000;0.0000;0.0000E+00;
621;861.32;11610.14;1131.63;911.0000;65535.0000;938.0000;39.2778;0.0000;0.0000;0.0000E+00;
622;861.46;11608.19;1133.59;913.0000;65535.0000;921.0000;20.2778;0.0000;0.0000;0.0000E+00;
623;861.61;11606.24;1135.54;979.0000;65535.0000;984.0000;17.2778;0.0000;0.0000;0.0000E+00;
624;861.75;11604.29;1137.49;904.0000;65535.0000;952.0000;60.2778;0.0000;0.0000;0.0000E+00;
625;861.90;11602.34;1139.43;937.0000;65535.0000;966.0000;41.2778;0.0000;0.0000;0.0000E+00;
626;862.04;11600.39;1141.38;958.0000;65535.0000;921.0000;-24.7222;0.0000;0.0000;0.0000E+00;
627;862.18;11598.45;1143.33;940.0000;65535.0000;1037.0000;109.2778;0.0000;0.0000;0.0000E+00;
628;862.33;11596.50;1145.28;936.0000;65535.0000;946.0000;22.2778;0.0000;0.0000;0.0000E+00;
629;862.47;11594.55;1147.22;966.0000;65535.0000;892.0000;-61.7222;0.0000;0.0000;0.0000E+00;
630;862.62;11592.61;1149.17;827.0000;65535.0000;996.0000;181.2778;0.0000;0.0000;0.0000E+00;
631;862.76;11590.67;1151.11;912.0000;65535.0000;1056.0000;156.2778;0.0000;0.0000;0.0000E+00;
632;862.91;11588.72;1153.05;917.0000;65535.0000;1128.0000;223.2778;0.0000;0.0000;0.0000E+00;
633;863.05;11586.78;1154.99;886.0000;65535.0000;1628.0000;754.2778;0.0000;0.0000;0.0000E+00;
634;863.20;11584.84;1156.94;928.0000;65535.0000;2321.0000;1405.2778;0.0000;0.0000;0.0000E+00;
635;863.34;11582.90;1158.88;852.0000;65535.0000;5502.0000;4662.2778;0.0000;0.0000;0.0000E+00;
636;863.49;11580.96;1160.82;954.0000;65535.0000;10178.0000;9236.2778;0.0000;0.0000;0.0000E+00;
637;863.63;11579.02;1162.76;935.0000;65535.0000;4692.0000;3769.2778;0.0000;0.0000;0.0000E+00;
638;863.78;11577.08;1164.69;809.0000;65535.0000;1034.0000;237.2778;0.0000;0.0000;0.0000E+00;
639;863.92;11575.14;1166.63;911.0000;65535.0000;981.0000;82.2778;0.0000;0.0000;0.0000E+00;
640;864.06;11573.21;1168.57;987.0000;65535.0000;960.0000;-14.7222;0.0000;0.0000;0.0000E+00;
641;864.21;11571.27;1170.50;866.0000;65535.0000;1022.0000;168.2778;0.0000;0.0000;0.0000E+00;
642;864.35;11569.34;1172.44;969.0000;65535.0000;1048.0000;91.2778;0.0000;0.0000;0.0000E+00;
643;864.50;11567.40;1174.37;972.0000;65535.0000;1126.0000;166.2778;0.0000;0.0000;0.0000E+00;
644;864.64;11565.47;1176.31;851.0000;65535.0000;1605.0000;766.2778;0.0000;0.0000;0.0000E+00;
645;864.79;11563.54;1178.24;858.0000;65535.0000;1691.0000;845.2778;0.0000;0.0000;0.0000E+00;
646;864.93;11561.60;1180.17;899.0000;65535.0000;1403.0000;516.2778;0.0000;0.0000;0.0000E+00;
647;865.08;11559.67;1182.10;895.0000;65535.0000;1876.0000;993.2778;0.0000;0.0000;0.0000E+00;
648;865.22;11557.74;1184.03;904.0000;65535.0000;3228.0000;2336.2778;0.0000;0.0000;0.0000E+00;
649;865.37;11555.81;1185.96;895.0000;65535.0000;8740.0000;7857.2778;0.0000;0.0000;0.0000E+00;
650;865.51;11553.89;1187.89;896.0000;65535.0000;10714.0000;9830.2778;0.0000;0.0000;0.0000E+00;
651;865.65;11551.96;1189.82;906.0000;65535.0000;3249.0000;2355.2778;0.0000;0.0000;0.0000E+00;
652;865.80;11550.03;1191.75;904.0000;65535.0000;1069.0000;177.2778;0.0000;0.0000;0.0000E+00;
653;865.94;11548.10;1193.67;884.0000;65535.0000;1010.0000;138.2778;0.0000;0.0000;0.0000E+00;
654;866.09;11546.18;1195.60;876.0000;65535.0000;952.0000;88.2778;0.0000;0.0000;0.0000E+00;
655;866.23;11544.25;1197.52;935.0000;65535.0000;1017.0000;94.2778;0.0000;0.0000;0.0000E+00;
656;866.38;11542.33;1199.45;903.0000;65535.0000;950.0000;59.2778;0.0000;0.0000;0.0000E+00;
657;866.52;11540.41;1201.37;928.0000;65535.0000;915.0000;-0.7222;0.0000;0.0000;0.0000E+00;
658;866.66;11538.48;1203.29;901.0000;65535.0000;976.0000;87.2778;0.0000;0.0000;0.0000E+00;
659;866.81;11536.56;1205.21;952.0000;65535.0000;939.0000;-0.7222;0.0000;0.0000;0.0000E+00;
660;866.95;11534.64;1207.13;945.0000;65535.0000;990.0000;57.2778;0.0000;0.0000;0.0000E+00;
661;867.10;11532.72;1209.05;993.0000;65535.0000;917.0000;-63.7222;0.0000;0.0000;0.0000E+00;
662;867.24;11530.80;1210.97;1010.0000;65535.0000;946.0000;-51.7222;0.0000;0.0000;0.0000E+00;
663;867.39;11528.88;1212.89;985.0000;65535.0000;1047.0000;74.2778;0.0000;0.0000;0.0000E+00;
664;867.53;11526.97;1214.81;870.0000;65535.0000;1082.0000;224.2778;0.0000;0.0000;0.0000E+00;
665;867.68;11525.05;1216.73;868.0000;65535.0000;1300.0000;444.2778;0.0000;0.0000;0.0000E+00;
666;867.82;11523.13;1218.64;990.0000;65535.0000;1900.0000;922.2778;0.0000;0.0000;0.0000E+00;
667;867.96;11521.22;1220.56;920.0000;65535.0000;3049.0000;2141.2778;0.0000;0.0000;0.0000E+00;
668;868.11;11519.30;1222.47;953.0000;65535.0000;3741.0000;2800.2778;0.0000;0.0000;0.0000E+00;
669;868.25;11517.39;1224.38;897.0000;65535.0000;4010.0000;3125.2778;0.0000;0.0000;0.0000E+00;
670;868.40;11515.48;1226.30;982.0000;65535.0000;1709.0000;739.2778;0.0000;0.0000;0.0000E+00;
671;868.54;11513.57;1228.21;921.0000;65535.0000;1021.0000;112.2778;0.0000;0.0000;0.0000E+00;
672;868.68;11511.65;1230.12;865.0000;65535.0000;972.0000;119.2778;0.0000;0.0000;0.0000E+00;
673;868.83;11509.74;1232.03;845.0000;65535.0000;884.0000;51.2778;0.0000;0.0000;0.0000E+00;
674;868.97;11507.83;1233.94;909.0000;65535.0000;959.0000;62.2778;0.0000;0.0000;0.0000E+00;
675;869.12;11505.92;1235.85;982.0000;65535.0000;968.0000;-1.7222;0.0000;0.0000;0.0000E+00;
676;869.26;11504.02;1237.76;850.0000;65535.0000;897.0000;59.2778;0.0000;0.0000;0.0000E+00;
677;869.41;11502.11;1239.67;850.0000;65535.0000;977.0000;139.2778;0.0000;0.0000;0.0000E+00;
678;869.55;11500.20;1241.57;912.0000;65535.0000;974.0000;74.2778;0.0000;0.0000;0.0000E+00;
679;869.69;11498.30;1243.48;957.0000;65535.0000;941.0000;-3.7222;0.0000;0.0000;0.0000E+00;
680;869.84;11496.39;1245.38;948.0000;65535.0000;1010.0000;74.2778;0.0000;0.0000;0.0000E+00;
681;869.98;11494.49;1247.29;941.0000;65535.0000;929.0000;0.2778;0.0000;0.0000;0.0000E+00;
682;870.13;11492.58;1249.19;944.0000;65535.0000;1028.0000;96.2778;0.0000;0.0000;0.0000E+00;
683;870.27;11490.68;1251.09;977.0000;65535.0000;1149.0000;184.2778;0.0000;0.0000;0.0000E+00;
684;870.41;11488.78;1253.00;995.0000;65535.0000;1539.0000;556.2778;0.0000;0.0000;0.0000E+00;
685;870.56;11486.88;1254.90;851.0000;65535.0000;1228.0000;389.2778;0.0000;0.0000;0.0000E+00;
686;870.70;11484.98;1256.80;890.0000;65535.0000;942.0000;64.2778;0.0000;0.0000;0.0000E+00;
687;870.85;11483.08;1258.70;908.0000;65535.0000;1007.0000;111.2778;0.0000;0.0000;0.0000E+00;
688;870.99;11481.18;1260.60;901.0000;65535.0000;878.0000;-10.7222;0.0000;0.0000;0.0000E+00;
689;871.13;11479.28;1262.49;917.0000;65535.0000;949.0000;44.2778;0.0000;0.0000;0.0000E+00;
690;871.28;11477.38;1264.39;908.0000;65535.0000;945.0000;49.2778;0.0000;0.0000;0.0000E+00;
691;871.42;11475.49;1266.29;872.0000;65535.0000;948.0000;88.2778;0.0000;0.0000;0.0000E+00;
692;871.57;11473.59;1268.18;990.0000;65535.0000;944.0000;-33.7222;0.0000;0.0000;0.0000E+00;
693;871.71;11471.70;1270.08;971.0000;65535.0000;961.0000;2.2778;0.0000;0.0000;0.0000E+00;
694;871.85;11469.80;1271.97;906.0000;65535.0000;851.0000;-42.7222;0.0000;0.0000;0.0000E+00;
695;872.00;11467.91;1273.87;896.0000;65535.0000;916.0000;32.2778;0.0000;0.0000;0.0000E+00;
696;872.14;11466.02;1275.76;947.0000;65535.0000;949.0000;14.2778;0.0000;0.0000;0.0000E+00;
697;872.29;11464.12;1277.65;926.0000;65535.0000;953.0000;39.2778;0.0000;0.0000;0.0000E+00;
698;872.43;11462.23;1279.54;888.0000;65535.0000;886.0000;10.2778;0.0000;0.0000;0.0000E+00;
699;872.57;11460.34;1281.43;992.0000;65535.0000;962.0000;-17.7222;0.0000;0.0000;0.0000E+00;
700;872.72;11458.45;1283.32;950.0000;65535.0000;943.0000;5.2778;0.0000;0.0000;0.0000E+00;
701;872.86;11456.57;1285.21;931.0000;65535.0000;876.0000;-42.7222;0.0000;0.0000;0.0000E+00;
702;873.01;11454.68;1287.10;896.0000;65535.0000;952.0000;68.2778;0.0000;0.0000;0.0000E+00;
703;873.15;11452.79;1288.99;947.0000;65535.0000;947.0000;12.2778;0.0000;0.0000;0.0000E+00;
704;873.29;11450.90;1290.87;901.0000;65535.0000;910.0000;21.2778;0.0000;0.0000;0.0000E+00;
705;873.44;11449.02;1292.76;906.0000;65535.0000;902.0000;8.2778;0.0000;0.0000;0.0000E+00;
706;873.58;11447.13;1294.64;951.0000;65535.0000;933.0000;-5.7222;0.0000;0.0000;0.0000E+00;
707;873.72;11445.25;1296.53;957.0000;65535.0000;1067.0000;122.2778;0.0000;0.0000;0.0000E+00;
708;873.87;11443.37;1298.41;913.0000;65535.0000;926.0000;25.2778;0.0000;0.0000;0.0000E+00;
709;874.01;11441.48;1300.29;828.0000;65535.0000;909.0000;93.2778;0.0000;0.0000;0.0000E+00;
710;874.16;11439.60;1302.17;924.0000;65535.0000;893.0000;-18.7222;0.0000;0.0000;0.0000E+00;
711;874.30;11437.72;1304.05;933.0000;65535.0000;950.0000;29.2778;0.0000;0.0000;0.0000E+00;
712;874.44;11435.84;1305.94;933.0000;65535.0000;928.0000;7.2778;0.0000;0.0000;0.0000E+00;
713;874.59;11433.96;1307.81;951.0000;65535.0000;948.0000;9.2778;0.0000;0.0000;0.0000E+00;
714;874.73;11432.08;1309.69;909.0000;65535.0000;882.0000;-14.7222;0.0000;0.0000;0.0000E+00;
715;874.88;11430.20;1311.57;861.0000;65535.0000;1000.0000;151.2778;0.0000;0.0000;0.0000E+00;
716;875.02;11428.33;1313.45;965.0000;65535.0000;889.0000;-63.7222;0.0000;0.0000;0.0000E+00;
717;875.16;11426.45;1315.32;956.0000;65535.0000;935.0000;-8.7222;0.0000;0.0000;0.0000E+00;
718;875.31;11424.57;1317.20;894.0000;65535.0000;969.0000;87.2778;0.0000;0.0000;0.0000E+00;
719;875.45;11422.70;1319.08;858.0000;65535.0000;941.0000;95.2778;0.0000;0.0000;0.0000E+00;
720;875.59;11420.83;1320.95;898.0000;65535.0000;877.0000;-8.7222;0.0000;0.0000;0.0000E+00;
721;875.74;11418.95;1322.82;881.0000;65535.0000;961.0000;92.2778;0.0000;0.0000;0.0000E+00;
722;875.88;11417.08;1324.70;969.0000;65535.0000;905.0000;-51.7222;0.0000;0.0000;0.0000E+00;
723;876.02;11415.21;1326.57;880.0000;65535.0000;950.0000;82.2778;0.0000;0.0000;0.0000E+00;
724;876.17;11413.34;1328.44;978.0000;65535.0000;830.0000;-135.7222;0.0000;0.0000;0.0000E+00;
725;876.31;11411.47;1330.31;904.0000;65535.0000;976.0000;84.2778;0.0000;0.0000;0.0000E+00;
726;876.46;11409.60;1332.18;870.0000;65535.0000;950.0000;92.2778;0.0000;0.0000;0.0000E+00;
727;876.60;11407.73;1334.05;894.0000;65535.0000;1041.0000;159.2778;0.0000;0.0000;0.0000E+00;
728;876.74;11405.86;1335.92;1000.0000;65535.0000;1066.0000;78.2778;0.0000;0.0000;0.0000E+00;
729;876.89;11403.99;1337.78;960.0000;65535.0000;1111.0000;163.2778;0.0000;0.0000;0.0000E+00;
730;877.03;11402.13;1339.65;913.0000;65535.0000;1451.0000;550.2778;0.0000;0.0000;0.0000E+00;
731;877.17;11400.26;1341.51;973.0000;65535.0000;1945.0000;984.2778;0.0000;0.0000;0.0000E+00;
732;877.32;11398.40;1343.38;902.0000;65535.0000;1520.0000;630.2778;0.0000;0.0000;0.0000E+00;
733;877.46;11396.53;1345.24;882.0000;65535.0000;1396.0000;526.2778;0.0000;0.0000;0.0000E+00;
734;877.60;11394.67;1347.11;865.0000;65535.0000;1824.0000;971.2778;0.0000;0.0000;0.0000E+00;
735;877.75;11392.81;1348.97;969.0000;65535.0000;2813.0000;1856.2778;0.0000;0.0000;0.0000E+00;
736;877.89;11390.94;1350.83;838.0000;65535.0000;6136.0000;5310.2778;0.0000;0.0000;0.0000E+00;
737;878.03;11389.08;1352.69;955.0000;65535.0000;15107.0000;14164.2778;0.0000;0.0000;0.0000E+00;
738;878.18;11387.22;1354.55;911.0000;65535.0000;11331.0000;10432.2778;0.0000;0.0000;0.0000E+00;
739;878.32;11385.36;1356.41;884.0000;65535.0000;5766.0000;4894.2778;0.0000;0.0000;0.0000E+00;
740;878.46;11383.50;1358.27;904.0000;65535.0000;4845.0000;3953.2778;0.0000;0.0000;0.0000E+00;
741;878.61;11381.65;1360.13;940.0000;65535.0000;1459.0000;531.2778;0.0000;0.0000;0.0000E+00;
742;878.75;11379.79;1361.99;966.0000;65535.0000;1011.0000;57.2778;0.0000;0.0000;0.0000E+00;
743;878.89;11377.93;1363.84;929.0000;65535.0000;1034.0000;117.2778;0.0000;0.0000;0.0000E+00;
744;879.04;11376.08;1365.70;850.0000;65535.0000;986.0000;148.2778;0.0000;0.0000;0.0000E+00;
745;879.18;11374.22;1367.55;937.0000;65535.0000;926.0000;1.2778;0.0000;0.0000;0.0000E+00;
746;879.32;11372.37;1369.41;931.0000;65535.0000;922.0000;3.2778;0.0000;0.0000;0.0000E+00;
747;879.47;11370.51;1371.26;981.0000;65535.0000;928.0000;-40.7222;0.0000;0.0000;0.0000E+00;
748;879.61;11368.66;1373.12;860.0000;65535.0000;881.0000;33.2778;0.0000;0.0000;0.0000E+00;
749;879.75;11366.81;1374.97;984.0000;65535.0000;920.0000;-51.7222;0.0000;0.0000;0.0000E+00;
750;879.90;11364.96;1376.82;921.0000;65535.0000;929.0000;20.2778;0.0000;0.0000;0.0000E+00;
751;880.04;11363.11;1378.67;914.0000;65535.0000;967.0000;65.2778;0.0000;0.0000;0.0000E+00;
752;880.18;11361.26;1380.52;963.0000;65535.0000;934.0000;-16.7222;0.0000;0.0000;0.0000E+00;
753;880.33;11359.41;1382.37;928.0000;65535.0000;916.0000;0.2778;0.0000;0.0000;0.0000E+00;
754;880.47;11357.56;1384.22;934.0000;65535.0000;912.0000;-9.7222;0.0000;0.0000;0.0000E+00;
755;880.61;11355.71;1386.06;1030.0000;65535.0000;957.0000;-60.7222;0.0000;0.0000;0.0000E+00;
756;880.76;11353.86;1387.91;960.0000;65535.0000;879.0000;-68.7222;0.0000;0.0000;0.0000E+00;
757;880.90;11352.02;1389.76;834.0000;65535.0000;941.0000;119.2778;0.0000;0.0000;0.0000E+00;
758;881.04;11350.17;1391.60;936.0000;65535.0000;923.0000;-0.7222;0.0000;0.0000;0.0000E+00;
759;881.19;11348.33;1393.45;1002.0000;65535.0000;908.0000;-81.7222;0.0000;0.0000;0.0000E+00;
760;881.33;11346.48;1395.29;984.0000;65535.0000;1016.0000;44.2778;0.0000;0.0000;0.0000E+00;
761;881.47;11344.64;1397.13;914.0000;65535.0000;861.0000;-40.7222;0.0000;0.0000;0.0000E+00;
762;881.62;11342.80;1398.98;910.0000;65535.0000;851.0000;-46.7222;0.0000;0.0000;0.0000E+00;
763;881.76;11340.96;1400.82;1015.0000;65535.0000;1020.0000;17.2778;0.0000;0.0000;0.0000E+00;
764;881.90;11339.12;1402.66;917.0000;65535.0000;928.0000;23.2778;0.0000;0.0000;0.0000E+00;
765;882.05;11337.28;1404.50;913.0000;65535.0000;926.0000;25.2778;0.0000;0.0000;0.0000E+00;
766;882.19;11335.44;1406.34;840.0000;65535.0000;923.0000;95.2778;0.0000;0.0000;0.0000E+00;
767;882.33;11333.60;1408.18;930.0000;65535.0000;1003.0000;85.2778;0.0000;0.0000;0.0000E+00;
768;882.48;11331.76;1410.01;876.0000;65535.0000;883.0000;19.2778;0.0000;0.0000;0.0000E+00;
769;882.62;11329.92;1411.85;924.0000;65535.0000;971.0000;59.2778;0.0000;0.0000;0.0000E+00;
770;882.76;11328.09;1413.69;988.0000;65535.0000;952.0000;-23.7222;0.0000;0.0000;0.0000E+00;
771;882.90;11326.25;1415.52;976.0000;65535.0000;981.0000;17.2778;0.0000;0.0000;0.0000E+00;
772;883.05;11324.42;1417.36;942.0000;65535.0000;1009.0000;79.2778;0.0000;0.0000;0.0000E+00;
773;883.19;11322.58;1419.19;851.0000;65535.0000;1061.0000;222.2778;0.0000;0.0000;0.0000E+00;
774;883.33;11320.75;1421.03;963.0000;65535.0000;947.0000;-3.7222;0.0000;0.0000;0.0000E+00;
775;883.48;11318.92;1422.86;887.0000;65535.0000;979.0000;104.2778;0.0000;0.0000;0.0000E+00;
776;883.62;11317.08;1424.69;939.0000;65535.0000;933.0000;6.2778;0.0000;0.0000;0.0000E+00;
777;883.76;11315.25;1426.52;906.0000;65535.0000;955.0000;61.2778;0.0000;0.0000;0.0000E+00;
778;883.91;11313.42;1428.35;955.0000;65535.0000;921.0000;-21.7222;0.0000;0.0000;0.0000E+00;
779;884.05;11311.59;1430.18;925.0000;65535.0000;889.0000;-23.7222;0.0000;0.0000;0.0000E+00;
780;884.19;11309.76;1432.01;906.0000;65535.0000;979.0000;85.2778;0.0000;0.0000;0.0000E+00;
781;884.33;11307.94;1433.84;931.0000;65535.0000;961.0000;42.2778;0.0000;0.0000;0.0000E+00;
782;884.48;11306.11;1435.67;1038.0000;65535.0000;886.0000;-139.7222;0.0000;0.0000;0.0000E+00;
783;884.62;11304.28;1437.49;931.0000;65535.0000;979.0000;60.2778;0.0000;0.0000;0.0000E+00;
784;884.76;11302.46;1439.32;911.0000;65535.0000;1073.0000;174.2778;0.0000;0.0000;0.0000E+00;
785;884.91;11300.63;1441.14;985.0000;65535.0000;1163.0000;190.2778;0.0000;0.0000;0.0000E+00;
786;885.05;11298.81;1442.97;987.0000;65535.0000;1597.0000;622.2778;0.0000;0.0000;0.0000E+00;
787;885.19;11296.98;1444.79;963.0000;65535.0000;2502.0000;1551.2778;0.0000;0.0000;0.0000E+00;
788;885.33;11295.16;1446.62;905.0000;65535.0000;5877.0000;4984.2778;0.0000;0.0000;0.0000E+00;
789;885.48;11293.34;1448.44;930.0000;65535.0000;5251.0000;4333.2778;0.0000;0.0000;0.0000E+00;
790;885.62;11291.52;1450.26;923.0000;65535.0000;1392.0000;481.2778;0.0000;0.0000;0.0000E+00;
791;885.76;11289.70;1452.08;910.0000;65535.0000;995.0000;97.2778;0.0000;0.0000;0.0000E+00;
792;885.91;11287.88;1453.90;885.0000;65535.0000;946.0000;73.2778;0.0000;0.0000;0.0000E+00;
793;886.05;11286.06;1455.72;872.0000;65535.0000;1076.0000;216.2778;0.0000;0.0000;0.0000E+00;
794;886.19;11284.24;1457.54;867.0000;65535.0000;1220.0000;365.2778;0.0000;0.0000;0.0000E+00;
795;886.33;11282.42;1459.36;833.0000;65535.0000;1642.0000;821.2778;0.0000;0.0000;0.0000E+00;
796;886.48;11280.60;1461.17;929.0000;65535.0000;3368.0000;2451.2778;0.0000;0.0000;0.0000E+00;
797;886.62;11278.79;1462.99;930.0000;65535.0000;4156.0000;3238.2778;0.0000;0.0000;0.0000E+00;
798;886.76;11276.97;1464.80;953.0000;65535.0000;1650.0000;709.2778;0.0000;0.0000;0.0000E+00;
799;886.91;11275.16;1466.62;966.0000;65535.0000;969.0000;15.2778;0.0000;0.0000;0.0000E+00;
800;887.05;11273.34;1468.43;914.0000;65535.0000;989.0000;87.2778;0.0000;0.0000;0.0000E+00;
801;887.19;11271.53;1470.25;941.0000;65535.0000;986.0000;57.2778;0.0000;0.0000;0.0000E+00;
802;887.33;11269.72;1472.06;936.0000;65535.0000;974.0000;50.2778;0.0000;0.0000;0.0000E+00;
803;887.48;11267.90;1473.87;915.0000;65535.0000;865.0000;-37.7222;0.0000;0.0000;0.0000E+00;
804;887.62;11266.09;1475.68;953.0000;65535.0000;878.0000;-62.7222;0.0000;0.0000;0.0000E+00;
805;887.76;11264.28;1477.49;912.0000;65535.0000;834.0000;-65.7222;0.0000;0.0000;0.0000E+00;
806;887.90;11262.47;1479.30;940.0000;65535.0000;902.0000;-25.7222;0.0000;0.0000;0.0000E+00;
807;888.05;11260.66;1481.11;953.0000;65535.0000;963.0000;22.2778;0.0000;0.0000;0.0000E+00;
808;888.19;11258.86;1482.92;938.0000;65535.0000;957.0000;31.2778;0.0000;0.0000;0.0000E+00;
809;888.33;11257.05;1484.73;944.0000;65535.0000;978.0000;46.2778;0.0000;0.0000;0.0000E+00;
810;888.47;11255.24;1486.53;912.0000;65535.0000;847.0000;-52.7222;0.0000;0.0000;0.0000E+00;
811;888.62;11253.44;1488.34;975.0000;65535.0000;973.0000;10.2778;0.0000;0.0000;0.0000E+00;
812;888.76;11251.63;1490.15;960.0000;65535.0000;955.0000;7.2778;0.0000;0.0000;0.0000E+00;
813;888.90;11249.83;1491.95;856.0000;65535.0000;907.0000;63.2778;0.0000;0.0000;0.0000E+00;
814;889.05;11248.02;1493.75;879.0000;65535.0000;974.0000;107.2778;0.0000;0.0000;0.0000E+00;
815;889.19;11246.22;1495.56;921.0000;65535.0000;990.0000;81.2778;0.0000;0.0000;0.0000E+00;
816;889.33;11244.42;1497.36;925.0000;65535.0000;886.0000;-26.7222;0.0000;0.0000;0.0000E+00;
817;889.47;11242.61;1499.16;888.0000;65535.0000;925.0000;49.2778;0.0000;0.0000;0.0000E+00;
818;889.62;11240.81;1500.96;854.0000;65535.0000;926.0000;84.2778;0.0000;0.0000;0.0000E+00;
819;889.76;11239.01;1502.76;932.0000;65535.0000;867.0000;-52.7222;0.0000;0.0000;0.0000E+00;
820;889.90;11237.21;1504.56;896.0000;65535.0000;1014.0000;130.2778;0.0000;0.0000;0.0000E+00;
821;890.04;11235.41;1506.36;912.0000;65535.0000;948.0000;48.2778;0.0000;0.0000;0.0000E+00;
822;890.19;11233.62;1508.16;914.0000;65535.0000;924.0000;22.2778;0.0000;0.0000;0.0000E+00;
823;890.33;11231.82;1509.96;968.0000;65535.0000;947.0000;-8.7222;0.0000;0.0000;0.0000E+00;
824;890.47;11230.02;1511.75;858.0000;65535.0000;876.0000;30.2778;0.0000;0.0000;0.0000E+00;
825;890.61;11228.23;1513.55;906.0000;65535.0000;968.0000;74.2778;0.0000;0.0000;0.0000E+00;
826;890.75;11226.43;1515.34;948.0000;65535.0000;909.0000;-26.7222;0.0000;0.0000;0.0000E+00;
827;890.90;11224.64;1517.14;935.0000;65535.0000;958.0000;35.2778;0.0000;0.0000;0.0000E+00;
828;891.04;11222.84;1518.93;936.0000;65535.0000;1008.0000;84.2778;0.0000;0.0000;0.0000E+00;
829;891.18;11221.05;1520.72;968.0000;65535.0000;1027.0000;71.2778;0.0000;0.0000;0.0000E+00;
830;891.32;11219.26;1522.52;909.0000;65535.0000;968.0000;71.2778;0.0000;0.0000;0.0000E+00;
831;891.47;11217.47;1524.31;947.0000;65535.0000;1021.0000;86.2778;0.0000;0.0000;0.0000E+00;
832;891.61;11215.68;1526.10;944.0000;65535.0000;1035.0000;103.2778;0.0000;0.0000;0.0000E+00;
833;891.75;11213.89;1527.89;868.0000;65535.0000;1217.0000;361.2778;0.0000;0.0000;0.0000E+00;
834;891.89;11212.10;1529.68;897.0000;65535.0000;2134.0000;1249.2778;0.0000;0.0000;0.0000E+00;
835;892.04;11210.31;1531.47;910.0000;65535.0000;2052.0000;1154.2778;0.0000;0.0000;0.0000E+00;
836;892.18;11208.52;1533.26;971.0000;65535.0000;1004.0000;45.2778;0.0000;0.0000;0.0000E+00;
837;892.32;11206.73;1535.04;946.0000;65535.0000;975.0000;41.2778;0.0000;0.0000;0.0000E+00;
838;892.46;11204.95;1536.83;935.0000;65535.0000;925.0000;2.2778;0.0000;0.0000;0.0000E+00;
839;892.61;11203.16;1538.61;900.0000;65535.0000;941.0000;53.2778;0.0000;0.0000;0.0000E+00;
840;892.75;11201.38;1540.40;934.0000;65535.0000;1004.0000;82.2778;0.0000;0.0000;0.0000E+00;
841;892.89;11199.59;1542.18;1006.0000;65535.0000;956.0000;-37.7222;0.0000;0.0000;0.0000E+00;
842;893.03;11197.81;1543.97;956.0000;65535.0000;939.0000;-4.7222;0.0000;0.0000;0.0000E+00;
843;893.17;11196.02;1545.75;907.0000;65535.0000;963.0000;68.2778;0.0000;0.0000;0.0000E+00;
844;893.32;11194.24;1547.53;897.0000;65535.0000;913.0000;28.2778;0.0000;0.0000;0.0000E+00;
845;893.46;11192.46;1549.31;821.0000;65535.0000;913.0000;104.2778;0.0000;0.0000;0.0000E+00;
846;893.60;11190.68;1551.09;899.0000;65535.0000;924.0000;37.2778;0.0000;0.0000;0.0000E+00;
847;893.74;11188.90;1552.87;848.0000;65535.0000;995.0000;159.2778;0.0000;0.0000;0.0000E+00;
848;893.89;11187.12;1554.65;947.0000;65535.0000;977.0000;42.2778;0.0000;0.0000;0.0000E+00;
849;894.03;11185.34;1556.43;884.0000;65535.0000;931.0000;59.2778;0.0000;0.0000;0.0000E+00;
850;894.17;11183.56;1558.21;997.0000;65535.0000;890.0000;-94.7222;0.0000;0.0000;0.0000E+00;
851;894.31;11181.79;1559.99;929.0000;65535.0000;890.0000;-26.7222;0.0000;0.0000;0.0000E+00;
852;894.45;11180.01;1561.76;882.0000;65535.0000;919.0000;49.2778;0.0000;0.0000;0.0000E+00;
853;894.60;11178.24;1563.54;957.0000;65535.0000;924.0000;-20.7222;0.0000;0.0000;0.0000E+00;
854;894.74;11176.46;1565.31;941.0000;65535.0000;900.0000;-28.7222;0.0000;0.0000;0.0000E+00;
855;894.88;11174.69;1567.09;887.0000;65535.0000;863.0000;-11.7222;0.0000;0.0000;0.0000E+00;
856;895.02;11172.91;1568.86;838.0000;65535.0000;928.0000;102.2778;0.0000;0.0000;0.0000E+00;
857;895.16;11171.14;1570.64;944.0000;65535.0000;887.0000;-44.7222;0.0000;0.0000;0.0000E+00;
858;895.31;11169.37;1572.41;979.0000;65535.0000;874.0000;-92.7222;0.0000;0.0000;0.0000E+00;
859;895.45;11167.60;1574.18;869.0000;65535.0000;971.0000;114.2778;0.0000;0.0000;0.0000E+00;
860;895.59;11165.83;1575.95;896.0000;65535.0000;940.0000;56.2778;0.0000;0.0000;0.0000E+00;
861;895.73;11164.06;1577.72;980.0000;65535.0000;858.0000;-109.7222;0.0000;0.0000;0.0000E+00;
862;895.87;11162.29;1579.49;996.0000;65535.0000;937.0000;-46.7222;0.0000;0.0000;0.0000E+00;
863;896.02;11160.52;1581.26;934.0000;65535.0000;898.0000;-23.7222;0.0000;0.0000;0.0000E+00;
864;896.16;11158.75;1583.03;854.0000;65535.0000;921.0000;79.2778;0.0000;0.0000;0.0000E+00;
865;896.30;11156.98;1584.79;892.0000;65535.0000;929.0000;49.2778;0.0000;0.0000;0.0000E+00;
866;896.44;11155.22;1586.56;969.0000;65535.0000;893.0000;-63.7222;0.0000;0.0000;0.0000E+00;
867;896.58;11153.45;1588.32;952.0000;65535.0000;864.0000;-75.7222;0.0000;0.0000;0.0000E+00;
868;896.73;11151.69;1590.09;942.0000;65535.0000;893.0000;-36.7222;0.0000;0.0000;0.0000E+00;
869;896.87;11149.92;1591.85;883.0000;65535.0000;910.0000;39.2778;0.0000;0.0000;0.0000E+00;
870;897.01;11148.16;1593.62;962.0000;65535.0000;971.0000;21.2778;0.0000;0.0000;0.0000E+00;
871;897.15;11146.39;1595.38;948.0000;65535.0000;930.0000;-5.7222;0.0000;0.0000;0.0000E+00;
872;897.29;11144.63;1597.14;946.0000;65535.0000;918.0000;-15.7222;0.0000;0.0000;0.0000E+00;
873;897.43;11142.87;1598.90;838.0000;65535.0000;910.0000;84.2778;0.0000;0.0000;0.0000E+00;
874;897.58;11141.11;1600.66;1010.0000;65535.0000;900.0000;-97.7222;0.0000;0.0000;0.0000E+00;
875;897.72;11139.35;1602.42;842.0000;65535.0000;913.0000;83.2778;0.0000;0.0000;0.0000E+00;
876;897.86;11137.59;1604.18;896.0000;65535.0000;893.0000;9.2778;0.0000;0.0000;0.0000E+00;
877;898.00;11135.83;1605.94;864.0000;65535.0000;996.0000;144.2778;0.0000;0.0000;0.0000E+00;
878;898.14;11134.07;1607.70;977.0000;65535.0000;920.0000;-44.7222;0.0000;0.0000;0.0000E+00;
879;898.29;11132.32;1609.46;955.0000;65535.0000;904.0000;-38.7222;0.0000;0.0000;0.0000E+00;
880;898.43;11130.56;1611.21;936.0000;65535.0000;968.0000;44.2778;0.0000;0.0000;0.0000E+00;
881;898.57;11128.80;1612.97;907.0000;65535.0000;940.0000;45.2778;0.0000;0.0000;0.0000E+00;
882;898.71;11127.05;1614.73;892.0000;65535.0000;1049.0000;169.2778;0.0000;0.0000;0.0000E+00;
883;898.85;11125.30;1616.48;843.0000;65535.0000;1362.0000;531.2778;0.0000;0.0000;0.0000E+00;
884;898.99;11123.54;1618.23;886.0000;65535.0000;1074.0000;200.2778;0.0000;0.0000;0.0000E+00;
885;899.14;11121.79;1619.99;972.0000;65535.0000;948.0000;-11.7222;0.0000;0.0000;0.0000E+00;
886;899.28;11120.04;1621.74;959.0000;65535.0000;890.0000;-56.7222;0.0000;0.0000;0.0000E+00;
887;899.42;11118.28;1623.49;987.0000;65535.0000;977.0000;2.2778;0.0000;0.0000;0.0000E+00;
888;899.56;11116.53;1625.24;882.0000;65535.0000;1005.0000;135.2778;0.0000;0.0000;0.0000E+00;
889;899.70;11114.78;1626.99;758.0000;65535.0000;977.0000;231.2778;0.0000;0.0000;0.0000E+00;
890;899.84;11113.03;1628.74;968.0000;65535.0000;995.0000;39.2778;0.0000;0.0000;0.0000E+00;
891;899.99;11111.29;1630.49;906.0000;65535.0000;910.0000;16.2778;0.0000;0.0000;0.0000E+00;
892;900.13;11109.54;1632.24;915.0000;65535.0000;835.0000;-67.7222;0.0000;0.0000;0.0000E+00;
893;900.27;11107.79;1633.99;925.0000;65535.0000;896.0000;-16.7222;0.0000;0.0000;0.0000E+00;
894;900.41;11106.04;1635.73;1002.0000;65535.0000;925.0000;-64.7222;0.0000;0.0000;0.0000E+00;
895;900.55;11104.30;1637.48;852.0000;65535.0000;899.0000;59.2778;0.0000;0.0000;0.0000E+00;
896;900.69;11102.55;1639.22;957.0000;65535.0000;914.0000;-30.7222;0.0000;0.0000;0.0000E+00;
897;900.84;11100.81;1640.97;920.0000;65535.0000;925.0000;17.2778;0.0000;0.0000;0.0000E+00;
898;900.98;11099.06;1642.71;894.0000;65535.0000;966.0000;84.2778;0.0000;0.0000;0.0000E+00;
899;901.12;11097.32;1644.45;952.0000;65535.0000;848.0000;-91.7222;0.0000;0.0000;0.0000E+00;
900;901.26;11095.58;1646.20;905.0000;65535.0000;860.0000;-32.7222;0.0000;0.0000;0.0000E+00;
901;901.40;11093.84;1647.94;954.0000;65535.0000;873.0000;-68.7222;0.0000;0.0000;0.0000E+00;
902;901.54;11092.10;1649.68;984.0000;65535.0000;910.0000;-61.7222;0.0000;0.0000;0.0000E+00;
903;901.68;11090.35;1651.42;880.0000;65535.0000;921.0000;53.2778;0.0000;0.0000;0.0000E+00;
904;901.83;11088.62;1653.16;866.0000;65535.0000;858.0000;4.2778;0.0000;0.0000;0.0000E+00;
905;901.97;11086.88;1654.90;910.0000;65535.0000;837.0000;-60.7222;0.0000;0.0000;0.0000E+00;
906;902.11;11085.14;1656.64;936.0000;65535.0000;889.0000;-34.7222;0.0000;0.0000;0.0000E+00;
907;902.25;11083.40;1658.37;844.0000;65535.0000;951.0000;119.2778;0.0000;0.0000;0.0000E+00;
908;902.39;11081.66;1660.11;963.0000;65535.0000;828.0000;-122.7222;0.0000;0.0000;0.0000E+00;
909;902.53;11079.93;1661.85;1026.0000;65535.0000;896.0000;-117.7222;0.0000;0.0000;0.0000E+00;
910;902.67;11078.19;1663.58;952.0000;65535.0000;956.0000;16.2778;0.0000;0.0000;0.0000E+00;
911;902.82;11076.46;1665.32;960.0000;65535.0000;914.0000;-33.7222;0.0000;0.0000;0.0000E+00;
912;902.96;11074.72;1667.05;942.0000;65535.0000;1000.0000;70.2778;0.0000;0.0000;0.0000E+00;
913;903.10;11072.99;1668.79;921.0000;65535.0000;906.0000;-2.7222;0.0000;0.0000;0.0000E+00;
914;903.24;11071.26;1670.52;969.0000;65535.0000;837.0000;-119.7222;0.0000;0.0000;0.0000E+00;
915;903.38;11069.52;1672.25;920.0000;65535.0000;813.0000;-94.7222;0.0000;0.0000;0.0000E+00;
916;903.52;11067.79;1673.98;963.0000;65535.0000;925.0000;-25.7222;0.0000;0.0000;0.0000E+00;
917;903.66;11066.06;1675.71;929.0000;65535.0000;933.0000;16.2778;0.0000;0.0000;0.0000E+00;
918;903.81;11064.33;1677.44;889.0000;65535.0000;888.0000;11.2778;0.0000;0.0000;0.0000E+00;
919;903.95;11062.60;1679.17;966.0000;65535.0000;994.0000;40.2778;0.0000;0.0000;0.0000E+00;
920;904.09;11060.88;1680.90;968.0000;65535.0000;942.0000;-13.7222;0.0000;0.0000;0.0000E+00;
921;904.23;11059.15;1682.63;915.0000;65535.0000;925.0000;22.2778;0.0000;0.0000;0.0000E+00;
922;904.37;11057.42;1684.36;958.0000;65535.0000;937.0000;-8.7222;0.0000;0.0000;0.0000E+00;
923;904.51;11055.69;1686.08;977.0000;65535.0000;944.0000;-20.7222;0.0000;0.0000;0.0000E+00;
924;904.65;11053.97;1687.81;986.0000;65535.0000;890.0000;-83.7222;0.0000;0.0000;0.0000E+00;
925;904.79;11052.24;1689.53;990.0000;65535.0000;950.0000;-27.7222;0.0000;0.0000;0.0000E+00;
926;904.93;11050.52;1691.26;915.0000;65535.0000;919.0000;16.2778;0.0000;0.0000;0.0000E+00;
927;905.08;11048.79;1692.98;976.0000;65535.0000;988.0000;24.2778;0.0000;0.0000;0.0000E+00;
928;905.22;11047.07;1694.70;880.0000;65535.0000;1017.0000;149.2778;0.0000;0.0000;0.0000E+00;
929;905.36;11045.35;1696.43;970.0000;65535.0000;895.0000;-62.7222;0.0000;0.0000;0.0000E+00;
930;905.50;11043.63;1698.15;916.0000;65535.0000;936.0000;32.2778;0.0000;0.0000;0.0000E+00;
931;905.64;11041.91;1699.87;1005.0000;65535.0000;983.0000;-9.7222;0.0000;0.0000;0.0000E+00;
932;905.78;11040.19;1701.59;978.0000;65535.0000;925.0000;-40.7222;0.0000;0.0000;0.0000E+00;
933;905.92;11038.47;1703.31;877.0000;65535.0000;938.0000;73.2778;0.0000;0.0000;0.0000E+00;
934;906.06;11036.75;1705.03;900.0000;65535.0000;870.0000;-17.7222;0.0000;0.0000;0.0000E+00;
935;906.21;11035.03;1706.75;914.0000;65535.0000;913.0000;11.2778;0.0000;0.0000;0.0000E+00;
936;906.35;11033.31;1708.46;970.0000;65535.0000;959.0000;1.2778;0.0000;0.0000;0.0000E+00;
937;906.49;11031.60;1710.18;920.0000;65535.0000;988.0000;80.2778;0.0000;0.0000;0.0000E+00;
938;906.63;11029.88;1711.90;847.0000;65535.0000;987.0000;152.2778;0.0000;0.0000;0.0000E+00;
939;906.77;11028.16;1713.61;875.0000;65535.0000;927.0000;64.2778;0.0000;0.0000;0.0000E+00;
940;906.91;11026.45;1715.33;938.0000;65535.0000;901.0000;-24.7222;0.0000;0.0000;0.0000E+00;
941;907.05;11024.73;1717.04;920.0000;65535.0000;988.0000;80.2778;0.0000;0.0000;0.0000E+00;
942;907.19;11023.02;1718.75;957.0000;65535.0000;933.0000;-11.7222;0.0000;0.0000;0.0000E+00;
943;907.33;11021.31;1720.47;943.0000;65535.0000;890.0000;-40.7222;0.0000;0.0000;0.0000E+00;
944;907.47;11019.60;1722.18;972.0000;65535.0000;852.0000;-107.7222;0.0000;0.0000;0.0000E+00;
945;907.62;11017.88;1723.89;938.0000;65535.0000;817.0000;-108.7222;0.0000;0.0000;0.0000E+00;
946;907.76;11016.17;1725.60;864.0000;65535.0000;935.0000;83.2778;0.0000;0.0000;0.0000E+00;
947;907.90;11014.46;1727.31;961.0000;65535.0000;982.0000;33.2778;0.0000;0.0000;0.0000E+00;
948;908.04;11012.75;1729.02;935.0000;65535.0000;952.0000;29.2778;0.0000;0.0000;0.0000E+00;
949;908.18;11011.05;1730.73;950.0000;65535.0000;904.0000;-33.7222;0.0000;0.0000;0.0000E+00;
950;908.32;11009.34;1732.44;896.0000;65535.0000;890.0000;6.2778;0.0000;0.0000;0.0000E+00;
951;908.46;11007.63;1734.14;891.0000;65535.0000;904.0000;25.2778;0.0000;0.0000;0.0000E+00;
952;908.60;11005.92;1735.85;941.0000;65535.0000;904.0000;-24.7222;0.0000;0.0000;0.0000E+00;
953;908.74;11004.22;1737.56;912.0000;65535.0000;937.0000;37.2778;0.0000;0.0000;0.0000E+00;
954;908.88;11002.51;1739.26;956.0000;65535.0000;918.0000;-25.7222;0.0000;0.0000;0.0000E+00;
955;909.02;11000.81;1740.97;900.0000;65535.0000;909.0000;21.2778;0.0000;0.0000;0.0000E+00;
956;909.16;10999.10;1742.67;892.0000;65535.0000;915.0000;35.2778;0.0000;0.0000;0.0000E+00;
957;909.31;10997.40;1744.37;925.0000;65535.0000;957.0000;44.2778;0.0000;0.0000;0.0000E+00;
958;909.45;10995.70;1746.08;937.0000;65535.0000;924.0000;-0.7222;0.0000;0.0000;0.0000E+00;
959;909.59;10994.00;1747.78;890.0000;65535.0000;885.0000;7.2778;0.0000;0.0000;0.0000E+00;
960;909.73;10992.30;1749.48;1001.0000;65535.0000;956.0000;-32.7222;0.0000;0.0000;0.0000E+00;
961;909.87;10990.60;1751.18;890.0000;65535.0000;875.0000;-2.7222;0.0000;0.0000;0.0000E+00;
962;910.01;10988.90;1752.88;938.0000;65535.0000;902.0000;-23.7222;0.0000;0.0000;0.0000E+00;
963;910.15;10987.20;1754.58;935.0000;65535.0000;897.0000;-25.7222;0.0000;0.0000;0.0000E+00;
964;910.29;10985.50;1756.28;932.0000;65535.0000;952.0000;32.2778;0.0000;0.0000;0.0000E+00;
965;910.43;10983.80;1757.97;926.0000;65535.0000;939.0000;25.2778;0.0000;0.0000;0.0000E+00;
966;910.57;10982.10;1759.67;904.0000;65535.0000;947.0000;55.2778;0.0000;0.0000;0.0000E+00;
967;910.71;10980.41;1761.37;904.0000;65535.0000;917.0000;25.2778;0.0000;0.0000;0.0000E+00;
968;910.85;10978.71;1763.06;939.0000;65535.0000;1018.0000;91.2778;0.0000;0.0000;0.0000E+00;
969;910.99;10977.02;1764.76;888.0000;65535.0000;939.0000;63.2778;0.0000;0.0000;0.0000E+00;
970;911.14;10975.32;1766.45;926.0000;65535.0000;922.0000;8.2778;0.0000;0.0000;0.0000E+00;
971;911.28;10973.63;1768.15;864.0000;65535.0000;935.0000;83.2778;0.0000;0.0000;0.0000E+00;
972;911.42;10971.94;1769.84;970.0000;65535.0000;968.0000;10.2778;0.0000;0.0000;0.0000E+00;
973;911.56;10970.24;1771.53;938.0000;65535.0000;841.0000;-84.7222;0.0000;0.0000;0.0000E+00;
974;911.70;10968.55;1773.22;924.0000;65535.0000;941.0000;29.2778;0.0000;0.0000;0.0000E+00;
975;911.84;10966.86;1774.92;904.0000;65535.0000;977.0000;85.2778;0.0000;0.0000;0.0000E+00;
976;911.98;10965.17;1776.61;1034.0000;65535.0000;924.0000;-97.7222;0.0000;0.0000;0.0000E+00;
977;912.12;10963.48;1778.30;920.0000;65535.0000;1043.0000;135.2778;0.0000;0.0000;0.0000E+00;
978;912.26;10961.79;1779.98;938.0000;65535.0000;1112.0000;186.2778;0.0000;0.0000;0.0000E+00;
979;912.40;10960.10;1781.67;957.0000;65535.0000;1077.0000;132.2778;0.0000;0.0000;0.0000E+00;
980;912.54;10958.41;1783.36;894.0000;65535.0000;856.0000;-25.7222;0.0000;0.0000;0.0000E+00;
981;912.68;10956.73;1785.05;842.0000;65535.0000;927.0000;97.2778;0.0000;0.0000;0.0000E+00;
982;912.82;10955.04;1786.73;929.0000;65535.0000;909.0000;-7.7222;0.0000;0.0000;0.0000E+00;
983;912.96;10953.36;1788.42;897.0000;65535.0000;894.0000;9.2778;0.0000;0.0000;0.0000E+00;
984;913.10;10951.67;1790.10;957.0000;65535.0000;873.0000;-71.7222;0.0000;0.0000;0.0000E+00;
985;913.24;10949.99;1791.79;944.0000;65535.0000;1000.0000;68.2778;0.0000;0.0000;0.0000E+00;
986;913.38;10948.30;1793.47;925.0000;65535.0000;908.0000;-4.7222;0.0000;0.0000;0.0000E+00;
987;913.52;10946.62;1795.16;932.0000;65535.0000;870.0000;-49.7222;0.0000;0.0000;0.0000E+00;
988;913.66;10944.94;1796.84;984.0000;65535.0000;886.0000;-85.7222;0.0000;0.0000;0.0000E+00;
989;913.80;10943.26;1798.52;908.0000;65535.0000;979.0000;83.2778;0.0000;0.0000;0.0000E+00;
990;913.95;10941.58;1800.20;982.0000;65535.0000;957.0000;-12.7222;0.0000;0.0000;0.0000E+00;
991;914.09;10939.90;1801.88;807.0000;65535.0000;971.0000;176.2778;0.0000;0.0000;0.0000E+00;
992;914.23;10938.22;1803.56;1024.0000;65535.0000;953.0000;-58.7222;0.0000;0.0000;0.0000E+00;
993;914.37;10936.54;1805.24;969.0000;65535.0000;952.0000;-4.7222;0.0000;0.0000;0.0000E+00;
994;914.51;10934.86;1806.92;924.0000;65535.0000;1061.0000;149.2778;0.0000;0.0000;0.0000E+00;
995;914.65;10933.18;1808.59;907.0000;65535.0000;1226.0000;331.2778;0.0000;0.0000;0.0000E+00;
996;914.79;10931.50;1810.27;974.0000;65535.0000;2137.0000;1175.2778;0.0000;0.0000;0.0000E+00;
997;914.93;10929.83;1811.95;953.0000;65535.0000;1981.0000;1040.2778;0.0000;0.0000;0.0000E+00;
998;915.07;10928.15;1813.62;902.0000;65535.0000;1069.0000;179.2778;0.0000;0.0000;0.0000E+00;
999;915.21;10926.48;1815.30;880.0000;65535.0000;897.0000;29.2778;0.0000;0.0000;0.0000E+00;
1000;915.35;10924.80;1816.97;966.0000;65535.0000;894.0000;-59.7222;0.0000;0.0000;0.0000E+00;
1001;915.49;10923.13;1818.65;895.0000;65535.0000;910.0000;27.2778;0.0000;0.0000;0.0000E+00;
1002;915.63;10921.46;1820.32;874.0000;65535.0000;915.0000;53.2778;0.0000;0.0000;0.0000E+00;
1003;915.77;10919.78;1821.99;928.0000;65535.0000;969.0000;53.2778;0.0000;0.0000;0.0000E+00;
1004;915.91;10918.11;1823.66;1003.0000;65535.0000;965.0000;-25.7222;0.0000;0.0000;0.0000E+00;
1005;916.05;10916.44;1825.33;952.0000;65535.0000;915.0000;-24.7222;0.0000;0.0000;0.0000E+00;
1006;916.19;10914.77;1827.00;894.0000;65535.0000;877.0000;-4.7222;0.0000;0.0000;0.0000E+00;
1007;916.33;10913.10;1828.67;892.0000;65535.0000;967.0000;87.2778;0.0000;0.0000;0.0000E+00;
1008;916.47;10911.43;1830.34;960.0000;65535.0000;942.0000;-5.7222;0.0000;0.0000;0.0000E+00;
1009;916.61;10909.76;1832.01;949.0000;65535.0000;961.0000;24.2778;0.0000;0.0000;0.0000E+00;
1010;916.75;10908.10;1833.68;996.0000;65535.0000;872.0000;-111.7222;0.0000;0.0000;0.0000E+00;
1011;916.89;10906.43;1835.35;898.0000;65535.0000;971.0000;85.2778;0.0000;0.0000;0.0000E+00;
1012;917.03;10904.76;1837.01;906.0000;65535.0000;1037.0000;143.2778;0.0000;0.0000;0.0000E+00;
1013;917.17;10903.10;1838.68;932.0000;65535.0000;987.0000;67.2778;0.0000;0.0000;0.0000E+00;
1014;917.31;10901.43;1840.34;832.0000;65535.0000;867.0000;47.2778;0.0000;0.0000;0.0000E+00;
1015;917.45;10899.77;1842.01;879.0000;65535.0000;897.0000;30.2778;0.0000;0.0000;0.0000E+00;
1016;917.59;10898.10;1843.67;907.0000;65535.0000;976.0000;81.2778;0.0000;0.0000;0.0000E+00;
1017;917.73;10896.44;1845.33;943.0000;65535.0000;933.0000;2.2778;0.0000;0.0000;0.0000E+00;
1018;917.87;10894.78;1847.00;882.0000;65535.0000;945.0000;75.2778;0.0000;0.0000;0.0000E+00;
1019;918.01;10893.12;1848.66;915.0000;65535.0000;799.0000;-103.7222;0.0000;0.0000;0.0000E+00;
1020;918.15;10891.46;1850.32;896.0000;65535.0000;936.0000;52.2778;0.0000;0.0000;0.0000E+00;
1021;918.29;10889.80;1851.98;915.0000;65535.0000;943.0000;40.2778;0.0000;0.0000;0.0000E+00;
1022;918.43;10888.14;1853.64;955.0000;65535.0000;925.0000;-17.7222;0.0000;0.0000;0.0000E+00;
1023;918.57;10886.48;1855.30;895.0000;65535.0000;958.0000;75.2778;0.0000;0.0000;0.0000E+00;
1024;918.71;10884.82;1856.96;965.0000;65535.0000;939.0000;-13.7222;0.0000;0.0000;0.0000E+00;
1025;918.85;10883.16;1858.61;965.0000;65535.0000;926.0000;-26.7222;0.0000;0.0000;0.0000E+00;
1026;918.99;10881.50;1860.27;954.0000;65535.0000;893.0000;-48.7222;0.0000;0.0000;0.0000E+00;
1027;919.13;10879.85;1861.93;867.0000;65535.0000;996.0000;141.2778;0.0000;0.0000;0.0000E+00;
1028;919.27;10878.19;1863.58;922.0000;65535.0000;930.0000;20.2778;0.0000;0.0000;0.0000E+00;
1029;919.41;10876.54;1865.24;888.0000;65535.0000;963.0000;87.2778;0.0000;0.0000;0.0000E+00;
1030;919.55;10874.88;1866.89;874.0000;65535.0000;854.0000;-7.7222;0.0000;0.0000;0.0000E+00;
1031;919.69;10873.23;1868.55;932.0000;65535.0000;909.0000;-10.7222;0.0000;0.0000;0.0000E+00;
1032;919.83;10871.57;1870.20;942.0000;65535.0000;1016.0000;86.2778;0.0000;0.0000;0.0000E+00;
1033;919.97;10869.92;1871.85;899.0000;65535.0000;1246.0000;359.2778;0.0000;0.0000;0.0000E+00;
1034;920.11;10868.27;1873.50;941.0000;65535.0000;1927.0000;998.2778;0.0000;0.0000;0.0000E+00;
1035;920.25;10866.62;1875.16;929.0000;65535.0000;1783.0000;866.2778;0.0000;0.0000;0.0000E+00;
1036;920.39;10864.97;1876.81;907.0000;65535.0000;967.0000;72.2778;0.0000;0.0000;0.0000E+00;
1037;920.53;10863.32;1878.46;806.0000;65535.0000;986.0000;192.2778;0.0000;0.0000;0.0000E+00;
1038;920.67;10861.67;1880.11;970.0000;65535.0000;917.0000;-40.7222;0.0000;0.0000;0.0000E+00;
1039;920.81;10860.02;1881.75;964.0000;65535.0000;935.0000;-16.7222;0.0000;0.0000;0.0000E+00;
1040;920.95;10858.37;1883.40;988.0000;65535.0000;916.0000;-59.7222;0.0000;0.0000;0.0000E+00;
1041;921.09;10856.73;1885.05;886.0000;65535.0000;907.0000;33.2778;0.0000;0.0000;0.0000E+00;
1042;921.23;10855.08;1886.70;866.0000;65535.0000;974.0000;120.2778;0.0000;0.0000;0.0000E+00;
1043;921.37;10853.43;1888.34;896.0000;65535.0000;899.0000;15.2778;0.0000;0.0000;0.0000E+00;
1044;921.51;10851.79;1889.99;938.0000;65535.0000;929.0000;3.2778;0.0000;0.0000;0.0000E+00;
1045;921.65;10850.14;1891.63;934.0000;65535.0000;969.0000;47.2778;0.0000;0.0000;0.0000E+00;
1046;921.79;10848.50;1893.28;923.0000;65535.0000;1032.0000;121.2778;0.0000;0.0000;0.0000E+00;
1047;921.93;10846.86;1894.92;838.0000;65535.0000;1598.0000;772.2778;0.0000;0.0000;0.0000E+00;
1048;922.07;10845.21;1896.56;947.0000;65535.0000;1639.0000;704.2778;0.0000;0.0000;0.0000E+00;
1049;922.21;10843.57;1898.20;889.0000;65535.0000;1175.0000;298.2778;0.0000;0.0000;0.0000E+00;
1050;922.35;10841.93;1899.85;945.0000;65535.0000;1025.0000;92.2778;0.0000;0.0000;0.0000E+00;
1051;922.48;10840.29;1901.49;852.0000;65535.0000;1023.0000;183.2778;0.0000;0.0000;0.0000E+00;
1052;922.62;10838.65;1903.13;951.0000;65535.0000;1171.0000;232.2778;0.0000;0.0000;0.0000E+00;
1053;922.76;10837.01;1904.77;987.0000;65535.0000;1103.0000;128.2778;0.0000;0.0000;0.0000E+00;
1054;922.90;10835.37;1906.41;918.0000;65535.0000;933.0000;27.2778;0.0000;0.0000;0.0000E+00;
1055;923.04;10833.73;1908.04;945.0000;65535.0000;886.0000;-46.7222;0.0000;0.0000;0.0000E+00;
1056;923.18;10832.09;1909.68;952.0000;65535.0000;915.0000;-24.7222;0.0000;0.0000;0.0000E+00;
1057;923.32;10830.46;1911.32;864.0000;65535.0000;899.0000;47.2778;0.0000;0.0000;0.0000E+00;
1058;923.46;10828.82;1912.95;952.0000;65535.0000;927.0000;-12.7222;0.0000;0.0000;0.0000E+00;
1059;923.60;10827.19;1914.59;888.0000;65535.0000;969.0000;93.2778;0.0000;0.0000;0.0000E+00;
1060;923.74;10825.55;1916.22;890.0000;65535.0000;881.0000;3.2778;0.0000;0.0000;0.0000E+00;
1061;923.88;10823.92;1917.86;888.0000;65535.0000;893.0000;17.2778;0.0000;0.0000;0.0000E+00;
1062;924.02;10822.28;1919.49;971.0000;65535.0000;827.0000;-131.7222;0.0000;0.0000;0.0000E+00;
1063;924.16;10820.65;1921.13;913.0000;65535.0000;910.0000;9.2778;0.0000;0.0000;0.0000E+00;
1064;924.30;10819.02;1922.76;878.0000;65535.0000;928.0000;62.2778;0.0000;0.0000;0.0000E+00;
1065;924.44;10817.39;1924.39;877.0000;65535.0000;887.0000;22.2778;0.0000;0.0000;0.0000E+00;
1066;924.58;10815.75;1926.02;919.0000;65535.0000;906.0000;-0.7222;0.0000;0.0000;0.0000E+00;
1067;924.72;10814.12;1927.65;930.0000;65535.0000;869.0000;-48.7222;0.0000;0.0000;0.0000E+00;
1068;924.86;10812.49;1929.28;913.0000;65535.0000;944.0000;43.2778;0.0000;0.0000;0.0000E+00;
1069;925.00;10810.87;1930.91;899.0000;65535.0000;907.0000;20.2778;0.0000;0.0000;0.0000E+00;
1070;925.13;10809.24;1932.54;945.0000;65535.0000;889.0000;-43.7222;0.0000;0.0000;0.0000E+00;
1071;925.27;10807.61;1934.17;908.0000;65535.0000;850.0000;-45.7222;0.0000;0.0000;0.0000E+00;
1072;925.41;10805.98;1935.79;904.0000;65535.0000;848.0000;-43.7222;0.0000;0.0000;0.0000E+00;
1073;925.55;10804.36;1937.42;880.0000;65535.0000;927.0000;59.2778;0.0000;0.0000;0.0000E+00;
1074;925.69;10802.73;1939.05;868.0000;65535.0000;931.0000;75.2778;0.0000;0.0000;0.0000E+00;
1075;925.83;10801.10;1940.67;947.0000;65535.0000;928.0000;-6.7222;0.0000;0.0000;0.0000E+00;
1076;925.97;10799.48;1942.30;867.0000;65535.0000;895.0000;40.2778;0.0000;0.0000;0.0000E+00;
1077;926.11;10797.86;1943.92;878.0000;65535.0000;886.0000;20.2778;0.0000;0.0000;0.0000E+00;
1078;926.25;10796.23;1945.54;937.0000;65535.0000;915.0000;-9.7222;0.0000;0.0000;0.0000E+00;
1079;926.39;10794.61;1947.17;869.0000;65535.0000;905.0000;48.2778;0.0000;0.0000;0.0000E+00;
1080;926.53;10792.99;1948.79;949.0000;65535.0000;922.0000;-14.7222;0.0000;0.0000;0.0000E+00;
1081;926.67;10791.37;1950.41;928.0000;65535.0000;928.0000;12.2778;0.0000;0.0000;0.0000E+00;
1082;926.81;10789.74;1952.03;881.0000;65535.0000;880.0000;11.2778;0.0000;0.0000;0.0000E+00;
1083;926.95;10788.12;1953.65;886.0000;65535.0000;977.0000;103.2778;0.0000;0.0000;0.0000E+00;
1084;927.08;10786.50;1955.27;914.0000;65535.0000;924.0000;22.2778;0.0000;0.0000;0.0000E+00;
1085;927.22;10784.89;1956.89;942.0000;65535.0000;941.0000;11.2778;0.0000;0.0000;0.0000E+00;
1086;927.36;10783.27;1958.51;901.0000;65535.0000;878.0000;-10.7222;0.0000;0.0000;0.0000E+00;
1087;927.50;10781.65;1960.12;859.0000;65535.0000;1043.0000;196.2778;0.0000;0.0000;0.0000E+00;
1088;927.64;10780.03;1961.74;909.0000;65535.0000;979.0000;82.2778;0.0000;0.0000;0.0000E+00;
1089;927.78;10778.42;1963.36;800.0000;65535.0000;842.0000;54.2778;0.0000;0.0000;0.0000E+00;
1090;927.92;10776.80;1964.97;906.0000;65535.0000;901.0000;7.2778;0.0000;0.0000;0.0000E+00;
1091;928.06;10775.19;1966.59;962.0000;65535.0000;798.0000;-151.7222;0.0000;0.0000;0.0000E+00;
1092;928.20;10773.57;1968.20;975.0000;65535.0000;910.0000;-52.7222;0.0000;0.0000;0.0000E+00;
1093;928.34;10771.96;1969.82;1027.0000;65535.0000;994.0000;-20.7222;0.0000;0.0000;0.0000E+00;
1094;928.48;10770.34;1971.43;947.0000;65535.0000;900.0000;-34.7222;0.0000;0.0000;0.0000E+00;
1095;928.61;10768.73;1973.04;875.0000;65535.0000;919.0000;56.2778;0.0000;0.0000;0.0000E+00;
1096;928.75;10767.12;1974.65;859.0000;65535.0000;1012.0000;165.2778;0.0000;0.0000;0.0000E+00;
1097;928.89;10765.51;1976.27;915.0000;65535.0000;952.0000;49.2778;0.0000;0.0000;0.0000E+00;
1098;929.03;10763.90;1977.88;947.0000;65535.0000;880.0000;-54.7222;0.0000;0.0000;0.0000E+00;
1099;929.17;10762.29;1979.49;914.0000;65535.0000;922.0000;20.2778;0.0000;0.0000;0.0000E+00;
1100;929.31;10760.68;1981.10;872.0000;65535.0000;913.0000;53.2778;0.0000;0.0000;0.0000E+00;
1101;929.45;10759.07;1982.70;978.0000;65535.0000;909.0000;-56.7222;0.0000;0.0000;0.0000E+00;
1102;929.59;10757.46;1984.31;898.0000;65535.0000;916.0000;30.2778;0.0000;0.0000;0.0000E+00;
1103;929.73;10755.85;1985.92;972.0000;65535.0000;945.0000;-14.7222;0.0000;0.0000;0.0000E+00;
1104;929.87;10754.25;1987.53;896.0000;65535.0000;1184.0000;300.2778;0.0000;0.0000;0.0000E+00;
1105;930.00;10752.64;1989.13;910.0000;65535.0000;1803.0000;905.2778;0.0000;0.0000;0.0000E+00;
1106;930.14;10751.04;1990.74;997.0000;65535.0000;1634.0000;649.2778;0.0000;0.0000;0.0000E+00;
1107;930.28;10749.43;1992.34;953.0000;65535.0000;1033.0000;92.2778;0.0000;0.0000;0.0000E+00;
1108;930.42;10747.83;1993.95;962.0000;65535.0000;893.0000;-56.7222;0.0000;0.0000;0.0000E+00;
1109;930.56;10746.22;1995.55;902.0000;65535.0000;927.0000;37.2778;0.0000;0.0000;0.0000E+00;
1110;930.70;10744.62;1997.15;829.0000;65535.0000;970.0000;153.2778;0.0000;0.0000;0.0000E+00;
1111;930.84;10743.02;1998.76;919.0000;65535.0000;938.0000;31.2778;0.0000;0.0000;0.0000E+00;
1112;930.98;10741.42;2000.36;958.0000;65535.0000;995.0000;49.2778;0.0000;0.0000;0.0000E+00;
1113;931.11;10739.82;2001.96;866.0000;65535.0000;992.0000;138.2778;0.0000;0.0000;0.0000E+00;
1114;931.25;10738.21;2003.56;927.0000;65535.0000;1172.0000;257.2778;0.0000;0.0000;0.0000E+00;
1115;931.39;10736.61;2005.16;954.0000;65535.0000;1202.0000;260.2778;0.0000;0.0000;0.0000E+00;
1116;931.53;10735.02;2006.76;952.0000;65535.0000;996.0000;56.2778;0.0000;0.0000;0.0000E+00;
1117;931.67;10733.42;2008.36;919.0000;65535.0000;890.0000;-16.7222;0.0000;0.0000;0.0000E+00;
1118;931.81;10731.82;2009.96;932.0000;65535.0000;943.0000;23.2778;0.0000;0.0000;0.0000E+00;
1119;931.95;10730.22;2011.55;941.0000;65535.0000;973.0000;44.2778;0.0000;0.0000;0.0000E+00;
1120;932.09;10728.62;2013.15;906.0000;65535.0000;956.0000;62.2778;0.0000;0.0000;0.0000E+00;
1121;932.22;10727.03;2014.75;899.0000;65535.0000;945.0000;58.2778;0.0000;0.0000;0.0000E+00;
1122;932.36;10725.43;2016.34;880.0000;65535.0000;955.0000;87.2778;0.0000;0.0000;0.0000E+00;
1123;932.50;10723.84;2017.94;845.0000;65535.0000;1317.0000;484.2778;0.0000;0.0000;0.0000E+00;
1124;932.64;10722.24;2019.53;922.0000;65535.0000;1623.0000;713.2778;0.0000;0.0000;0.0000E+00;
1125;932.78;10720.65;2021.12;848.0000;65535.0000;1158.0000;322.2778;0.0000;0.0000;0.0000E+00;
1126;932.92;10719.06;2022.72;892.0000;65535.0000;965.0000;85.2778;0.0000;0.0000;0.0000E+00;
1127;933.06;10717.47;2024.31;890.0000;65535.0000;923.0000;45.2778;0.0000;0.0000;0.0000E+00;
1128;933.20;10715.87;2025.90;963.0000;65535.0000;976.0000;25.2778;0.0000;0.0000;0.0000E+00;
1129;933.33;10714.28;2027.49;950.0000;65535.0000;941.0000;3.2778;0.0000;0.0000;0.0000E+00;
1130;933.47;10712.69;2029.08;895.0000;65535.0000;931.0000;48.2778;0.0000;0.0000;0.0000E+00;
1131;933.61;10711.10;2030.67;848.0000;65535.0000;937.0000;101.2778;0.0000;0.0000;0.0000E+00;
1132;933.75;10709.51;2032.26;955.0000;65535.0000;969.0000;26.2778;0.0000;0.0000;0.0000E+00;
1133;933.89;10707.92;2033.85;944.0000;65535.0000;811.0000;-120.7222;0.0000;0.0000;0.0000E+00;
1134;934.03;10706.34;2035.44;900.0000;65535.0000;986.0000;98.2778;0.0000;0.0000;0.0000E+00;
1135;934.16;10704.75;2037.03;870.0000;65535.0000;977.0000;119.2778;0.0000;0.0000;0.0000E+00;
1136;934.30;10703.16;2038.61;942.0000;65535.0000;881.0000;-48.7222;0.0000;0.0000;0.0000E+00;
1137;934.44;10701.58;2040.20;956.0000;65535.0000;1000.0000;56.2778;0.0000;0.0000;0.0000E+00;
1138;934.58;10699.99;2041.78;860.0000;65535.0000;960.0000;112.2778;0.0000;0.0000;0.0000E+00;
1139;934.72;10698.41;2043.37;888.0000;65535.0000;837.0000;-38.7222;0.0000;0.0000;0.0000E+00;
1140;934.86;10696.82;2044.95;880.0000;65535.0000;933.0000;65.2778;0.0000;0.0000;0.0000E+00;
1141;935.00;10695.24;2046.54;962.0000;65535.0000;938.0000;-11.7222;0.0000;0.0000;0.0000E+00;
1142;935.13;10693.65;2048.12;892.0000;65535.0000;921.0000;41.2778;0.0000;0.0000;0.0000E+00;
1143;935.27;10692.07;2049.70;874.0000;65535.0000;964.0000;102.2778;0.0000;0.0000;0.0000E+00;
1144;935.41;10690.49;2051.28;828.0000;65535.0000;951.0000;135.2778;0.0000;0.0000;0.0000E+00;
1145;935.55;10688.91;2052.87;922.0000;65535.0000;867.0000;-42.7222;0.0000;0.0000;0.0000E+00;
1146;935.69;10687.33;2054.45;918.0000;65535.0000;897.0000;-8.7222;0.0000;0.0000;0.0000E+00;
1147;935.83;10685.75;2056.03;941.0000;65535.0000;974.0000;45.2778;0.0000;0.0000;0.0000E+00;
1148;935.96;10684.17;2057.61;898.0000;65535.0000;868.0000;-17.7222;0.0000;0.0000;0.0000E+00;
1149;936.10;10682.59;2059.18;952.0000;65535.0000;912.0000;-27.7222;0.0000;0.0000;0.0000E+00;
1150;936.24;10681.01;2060.76;943.0000;65535.0000;874.0000;-56.7222;0.0000;0.0000;0.0000E+00;
1151;936.38;10679.44;2062.34;874.0000;65535.0000;909.0000;47.2778;0.0000;0.0000;0.0000E+00;
1152;936.52;10677.86;2063.92;938.0000;65535.0000;934.0000;8.2778;0.0000;0.0000;0.0000E+00;
1153;936.66;10676.28;2065.49;971.0000;65535.0000;883.0000;-75.7222;0.0000;0.0000;0.0000E+00;
1154;936.79;10674.71;2067.07;962.0000;65535.0000;926.0000;-23.7222;0.0000;0.0000;0.0000E+00;
1155;936.93;10673.13;2068.64;836.0000;65535.0000;1009.0000;185.2778;0.0000;0.0000;0.0000E+00;
1156;937.07;10671.56;2070.22;914.0000;65535.0000;872.0000;-29.7222;0.0000;0.0000;0.0000E+00;
1157;937.21;10669.98;2071.79;874.0000;65535.0000;1024.0000;162.2778;0.0000;0.0000;0.0000E+00;
1158;937.35;10668.41;2073.36;942.0000;65535.0000;1092.0000;162.2778;0.0000;0.0000;0.0000E+00;
1159;937.48;10666.84;2074.94;934.0000;65535.0000;984.0000;62.2778;0.0000;0.0000;0.0000E+00;
1160;937.62;10665.27;2076.51;932.0000;65535.0000;954.0000;34.2778;0.0000;0.0000;0.0000E+00;
1161;937.76;10663.70;2078.08;961.0000;65535.0000;893.0000;-55.7222;0.0000;0.0000;0.0000E+00;
1162;937.90;10662.13;2079.65;909.0000;65535.0000;1008.0000;111.2778;0.0000;0.0000;0.0000E+00;
1163;938.04;10660.56;2081.22;1034.0000;65535.0000;940.0000;-81.7222;0.0000;0.0000;0.0000E+00;
1164;938.18;10658.99;2082.79;902.0000;65535.0000;923.0000;33.2778;0.0000;0.0000;0.0000E+00;
1165;938.31;10657.42;2084.36;908.0000;65535.0000;812.0000;-83.7222;0.0000;0.0000;0.0000E+00;
1166;938.45;10655.85;2085.93;906.0000;65535.0000;866.0000;-27.7222;0.0000;0.0000;0.0000E+00;
1167;938.59;10654.28;2087.49;883.0000;65535.0000;923.0000;52.2778;0.0000;0.0000;0.0000E+00;
1168;938.73;10652.71;2089.06;958.0000;65535.0000;939.0000;-6.7222;0.0000;0.0000;0.0000E+00;
1169;938.87;10651.15;2090.63;915.0000;65535.0000;944.0000;41.2778;0.0000;0.0000;0.0000E+00;
1170;939.00;10649.58;2092.19;950.0000;65535.0000;883.0000;-54.7222;0.0000;0.0000;0.0000E+00;
1171;939.14;10648.02;2093.76;920.0000;65535.0000;976.0000;68.2778;0.0000;0.0000;0.0000E+00;
1172;939.28;10646.45;2095.32;882.0000;65535.0000;870.0000;0.2778;0.0000;0.0000;0.0000E+00;
1173;939.42;10644.89;2096.89;886.0000;65535.0000;916.0000;42.2778;0.0000;0.0000;0.0000E+00;
1174;939.56;10643.33;2098.45;890.0000;65535.0000;886.0000;8.2778;0.0000;0.0000;0.0000E+00;
1175;939.69;10641.76;2100.01;880.0000;65535.0000;867.0000;-0.7222;0.0000;0.0000;0.0000E+00;
1176;939.83;10640.20;2101.57;911.0000;65535.0000;984.0000;85.2778;0.0000;0.0000;0.0000E+00;
1177;939.97;10638.64;2103.14;880.0000;65535.0000;941.0000;73.2778;0.0000;0.0000;0.0000E+00;
1178;940.11;10637.08;2104.70;878.0000;65535.0000;882.0000;16.2778;0.0000;0.0000;0.0000E+00;
1179;940.25;10635.52;2106.26;939.0000;65535.0000;970.0000;43.2778;0.0000;0.0000;0.0000E+00;
1180;940.38;10633.96;2107.82;969.0000;65535.0000;945.0000;-11.7222;0.0000;0.0000;0.0000E+00;
1181;940.52;10632.40;2109.38;905.0000;65535.0000;870.0000;-22.7222;0.0000;0.0000;0.0000E+00;
1182;940.66;10630.84;2110.93;992.0000;65535.0000;924.0000;-55.7222;0.0000;0.0000;0.0000E+00;
1183;940.80;10629.28;2112.49;910.0000;65535.0000;864.0000;-33.7222;0.0000;0.0000;0.0000E+00;
1184;940.94;10627.73;2114.05;901.0000;65535.0000;922.0000;33.2778;0.0000;0.0000;0.0000E+00;
1185;941.07;10626.17;2115.61;884.0000;65535.0000;904.0000;32.2778;0.0000;0.0000;0.0000E+00;
1186;941.21;10624.61;2117.16;934.0000;65535.0000;947.0000;25.2778;0.0000;0.0000;0.0000E+00;
1187;941.35;10623.06;2118.72;969.0000;65535.0000;960.0000;3.2778;0.0000;0.0000;0.0000E+00;
1188;941.49;10621.50;2120.27;981.0000;65535.0000;925.0000;-43.7222;0.0000;0.0000;0.0000E+00;
1189;941.62;10619.95;2121.83;989.0000;65535.0000;1019.0000;42.2778;0.0000;0.0000;0.0000E+00;
1190;941.76;10618.40;2123.38;892.0000;65535.0000;978.0000;98.2778;0.0000;0.0000;0.0000E+00;
1191;941.90;10616.84;2124.93;908.0000;65535.0000;930.0000;34.2778;0.0000;0.0000;0.0000E+00;
1192;942.04;10615.29;2126.48;904.0000;65535.0000;944.0000;52.2778;0.0000;0.0000;0.0000E+00;
1193;942.17;10613.74;2128.04;889.0000;65535.0000;951.0000;74.2778;0.0000;0.0000;0.0000E+00;
1194;942.31;10612.19;2129.59;916.0000;65535.0000;1154.0000;250.2778;0.0000;0.0000;0.0000E+00;
1195;942.45;10610.64;2131.14;946.0000;65535.0000;1487.0000;553.2778;0.0000;0.0000;0.0000E+00;
1196;942.59;10609.09;2132.69;922.0000;65535.0000;1355.0000;445.2778;0.0000;0.0000;0.0000E+00;
1197;942.73;10607.54;2134.24;902.0000;65535.0000;915.0000;25.2778;0.0000;0.0000;0.0000E+00;
1198;942.86;10605.99;2135.78;854.0000;65535.0000;921.0000;79.2778;0.0000;0.0000;0.0000E+00;
1199;943.00;10604.44;2137.33;881.0000;65535.0000;899.0000;30.2778;0.0000;0.0000;0.0000E+00;
1200;943.14;10602.89;2138.88;909.0000;65535.0000;852.0000;-44.7222;0.0000;0.0000;0.0000E+00;
1201;943.28;10601.35;2140.43;884.0000;65535.0000;918.0000;46.2778;0.0000;0.0000;0.0000E+00;
1202;943.41;10599.80;2141.97;906.0000;65535.0000;947.0000;53.2778;0.0000;0.0000;0.0000E+00;
1203;943.55;10598.26;2143.52;872.0000;65535.0000;975.0000;115.2778;0.0000;0.0000;0.0000E+00;
1204;943.69;10596.71;2145.06;994.0000;65535.0000;942.0000;-39.7222;0.0000;0.0000;0.0000E+00;
1205;943.83;10595.17;2146.61;853.0000;65535.0000;901.0000;60.2778;0.0000;0.0000;0.0000E+00;
1206;943.96;10593.62;2148.15;961.0000;65535.0000;992.0000;43.2778;0.0000;0.0000;0.0000E+00;
1207;944.10;10592.08;2149.70;884.0000;65535.0000;920.0000;48.2778;0.0000;0.0000;0.0000E+00;
1208;944.24;10590.54;2151.24;984.0000;65535.0000;960.0000;-11.7222;0.0000;0.0000;0.0000E+00;
1209;944.38;10588.99;2152.78;836.0000;65535.0000;996.0000;172.2778;0.0000;0.0000;0.0000E+00;
1210;944.51;10587.45;2154.32;896.0000;65535.0000;943.0000;59.2778;0.0000;0.0000;0.0000E+00;
1211;944.65;10585.91;2155.86;906.0000;65535.0000;814.0000;-79.7222;0.0000;0.0000;0.0000E+00;
1212;944.79;10584.37;2157.40;928.0000;65535.0000;1026.0000;110.2778;0.0000;0.0000;0.0000E+00;
1213;944.93;10582.83;2158.94;1011.0000;65535.0000;933.0000;-65.7222;0.0000;0.0000;0.0000E+00;
1214;945.06;10581.29;2160.48;884.0000;65535.0000;889.0000;17.2778;0.0000;0.0000;0.0000E+00;
1215;945.20;10579.76;2162.02;923.0000;65535.0000;920.0000;9.2778;0.0000;0.0000;0.0000E+00;
1216;945.34;10578.22;2163.56;951.0000;65535.0000;895.0000;-43.7222;0.0000;0.0000;0.0000E+00;
1217;945.48;10576.68;2165.09;944.0000;65535.0000;874.0000;-57.7222;0.0000;0.0000;0.0000E+00;
1218;945.61;10575.14;2166.63;994.0000;65535.0000;906.0000;-75.7222;0.0000;0.0000;0.0000E+00;
1219;945.75;10573.61;2168.17;936.0000;65535.0000;1075.0000;151.2778;0.0000;0.0000;0.0000E+00;
1220;945.89;10572.07;2169.70;934.0000;65535.0000;1102.0000;180.2778;0.0000;0.0000;0.0000E+00;
1221;946.03;10570.54;2171.24;958.0000;65535.0000;1021.0000;75.2778;0.0000;0.0000;0.0000E+00;
1222;946.16;10569.00;2172.77;992.0000;65535.0000;884.0000;-95.7222;0.0000;0.0000;0.0000E+00;
1223;946.30;10567.47;2174.31;911.0000;65535.0000;930.0000;31.2778;0.0000;0.0000;0.0000E+00;
1224;946.44;10565.94;2175.84;924.0000;65535.0000;932.0000;20.2778;0.0000;0.0000;0.0000E+00;
1225;946.57;10564.40;2177.37;870.0000;65535.0000;935.0000;77.2778;0.0000;0.0000;0.0000E+00;
1226;946.71;10562.87;2178.90;883.0000;65535.0000;856.0000;-14.7222;0.0000;0.0000;0.0000E+00;
1227;946.85;10561.34;2180.43;953.0000;65535.0000;915.0000;-25.7222;0.0000;0.0000;0.0000E+00;
1228;946.99;10559.81;2181.96;946.0000;65535.0000;921.0000;-12.7222;0.0000;0.0000;0.0000E+00;
1229;947.12;10558.28;2183.49;884.0000;65535.0000;1023.0000;151.2778;0.0000;0.0000;0.0000E+00;
1230;947.26;10556.75;2185.02;1006.0000;65535.0000;958.0000;-35.7222;0.0000;0.0000;0.0000E+00;
1231;947.40;10555.22;2186.55;916.0000;65535.0000;893.0000;-10.7222;0.0000;0.0000;0.0000E+00;
1232;947.54;10553.69;2188.08;958.0000;65535.0000;931.0000;-14.7222;0.0000;0.0000;0.0000E+00;
1233;947.67;10552.17;2189.61;955.0000;65535.0000;957.0000;14.2778;0.0000;0.0000;0.0000E+00;
1234;947.81;10550.64;2191.14;906.0000;65535.0000;918.0000;24.2778;0.0000;0.0000;0.0000E+00;
1235;947.95;10549.11;2192.66;971.0000;65535.0000;1017.0000;58.2778;0.0000;0.0000;0.0000E+00;
1236;948.08;10547.59;2194.19;923.0000;65535.0000;995.0000;84.2778;0.0000;0.0000;0.0000E+00;
1237;948.22;10546.06;2195.71;940.0000;65535.0000;938.0000;10.2778;0.0000;0.0000;0.0000E+00;
1238;948.36;10544.54;2197.24;894.0000;65535.0000;897.0000;15.2778;0.0000;0.0000;0.0000E+00;
1239;948.50;10543.01;2198.76;939.0000;65535.0000;1069.0000;142.2778;0.0000;0.0000;0.0000E+00;
1240;948.63;10541.49;2200.29;830.0000;65535.0000;1219.0000;401.2778;0.0000;0.0000;0.0000E+00;
1241;948.77;10539.97;2201.81;934.0000;65535.0000;1072.0000;150.2778;0.0000;0.0000;0.0000E+00;
1242;948.91;10538.44;2203.33;838.0000;65535.0000;972.0000;146.2778;0.0000;0.0000;0.0000E+00;
1243;949.04;10536.92;2204.85;907.0000;65535.0000;1005.0000;110.2778;0.0000;0.0000;0.0000E+00;
1244;949.18;10535.40;2206.37;896.0000;65535.0000;894.0000;10.2778;0.0000;0.0000;0.0000E+00;
1245;949.32;10533.88;2207.89;1012.0000;65535.0000;880.0000;-119.7222;0.0000;0.0000;0.0000E+00;
1246;949.45;10532.36;2209.41;884.0000;65535.0000;979.0000;107.2778;0.0000;0.0000;0.0000E+00;
1247;949.59;10530.84;2210.93;938.0000;65535.0000;912.0000;-13.7222;0.0000;0.0000;0.0000E+00;
1248;949.73;10529.32;2212.45;912.0000;65535.0000;931.0000;31.2778;0.0000;0.0000;0.0000E+00;
1249;949.87;10527.81;2213.97;904.0000;65535.0000;982.0000;90.2778;0.0000;0.0000;0.0000E+00;
1250;950.00;10526.29;2215.49;888.0000;65535.0000;944.0000;68.2778;0.0000;0.0000;0.0000E+00;
1251;950.14;10524.77;2217.00;906.0000;65535.0000;900.0000;6.2778;0.0000;0.0000;0.0000E+00;
1252;950.28;10523.25;2218.52;932.0000;65535.0000;944.0000;24.2778;0.0000;0.0000;0.0000E+00;
1253;950.41;10521.74;2220.04;882.0000;65535.0000;865.0000;-4.7222;0.0000;0.0000;0.0000E+00;
1254;950.55;10520.22;2221.55;924.0000;65535.0000;936.0000;24.2778;0.0000;0.0000;0.0000E+00;
1255;950.69;10518.71;2223.07;949.0000;65535.0000;899.0000;-37.7222;0.0000;0.0000;0.0000E+00;
1256;950.82;10517.19;2224.58;882.0000;65535.0000;969.0000;99.2778;0.0000;0.0000;0.0000E+00;
1257;950.96;10515.68;2226.09;901.0000;65535.0000;942.0000;53.2778;0.0000;0.0000;0.0000E+00;
1258;951.10;10514.17;2227.61;940.0000;65535.0000;929.0000;1.2778;0.0000;0.0000;0.0000E+00;
1259;951.23;10512.66;2229.12;912.0000;65535.0000;985.0000;85.2778;0.0000;0.0000;0.0000E+00;
1260;951.37;10511.14;2230.63;939.0000;65535.0000;833.0000;-93.7222;0.0000;0.0000;0.0000E+00;
1261;951.51;10509.63;2232.14;942.0000;65535.0000;917.0000;-12.7222;0.0000;0.0000;0.0000E+00;
1262;951.64;10508.12;2233.65;953.0000;65535.0000;852.0000;-88.7222;0.0000;0.0000;0.0000E+00;
1263;951.78;10506.61;2235.16;920.0000;65535.0000;851.0000;-56.7222;0.0000;0.0000;0.0000E+00;
1264;951.92;10505.10;2236.67;980.0000;65535.0000;921.0000;-46.7222;0.0000;0.0000;0.0000E+00;
1265;952.06;10503.59;2238.18;934.0000;65535.0000;992.0000;70.2778;0.0000;0.0000;0.0000E+00;
1266;952.19;10502.09;2239.69;904.0000;65535.0000;951.0000;59.2778;0.0000;0.0000;0.0000E+00;
1267;952.33;10500.58;2241.20;1003.0000;65535.0000;961.0000;-29.7222;0.0000;0.0000;0.0000E+00;
1268;952.47;10499.07;2242.70;884.0000;65535.0000;969.0000;97.2778;0.0000;0.0000;0.0000E+00;
1269;952.60;10497.57;2244.21;870.0000;65535.0000;942.0000;84.2778;0.0000;0.0000;0.0000E+00;
1270;952.74;10496.06;2245.72;932.0000;65535.0000;908.0000;-11.7222;0.0000;0.0000;0.0000E+00;
1271;952.88;10494.55;2247.22;904.0000;65535.0000;950.0000;58.2778;0.0000;0.0000;0.0000E+00;
1272;953.01;10493.05;2248.73;926.0000;65535.0000;956.0000;42.2778;0.0000;0.0000;0.0000E+00;
1273;953.15;10491.55;2250.23;920.0000;65535.0000;978.0000;70.2778;0.0000;0.0000;0.0000E+00;
1274;953.28;10490.04;2251.73;1002.0000;65535.0000;1307.0000;317.2778;0.0000;0.0000;0.0000E+00;
1275;953.42;10488.54;2253.24;906.0000;65535.0000;1448.0000;554.2778;0.0000;0.0000;0.0000E+00;
1276;953.56;10487.04;2254.74;902.0000;65535.0000;1067.0000;177.2778;0.0000;0.0000;0.0000E+00;
1277;953.69;10485.54;2256.24;961.0000;65535.0000;1032.0000;83.2778;0.0000;0.0000;0.0000E+00;
1278;953.83;10484.03;2257.74;934.0000;65535.0000;993.0000;71.2778;0.0000;0.0000;0.0000E+00;
1279;953.97;10482.53;2259.24;939.0000;65535.0000;897.0000;-29.7222;0.0000;0.0000;0.0000E+00;
1280;954.10;10481.03;2260.74;944.0000;65535.0000;976.0000;44.2778;0.0000;0.0000;0.0000E+00;
1281;954.24;10479.53;2262.24;948.0000;65535.0000;867.0000;-68.7222;0.0000;0.0000;0.0000E+00;
1282;954.38;10478.04;2263.74;904.0000;65535.0000;1018.0000;126.2778;0.0000;0.0000;0.0000E+00;
1283;954.51;10476.54;2265.24;1008.0000;65535.0000;1043.0000;47.2778;0.0000;0.0000;0.0000E+00;
1284;954.65;10475.04;2266.74;915.0000;65535.0000;1184.0000;281.2778;0.0000;0.0000;0.0000E+00;
1285;954.79;10473.54;2268.23;944.0000;65535.0000;1062.0000;130.2778;0.0000;0.0000;0.0000E+00;
1286;954.92;10472.05;2269.73;890.0000;65535.0000;987.0000;109.2778;0.0000;0.0000;0.0000E+00;
1287;955.06;10470.55;2271.22;908.0000;65535.0000;961.0000;65.2778;0.0000;0.0000;0.0000E+00;
1288;955.20;10469.06;2272.72;960.0000;65535.0000;982.0000;34.2778;0.0000;0.0000;0.0000E+00;
1289;955.33;10467.56;2274.21;893.0000;65535.0000;949.0000;68.2778;0.0000;0.0000;0.0000E+00;
1290;955.47;10466.07;2275.71;908.0000;65535.0000;988.0000;92.2778;0.0000;0.0000;0.0000E+00;
1291;955.61;10464.57;2277.20;1012.0000;65535.0000;969.0000;-30.7222;0.0000;0.0000;0.0000E+00;
1292;955.74;10463.08;2278.70;972.0000;65535.0000;909.0000;-50.7222;0.0000;0.0000;0.0000E+00;
1293;955.88;10461.59;2280.19;989.0000;65535.0000;930.0000;-46.7222;0.0000;0.0000;0.0000E+00;
1294;956.01;10460.10;2281.68;984.0000;65535.0000;981.0000;9.2778;0.0000;0.0000;0.0000E+00;
1295;956.15;10458.60;2283.17;910.0000;65535.0000;938.0000;40.2778;0.0000;0.0000;0.0000E+00;
1296;956.29;10457.11;2284.66;884.0000;65535.0000;922.0000;50.2778;0.0000;0.0000;0.0000E+00;
1297;956.42;10455.62;2286.15;919.0000;65535.0000;953.0000;46.2778;0.0000;0.0000;0.0000E+00;
1298;956.56;10454.13;2287.64;914.0000;65535.0000;886.0000;-15.7222;0.0000;0.0000;0.0000E+00;
1299;956.70;10452.64;2289.13;822.0000;65535.0000;948.0000;138.2778;0.0000;0.0000;0.0000E+00;
1300;956.83;10451.16;2290.62;872.0000;65535.0000;947.0000;87.2778;0.0000;0.0000;0.0000E+00;
1301;956.97;10449.67;2292.11;940.0000;65535.0000;915.0000;-12.7222;0.0000;0.0000;0.0000E+00;
1302;957.10;10448.18;2293.59;984.0000;65535.0000;982.0000;10.2778;0.0000;0.0000;0.0000E+00;
1303;957.24;10446.69;2295.08;974.0000;65535.0000;953.0000;-8.7222;0.0000;0.0000;0.0000E+00;
1304;957.38;10445.21;2296.57;982.0000;65535.0000;943.0000;-26.7222;0.0000;0.0000;0.0000E+00;
1305;957.51;10443.72;2298.05;937.0000;65535.0000;986.0000;61.2778;0.0000;0.0000;0.0000E+00;
1306;957.65;10442.24;2299.54;904.0000;65535.0000;955.0000;63.2778;0.0000;0.0000;0.0000E+00;
1307;957.79;10440.75;2301.02;884.0000;65535.0000;944.0000;72.2778;0.0000;0.0000;0.0000E+00;
1308;957.92;10439.27;2302.50;940.0000;65535.0000;960.0000;32.2778;0.0000;0.0000;0.0000E+00;
1309;958.06;10437.79;2303.99;888.0000;65535.0000;968.0000;92.2778;0.0000;0.0000;0.0000E+00;
1310;958.19;10436.30;2305.47;935.0000;65535.0000;963.0000;40.2778;0.0000;0.0000;0.0000E+00;
1311;958.33;10434.82;2306.95;943.0000;65535.0000;881.0000;-49.7222;0.0000;0.0000;0.0000E+00;
1312;958.47;10433.34;2308.43;982.0000;65535.0000;972.0000;2.2778;0.0000;0.0000;0.0000E+00;
1313;958.60;10431.86;2309.91;1022.0000;65535.0000;925.0000;-84.7222;0.0000;0.0000;0.0000E+00;
1314;958.74;10430.38;2311.40;890.0000;65535.0000;913.0000;35.2778;0.0000;0.0000;0.0000E+00;
1315;958.87;10428.90;2312.88;932.0000;65535.0000;945.0000;25.2778;0.0000;0.0000;0.0000E+00;
1316;959.01;10427.42;2314.35;950.0000;65535.0000;979.0000;41.2778;0.0000;0.0000;0.0000E+00;
1317;959.15;10425.94;2315.83;959.0000;65535.0000;955.0000;8.2778;0.0000;0.0000;0.0000E+00;
1318;959.28;10424.46;2317.31;886.0000;65535.0000;908.0000;34.2778;0.0000;0.0000;0.0000E+00;
1319;959.42;10422.99;2318.79;930.0000;65535.0000;929.0000;11.2778;0.0000;0.0000;0.0000E+00;
1320;959.55;10421.51;2320.27;922.0000;65535.0000;962.0000;52.2778;0.0000;0.0000;0.0000E+00;
1321;959.69;10420.03;2321.74;885.0000;65535.0000;1024.0000;151.2778;0.0000;0.0000;0.0000E+00;
1322;959.83;10418.56;2323.22;940.0000;65535.0000;853.0000;-74.7222;0.0000;0.0000;0.0000E+00;
1323;959.96;10417.08;2324.69;936.0000;65535.0000;938.0000;14.2778;0.0000;0.0000;0.0000E+00;
1324;960.10;10415.61;2326.17;941.0000;65535.0000;911.0000;-17.7222;0.0000;0.0000;0.0000E+00;
1325;960.23;10414.13;2327.64;844.0000;65535.0000;938.0000;106.2778;0.0000;0.0000;0.0000E+00;
1326;960.37;10412.66;2329.11;974.0000;65535.0000;960.0000;-1.7222;0.0000;0.0000;0.0000E+00;
1327;960.51;10411.19;2330.59;971.0000;65535.0000;914.0000;-44.7222;0.0000;0.0000;0.0000E+00;
1328;960.64;10409.72;2332.06;972.0000;65535.0000;979.0000;19.2778;0.0000;0.0000;0.0000E+00;
1329;960.78;10408.24;2333.53;819.0000;65535.0000;913.0000;106.2778;0.0000;0.0000;0.0000E+00;
1330;960.91;10406.77;2335.00;898.0000;65535.0000;917.0000;31.2778;0.0000;0.0000;0.0000E+00;
1331;961.05;10405.30;2336.47;930.0000;65535.0000;905.0000;-12.7222;0.0000;0.0000;0.0000E+00;
1332;961.18;10403.83;2337.94;939.0000;65535.0000;982.0000;55.2778;0.0000;0.0000;0.0000E+00;
1333;961.32;10402.36;2339.41;916.0000;65535.0000;897.0000;-6.7222;0.0000;0.0000;0.0000E+00;
1334;961.46;10400.89;2340.88;886.0000;65535.0000;1009.0000;135.2778;0.0000;0.0000;0.0000E+00;
1335;961.59;10399.43;2342.35;913.0000;65535.0000;963.0000;62.2778;0.0000;0.0000;0.0000E+00;
1336;961.73;10397.96;2343.82;1000.0000;65535.0000;915.0000;-72.7222;0.0000;0.0000;0.0000E+00;
1337;961.86;10396.49;2345.28;898.0000;65535.0000;934.0000;48.2778;0.0000;0.0000;0.0000E+00;
1338;962.00;10395.02;2346.75;888.0000;65535.0000;957.0000;81.2778;0.0000;0.0000;0.0000E+00;
1339;962.13;10393.56;2348.22;936.0000;65535.0000;920.0000;-3.7222;0.0000;0.0000;0.0000E+00;
1340;962.27;10392.09;2349.68;985.0000;65535.0000;874.0000;-98.7222;0.0000;0.0000;0.0000E+00;
1341;962.41;10390.63;2351.15;902.0000;65535.0000;933.0000;43.2778;0.0000;0.0000;0.0000E+00;
1342;962.54;10389.16;2352.61;939.0000;65535.0000;955.0000;28.2778;0.0000;0.0000;0.0000E+00;
1343;962.68;10387.70;2354.08;927.0000;65535.0000;948.0000;33.2778;0.0000;0.0000;0.0000E+00;
1344;962.81;10386.24;2355.54;946.0000;65535.0000;827.0000;-106.7222;0.0000;0.0000;0.0000E+00;
1345;962.95;10384.77;2357.00;936.0000;65535.0000;969.0000;45.2778;0.0000;0.0000;0.0000E+00;
1346;963.08;10383.31;2358.46;966.0000;65535.0000;965.0000;11.2778;0.0000;0.0000;0.0000E+00;
1347;963.22;10381.85;2359.93;972.0000;65535.0000;889.0000;-70.7222;0.0000;0.0000;0.0000E+00;
1348;963.36;10380.39;2361.39;1002.0000;65535.0000;936.0000;-53.7222;0.0000;0.0000;0.0000E+00;
1349;963.49;10378.93;2362.85;897.0000;65535.0000;909.0000;24.2778;0.0000;0.0000;0.0000E+00;
1350;963.63;10377.47;2364.31;897.0000;65535.0000;820.0000;-64.7222;0.0000;0.0000;0.0000E+00;
1351;963.76;10376.01;2365.77;950.0000;65535.0000;928.0000;-9.7222;0.0000;0.0000;0.0000E+00;
1352;963.90;10374.55;2367.22;880.0000;65535.0000;909.0000;41.2778;0.0000;0.0000;0.0000E+00;
1353;964.03;10373.09;2368.68;962.0000;65535.0000;899.0000;-50.7222;0.0000;0.0000;0.0000E+00;
1354;964.17;10371.63;2370.14;941.0000;65535.0000;883.0000;-45.7222;0.0000;0.0000;0.0000E+00;
1355;964.30;10370.18;2371.60;848.0000;65535.0000;889.0000;53.2778;0.0000;0.0000;0.0000E+00;
1356;964.44;10368.72;2373.05;942.0000;65535.0000;942.0000;12.2778;0.0000;0.0000;0.0000E+00;
1357;964.57;10367.27;2374.51;966.0000;65535.0000;945.0000;-8.7222;0.0000;0.0000;0.0000E+00;
1358;964.71;10365.81;2375.97;950.0000;65535.0000;937.0000;-0.7222;0.0000;0.0000;0.0000E+00;
1359;964.85;10364.36;2377.42;880.0000;65535.0000;915.0000;47.2778;0.0000;0.0000;0.0000E+00;
1360;964.98;10362.90;2378.87;922.0000;65535.0000;932.0000;22.2778;0.0000;0.0000;0.0000E+00;
1361;965.12;10361.45;2380.33;888.0000;65535.0000;928.0000;52.2778;0.0000;0.0000;0.0000E+00;
1362;965.25;10359.99;2381.78;798.0000;65535.0000;909.0000;123.2778;0.0000;0.0000;0.0000E+00;
1363;965.39;10358.54;2383.23;900.0000;65535.0000;950.0000;62.2778;0.0000;0.0000;0.0000E+00;
1364;965.52;10357.09;2384.69;894.0000;65535.0000;949.0000;67.2778;0.0000;0.0000;0.0000E+00;
1365;965.66;10355.64;2386.14;888.0000;65535.0000;997.0000;121.2778;0.0000;0.0000;0.0000E+00;
1366;965.79;10354.19;2387.59;883.0000;65535.0000;1044.0000;173.2778;0.0000;0.0000;0.0000E+00;
1367;965.93;10352.74;2389.04;918.0000;65535.0000;950.0000;44.2778;0.0000;0.0000;0.0000E+00;
1368;966.06;10351.29;2390.49;940.0000;65535.0000;898.0000;-29.7222;0.0000;0.0000;0.0000E+00;
1369;966.20;10349.84;2391.94;850.0000;65535.0000;911.0000;73.2778;0.0000;0.0000;0.0000E+00;
1370;966.33;10348.39;2393.39;876.0000;65535.0000;938.0000;74.2778;0.0000;0.0000;0.0000E+00;
1371;966.47;10346.94;2394.83;934.0000;65535.0000;1263.0000;341.2778;0.0000;0.0000;0.0000E+00;
1372;966.60;10345.49;2396.28;931.0000;65535.0000;1156.0000;237.2778;0.0000;0.0000;0.0000E+00;
1373;966.74;10344.05;2397.73;850.0000;65535.0000;942.0000;104.2778;0.0000;0.0000;0.0000E+00;
1374;966.87;10342.60;2399.17;951.0000;65535.0000;1026.0000;87.2778;0.0000;0.0000;0.0000E+00;
1375;967.01;10341.16;2400.62;953.0000;65535.0000;880.0000;-60.7222;0.0000;0.0000;0.0000E+00;
1376;967.15;10339.71;2402.07;964.0000;65535.0000;842.0000;-109.7222;0.0000;0.0000;0.0000E+00;
1377;967.28;10338.27;2403.51;880.0000;65535.0000;963.0000;95.2778;0.0000;0.0000;0.0000E+00;
1378;967.42;10336.82;2404.95;960.0000;65535.0000;1017.0000;69.2778;0.0000;0.0000;0.0000E+00;
1379;967.55;10335.38;2406.40;911.0000;65535.0000;925.0000;26.2778;0.0000;0.0000;0.0000E+00;
1380;967.69;10333.93;2407.84;900.0000;65535.0000;948.0000;60.2778;0.0000;0.0000;0.0000E+00;
1381;967.82;10332.49;2409.28;961.0000;65535.0000;897.0000;-51.7222;0.0000;0.0000;0.0000E+00;
1382;967.96;10331.05;2410.73;955.0000;65535.0000;974.0000;31.2778;0.0000;0.0000;0.0000E+00;
1383;968.09;10329.61;2412.17;937.0000;65535.0000;841.0000;-83.7222;0.0000;0.0000;0.0000E+00;
1384;968.23;10328.17;2413.61;898.0000;65535.0000;942.0000;56.2778;0.0000;0.0000;0.0000E+00;
1385;968.36;10326.73;2415.05;978.0000;65535.0000;922.0000;-43.7222;0.0000;0.0000;0.0000E+00;
1386;968.50;10325.29;2416.49;934.0000;65535.0000;916.0000;-5.7222;0.0000;0.0000;0.0000E+00;
1387;968.63;10323.85;2417.93;974.0000;65535.0000;924.0000;-37.7222;0.0000;0.0000;0.0000E+00;
1388;968.77;10322.41;2419.36;947.0000;65535.0000;916.0000;-18.7222;0.0000;0.0000;0.0000E+00;
1389;968.90;10320.97;2420.80;867.0000;65535.0000;885.0000;30.2778;0.0000;0.0000;0.0000E+00;
1390;969.04;10319.53;2422.24;916.0000;65535.0000;978.0000;74.2778;0.0000;0.0000;0.0000E+00;
1391;969.17;10318.10;2423.68;894.0000;65535.0000;953.0000;71.2778;0.0000;0.0000;0.0000E+00;
1392;969.31;10316.66;2425.11;967.0000;65535.0000;890.0000;-64.7222;0.0000;0.0000;0.0000E+00;
1393;969.44;10315.23;2426.55;959.0000;65535.0000;908.0000;-38.7222;0.0000;0.0000;0.0000E+00;
1394;969.58;10313.79;2427.98;977.0000;65535.0000;940.0000;-24.7222;0.0000;0.0000;0.0000E+00;
1395;969.71;10312.36;2429.42;945.0000;65535.0000;963.0000;30.2778;0.0000;0.0000;0.0000E+00;
1396;969.85;10310.92;2430.85;960.0000;65535.0000;921.0000;-26.7222;0.0000;0.0000;0.0000E+00;
1397;969.98;10309.49;2432.29;1014.0000;65535.0000;908.0000;-93.7222;0.0000;0.0000;0.0000E+00;
1398;970.12;10308.06;2433.72;916.0000;65535.0000;892.0000;-11.7222;0.0000;0.0000;0.0000E+00;
1399;970.25;10306.62;2435.15;844.0000;65535.0000;864.0000;32.2778;0.0000;0.0000;0.0000E+00;
1400;970.38;10305.19;2436.58;1002.0000;65535.0000;892.0000;-97.7222;0.0000;0.0000;0.0000E+00;
1401;970.52;10303.76;2438.02;936.0000;65535.0000;949.0000;25.2778;0.0000;0.0000;0.0000E+00;
1402;970.65;10302.33;2439.45;972.0000;65535.0000;1046.0000;86.2778;0.0000;0.0000;0.0000E+00;
1403;970.79;10300.90;2440.88;902.0000;65535.0000;987.0000;97.2778;0.0000;0.0000;0.0000E+00;
1404;970.92;10299.47;2442.31;808.0000;65535.0000;902.0000;106.2778;0.0000;0.0000;0.0000E+00;
1405;971.06;10298.04;2443.74;918.0000;65535.0000;868.0000;-37.7222;0.0000;0.0000;0.0000E+00;
1406;971.19;10296.61;2445.16;905.0000;65535.0000;952.0000;59.2778;0.0000;0.0000;0.0000E+00;
1407;971.33;10295.18;2446.59;1016.0000;65535.0000;902.0000;-101.7222;0.0000;0.0000;0.0000E+00;
1408;971.46;10293.75;2448.02;940.0000;65535.0000;862.0000;-65.7222;0.0000;0.0000;0.0000E+00;
1409;971.60;10292.33;2449.45;934.0000;65535.0000;935.0000;13.2778;0.0000;0.0000;0.0000E+00;
1410;971.73;10290.90;2450.87;956.0000;65535.0000;918.0000;-25.7222;0.0000;0.0000;0.0000E+00;
1411;971.87;10289.48;2452.30;950.0000;65535.0000;913.0000;-24.7222;0.0000;0.0000;0.0000E+00;
1412;972.00;10288.05;2453.72;978.0000;65535.0000;862.0000;-103.7222;0.0000;0.0000;0.0000E+00;
1413;972.14;10286.63;2455.15;970.0000;65535.0000;939.0000;-18.7222;0.0000;0.0000;0.0000E+00;
1414;972.27;10285.20;2456.57;920.0000;65535.0000;974.0000;66.2778;0.0000;0.0000;0.0000E+00;
1415;972.41;10283.78;2458.00;942.0000;65535.0000;915.0000;-14.7222;0.0000;0.0000;0.0000E+00;
1416;972.54;10282.35;2459.42;931.0000;65535.0000;931.0000;12.2778;0.0000;0.0000;0.0000E+00;
1417;972.67;10280.93;2460.84;840.0000;65535.0000;1016.0000;188.2778;0.0000;0.0000;0.0000E+00;
1418;972.81;10279.51;2462.27;974.0000;65535.0000;843.0000;-118.7222;0.0000;0.0000;0.0000E+00;
1419;972.94;10278.09;2463.69;890.0000;65535.0000;929.0000;51.2778;0.0000;0.0000;0.0000E+00;
1420;973.08;10276.67;2465.11;904.0000;65535.0000;870.0000;-21.7222;0.0000;0.0000;0.0000E+00;
1421;973.21;10275.25;2466.53;903.0000;65535.0000;983.0000;92.2778;0.0000;0.0000;0.0000E+00;
1422;973.35;10273.83;2467.95;920.0000;65535.0000;952.0000;44.2778;0.0000;0.0000;0.0000E+00;
1423;973.48;10272.41;2469.37;957.0000;65535.0000;912.0000;-32.7222;0.0000;0.0000;0.0000E+00;
1424;973.62;10270.99;2470.79;990.0000;65535.0000;838.0000;-139.7222;0.0000;0.0000;0.0000E+00;
1425;973.75;10269.57;2472.20;958.0000;65535.0000;933.0000;-12.7222;0.0000;0.0000;0.0000E+00;
1426;973.88;10268.15;2473.62;946.0000;65535.0000;862.0000;-71.7222;0.0000;0.0000;0.0000E+00;
1427;974.02;10266.74;2475.04;973.0000;65535.0000;933.0000;-27.7222;0.0000;0.0000;0.0000E+00;
1428;974.15;10265.32;2476.46;901.0000;65535.0000;953.0000;64.2778;0.0000;0.0000;0.0000E+00;
1429;974.29;10263.90;2477.87;892.0000;65535.0000;976.0000;96.2778;0.0000;0.0000;0.0000E+00;
1430;974.42;10262.49;2479.29;890.0000;65535.0000;904.0000;26.2778;0.0000;0.0000;0.0000E+00;
1431;974.56;10261.07;2480.70;958.0000;65535.0000;957.0000;11.2778;0.0000;0.0000;0.0000E+00;
1432;974.69;10259.66;2482.12;927.0000;65535.0000;883.0000;-31.7222;0.0000;0.0000;0.0000E+00;
1433;974.83;10258.24;2483.53;949.0000;65535.0000;832.0000;-104.7222;0.0000;0.0000;0.0000E+00;
1434;974.96;10256.83;2484.94;884.0000;65535.0000;973.0000;101.2778;0.0000;0.0000;0.0000E+00;
1435;975.09;10255.42;2486.36;914.0000;65535.0000;922.0000;20.2778;0.0000;0.0000;0.0000E+00;
1436;975.23;10254.01;2487.77;943.0000;65535.0000;906.0000;-24.7222;0.0000;0.0000;0.0000E+00;
1437;975.36;10252.59;2489.18;876.0000;65535.0000;947.0000;83.2778;0.0000;0.0000;0.0000E+00;
1438;975.50;10251.18;2490.59;962.0000;65535.0000;909.0000;-40.7222;0.0000;0.0000;0.0000E+00;
1439;975.63;10249.77;2492.00;953.0000;65535.0000;967.0000;26.2778;0.0000;0.0000;0.0000E+00;
1440;975.77;10248.36;2493.41;944.0000;65535.0000;897.0000;-34.7222;0.0000;0.0000;0.0000E+00;
1441;975.90;10246.95;2494.82;956.0000;65535.0000;973.0000;29.2778;0.0000;0.0000;0.0000E+00;
1442;976.03;10245.54;2496.23;950.0000;65535.0000;985.0000;47.2778;0.0000;0.0000;0.0000E+00;
1443;976.17;10244.14;2497.64;944.0000;65535.0000;926.0000;-5.7222;0.0000;0.0000;0.0000E+00;
1444;976.30;10242.73;2499.05;936.0000;65535.0000;932.0000;8.2778;0.0000;0.0000;0.0000E+00;
1445;976.44;10241.32;2500.46;945.0000;65535.0000;967.0000;34.2778;0.0000;0.0000;0.0000E+00;
1446;976.57;10239.91;2501.86;926.0000;65535.0000;906.0000;-7.7222;0.0000;0.0000;0.0000E+00;
1447;976.70;10238.51;2503.27;962.0000;65535.0000;896.0000;-53.7222;0.0000;0.0000;0.0000E+00;
1448;976.84;10237.10;2504.67;938.0000;65535.0000;877.0000;-48.7222;0.0000;0.0000;0.0000E+00;
1449;976.97;10235.70;2506.08;972.0000;65535.0000;973.0000;13.2778;0.0000;0.0000;0.0000E+00;
1450;977.11;10234.29;2507.48;1090.0000;65535.0000;928.0000;-149.7222;0.0000;0.0000;0.0000E+00;
1451;977.24;10232.89;2508.89;904.0000;65535.0000;908.0000;16.2778;0.0000;0.0000;0.0000E+00;
1452;977.38;10231.48;2510.29;911.0000;65535.0000;850.0000;-48.7222;0.0000;0.0000;0.0000E+00;
1453;977.51;10230.08;2511.69;1006.0000;65535.0000;914.0000;-79.7222;0.0000;0.0000;0.0000E+00;
1454;977.64;10228.68;2513.10;972.0000;65535.0000;938.0000;-21.7222;0.0000;0.0000;0.0000E+00;
1455;977.78;10227.28;2514.50;932.0000;65535.0000;968.0000;48.2778;0.0000;0.0000;0.0000E+00;
1456;977.91;10225.87;2515.90;910.0000;65535.0000;918.0000;20.2778;0.0000;0.0000;0.0000E+00;
1457;978.05;10224.47;2517.30;882.0000;65535.0000;932.0000;62.2778;0.0000;0.0000;0.0000E+00;
1458;978.18;10223.07;2518.70;898.0000;65535.0000;945.0000;59.2778;0.0000;0.0000;0.0000E+00;
1459;978.31;10221.67;2520.10;895.0000;65535.0000;858.0000;-24.7222;0.0000;0.0000;0.0000E+00;
1460;978.45;10220.27;2521.50;866.0000;65535.0000;940.0000;86.2778;0.0000;0.0000;0.0000E+00;
1461;978.58;10218.88;2522.90;844.0000;65535.0000;911.0000;79.2778;0.0000;0.0000;0.0000E+00;
1462;978.72;10217.48;2524.30;902.0000;65535.0000;884.0000;-5.7222;0.0000;0.0000;0.0000E+00;
1463;978.85;10216.08;2525.70;962.0000;65535.0000;884.0000;-65.7222;0.0000;0.0000;0.0000E+00;
1464;978.98;10214.68;2527.09;940.0000;65535.0000;942.0000;14.2778;0.0000;0.0000;0.0000E+00;
1465;979.12;10213.29;2528.49;944.0000;65535.0000;911.0000;-20.7222;0.0000;0.0000;0.0000E+00;
1466;979.25;10211.89;2529.89;882.0000;65535.0000;907.0000;37.2778;0.0000;0.0000;0.0000E+00;
1467;979.38;10210.49;2531.28;914.0000;65535.0000;956.0000;54.2778;0.0000;0.0000;0.0000E+00;
1468;979.52;10209.10;2532.68;891.0000;65535.0000;941.0000;62.2778;0.0000;0.0000;0.0000E+00;
1469;979.65;10207.70;2534.07;1027.0000;65535.0000;913.0000;-101.7222;0.0000;0.0000;0.0000E+00;
1470;979.79;10206.31;2535.46;947.0000;65535.0000;870.0000;-64.7222;0.0000;0.0000;0.0000E+00;
1471;979.92;10204.92;2536.86;924.0000;65535.0000;982.0000;70.2778;0.0000;0.0000;0.0000E+00;
1472;980.05;10203.52;2538.25;930.0000;65535.0000;956.0000;38.2778;0.0000;0.0000;0.0000E+00;
1473;980.19;10202.13;2539.64;962.0000;65535.0000;988.0000;38.2778;0.0000;0.0000;0.0000E+00;
1474;980.32;10200.74;2541.03;980.0000;65535.0000;930.0000;-37.7222;0.0000;0.0000;0.0000E+00;
1475;980.45;10199.35;2542.43;864.0000;65535.0000;858.0000;6.2778;0.0000;0.0000;0.0000E+00;
1476;980.59;10197.96;2543.82;896.0000;65535.0000;915.0000;31.2778;0.0000;0.0000;0.0000E+00;
1477;980.72;10196.57;2545.21;942.0000;65535.0000;817.0000;-112.7222;0.0000;0.0000;0.0000E+00;
1478;980.86;10195.18;2546.60;925.0000;65535.0000;976.0000;63.2778;0.0000;0.0000;0.0000E+00;
1479;980.99;10193.79;2547.99;939.0000;65535.0000;1006.0000;79.2778;0.0000;0.0000;0.0000E+00;
1480;981.12;10192.40;2549.37;941.0000;65535.0000;992.0000;63.2778;0.0000;0.0000;0.0000E+00;
1481;981.26;10191.01;2550.76;880.0000;65535.0000;990.0000;122.2778;0.0000;0.0000;0.0000E+00;
1482;981.39;10189.63;2552.15;974.0000;65535.0000;890.0000;-71.7222;0.0000;0.0000;0.0000E+00;
1483;981.52;10188.24;2553.54;971.0000;65535.0000;949.0000;-9.7222;0.0000;0.0000;0.0000E+00;
1484;981.66;10186.85;2554.92;952.0000;65535.0000;966.0000;26.2778;0.0000;0.0000;0.0000E+00;
1485;981.79;10185.47;2556.31;947.0000;65535.0000;957.0000;22.2778;0.0000;0.0000;0.0000E+00;
1486;981.92;10184.08;2557.69;896.0000;65535.0000;883.0000;-0.7222;0.0000;0.0000;0.0000E+00;
1487;982.06;10182.70;2559.08;962.0000;65535.0000;971.0000;21.2778;0.0000;0.0000;0.0000E+00;
1488;982.19;10181.31;2560.46;910.0000;65535.0000;978.0000;80.2778;0.0000;0.0000;0.0000E+00;
1489;982.33;10179.93;2561.85;911.0000;65535.0000;976.0000;77.2778;0.0000;0.0000;0.0000E+00;
1490;982.46;10178.54;2563.23;954.0000;65535.0000;977.0000;35.2778;0.0000;0.0000;0.0000E+00;
1491;982.59;10177.16;2564.61;956.0000;65535.0000;878.0000;-65.7222;0.0000;0.0000;0.0000E+00;
1492;982.73;10175.78;2566.00;905.0000;65535.0000;918.0000;25.2778;0.0000;0.0000;0.0000E+00;
1493;982.86;10174.40;2567.38;937.0000;65535.0000;931.0000;6.2778;0.0000;0.0000;0.0000E+00;
1494;982.99;10173.02;2568.76;868.0000;65535.0000;916.0000;60.2778;0.0000;0.0000;0.0000E+00;
1495;983.13;10171.64;2570.14;917.0000;65535.0000;875.0000;-29.7222;0.0000;0.0000;0.0000E+00;
1496;983.26;10170.26;2571.52;903.0000;65535.0000;892.0000;1.2778;0.0000;0.0000;0.0000E+00;
1497;983.39;10168.88;2572.90;923.0000;65535.0000;1005.0000;94.2778;0.0000;0.0000;0.0000E+00;
1498;983.53;10167.50;2574.28;926.0000;65535.0000;960.0000;46.2778;0.0000;0.0000;0.0000E+00;
1499;983.66;10166.12;2575.66;960.0000;65535.0000;945.0000;-2.7222;0.0000;0.0000;0.0000E+00;
1500;983.79;10164.74;2577.03;872.0000;65535.0000;946.0000;86.2778;0.0000;0.0000;0.0000E+00;
1501;983.93;10163.36;2578.41;913.0000;65535.0000;965.0000;64.2778;0.0000;0.0000;0.0000E+00;
1502;984.06;10161.99;2579.79;866.0000;65535.0000;942.0000;88.2778;0.0000;0.0000;0.0000E+00;
1503;984.19;10160.61;2581.17;888.0000;65535.0000;921.0000;45.2778;0.0000;0.0000;0.0000E+00;
1504;984.33;10159.23;2582.54;858.0000;65535.0000;963.0000;117.2778;0.0000;0.0000;0.0000E+00;
1505;984.46;10157.86;2583.92;939.0000;65535.0000;948.0000;21.2778;0.0000;0.0000;0.0000E+00;
1506;984.59;10156.48;2585.29;868.0000;65535.0000;957.0000;101.2778;0.0000;0.0000;0.0000E+00;
1507;984.73;10155.11;2586.67;896.0000;65535.0000;900.0000;16.2778;0.0000;0.0000;0.0000E+00;
1508;984.86;10153.74;2588.04;916.0000;65535.0000;984.0000;80.2778;0.0000;0.0000;0.0000E+00;
1509;984.99;10152.36;2589.41;892.0000;65535.0000;903.0000;23.2778;0.0000;0.0000;0.0000E+00;
1510;985.13;10150.99;2590.79;820.0000;65535.0000;988.0000;180.2778;0.0000;0.0000;0.0000E+00;
1511;985.26;10149.62;2592.16;944.0000;65535.0000;861.0000;-70.7222;0.0000;0.0000;0.0000E+00;
1512;985.39;10148.25;2593.53;994.0000;65535.0000;856.0000;-125.7222;0.0000;0.0000;0.0000E+00;
1513;985.53;10146.87;2594.90;931.0000;65535.0000;868.0000;-50.7222;0.0000;0.0000;0.0000E+00;
1514;985.66;10145.50;2596.27;878.0000;65535.0000;946.0000;80.2778;0.0000;0.0000;0.0000E+00;
1515;985.79;10144.13;2597.64;971.0000;65535.0000;931.0000;-27.7222;0.0000;0.0000;0.0000E+00;
1516;985.92;10142.76;2599.01;914.0000;65535.0000;899.0000;-2.7222;0.0000;0.0000;0.0000E+00;
1517;986.06;10141.39;2600.38;846.0000;65535.0000;987.0000;153.2778;0.0000;0.0000;0.0000E+00;
1518;986.19;10140.03;2601.75;920.0000;65535.0000;940.0000;32.2778;0.0000;0.0000;0.0000E+00;
1519;986.32;10138.66;2603.12;905.0000;65535.0000;968.0000;75.2778;0.0000;0.0000;0.0000E+00;
1520;986.46;10137.29;2604.48;886.0000;65535.0000;946.0000;72.2778;0.0000;0.0000;0.0000E+00;
1521;986.59;10135.92;2605.85;918.0000;65535.0000;894.0000;-11.7222;0.0000;0.0000;0.0000E+00;
1522;986.72;10134.56;2607.22;930.0000;65535.0000;910.0000;-7.7222;0.0000;0.0000;0.0000E+00;
1523;986.86;10133.19;2608.58;848.0000;65535.0000;883.0000;47.2778;0.0000;0.0000;0.0000E+00;
1524;986.99;10131.83;2609.95;935.0000;65535.0000;869.0000;-53.7222;0.0000;0.0000;0.0000E+00;
1525;987.12;10130.46;2611.31;976.0000;65535.0000;912.0000;-51.7222;0.0000;0.0000;0.0000E+00;
1526;987.25;10129.10;2612.68;922.0000;65535.0000;920.0000;10.2778;0.0000;0.0000;0.0000E+00;
1527;987.39;10127.73;2614.04;1007.0000;65535.0000;937.0000;-57.7222;0.0000;0.0000;0.0000E+00;
1528;987.52;10126.37;2615.41;954.0000;65535.0000;946.0000;4.2778;0.0000;0.0000;0.0000E+00;
1529;987.65;10125.01;2616.77;933.0000;65535.0000;987.0000;66.2778;0.0000;0.0000;0.0000E+00;
1530;987.79;10123.64;2618.13;936.0000;65535.0000;981.0000;57.2778;0.0000;0.0000;0.0000E+00;
1531;987.92;10122.28;2619.49;918.0000;65535.0000;897.0000;-8.7222;0.0000;0.0000;0.0000E+00;
1532;988.05;10120.92;2620.85;848.0000;65535.0000;912.0000;76.2778;0.0000;0.0000;0.0000E+00;
1533;988.19;10119.56;2622.21;925.0000;65535.0000;950.0000;37.2778;0.0000;0.0000;0.0000E+00;
1534;988.32;10118.20;2623.57;968.0000;65535.0000;963.0000;7.2778;0.0000;0.0000;0.0000E+00;
1535;988.45;10116.84;2624.93;1002.0000;65535.0000;889.0000;-100.7222;0.0000;0.0000;0.0000E+00;
1536;988.58;10115.48;2626.29;910.0000;65535.0000;906.0000;8.2778;0.0000;0.0000;0.0000E+00;
1537;988.72;10114.12;2627.65;938.0000;65535.0000;949.0000;23.2778;0.0000;0.0000;0.0000E+00;
1538;988.85;10112.77;2629.01;954.0000;65535.0000;933.0000;-8.7222;0.0000;0.0000;0.0000E+00;
1539;988.98;10111.41;2630.37;925.0000;65535.0000;914.0000;1.2778;0.0000;0.0000;0.0000E+00;
1540;989.11;10110.05;2631.72;934.0000;65535.0000;886.0000;-35.7222;0.0000;0.0000;0.0000E+00;
1541;989.25;10108.69;2633.08;854.0000;65535.0000;968.0000;126.2778;0.0000;0.0000;0.0000E+00;
1542;989.38;10107.34;2634.44;904.0000;65535.0000;866.0000;-25.7222;0.0000;0.0000;0.0000E+00;
1543;989.51;10105.98;2635.79;894.0000;65535.0000;821.0000;-60.7222;0.0000;0.0000;0.0000E+00;
1544;989.65;10104.63;2637.15;897.0000;65535.0000;931.0000;46.2778;0.0000;0.0000;0.0000E+00;
1545;989.78;10103.27;2638.50;929.0000;65535.0000;894.0000;-22.7222;0.0000;0.0000;0.0000E+00;
1546;989.91;10101.92;2639.86;842.0000;65535.0000;961.0000;131.2778;0.0000;0.0000;0.0000E+00;
1547;990.04;10100.57;2641.21;933.0000;65535.0000;987.0000;66.2778;0.0000;0.0000;0.0000E+00;
1548;990.18;10099.21;2642.56;987.0000;65535.0000;867.0000;-107.7222;0.0000;0.0000;0.0000E+00;
1549;990.31;10097.86;2643.92;951.0000;65535.0000;902.0000;-36.7222;0.0000;0.0000;0.0000E+00;
1550;990.44;10096.51;2645.27;971.0000;65535.0000;818.0000;-140.7222;0.0000;0.0000;0.0000E+00;
1551;990.57;10095.16;2646.62;919.0000;65535.0000;913.0000;6.2778;0.0000;0.0000;0.0000E+00;
1552;990.71;10093.81;2647.97;864.0000;65535.0000;915.0000;63.2778;0.0000;0.0000;0.0000E+00;
1553;990.84;10092.46;2649.32;918.0000;65535.0000;898.0000;-7.7222;0.0000;0.0000;0.0000E+00;
1554;990.97;10091.11;2650.67;903.0000;65535.0000;923.0000;32.2778;0.0000;0.0000;0.0000E+00;
1555;991.10;10089.76;2652.02;909.0000;65535.0000;898.0000;1.2778;0.0000;0.0000;0.0000E+00;
1556;991.24;10088.41;2653.37;920.0000;65535.0000;896.0000;-11.7222;0.0000;0.0000;0.0000E+00;
1557;991.37;10087.06;2654.72;870.0000;65535.0000;1016.0000;158.2778;0.0000;0.0000;0.0000E+00;
1558;991.50;10085.71;2656.06;939.0000;65535.0000;904.0000;-22.7222;0.0000;0.0000;0.0000E+00;
1559;991.63;10084.36;2657.41;968.0000;65535.0000;918.0000;-37.7222;0.0000;0.0000;0.0000E+00;
1560;991.77;10083.02;2658.76;1000.0000;65535.0000;943.0000;-44.7222;0.0000;0.0000;0.0000E+00;
1561;991.90;10081.67;2660.10;999.0000;65535.0000;875.0000;-111.7222;0.0000;0.0000;0.0000E+00;
1562;992.03;10080.33;2661.45;886.0000;65535.0000;945.0000;71.2778;0.0000;0.0000;0.0000E+00;
1563;992.16;10078.98;2662.80;893.0000;65535.0000;955.0000;74.2778;0.0000;0.0000;0.0000E+00;
1564;992.30;10077.64;2664.14;912.0000;65535.0000;932.0000;32.2778;0.0000;0.0000;0.0000E+00;
1565;992.43;10076.29;2665.48;850.0000;65535.0000;865.0000;27.2778;0.0000;0.0000;0.0000E+00;
1566;992.56;10074.95;2666.83;944.0000;65535.0000;856.0000;-75.7222;0.0000;0.0000;0.0000E+00;
1567;992.69;10073.60;2668.17;922.0000;65535.0000;929.0000;19.2778;0.0000;0.0000;0.0000E+00;
1568;992.83;10072.26;2669.51;998.0000;65535.0000;918.0000;-67.7222;0.0000;0.0000;0.0000E+00;
1569;992.96;10070.92;2670.86;890.0000;65535.0000;905.0000;27.2778;0.0000;0.0000;0.0000E+00;
1570;993.09;10069.58;2672.20;864.0000;65535.0000;924.0000;72.2778;0.0000;0.0000;0.0000E+00;
1571;993.22;10068.24;2673.54;923.0000;65535.0000;877.0000;-33.7222;0.0000;0.0000;0.0000E+00;
1572;993.35;10066.90;2674.88;960.0000;65535.0000;957.0000;9.2778;0.0000;0.0000;0.0000E+00;
1573;993.49;10065.56;2676.22;996.0000;65535.0000;918.0000;-65.7222;0.0000;0.0000;0.0000E+00;
1574;993.62;10064.22;2677.56;912.0000;65535.0000;878.0000;-21.7222;0.0000;0.0000;0.0000E+00;
1575;993.75;10062.88;2678.90;971.0000;65535.0000;844.0000;-114.7222;0.0000;0.0000;0.0000E+00;
1576;993.88;10061.54;2680.24;936.0000;65535.0000;975.0000;51.2778;0.0000;0.0000;0.0000E+00;
1577;994.02;10060.20;2681.57;970.0000;65535.0000;915.0000;-42.7222;0.0000;0.0000;0.0000E+00;
1578;994.15;10058.86;2682.91;958.0000;65535.0000;902.0000;-43.7222;0.0000;0.0000;0.0000E+00;
1579;994.28;10057.53;2684.25;914.0000;65535.0000;900.0000;-1.7222;0.0000;0.0000;0.0000E+00;
1580;994.41;10056.19;2685.59;933.0000;65535.0000;864.0000;-56.7222;0.0000;0.0000;0.0000E+00;
1581;994.54;10054.85;2686.92;936.0000;65535.0000;924.0000;0.2778;0.0000;0.0000;0.0000E+00;
1582;994.68;10053.52;2688.26;962.0000;65535.0000;961.0000;11.2778;0.0000;0.0000;0.0000E+00;
1583;994.81;10052.18;2689.59;949.0000;65535.0000;914.0000;-22.7222;0.0000;0.0000;0.0000E+00;
1584;994.94;10050.85;2690.93;976.0000;65535.0000;934.0000;-29.7222;0.0000;0.0000;0.0000E+00;
1585;995.07;10049.51;2692.26;1001.0000;65535.0000;949.0000;-39.7222;0.0000;0.0000;0.0000E+00;
1586;995.20;10048.18;2693.59;906.0000;65535.0000;942.0000;48.2778;0.0000;0.0000;0.0000E+00;
1587;995.34;10046.85;2694.93;961.0000;65535.0000;911.0000;-37.7222;0.0000;0.0000;0.0000E+00;
1588;995.47;10045.52;2696.26;940.0000;65535.0000;897.0000;-30.7222;0.0000;0.0000;0.0000E+00;
1589;995.60;10044.18;2697.59;1017.0000;65535.0000;985.0000;-19.7222;0.0000;0.0000;0.0000E+00;
1590;995.73;10042.85;2698.92;912.0000;65535.0000;952.0000;52.2778;0.0000;0.0000;0.0000E+00;
1591;995.87;10041.52;2700.25;911.0000;65535.0000;905.0000;6.2778;0.0000;0.0000;0.0000E+00;
1592;996.00;10040.19;2701.58;927.0000;65535.0000;909.0000;-5.7222;0.0000;0.0000;0.0000E+00;
1593;996.13;10038.86;2702.91;959.0000;65535.0000;880.0000;-66.7222;0.0000;0.0000;0.0000E+00;
1594;996.26;10037.53;2704.24;916.0000;65535.0000;915.0000;11.2778;0.0000;0.0000;0.0000E+00;
1595;996.39;10036.20;2705.57;947.0000;65535.0000;887.0000;-47.7222;0.0000;0.0000;0.0000E+00;
1596;996.52;10034.87;2706.90;938.0000;65535.0000;917.0000;-8.7222;0.0000;0.0000;0.0000E+00;
1597;996.66;10033.55;2708.23;976.0000;65535.0000;1003.0000;39.2778;0.0000;0.0000;0.0000E+00;
1598;996.79;10032.22;2709.56;884.0000;65535.0000;919.0000;47.2778;0.0000;0.0000;0.0000E+00;
1599;996.92;10030.89;2710.88;949.0000;65535.0000;929.0000;-7.7222;0.0000;0.0000;0.0000E+00;
1600;997.05;10029.57;2712.21;884.0000;65535.0000;964.0000;92.2778;0.0000;0.0000;0.0000E+00;
1601;997.18;10028.24;2713.54;978.0000;65535.0000;969.0000;3.2778;0.0000;0.0000;0.0000E+00;
1602;997.32;10026.91;2714.86;1003.0000;65535.0000;924.0000;-66.7222;0.0000;0.0000;0.0000E+00;
1603;997.45;10025.59;2716.19;906.0000;65535.0000;907.0000;13.2778;0.0000;0.0000;0.0000E+00;
1604;997.58;10024.27;2717.51;858.0000;65535.0000;989.0000;143.2778;0.0000;0.0000;0.0000E+00;
1605;997.71;10022.94;2718.83;852.0000;65535.0000;971.0000;131.2778;0.0000;0.0000;0.0000E+00;
1606;997.84;10021.62;2720.16;902.0000;65535.0000;936.0000;46.2778;0.0000;0.0000;0.0000E+00;
1607;997.97;10020.30;2721.48;920.0000;65535.0000;897.0000;-10.7222;0.0000;0.0000;0.0000E+00;
1608;998.11;10018.97;2722.80;982.0000;65535.0000;975.0000;5.2778;0.0000;0.0000;0.0000E+00;
1609;998.24;10017.65;2724.12;913.0000;65535.0000;944.0000;43.2778;0.0000;0.0000;0.0000E+00;
1610;998.37;10016.33;2725.45;921.0000;65535.0000;894.0000;-14.7222;0.0000;0.0000;0.0000E+00;
1611;998.50;10015.01;2726.77;952.0000;65535.0000;990.0000;50.2778;0.0000;0.0000;0.0000E+00;
1612;998.63;10013.69;2728.09;941.0000;65535.0000;942.0000;13.2778;0.0000;0.0000;0.0000E+00;
1613;998.76;10012.37;2729.41;896.0000;65535.0000;923.0000;39.2778;0.0000;0.0000;0.0000E+00;
1614;998.90;10011.05;2730.73;951.0000;65535.0000;962.0000;23.2778;0.0000;0.0000;0.0000E+00;
1615;999.03;10009.73;2732.04;934.0000;65535.0000;923.0000;1.2778;0.0000;0.0000;0.0000E+00;
1616;999.16;10008.41;2733.36;991.0000;65535.0000;909.0000;-69.7222;0.0000;0.0000;0.0000E+00;
1617;999.29;10007.09;2734.68;1055.0000;65535.0000;887.0000;-155.7222;0.0000;0.0000;0.0000E+00;
1618;999.42;10005.78;2736.00;993.0000;65535.0000;961.0000;-19.7222;0.0000;0.0000;0.0000E+00;
1619;999.55;10004.46;2737.32;920.0000;65535.0000;926.0000;18.2778;0.0000;0.0000;0.0000E+00;
1620;999.69;10003.14;2738.63;868.0000;65535.0000;1005.0000;149.2778;0.0000;0.0000;0.0000E+00;
1621;999.82;10001.83;2739.95;934.0000;65535.0000;954.0000;32.2778;0.0000;0.0000;0.0000E+00;
1622;999.95;10000.51;2741.26;954.0000;65535.0000;905.0000;-36.7222;0.0000;0.0000;0.0000E+00;
1623;1000.08;9999.20;2742.58;898.0000;65535.0000;832.0000;-53.7222;0.0000;0.0000;0.0000E+00;
1624;1000.21;9997.88;2743.89;939.0000;65535.0000;995.0000;68.2778;0.0000;0.0000;0.0000E+00;
1625;1000.34;9996.57;2745.21;923.0000;65535.0000;933.0000;22.2778;0.0000;0.0000;0.0000E+00;
1626;1000.47;9995.26;2746.52;992.0000;65535.0000;866.0000;-113.7222;0.0000;0.0000;0.0000E+00;
1627;1000.61;9993.94;2747.83;939.0000;65535.0000;870.0000;-56.7222;0.0000;0.0000;0.0000E+00;
1628;1000.74;9992.63;2749.14;957.0000;65535.0000;780.0000;-164.7222;0.0000;0.0000;0.0000E+00;
1629;1000.87;9991.32;2750.46;891.0000;65535.0000;929.0000;50.2778;0.0000;0.0000;0.0000E+00;
1630;1001.00;9990.01;2751.77;927.0000;65535.0000;944.0000;29.2778;0.0000;0.0000;0.0000E+00;
1631;1001.13;9988.70;2753.08;834.0000;65535.0000;883.0000;61.2778;0.0000;0.0000;0.0000E+00;
1632;1001.26;9987.39;2754.39;964.0000;65535.0000;881.0000;-70.7222;0.0000;0.0000;0.0000E+00;
1633;1001.39;9986.08;2755.70;1017.0000;65535.0000;951.0000;-53.7222;0.0000;0.0000;0.0000E+00;
1634;1001.53;9984.77;2757.01;985.0000;65535.0000;929.0000;-43.7222;0.0000;0.0000;0.0000E+00;
1635;1001.66;9983.46;2758.32;984.0000;65535.0000;939.0000;-32.7222;0.0000;0.0000;0.0000E+00;
1636;1001.79;9982.15;2759.62;955.0000;65535.0000;944.0000;1.2778;0.0000;0.0000;0.0000E+00;
1637;1001.92;9980.84;2760.93;947.0000;65535.0000;947.0000;12.2778;0.0000;0.0000;0.0000E+00;
1638;1002.05;9979.54;2762.24;917.0000;65535.0000;976.0000;71.2778;0.0000;0.0000;0.0000E+00;
1639;1002.18;9978.23;2763.55;909.0000;65535.0000;876.0000;-20.7222;0.0000;0.0000;0.0000E+00;
1640;1002.31;9976.92;2764.85;929.0000;65535.0000;913.0000;-3.7222;0.0000;0.0000;0.0000E+00;
1641;1002.44;9975.62;2766.16;865.0000;65535.0000;922.0000;69.2778;0.0000;0.0000;0.0000E+00;
1642;1002.58;9974.31;2767.46;928.0000;65535.0000;963.0000;47.2778;0.0000;0.0000;0.0000E+00;
1643;1002.71;9973.01;2768.77;864.0000;65535.0000;906.0000;54.2778;0.0000;0.0000;0.0000E+00;
1644;1002.84;9971.70;2770.07;875.0000;65535.0000;946.0000;83.2778;0.0000;0.0000;0.0000E+00;
1645;1002.97;9970.40;2771.38;975.0000;65535.0000;908.0000;-54.7222;0.0000;0.0000;0.0000E+00;
1646;1003.10;9969.09;2772.68;957.0000;65535.0000;949.0000;4.2778;0.0000;0.0000;0.0000E+00;
1647;1003.23;9967.79;2773.98;903.0000;65535.0000;911.0000;20.2778;0.0000;0.0000;0.0000E+00;
1648;1003.36;9966.49;2775.29;926.0000;65535.0000;915.0000;1.2778;0.0000;0.0000;0.0000E+00;
1649;1003.49;9965.19;2776.59;1036.0000;65535.0000;924.0000;-99.7222;0.0000;0.0000;0.0000E+00;
1650;1003.62;9963.89;2777.89;883.0000;65535.0000;931.0000;60.2778;0.0000;0.0000;0.0000E+00;
1651;1003.76;9962.58;2779.19;928.0000;65535.0000;914.0000;-1.7222;0.0000;0.0000;0.0000E+00;
1652;1003.89;9961.28;2780.49;881.0000;65535.0000;895.0000;26.2778;0.0000;0.0000;0.0000E+00;
1653;1004.02;9959.98;2781.79;911.0000;65535.0000;947.0000;48.2778;0.0000;0.0000;0.0000E+00;
1654;1004.15;9958.68;2783.09;947.0000;65535.0000;985.0000;50.2778;0.0000;0.0000;0.0000E+00;
1655;1004.28;9957.39;2784.39;861.0000;65535.0000;896.0000;47.2778;0.0000;0.0000;0.0000E+00;
1656;1004.41;9956.09;2785.69;928.0000;65535.0000;882.0000;-33.7222;0.0000;0.0000;0.0000E+00;
1657;1004.54;9954.79;2786.99;911.0000;65535.0000;875.0000;-23.7222;0.0000;0.0000;0.0000E+00;
1658;1004.67;9953.49;2788.28;903.0000;65535.0000;865.0000;-25.7222;0.0000;0.0000;0.0000E+00;
1659;1004.80;9952.20;2789.58;923.0000;65535.0000;875.0000;-35.7222;0.0000;0.0000;0.0000E+00;
1660;1004.93;9950.90;2790.88;927.0000;65535.0000;1000.0000;85.2778;0.0000;0.0000;0.0000E+00;
1661;1005.07;9949.60;2792.17;914.0000;65535.0000;873.0000;-28.7222;0.0000;0.0000;0.0000E+00;
1662;1005.20;9948.31;2793.47;975.0000;65535.0000;932.0000;-30.7222;0.0000;0.0000;0.0000E+00;
1663;1005.33;9947.01;2794.76;991.0000;65535.0000;998.0000;19.2778;0.0000;0.0000;0.0000E+00;
1664;1005.46;9945.72;2796.06;978.0000;65535.0000;904.0000;-61.7222;0.0000;0.0000;0.0000E+00;
1665;1005.59;9944.42;2797.35;865.0000;65535.0000;931.0000;78.2778;0.0000;0.0000;0.0000E+00;
1666;1005.72;9943.13;2798.64;891.0000;65535.0000;840.0000;-38.7222;0.0000;0.0000;0.0000E+00;
1667;1005.85;9941.84;2799.94;973.0000;65535.0000;938.0000;-22.7222;0.0000;0.0000;0.0000E+00;
1668;1005.98;9940.54;2801.23;913.0000;65535.0000;890.0000;-10.7222;0.0000;0.0000;0.0000E+00;
1669;1006.11;9939.25;2802.52;903.0000;65535.0000;875.0000;-15.7222;0.0000;0.0000;0.0000E+00;
1670;1006.24;9937.96;2803.81;867.0000;65535.0000;1013.0000;158.2778;0.0000;0.0000;0.0000E+00;
1671;1006.37;9936.67;2805.11;973.0000;65535.0000;897.0000;-63.7222;0.0000;0.0000;0.0000E+00;
1672;1006.50;9935.38;2806.40;896.0000;65535.0000;968.0000;84.2778;0.0000;0.0000;0.0000E+00;
1673;1006.63;9934.09;2807.69;931.0000;65535.0000;962.0000;43.2778;0.0000;0.0000;0.0000E+00;
1674;1006.77;9932.80;2808.98;1005.0000;65535.0000;929.0000;-63.7222;0.0000;0.0000;0.0000E+00;
1675;1006.90;9931.51;2810.26;925.0000;65535.0000;919.0000;6.2778;0.0000;0.0000;0.0000E+00;
1676;1007.03;9930.22;2811.55;992.0000;65535.0000;940.0000;-39.7222;0.0000;0.0000;0.0000E+00;
1677;1007.16;9928.93;2812.84;1008.0000;65535.0000;1000.0000;4.2778;0.0000;0.0000;0.0000E+00;
1678;1007.29;9927.65;2814.13;882.0000;65535.0000;898.0000;28.2778;0.0000;0.0000;0.0000E+00;
1679;1007.42;9926.36;2815.42;882.0000;65535.0000;938.0000;68.2778;0.0000;0.0000;0.0000E+00;
1680;1007.55;9925.07;2816.70;877.0000;65535.0000;960.0000;95.2778;0.0000;0.0000;0.0000E+00;
1681;1007.68;9923.79;2817.99;946.0000;65535.0000;910.0000;-23.7222;0.0000;0.0000;0.0000E+00;
1682;1007.81;9922.50;2819.27;834.0000;65535.0000;1017.0000;195.2778;0.0000;0.0000;0.0000E+00;
1683;1007.94;9921.22;2820.56;954.0000;65535.0000;904.0000;-37.7222;0.0000;0.0000;0.0000E+00;
1684;1008.07;9919.93;2821.84;864.0000;65535.0000;834.0000;-17.7222;0.0000;0.0000;0.0000E+00;
1685;1008.20;9918.65;2823.13;928.0000;65535.0000;909.0000;-6.7222;0.0000;0.0000;0.0000E+00;
1686;1008.33;9917.36;2824.41;890.0000;65535.0000;968.0000;90.2778;0.0000;0.0000;0.0000E+00;
1687;1008.46;9916.08;2825.70;957.0000;65535.0000;908.0000;-36.7222;0.0000;0.0000;0.0000E+00;
1688;1008.59;9914.80;2826.98;960.0000;65535.0000;895.0000;-52.7222;0.0000;0.0000;0.0000E+00;
1689;1008.72;9913.51;2828.26;949.0000;65535.0000;995.0000;58.2778;0.0000;0.0000;0.0000E+00;
1690;1008.85;9912.23;2829.54;955.0000;65535.0000;895.0000;-47.7222;0.0000;0.0000;0.0000E+00;
1691;1008.98;9910.95;2830.82;996.0000;65535.0000;922.0000;-61.7222;0.0000;0.0000;0.0000E+00;
1692;1009.12;9909.67;2832.10;988.0000;65535.0000;947.0000;-28.7222;0.0000;0.0000;0.0000E+00;
1693;1009.25;9908.39;2833.39;924.0000;65535.0000;964.0000;52.2778;0.0000;0.0000;0.0000E+00;
1694;1009.38;9907.11;2834.67;990.0000;65535.0000;896.0000;-81.7222;0.0000;0.0000;0.0000E+00;
1695;1009.51;9905.83;2835.94;905.0000;65535.0000;994.0000;101.2778;0.0000;0.0000;0.0000E+00;
1696;1009.64;9904.55;2837.22;923.0000;65535.0000;976.0000;65.2778;0.0000;0.0000;0.0000E+00;
1697;1009.77;9903.27;2838.50;990.0000;65535.0000;956.0000;-21.7222;0.0000;0.0000;0.0000E+00;
1698;1009.90;9902.00;2839.78;946.0000;65535.0000;961.0000;27.2778;0.0000;0.0000;0.0000E+00;
1699;1010.03;9900.72;2841.06;850.0000;65535.0000;960.0000;122.2778;0.0000;0.0000;0.0000E+00;
1700;1010.16;9899.44;2842.33;868.0000;65535.0000;880.0000;24.2778;0.0000;0.0000;0.0000E+00;
1701;1010.29;9898.16;2843.61;918.0000;65535.0000;948.0000;42.2778;0.0000;0.0000;0.0000E+00;
1702;1010.42;9896.89;2844.89;868.0000;65535.0000;906.0000;50.2778;0.0000;0.0000;0.0000E+00;
1703;1010.55;9895.61;2846.16;900.0000;65535.0000;1002.0000;114.2778;0.0000;0.0000;0.0000E+00;
1704;1010.68;9894.34;2847.44;898.0000;65535.0000;844.0000;-41.7222;0.0000;0.0000;0.0000E+00;
1705;1010.81;9893.06;2848.71;855.0000;65535.0000;903.0000;60.2778;0.0000;0.0000;0.0000E+00;
1706;1010.94;9891.79;2849.99;917.0000;65535.0000;897.0000;-7.7222;0.0000;0.0000;0.0000E+00;
1707;1011.07;9890.52;2851.26;926.0000;65535.0000;965.0000;51.2778;0.0000;0.0000;0.0000E+00;
1708;1011.20;9889.24;2852.53;847.0000;65535.0000;925.0000;90.2778;0.0000;0.0000;0.0000E+00;
1709;1011.33;9887.97;2853.80;908.0000;65535.0000;863.0000;-32.7222;0.0000;0.0000;0.0000E+00;
1710;1011.46;9886.70;2855.08;846.0000;65535.0000;909.0000;75.2778;0.0000;0.0000;0.0000E+00;
1711;1011.59;9885.43;2856.35;963.0000;65535.0000;916.0000;-34.7222;0.0000;0.0000;0.0000E+00;
1712;1011.72;9884.16;2857.62;902.0000;65535.0000;923.0000;33.2778;0.0000;0.0000;0.0000E+00;
1713;1011.85;9882.88;2858.89;906.0000;65535.0000;959.0000;65.2778;0.0000;0.0000;0.0000E+00;
1714;1011.98;9881.61;2860.16;953.0000;65535.0000;896.0000;-44.7222;0.0000;0.0000;0.0000E+00;
1715;1012.11;9880.34;2861.43;932.0000;65535.0000;970.0000;50.2778;0.0000;0.0000;0.0000E+00;
1716;1012.24;9879.08;2862.70;943.0000;65535.0000;954.0000;23.2778;0.0000;0.0000;0.0000E+00;
1717;1012.37;9877.81;2863.97;942.0000;65535.0000;940.0000;10.2778;0.0000;0.0000;0.0000E+00;
1718;1012.50;9876.54;2865.24;872.0000;65535.0000;946.0000;86.2778;0.0000;0.0000;0.0000E+00;
1719;1012.63;9875.27;2866.50;1041.0000;65535.0000;950.0000;-78.7222;0.0000;0.0000;0.0000E+00;
1720;1012.76;9874.00;2867.77;916.0000;65535.0000;920.0000;16.2778;0.0000;0.0000;0.0000E+00;
1721;1012.89;9872.74;2869.04;879.0000;65535.0000;897.0000;30.2778;0.0000;0.0000;0.0000E+00;
1722;1013.02;9871.47;2870.30;940.0000;65535.0000;902.0000;-25.7222;0.0000;0.0000;0.0000E+00;
1723;1013.15;9870.20;2871.57;932.0000;65535.0000;895.0000;-24.7222;0.0000;0.0000;0.0000E+00;
1724;1013.28;9868.94;2872.84;961.0000;65535.0000;844.0000;-104.7222;0.0000;0.0000;0.0000E+00;
1725;1013.41;9867.67;2874.10;962.0000;65535.0000;878.0000;-71.7222;0.0000;0.0000;0.0000E+00;
1726;1013.54;9866.41;2875.37;956.0000;65535.0000;933.0000;-10.7222;0.0000;0.0000;0.0000E+00;
1727;1013.67;9865.15;2876.63;908.0000;65535.0000;903.0000;7.2778;0.0000;0.0000;0.0000E+00;
1728;1013.80;9863.88;2877.89;950.0000;65535.0000;878.0000;-59.7222;0.0000;0.0000;0.0000E+00;
1729;1013.93;9862.62;2879.16;935.0000;65535.0000;948.0000;25.2778;0.0000;0.0000;0.0000E+00;
1730;1014.06;9861.36;2880.42;930.0000;65535.0000;868.0000;-49.7222;0.0000;0.0000;0.0000E+00;
1731;1014.19;9860.09;2881.68;882.0000;65535.0000;879.0000;9.2778;0.0000;0.0000;0.0000E+00;
1732;1014.32;9858.83;2882.94;951.0000;65535.0000;921.0000;-17.7222;0.0000;0.0000;0.0000E+00;
1733;1014.45;9857.57;2884.20;944.0000;65535.0000;973.0000;41.2778;0.0000;0.0000;0.0000E+00;
1734;1014.58;9856.31;2885.46;860.0000;65535.0000;982.0000;134.2778;0.0000;0.0000;0.0000E+00;
1735;1014.71;9855.05;2886.72;876.0000;65535.0000;909.0000;45.2778;0.0000;0.0000;0.0000E+00;
1736;1014.84;9853.79;2887.98;1000.0000;65535.0000;930.0000;-57.7222;0.0000;0.0000;0.0000E+00;
1737;1014.97;9852.53;2889.24;922.0000;65535.0000;974.0000;64.2778;0.0000;0.0000;0.0000E+00;
1738;1015.10;9851.27;2890.50;884.0000;65535.0000;898.0000;26.2778;0.0000;0.0000;0.0000E+00;
1739;1015.23;9850.02;2891.76;938.0000;65535.0000;921.0000;-4.7222;0.0000;0.0000;0.0000E+00;
1740;1015.36;9848.76;2893.02;962.0000;65535.0000;814.0000;-135.7222;0.0000;0.0000;0.0000E+00;
1741;1015.49;9847.50;2894.27;984.0000;65535.0000;913.0000;-58.7222;0.0000;0.0000;0.0000E+00;
1742;1015.62;9846.24;2895.53;870.0000;65535.0000;981.0000;123.2778;0.0000;0.0000;0.0000E+00;
1743;1015.75;9844.99;2896.79;934.0000;65535.0000;983.0000;61.2778;0.0000;0.0000;0.0000E+00;
1744;1015.87;9843.73;2898.04;855.0000;65535.0000;1000.0000;157.2778;0.0000;0.0000;0.0000E+00;
1745;1016.00;9842.48;2899.30;942.0000;65535.0000;912.0000;-17.7222;0.0000;0.0000;0.0000E+00;
1746;1016.13;9841.22;2900.55;902.0000;65535.0000;950.0000;60.2778;0.0000;0.0000;0.0000E+00;
1747;1016.26;9839.97;2901.81;872.0000;65535.0000;948.0000;88.2778;0.0000;0.0000;0.0000E+00;
1748;1016.39;9838.71;2903.06;848.0000;65535.0000;964.0000;128.2778;0.0000;0.0000;0.0000E+00;
1749;1016.52;9837.46;2904.32;864.0000;65535.0000;894.0000;42.2778;0.0000;0.0000;0.0000E+00;
1750;1016.65;9836.21;2905.57;904.0000;65535.0000;872.0000;-19.7222;0.0000;0.0000;0.0000E+00;
1751;1016.78;9834.95;2906.82;908.0000;65535.0000;896.0000;0.2778;0.0000;0.0000;0.0000E+00;
1752;1016.91;9833.70;2908.07;1002.0000;65535.0000;953.0000;-36.7222;0.0000;0.0000;0.0000E+00;
1753;1017.04;9832.45;2909.33;909.0000;65535.0000;880.0000;-16.7222;0.0000;0.0000;0.0000E+00;
1754;1017.17;9831.20;2910.58;873.0000;65535.0000;831.0000;-29.7222;0.0000;0.0000;0.0000E+00;
1755;1017.30;9829.95;2911.83;940.0000;65535.0000;882.0000;-45.7222;0.0000;0.0000;0.0000E+00;
1756;1017.43;9828.70;2913.08;964.0000;65535.0000;888.0000;-63.7222;0.0000;0.0000;0.0000E+00;
1757;1017.56;9827.45;2914.33;882.0000;65535.0000;988.0000;118.2778;0.0000;0.0000;0.0000E+00;
1758;1017.69;9826.20;2915.58;964.0000;65535.0000;956.0000;4.2778;0.0000;0.0000;0.0000E+00;
1759;1017.82;9824.95;2916.82;916.0000;65535.0000;897.0000;-6.7222;0.0000;0.0000;0.0000E+00;
1760;1017.95;9823.70;2918.07;872.0000;65535.0000;855.0000;-4.7222;0.0000;0.0000;0.0000E+00;
1761;1018.08;9822.45;2919.32;932.0000;65535.0000;984.0000;64.2778;0.0000;0.0000;0.0000E+00;
1762;1018.20;9821.21;2920.57;955.0000;65535.0000;942.0000;-0.7222;0.0000;0.0000;0.0000E+00;
1763;1018.33;9819.96;2921.82;916.0000;65535.0000;945.0000;41.2778;0.0000;0.0000;0.0000E+00;
1764;1018.46;9818.71;2923.06;956.0000;65535.0000;844.0000;-99.7222;0.0000;0.0000;0.0000E+00;
1765;1018.59;9817.47;2924.31;903.0000;65535.0000;969.0000;78.2778;0.0000;0.0000;0.0000E+00;
1766;1018.72;9816.22;2925.55;925.0000;65535.0000;973.0000;60.2778;0.0000;0.0000;0.0000E+00;
1767;1018.85;9814.98;2926.80;892.0000;65535.0000;947.0000;67.2778;0.0000;0.0000;0.0000E+00;
1768;1018.98;9813.73;2928.04;984.0000;65535.0000;995.0000;23.2778;0.0000;0.0000;0.0000E+00;
1769;1019.11;9812.49;2929.29;885.0000;65535.0000;1030.0000;157.2778;0.0000;0.0000;0.0000E+00;
1770;1019.24;9811.25;2930.53;830.0000;65535.0000;946.0000;128.2778;0.0000;0.0000;0.0000E+00;
1771;1019.37;9810.00;2931.77;948.0000;65535.0000;904.0000;-31.7222;0.0000;0.0000;0.0000E+00;
1772;1019.50;9808.76;2933.02;957.0000;65535.0000;932.0000;-12.7222;0.0000;0.0000;0.0000E+00;
1773;1019.63;9807.52;2934.26;912.0000;65535.0000;926.0000;26.2778;0.0000;0.0000;0.0000E+00;
1774;1019.76;9806.28;2935.50;862.0000;65535.0000;881.0000;31.2778;0.0000;0.0000;0.0000E+00;
1775;1019.88;9805.03;2936.74;937.0000;65535.0000;892.0000;-32.7222;0.0000;0.0000;0.0000E+00;
1776;1020.01;9803.79;2937.98;988.0000;65535.0000;869.0000;-106.7222;0.0000;0.0000;0.0000E+00;
1777;1020.14;9802.55;2939.22;932.0000;65535.0000;950.0000;30.2778;0.0000;0.0000;0.0000E+00;
1778;1020.27;9801.31;2940.46;908.0000;65535.0000;874.0000;-21.7222;0.0000;0.0000;0.0000E+00;
1779;1020.40;9800.07;2941.70;888.0000;65535.0000;953.0000;77.2778;0.0000;0.0000;0.0000E+00;
1780;1020.53;9798.84;2942.94;924.0000;65535.0000;977.0000;65.2778;0.0000;0.0000;0.0000E+00;
1781;1020.66;9797.60;2944.18;977.0000;65535.0000;902.0000;-62.7222;0.0000;0.0000;0.0000E+00;
1782;1020.79;9796.36;2945.42;888.0000;65535.0000;953.0000;77.2778;0.0000;0.0000;0.0000E+00;
1783;1020.92;9795.12;2946.65;892.0000;65535.0000;944.0000;64.2778;0.0000;0.0000;0.0000E+00;
1784;1021.05;9793.88;2947.89;884.0000;65535.0000;976.0000;104.2778;0.0000;0.0000;0.0000E+00;
1785;1021.17;9792.65;2949.13;986.0000;65535.0000;910.0000;-63.7222;0.0000;0.0000;0.0000E+00;
1786;1021.30;9791.41;2950.36;919.0000;65535.0000;928.0000;21.2778;0.0000;0.0000;0.0000E+00;
1787;1021.43;9790.18;2951.60;954.0000;65535.0000;909.0000;-32.7222;0.0000;0.0000;0.0000E+00;
1788;1021.56;9788.94;2952.83;1017.0000;65535.0000;989.0000;-15.7222;0.0000;0.0000;0.0000E+00;
1789;1021.69;9787.71;2954.07;956.0000;65535.0000;928.0000;-15.7222;0.0000;0.0000;0.0000E+00;
1790;1021.82;9786.47;2955.30;969.0000;65535.0000;930.0000;-26.7222;0.0000;0.0000;0.0000E+00;
1791;1021.95;9785.24;2956.54;982.0000;65535.0000;896.0000;-73.7222;0.0000;0.0000;0.0000E+00;
1792;1022.08;9784.01;2957.77;951.0000;65535.0000;936.0000;-2.7222;0.0000;0.0000;0.0000E+00;
1793;1022.21;9782.77;2959.00;942.0000;65535.0000;890.0000;-39.7222;0.0000;0.0000;0.0000E+00;
1794;1022.33;9781.54;2960.24;930.0000;65535.0000;866.0000;-51.7222;0.0000;0.0000;0.0000E+00;
1795;1022.46;9780.31;2961.47;934.0000;65535.0000;923.0000;1.2778;0.0000;0.0000;0.0000E+00;
1796;1022.59;9779.08;2962.70;973.0000;65535.0000;936.0000;-24.7222;0.0000;0.0000;0.0000E+00;
1797;1022.72;9777.85;2963.93;948.0000;65535.0000;888.0000;-47.7222;0.0000;0.0000;0.0000E+00;
1798;1022.85;9776.62;2965.16;1006.0000;65535.0000;894.0000;-99.7222;0.0000;0.0000;0.0000E+00;
1799;1022.98;9775.39;2966.39;857.0000;65535.0000;934.0000;89.2778;0.0000;0.0000;0.0000E+00;
1800;1023.11;9774.16;2967.62;908.0000;65535.0000;820.0000;-75.7222;0.0000;0.0000;0.0000E+00;
1801;1023.23;9772.93;2968.85;955.0000;65535.0000;830.0000;-112.7222;0.0000;0.0000;0.0000E+00;
1802;1023.36;9771.70;2970.08;874.0000;65535.0000;886.0000;24.2778;0.0000;0.0000;0.0000E+00;
1803;1023.49;9770.47;2971.31;925.0000;65535.0000;878.0000;-34.7222;0.0000;0.0000;0.0000E+00;
1804;1023.62;9769.24;2972.53;1016.0000;65535.0000;961.0000;-42.7222;0.0000;0.0000;0.0000E+00;
1805;1023.75;9768.01;2973.76;890.0000;65535.0000;944.0000;66.2778;0.0000;0.0000;0.0000E+00;
1806;1023.88;9766.79;2974.99;946.0000;65535.0000;894.0000;-39.7222;0.0000;0.0000;0.0000E+00;
1807;1024.01;9765.56;2976.21;844.0000;65535.0000;950.0000;118.2778;0.0000;0.0000;0.0000E+00;
1808;1024.14;9764.34;2977.44;943.0000;65535.0000;943.0000;12.2778;0.0000;0.0000;0.0000E+00;
1809;1024.26;9763.11;2978.66;906.0000;65535.0000;982.0000;88.2778;0.0000;0.0000;0.0000E+00;
1810;1024.39;9761.89;2979.89;872.0000;65535.0000;976.0000;116.2778;0.0000;0.0000;0.0000E+00;
1811;1024.52;9760.66;2981.11;920.0000;65535.0000;925.0000;17.2778;0.0000;0.0000;0.0000E+00;
1812;1024.65;9759.44;2982.34;906.0000;65535.0000;859.0000;-34.7222;0.0000;0.0000;0.0000E+00;
1813;1024.78;9758.21;2983.56;1018.0000;65535.0000;870.0000;-135.7222;0.0000;0.0000;0.0000E+00;
1814;1024.91;9756.99;2984.78;934.0000;65535.0000;900.0000;-21.7222;0.0000;0.0000;0.0000E+00;
1815;1025.03;9755.77;2986.01;912.0000;65535.0000;1003.0000;103.2778;0.0000;0.0000;0.0000E+00;
1816;1025.16;9754.55;2987.23;848.0000;65535.0000;983.0000;147.2778;0.0000;0.0000;0.0000E+00;
1817;1025.29;9753.32;2988.45;918.0000;65535.0000;894.0000;-11.7222;0.0000;0.0000;0.0000E+00;
1818;1025.42;9752.10;2989.67;824.0000;65535.0000;915.0000;103.2778;0.0000;0.0000;0.0000E+00;
1819;1025.55;9750.88;2990.89;950.0000;65535.0000;958.0000;20.2778;0.0000;0.0000;0.0000E+00;
1820;1025.68;9749.66;2992.11;872.0000;65535.0000;897.0000;37.2778;0.0000;0.0000;0.0000E+00;
1821;1025.80;9748.44;2993.33;938.0000;65535.0000;907.0000;-18.7222;0.0000;0.0000;0.0000E+00;
1822;1025.93;9747.22;2994.55;911.0000;65535.0000;970.0000;71.2778;0.0000;0.0000;0.0000E+00;
1823;1026.06;9746.00;2995.77;949.0000;65535.0000;901.0000;-35.7222;0.0000;0.0000;0.0000E+00;
1824;1026.19;9744.78;2996.99;932.0000;65535.0000;970.0000;50.2778;0.0000;0.0000;0.0000E+00;
1825;1026.32;9743.57;2998.21;925.0000;65535.0000;926.0000;13.2778;0.0000;0.0000;0.0000E+00;
1826;1026.45;9742.35;2999.43;912.0000;65535.0000;944.0000;44.2778;0.0000;0.0000;0.0000E+00;
1827;1026.57;9741.13;3000.64;982.0000;65535.0000;902.0000;-67.7222;0.0000;0.0000;0.0000E+00;
1828;1026.70;9739.92;3001.86;888.0000;65535.0000;896.0000;20.2778;0.0000;0.0000;0.0000E+00;
1829;1026.83;9738.70;3003.08;884.0000;65535.0000;917.0000;45.2778;0.0000;0.0000;0.0000E+00;
1830;1026.96;9737.48;3004.29;902.0000;65535.0000;982.0000;92.2778;0.0000;0.0000;0.0000E+00;
1831;1027.09;9736.27;3005.51;940.0000;65535.0000;916.0000;-11.7222;0.0000;0.0000;0.0000E+00;
1832;1027.22;9735.05;3006.72;1004.0000;65535.0000;931.0000;-60.7222;0.0000;0.0000;0.0000E+00;
1833;1027.34;9733.84;3007.94;868.0000;65535.0000;929.0000;73.2778;0.0000;0.0000;0.0000E+00;
1834;1027.47;9732.63;3009.15;962.0000;65535.0000;956.0000;6.2778;0.0000;0.0000;0.0000E+00;
1835;1027.60;9731.41;3010.36;998.0000;65535.0000;947.0000;-38.7222;0.0000;0.0000;0.0000E+00;
1836;1027.73;9730.20;3011.58;972.0000;65535.0000;947.0000;-12.7222;0.0000;0.0000;0.0000E+00;
1837;1027.86;9728.99;3012.79;938.0000;65535.0000;904.0000;-21.7222;0.0000;0.0000;0.0000E+00;
1838;1027.98;9727.77;3014.00;953.0000;65535.0000;944.0000;3.2778;0.0000;0.0000;0.0000E+00;
1839;1028.11;9726.56;3015.21;919.0000;65535.0000;922.0000;15.2778;0.0000;0.0000;0.0000E+00;
1840;1028.24;9725.35;3016.42;993.0000;65535.0000;894.0000;-86.7222;0.0000;0.0000;0.0000E+00;
1841;1028.37;9724.14;3017.63;946.0000;65535.0000;904.0000;-29.7222;0.0000;0.0000;0.0000E+00;
1842;1028.50;9722.93;3018.84;923.0000;65535.0000;962.0000;51.2778;0.0000;0.0000;0.0000E+00;
1843;1028.62;9721.72;3020.05;927.0000;65535.0000;940.0000;25.2778;0.0000;0.0000;0.0000E+00;
1844;1028.75;9720.51;3021.26;939.0000;65535.0000;923.0000;-3.7222;0.0000;0.0000;0.0000E+00;
1845;1028.88;9719.30;3022.47;916.0000;65535.0000;976.0000;72.2778;0.0000;0.0000;0.0000E+00;
1846;1029.01;9718.09;3023.68;952.0000;65535.0000;964.0000;24.2778;0.0000;0.0000;0.0000E+00;
1847;1029.14;9716.89;3024.89;890.0000;65535.0000;913.0000;35.2778;0.0000;0.0000;0.0000E+00;
1848;1029.26;9715.68;3026.10;878.0000;65535.0000;864.0000;-1.7222;0.0000;0.0000;0.0000E+00;
1849;1029.39;9714.47;3027.30;876.0000;65535.0000;890.0000;26.2778;0.0000;0.0000;0.0000E+00;
1850;1029.52;9713.27;3028.51;898.0000;65535.0000;812.0000;-73.7222;0.0000;0.0000;0.0000E+00;
1851;1029.65;9712.06;3029.72;892.0000;65535.0000;866.0000;-13.7222;0.0000;0.0000;0.0000E+00;
1852;1029.78;9710.85;3030.92;848.0000;65535.0000;890.0000;54.2778;0.0000;0.0000;0.0000E+00;
1853;1029.90;9709.65;3032.13;1003.0000;65535.0000;1006.0000;15.2778;0.0000;0.0000;0.0000E+00;
1854;1030.03;9708.44;3033.33;937.0000;65535.0000;966.0000;41.2778;0.0000;0.0000;0.0000E+00;
1855;1030.16;9707.24;3034.54;912.0000;65535.0000;980.0000;80.2778;0.0000;0.0000;0.0000E+00;
1856;1030.29;9706.03;3035.74;922.0000;65535.0000;964.0000;54.2778;0.0000;0.0000;0.0000E+00;
1857;1030.41;9704.83;3036.94;954.0000;65535.0000;966.0000;24.2778;0.0000;0.0000;0.0000E+00;
1858;1030.54;9703.63;3038.15;916.0000;65535.0000;926.0000;22.2778;0.0000;0.0000;0.0000E+00;
1859;1030.67;9702.43;3039.35;1016.0000;65535.0000;787.0000;-216.7222;0.0000;0.0000;0.0000E+00;
1860;1030.80;9701.22;3040.55;967.0000;65535.0000;899.0000;-55.7222;0.0000;0.0000;0.0000E+00;
1861;1030.93;9700.02;3041.75;940.0000;65535.0000;973.0000;45.2778;0.0000;0.0000;0.0000E+00;
1862;1031.05;9698.82;3042.95;928.0000;65535.0000;953.0000;37.2778;0.0000;0.0000;0.0000E+00;
1863;1031.18;9697.62;3044.15;910.0000;65535.0000;929.0000;31.2778;0.0000;0.0000;0.0000E+00;
1864;1031.31;9696.42;3045.35;914.0000;65535.0000;918.0000;16.2778;0.0000;0.0000;0.0000E+00;
1865;1031.44;9695.22;3046.55;935.0000;65535.0000;938.0000;15.2778;0.0000;0.0000;0.0000E+00;
1866;1031.56;9694.02;3047.75;908.0000;65535.0000;902.0000;6.2778;0.0000;0.0000;0.0000E+00;
1867;1031.69;9692.82;3048.95;942.0000;65535.0000;878.0000;-51.7222;0.0000;0.0000;0.0000E+00;
1868;1031.82;9691.62;3050.15;942.0000;65535.0000;877.0000;-52.7222;0.0000;0.0000;0.0000E+00;
1869;1031.95;9690.43;3051.35;960.0000;65535.0000;960.0000;12.2778;0.0000;0.0000;0.0000E+00;
1870;1032.07;9689.23;3052.55;908.0000;65535.0000;942.0000;46.2778;0.0000;0.0000;0.0000E+00;
1871;1032.20;9688.03;3053.74;1032.0000;65535.0000;981.0000;-38.7222;0.0000;0.0000;0.0000E+00;
1872;1032.33;9686.83;3054.94;830.0000;65535.0000;910.0000;92.2778;0.0000;0.0000;0.0000E+00;
1873;1032.46;9685.64;3056.14;890.0000;65535.0000;982.0000;104.2778;0.0000;0.0000;0.0000E+00;
1874;1032.58;9684.44;3057.33;936.0000;65535.0000;910.0000;-13.7222;0.0000;0.0000;0.0000E+00;
1875;1032.71;9683.25;3058.53;902.0000;65535.0000;930.0000;40.2778;0.0000;0.0000;0.0000E+00;
1876;1032.84;9682.05;3059.72;932.0000;65535.0000;939.0000;19.2778;0.0000;0.0000;0.0000E+00;
1877;1032.97;9680.86;3060.92;987.0000;65535.0000;902.0000;-72.7222;0.0000;0.0000;0.0000E+00;
1878;1033.09;9679.66;3062.11;862.0000;65535.0000;966.0000;116.2778;0.0000;0.0000;0.0000E+00;
1879;1033.22;9678.47;3063.30;906.0000;65535.0000;912.0000;18.2778;0.0000;0.0000;0.0000E+00;
1880;1033.35;9677.28;3064.50;874.0000;65535.0000;887.0000;25.2778;0.0000;0.0000;0.0000E+00;
1881;1033.48;9676.08;3065.69;944.0000;65535.0000;850.0000;-81.7222;0.0000;0.0000;0.0000E+00;
1882;1033.60;9674.89;3066.88;968.0000;65535.0000;920.0000;-35.7222;0.0000;0.0000;0.0000E+00;
1883;1033.73;9673.70;3068.07;954.0000;65535.0000;928.0000;-13.7222;0.0000;0.0000;0.0000E+00;
1884;1033.86;9672.51;3069.27;990.0000;65535.0000;962.0000;-15.7222;0.0000;0.0000;0.0000E+00;
1885;1033.99;9671.32;3070.46;944.0000;65535.0000;909.0000;-22.7222;0.0000;0.0000;0.0000E+00;
1886;1034.11;9670.13;3071.65;936.0000;65535.0000;896.0000;-27.7222;0.0000;0.0000;0.0000E+00;
1887;1034.24;9668.94;3072.84;964.0000;65535.0000;938.0000;-13.7222;0.0000;0.0000;0.0000E+00;
1888;1034.37;9667.75;3074.03;876.0000;65535.0000;899.0000;35.2778;0.0000;0.0000;0.0000E+00;
1889;1034.49;9666.56;3075.21;938.0000;65535.0000;962.0000;36.2778;0.0000;0.0000;0.0000E+00;
1890;1034.62;9665.37;3076.40;900.0000;65535.0000;952.0000;64.2778;0.0000;0.0000;0.0000E+00;
1891;1034.75;9664.18;3077.59;1000.0000;65535.0000;909.0000;-78.7222;0.0000;0.0000;0.0000E+00;
1892;1034.88;9663.00;3078.78;864.0000;65535.0000;986.0000;134.2778;0.0000;0.0000;0.0000E+00;
1893;1035.00;9661.81;3079.97;953.0000;65535.0000;952.0000;11.2778;0.0000;0.0000;0.0000E+00;
1894;1035.13;9660.62;3081.15;950.0000;65535.0000;963.0000;25.2778;0.0000;0.0000;0.0000E+00;
1895;1035.26;9659.44;3082.34;886.0000;65535.0000;939.0000;65.2778;0.0000;0.0000;0.0000E+00;
1896;1035.38;9658.25;3083.53;894.0000;65535.0000;982.0000;100.2778;0.0000;0.0000;0.0000E+00;
1897;1035.51;9657.06;3084.71;969.0000;65535.0000;897.0000;-59.7222;0.0000;0.0000;0.0000E+00;
1898;1035.64;9655.88;3085.90;920.0000;65535.0000;987.0000;79.2778;0.0000;0.0000;0.0000E+00;
1899;1035.77;9654.69;3087.08;917.0000;65535.0000;910.0000;5.2778;0.0000;0.0000;0.0000E+00;
1900;1035.89;9653.51;3088.26;866.0000;65535.0000;893.0000;39.2778;0.0000;0.0000;0.0000E+00;
1901;1036.02;9652.33;3089.45;950.0000;65535.0000;1012.0000;74.2778;0.0000;0.0000;0.0000E+00;
1902;1036.15;9651.14;3090.63;878.0000;65535.0000;886.0000;20.2778;0.0000;0.0000;0.0000E+00;
1903;1036.27;9649.96;3091.81;890.0000;65535.0000;858.0000;-19.7222;0.0000;0.0000;0.0000E+00;
1904;1036.40;9648.78;3093.00;902.0000;65535.0000;844.0000;-45.7222;0.0000;0.0000;0.0000E+00;
1905;1036.53;9647.60;3094.18;940.0000;65535.0000;936.0000;8.2778;0.0000;0.0000;0.0000E+00;
1906;1036.65;9646.42;3095.36;959.0000;65535.0000;1011.0000;64.2778;0.0000;0.0000;0.0000E+00;
1907;1036.78;9645.23;3096.54;928.0000;65535.0000;942.0000;26.2778;0.0000;0.0000;0.0000E+00;
1908;1036.91;9644.05;3097.72;931.0000;65535.0000;951.0000;32.2778;0.0000;0.0000;0.0000E+00;
1909;1037.04;9642.87;3098.90;950.0000;65535.0000;956.0000;18.2778;0.0000;0.0000;0.0000E+00;
1910;1037.16;9641.69;3100.08;1000.0000;65535.0000;862.0000;-125.7222;0.0000;0.0000;0.0000E+00;
1911;1037.29;9640.51;3101.26;990.0000;65535.0000;933.0000;-44.7222;0.0000;0.0000;0.0000E+00;
1912;1037.42;9639.34;3102.44;916.0000;65535.0000;872.0000;-31.7222;0.0000;0.0000;0.0000E+00;
1913;1037.54;9638.16;3103.62;890.0000;65535.0000;923.0000;45.2778;0.0000;0.0000;0.0000E+00;
1914;1037.67;9636.98;3104.80;952.0000;65535.0000;1011.0000;71.2778;0.0000;0.0000;0.0000E+00;
1915;1037.80;9635.80;3105.97;915.0000;65535.0000;971.0000;68.2778;0.0000;0.0000;0.0000E+00;
1916;1037.92;9634.63;3107.15;922.0000;65535.0000;883.0000;-26.7222;0.0000;0.0000;0.0000E+00;
1917;1038.05;9633.45;3108.33;892.0000;65535.0000;910.0000;30.2778;0.0000;0.0000;0.0000E+00;
1918;1038.18;9632.27;3109.50;981.0000;65535.0000;940.0000;-28.7222;0.0000;0.0000;0.0000E+00;
1919;1038.30;9631.10;3110.68;973.0000;65535.0000;924.0000;-36.7222;0.0000;0.0000;0.0000E+00;
1920;1038.43;9629.92;3111.85;1012.0000;65535.0000;926.0000;-73.7222;0.0000;0.0000;0.0000E+00;
1921;1038.56;9628.75;3113.03;944.0000;65535.0000;919.0000;-12.7222;0.0000;0.0000;0.0000E+00;
1922;1038.68;9627.57;3114.20;917.0000;65535.0000;990.0000;85.2778;0.0000;0.0000;0.0000E+00;
1923;1038.81;9626.40;3115.38;966.0000;65535.0000;942.0000;-11.7222;0.0000;0.0000;0.0000E+00;
1924;1038.94;9625.23;3116.55;894.0000;65535.0000;865.0000;-16.7222;0.0000;0.0000;0.0000E+00;
1925;1039.06;9624.05;3117.72;826.0000;65535.0000;871.0000;57.2778;0.0000;0.0000;0.0000E+00;
1926;1039.19;9622.88;3118.90;869.0000;65535.0000;908.0000;51.2778;0.0000;0.0000;0.0000E+00;
1927;1039.32;9621.71;3120.07;906.0000;65535.0000;994.0000;100.2778;0.0000;0.0000;0.0000E+00;
1928;1039.44;9620.54;3121.24;1046.0000;65535.0000;807.0000;-226.7222;0.0000;0.0000;0.0000E+00;
1929;1039.57;9619.36;3122.41;914.0000;65535.0000;959.0000;57.2778;0.0000;0.0000;0.0000E+00;
1930;1039.70;9618.19;3123.58;920.0000;65535.0000;876.0000;-31.7222;0.0000;0.0000;0.0000E+00;
1931;1039.82;9617.02;3124.75;904.0000;65535.0000;899.0000;7.2778;0.0000;0.0000;0.0000E+00;
1932;1039.95;9615.85;3125.92;924.0000;65535.0000;898.0000;-13.7222;0.0000;0.0000;0.0000E+00;
1933;1040.08;9614.68;3127.09;886.0000;65535.0000;925.0000;51.2778;0.0000;0.0000;0.0000E+00;
1934;1040.20;9613.52;3128.26;892.0000;65535.0000;971.0000;91.2778;0.0000;0.0000;0.0000E+00;
1935;1040.33;9612.35;3129.43;883.0000;65535.0000;976.0000;105.2778;0.0000;0.0000;0.0000E+00;
1936;1040.46;9611.18;3130.60;924.0000;65535.0000;976.0000;64.2778;0.0000;0.0000;0.0000E+00;
1937;1040.58;9610.01;3131.76;989.0000;65535.0000;921.0000;-55.7222;0.0000;0.0000;0.0000E+00;
1938;1040.71;9608.84;3132.93;980.0000;65535.0000;917.0000;-50.7222;0.0000;0.0000;0.0000E+00;
1939;1040.83;9607.68;3134.10;918.0000;65535.0000;931.0000;25.2778;0.0000;0.0000;0.0000E+00;
1940;1040.96;9606.51;3135.27;913.0000;65535.0000;936.0000;35.2778;0.0000;0.0000;0.0000E+00;
1941;1041.09;9605.34;3136.43;874.0000;65535.0000;913.0000;51.2778;0.0000;0.0000;0.0000E+00;
1942;1041.21;9604.18;3137.60;930.0000;65535.0000;894.0000;-23.7222;0.0000;0.0000;0.0000E+00;
1943;1041.34;9603.01;3138.76;985.0000;65535.0000;922.0000;-50.7222;0.0000;0.0000;0.0000E+00;
1944;1041.47;9601.85;3139.93;963.0000;65535.0000;915.0000;-35.7222;0.0000;0.0000;0.0000E+00;
1945;1041.59;9600.68;3141.09;921.0000;65535.0000;929.0000;20.2778;0.0000;0.0000;0.0000E+00;
1946;1041.72;9599.52;3142.25;944.0000;65535.0000;918.0000;-13.7222;0.0000;0.0000;0.0000E+00;
1947;1041.84;9598.36;3143.42;968.0000;65535.0000;865.0000;-90.7222;0.0000;0.0000;0.0000E+00;
1948;1041.97;9597.19;3144.58;922.0000;65535.0000;914.0000;4.2778;0.0000;0.0000;0.0000E+00;
1949;1042.10;9596.03;3145.74;949.0000;65535.0000;906.0000;-30.7222;0.0000;0.0000;0.0000E+00;
1950;1042.22;9594.87;3146.91;936.0000;65535.0000;869.0000;-54.7222;0.0000;0.0000;0.0000E+00;
1951;1042.35;9593.71;3148.07;933.0000;65535.0000;909.0000;-11.7222;0.0000;0.0000;0.0000E+00;
1952;1042.48;9592.55;3149.23;832.0000;65535.0000;901.0000;81.2778;0.0000;0.0000;0.0000E+00;
1953;1042.60;9591.39;3150.39;884.0000;65535.0000;890.0000;18.2778;0.0000;0.0000;0.0000E+00;
1954;1042.73;9590.23;3151.55;909.0000;65535.0000;971.0000;74.2778;0.0000;0.0000;0.0000E+00;
1955;1042.85;9589.07;3152.71;904.0000;65535.0000;851.0000;-40.7222;0.0000;0.0000;0.0000E+00;
1956;1042.98;9587.91;3153.87;940.0000;65535.0000;918.0000;-9.7222;0.0000;0.0000;0.0000E+00;
1957;1043.11;9586.75;3155.03;977.0000;65535.0000;971.0000;6.2778;0.0000;0.0000;0.0000E+00;
1958;1043.23;9585.59;3156.19;928.0000;65535.0000;921.0000;5.2778;0.0000;0.0000;0.0000E+00;
1959;1043.36;9584.43;3157.34;971.0000;65535.0000;907.0000;-51.7222;0.0000;0.0000;0.0000E+00;
1960;1043.48;9583.27;3158.50;906.0000;65535.0000;929.0000;35.2778;0.0000;0.0000;0.0000E+00;
1961;1043.61;9582.12;3159.66;995.0000;65535.0000;879.0000;-103.7222;0.0000;0.0000;0.0000E+00;
1962;1043.74;9580.96;3160.82;925.0000;65535.0000;957.0000;44.2778;0.0000;0.0000;0.0000E+00;
1963;1043.86;9579.80;3161.97;904.0000;65535.0000;868.0000;-23.7222;0.0000;0.0000;0.0000E+00;
1964;1043.99;9578.65;3163.13;959.0000;65535.0000;934.0000;-12.7222;0.0000;0.0000;0.0000E+00;
1965;1044.11;9577.49;3164.28;987.0000;65535.0000;905.0000;-69.7222;0.0000;0.0000;0.0000E+00;
1966;1044.24;9576.34;3165.44;895.0000;65535.0000;931.0000;48.2778;0.0000;0.0000;0.0000E+00;
1967;1044.37;9575.18;3166.59;901.0000;65535.0000;936.0000;47.2778;0.0000;0.0000;0.0000E+00;
1968;1044.49;9574.03;3167.75;971.0000;65535.0000;944.0000;-14.7222;0.0000;0.0000;0.0000E+00;
1969;1044.62;9572.87;3168.90;904.0000;65535.0000;906.0000;14.2778;0.0000;0.0000;0.0000E+00;
1970;1044.74;9571.72;3170.06;930.0000;65535.0000;921.0000;3.2778;0.0000;0.0000;0.0000E+00;
1971;1044.87;9570.57;3171.21;837.0000;65535.0000;834.0000;9.2778;0.0000;0.0000;0.0000E+00;
1972;1045.00;9569.41;3172.36;921.0000;65535.0000;922.0000;13.2778;0.0000;0.0000;0.0000E+00;
1973;1045.12;9568.26;3173.51;897.0000;65535.0000;938.0000;53.2778;0.0000;0.0000;0.0000E+00;
1974;1045.25;9567.11;3174.66;898.0000;65535.0000;906.0000;20.2778;0.0000;0.0000;0.0000E+00;
1975;1045.37;9565.96;3175.82;933.0000;65535.0000;886.0000;-34.7222;0.0000;0.0000;0.0000E+00;
1976;1045.50;9564.81;3176.97;940.0000;65535.0000;914.0000;-13.7222;0.0000;0.0000;0.0000E+00;
1977;1045.62;9563.66;3178.12;875.0000;65535.0000;920.0000;57.2778;0.0000;0.0000;0.0000E+00;
1978;1045.75;9562.51;3179.27;921.0000;65535.0000;1008.0000;99.2778;0.0000;0.0000;0.0000E+00;
1979;1045.88;9561.36;3180.42;917.0000;65535.0000;923.0000;18.2778;0.0000;0.0000;0.0000E+00;
1980;1046.00;9560.21;3181.56;994.0000;65535.0000;868.0000;-113.7222;0.0000;0.0000;0.0000E+00;
1981;1046.13;9559.06;3182.71;986.0000;65535.0000;888.0000;-85.7222;0.0000;0.0000;0.0000E+00;
1982;1046.25;9557.91;3183.86;830.0000;65535.0000;920.0000;102.2778;0.0000;0.0000;0.0000E+00;
1983;1046.38;9556.77;3185.01;985.0000;65535.0000;912.0000;-60.7222;0.0000;0.0000;0.0000E+00;
1984;1046.50;9555.62;3186.16;993.0000;65535.0000;952.0000;-28.7222;0.0000;0.0000;0.0000E+00;
1985;1046.63;9554.47;3187.30;917.0000;65535.0000;906.0000;1.2778;0.0000;0.0000;0.0000E+00;
1986;1046.76;9553.33;3188.45;900.0000;65535.0000;927.0000;39.2778;0.0000;0.0000;0.0000E+00;
1987;1046.88;9552.18;3189.60;925.0000;65535.0000;930.0000;17.2778;0.0000;0.0000;0.0000E+00;
1988;1047.01;9551.03;3190.74;886.0000;65535.0000;972.0000;98.2778;0.0000;0.0000;0.0000E+00;
1989;1047.13;9549.89;3191.89;928.0000;65535.0000;876.0000;-39.7222;0.0000;0.0000;0.0000E+00;
1990;1047.26;9548.74;3193.03;918.0000;65535.0000;921.0000;15.2778;0.0000;0.0000;0.0000E+00;
1991;1047.38;9547.60;3194.18;870.0000;65535.0000;894.0000;36.2778;0.0000;0.0000;0.0000E+00;
1992;1047.51;9546.46;3195.32;986.0000;65535.0000;884.0000;-89.7222;0.0000;0.0000;0.0000E+00;
1993;1047.63;9545.31;3196.46;872.0000;65535.0000;924.0000;64.2778;0.0000;0.0000;0.0000E+00;
1994;1047.76;9544.17;3197.61;968.0000;65535.0000;918.0000;-37.7222;0.0000;0.0000;0.0000E+00;
1995;1047.89;9543.03;3198.75;935.0000;65535.0000;844.0000;-78.7222;0.0000;0.0000;0.0000E+00;
1996;1048.01;9541.88;3199.89;931.0000;65535.0000;956.0000;37.2778;0.0000;0.0000;0.0000E+00;
1997;1048.14;9540.74;3201.03;848.0000;65535.0000;929.0000;93.2778;0.0000;0.0000;0.0000E+00;
1998;1048.26;9539.60;3202.17;913.0000;65535.0000;812.0000;-88.7222;0.0000;0.0000;0.0000E+00;
1999;1048.39;9538.46;3203.31;931.0000;65535.0000;944.0000;25.2778;0.0000;0.0000;0.0000E+00;
2000;1048.51;9537.32;3204.46;977.0000;65535.0000;961.0000;-3.7222;0.0000;0.0000;0.0000E+00;
2001;1048.64;9536.18;3205.60;985.0000;65535.0000;922.0000;-50.7222;0.0000;0.0000;0.0000E+00;
2002;1048.76;9535.04;3206.73;868.0000;65535.0000;916.0000;60.2778;0.0000;0.0000;0.0000E+00;
2003;1048.89;9533.90;3207.87;900.0000;65535.0000;938.0000;50.2778;0.0000;0.0000;0.0000E+00;
2004;1049.01;9532.76;3209.01;916.0000;65535.0000;884.0000;-19.7222;0.0000;0.0000;0.0000E+00;
2005;1049.14;9531.62;3210.15;881.0000;65535.0000;1018.0000;149.2778;0.0000;0.0000;0.0000E+00;
2006;1049.26;9530.49;3211.29;906.0000;65535.0000;926.0000;32.2778;0.0000;0.0000;0.0000E+00;
2007;1049.39;9529.35;3212.43;899.0000;65535.0000;920.0000;33.2778;0.0000;0.0000;0.0000E+00;
2008;1049.51;9528.21;3213.56;886.0000;65535.0000;1008.0000;134.2778;0.0000;0.0000;0.0000E+00;
2009;1049.64;9527.08;3214.70;934.0000;65535.0000;960.0000;38.2778;0.0000;0.0000;0.0000E+00;
2010;1049.77;9525.94;3215.84;894.0000;65535.0000;954.0000;72.2778;0.0000;0.0000;0.0000E+00;
2011;1049.89;9524.80;3216.97;912.0000;65535.0000;952.0000;52.2778;0.0000;0.0000;0.0000E+00;
2012;1050.02;9523.67;3218.11;925.0000;65535.0000;940.0000;27.2778;0.0000;0.0000;0.0000E+00;
2013;1050.14;9522.53;3219.24;929.0000;65535.0000;984.0000;67.2778;0.0000;0.0000;0.0000E+00;
2014;1050.27;9521.40;3220.38;927.0000;65535.0000;848.0000;-66.7222;0.0000;0.0000;0.0000E+00;
2015;1050.39;9520.26;3221.51;921.0000;65535.0000;961.0000;52.2778;0.0000;0.0000;0.0000E+00;
2016;1050.52;9519.13;3222.64;967.0000;65535.0000;1024.0000;69.2778;0.0000;0.0000;0.0000E+00;
2017;1050.64;9518.00;3223.78;970.0000;65535.0000;924.0000;-33.7222;0.0000;0.0000;0.0000E+00;
2018;1050.77;9516.86;3224.91;922.0000;65535.0000;905.0000;-4.7222;0.0000;0.0000;0.0000E+00;
2019;1050.89;9515.73;3226.04;876.0000;65535.0000;981.0000;117.2778;0.0000;0.0000;0.0000E+00;
2020;1051.02;9514.60;3227.17;916.0000;65535.0000;917.0000;13.2778;0.0000;0.0000;0.0000E+00;
2021;1051.14;9513.47;3228.31;980.0000;65535.0000;900.0000;-67.7222;0.0000;0.0000;0.0000E+00;
2022;1051.27;9512.34;3229.44;948.0000;65535.0000;938.0000;2.2778;0.0000;0.0000;0.0000E+00;
2023;1051.39;9511.21;3230.57;889.0000;65535.0000;905.0000;28.2778;0.0000;0.0000;0.0000E+00;
2024;1051.52;9510.08;3231.70;942.0000;65535.0000;944.0000;14.2778;0.0000;0.0000;0.0000E+00;
2025;1051.64;9508.95;3232.83;899.0000;65535.0000;882.0000;-4.7222;0.0000;0.0000;0.0000E+00;
2026;1051.77;9507.82;3233.96;872.0000;65535.0000;934.0000;74.2778;0.0000;0.0000;0.0000E+00;
2027;1051.89;9506.69;3235.09;946.0000;65535.0000;882.0000;-51.7222;0.0000;0.0000;0.0000E+00;
2028;1052.02;9505.56;3236.21;943.0000;65535.0000;932.0000;1.2778;0.0000;0.0000;0.0000E+00;
2029;1052.14;9504.43;3237.34;941.0000;65535.0000;930.0000;1.2778;0.0000;0.0000;0.0000E+00;
2030;1052.27;9503.30;3238.47;874.0000;65535.0000;816.0000;-45.7222;0.0000;0.0000;0.0000E+00;
2031;1052.39;9502.18;3239.60;1006.0000;65535.0000;934.0000;-59.7222;0.0000;0.0000;0.0000E+00;
2032;1052.52;9501.05;3240.72;960.0000;65535.0000;983.0000;35.2778;0.0000;0.0000;0.0000E+00;
2033;1052.64;9499.92;3241.85;905.0000;65535.0000;970.0000;77.2778;0.0000;0.0000;0.0000E+00;
2034;1052.76;9498.80;3242.98;947.0000;65535.0000;838.0000;-96.7222;0.0000;0.0000;0.0000E+00;
2035;1052.89;9497.67;3244.10;806.0000;65535.0000;888.0000;94.2778;0.0000;0.0000;0.0000E+00;
2036;1053.01;9496.55;3245.23;810.0000;65535.0000;936.0000;138.2778;0.0000;0.0000;0.0000E+00;
2037;1053.14;9495.42;3246.35;850.0000;65535.0000;899.0000;61.2778;0.0000;0.0000;0.0000E+00;
2038;1053.26;9494.30;3247.48;932.0000;65535.0000;844.0000;-75.7222;0.0000;0.0000;0.0000E+00;
2039;1053.39;9493.17;3248.60;901.0000;65535.0000;988.0000;99.2778;0.0000;0.0000;0.0000E+00;
2040;1053.51;9492.05;3249.72;932.0000;65535.0000;966.0000;46.2778;0.0000;0.0000;0.0000E+00;
2041;1053.64;9490.93;3250.85;894.0000;65535.0000;876.0000;-5.7222;0.0000;0.0000;0.0000E+00;
2042;1053.76;9489.81;3251.97;938.0000;65535.0000;868.0000;-57.7222;0.0000;0.0000;0.0000E+00;
2043;1053.89;9488.68;3253.09;905.0000;65535.0000;898.0000;5.2778;0.0000;0.0000;0.0000E+00;
2044;1054.01;9487.56;3254.21;941.0000;65535.0000;944.0000;15.2778;0.0000;0.0000;0.0000E+00;
2045;1054.14;9486.44;3255.34;842.0000;65535.0000;810.0000;-19.7222;0.0000;0.0000;0.0000E+00;
2046;1054.26;9485.32;3256.46;1008.0000;65535.0000;1084.0000;88.2778;0.0000;0.0000;0.0000E+00;
2047;1054.39;9484.20;3257.58;1008.0000;65535.0000;1084.0000;88.2778;0.0000;0.0000;0.0000E+00;
