#Strain and Orientation Refinement from experimental file: /home/micha/LaueProjects/DepthEffects/testZrO2_73.cor
#File created at Wed Jun 28 14:22:54 2023 with indexingSpotsSet.py
#Number of indexed spots: 525
#Element
#ZrO2
#grainIndex
#G_0
#Mean Deviation(pixel): 0.116
##spot_index intensity h k l 2theta Chi Xexp Yexp Energy GrainIndex PixDev
88.000000 45.648000 8.000000 -15.000000 0.000000 136.320985 25.064897 471.630799 -303.279459 21.896642 0.000000 0.086544
92.000000 49.450000 2.000000 -4.000000 0.000000 135.433105 28.961240 379.351799 -307.863758 5.775323 0.000000 0.113030
93.000000 48.224000 4.000000 -7.000000 0.000000 137.082857 20.588507 570.693952 -295.511737 10.363495 0.000000 0.061178
94.000000 46.785000 9.000000 -14.000000 0.000000 137.826465 12.309343 740.146042 -275.045437 21.364591 0.000000 0.025197
98.000000 52.576000 7.000000 -13.000000 0.000000 136.439077 24.462699 485.350405 -302.382037 19.011376 0.000000 0.082842
99.000000 51.002000 8.000000 -13.000000 0.000000 137.641400 15.460409 677.317945 -283.721064 19.597958 0.000000 0.037432
100.000000 49.215000 9.000000 -13.000000 0.000000 137.869196 6.806521 846.535443 -257.317577 20.309845 0.000000 0.008266
101.000000 47.296000 10.000000 -13.000000 0.000000 137.296473 -1.161457 996.820824 -225.464522 21.133789 0.000000 0.015264
103.000000 55.997000 7.000000 -12.000000 0.000000 137.267216 19.192645 600.349586 -292.595696 17.849990 0.000000 0.054203
104.000000 53.981000 4.000000 -6.000000 0.000000 137.891595 9.628758 792.402724 -266.822803 9.258224 0.000000 0.016116
105.000000 51.766000 3.000000 -4.000000 0.000000 137.504072 0.753321 960.848148 -233.838240 6.436293 0.000000 0.011260
106.000000 49.451000 5.000000 -6.000000 0.000000 136.348060 -7.138116 1109.786704 -195.982867 10.106633 0.000000 0.026794
107.000000 47.111000 11.000000 -12.000000 0.000000 134.660087 -13.953437 1242.421427 -154.937903 21.217594 0.000000 0.038160
110.000000 61.980000 6.000000 -11.000000 0.000000 136.592252 23.640961 503.861994 -301.081103 16.126961 0.000000 0.077943
111.000000 59.720000 7.000000 -11.000000 0.000000 137.793609 13.049082 725.546559 -277.178175 16.737156 0.000000 0.027919
112.000000 57.146000 8.000000 -11.000000 0.000000 137.696466 3.084768 916.996960 -243.401617 17.491016 0.000000 0.006768
113.000000 54.410000 9.000000 -11.000000 0.000000 136.604342 -5.783008 1084.003516 -203.145050 18.370980 0.000000 0.024337
114.000000 51.625000 10.000000 -11.000000 0.000000 134.829974 -13.377693 1230.966688 -158.766361 19.362241 0.000000 0.037235
115.000000 48.875000 3.000000 -3.000000 0.000000 132.638065 -19.743462 1361.290487 -111.920162 5.577878 0.000000 0.047842
116.000000 46.215000 12.000000 -11.000000 0.000000 130.226339 -25.033448 1477.649406 -63.775284 21.630164 0.000000 0.058892
118.000000 66.738000 3.000000 -5.000000 0.000000 137.483666 17.246018 640.883760 -288.159379 7.488522 0.000000 0.045131
119.000000 63.736000 7.000000 -10.000000 0.000000 137.844774 5.974525 862.360724 -254.345668 15.682615 0.000000 0.006604
120.000000 60.460000 4.000000 -5.000000 0.000000 136.886903 -4.109553 1052.330100 -211.589766 8.266202 0.000000 0.021178
121.000000 57.094000 9.000000 -10.000000 0.000000 135.030053 -12.675451 1217.068867 -163.338184 17.507710 0.000000 0.036103
122.000000 50.551000 11.000000 -10.000000 0.000000 129.978780 -25.510284 1488.603186 -58.923619 19.774936 0.000000 0.060087
123.000000 47.507000 6.000000 -5.000000 0.000000 127.230293 -30.215813 1601.815967 -5.435672 10.521313 0.000000 0.074652
125.000000 75.472000 5.000000 -9.000000 0.000000 136.797616 22.453497 530.207406 -299.049827 13.243948 0.000000 0.071162
126.000000 68.002000 7.000000 -9.000000 0.000000 137.191886 -1.994826 1012.487711 -221.666591 14.698899 0.000000 0.016977
127.000000 63.853000 8.000000 -9.000000 0.000000 135.268659 -11.800177 1199.853066 -168.890956 15.654287 0.000000 0.034685
128.000000 55.782000 10.000000 -9.000000 0.000000 129.675280 -26.081214 1501.833617 -52.988669 17.920571 0.000000 0.061575
129.000000 52.063000 11.000000 -9.000000 0.000000 126.619548 -31.140189 1625.292323 6.437212 19.201490 0.000000 0.078252
130.000000 48.613000 4.000000 -3.000000 0.000000 123.610847 -35.212837 1734.603287 65.396370 6.854995 0.000000 0.098058
132.000000 82.531000 5.000000 -8.000000 0.000000 137.720012 14.351436 699.626803 -280.789903 12.111004 0.000000 0.032934
133.000000 72.420000 7.000000 -8.000000 0.000000 135.557093 -10.679547 1177.970019 -175.773947 13.802413 0.000000 0.032849
134.000000 62.216000 9.000000 -8.000000 0.000000 129.294732 -26.776983 1518.132786 -45.563736 16.067377 0.000000 0.063479
135.000000 57.571000 5.000000 -4.000000 0.000000 125.859135 -32.240710 1653.847154 21.249886 8.682234 0.000000 0.082931
136.000000 53.315000 11.000000 -8.000000 0.000000 122.511635 -36.534985 1772.433346 87.250243 18.751617 0.000000 0.106152
137.000000 49.452000 3.000000 -2.000000 0.000000 119.340759 -39.963222 1876.941447 151.659650 5.054309 0.000000 0.132013
138.000000 45.966000 13.000000 -8.000000 0.000000 116.383178 -42.744882 1969.737933 214.018027 21.751633 0.000000 0.159399
139.000000 90.399000 5.000000 -7.000000 0.000000 137.778803 4.448812 891.261245 -248.689603 11.056961 0.000000 0.005405
140.000000 83.626000 6.000000 -7.000000 0.000000 135.910531 -9.194943 1149.224159 -184.520618 11.952791 0.000000 0.030365
141.000000 70.320000 8.000000 -7.000000 0.000000 128.804052 -27.643270 1538.708427 -36.010519 14.215829 0.000000 0.066002
142.000000 64.360000 9.000000 -7.000000 0.000000 124.888543 -33.571922 1689.328200 40.231545 15.533134 0.000000 0.089224
143.000000 58.985000 10.000000 -7.000000 0.000000 121.128062 -38.095798 1818.795070 115.081717 16.949392 0.000000 0.116982
144.000000 54.189000 11.000000 -7.000000 0.000000 117.623596 -41.620651 1931.272708 187.564159 18.450395 0.000000 0.147536
145.000000 49.932000 12.000000 -7.000000 0.000000 114.406646 -44.424829 2029.899316 257.157658 20.024528 0.000000 0.179417
146.000000 46.159000 13.000000 -7.000000 0.000000 111.474977 -46.698730 2117.085020 323.619696 21.662209 0.000000 0.211624
147.000000 80.835000 7.000000 -6.000000 0.000000 128.148413 -28.750919 1565.497722 -23.267940 12.366694 0.000000 0.069499
148.000000 59.843000 5.000000 -3.000000 0.000000 115.446714 -43.556986 1998.401541 234.300127 8.353851 0.000000 0.168713
149.000000 54.549000 11.000000 -6.000000 0.000000 111.944412 -46.350408 2103.263267 312.764756 18.330176 0.000000 0.206264
150.000000 49.950000 4.000000 -2.000000 0.000000 108.811118 -48.574266 2194.711437 386.878851 6.672988 0.000000 0.243515
151.000000 45.945000 13.000000 -6.000000 0.000000 106.010544 -50.381581 2275.165060 456.680544 21.764805 0.000000 0.279802
152.000000 84.018000 7.000000 -5.000000 0.000000 121.861600 -37.281821 1794.376991 100.277845 11.899249 0.000000 0.111152
153.000000 74.615000 8.000000 -5.000000 0.000000 116.956944 -42.232001 1952.019998 201.724911 13.399788 0.000000 0.153845
154.000000 66.659000 9.000000 -5.000000 0.000000 112.614326 -45.843319 2083.453212 297.418138 15.000038 0.000000 0.198749
155.000000 54.249000 11.000000 -5.000000 0.000000 105.486919 -50.702866 2290.108849 470.135692 18.433438 0.000000 0.286908
157.000000 85.654000 7.000000 -4.000000 0.000000 113.647501 -45.037047 2052.687026 274.071831 11.673330 0.000000 0.187468
171.000000 46.262000 5.000000 -15.000000 1.000000 122.511966 41.875914 10.112756 19.702273 21.610104 0.000000 0.182546
172.000000 45.912000 6.000000 -15.000000 1.000000 125.817359 35.522073 206.660984 -13.357540 21.773944 0.000000 0.111143
176.000000 49.356000 5.000000 -14.000000 1.000000 123.375855 39.332761 93.035171 24.316140 20.255156 0.000000 0.146588
177.000000 48.808000 6.000000 -14.000000 1.000000 126.585040 32.411064 291.671317 -5.301344 20.481848 0.000000 0.081020
178.000000 47.907000 7.000000 -14.000000 1.000000 128.939560 25.196256 468.620263 -20.134965 20.866364 0.000000 0.037586
179.000000 46.731000 8.000000 -14.000000 1.000000 130.460485 17.905617 627.249885 -23.684364 21.391356 0.000000 0.022010
182.000000 53.146000 4.000000 -13.000000 1.000000 120.221665 43.472820 -45.395214 77.058335 18.811478 0.000000 0.196546
183.000000 52.827000 5.000000 -13.000000 1.000000 124.237201 36.370154 182.352493 31.327491 18.924137 0.000000 0.110610
184.000000 52.012000 6.000000 -13.000000 1.000000 127.282501 28.818675 382.845296 5.774848 19.220120 0.000000 0.052350
185.000000 50.802000 7.000000 -13.000000 1.000000 129.351776 21.053334 560.699430 -4.690232 19.677320 0.000000 0.022575
186.000000 49.299000 8.000000 -13.000000 1.000000 130.501373 13.351941 719.544357 -3.825453 20.277050 0.000000 0.029936
187.000000 47.594000 9.000000 -13.000000 1.000000 130.840112 5.979141 862.273056 5.563104 21.003403 0.000000 0.042404
188.000000 45.765000 10.000000 -13.000000 1.000000 130.509062 -0.863385 991.219811 21.358984 21.842752 0.000000 0.048930
191.000000 57.333000 4.000000 -12.000000 1.000000 121.133086 40.733533 48.144363 83.054763 17.437546 0.000000 0.153605
192.000000 56.731000 5.000000 -12.000000 1.000000 125.060466 32.895491 278.834146 41.444202 17.621776 0.000000 0.075198
193.000000 55.554000 6.000000 -12.000000 1.000000 127.850538 24.659628 480.878477 20.688821 17.994490 0.000000 0.028030
194.000000 53.943000 7.000000 -12.000000 1.000000 129.534922 16.347488 659.300949 15.242932 18.531591 0.000000 0.026711
195.000000 52.030000 8.000000 -12.000000 1.000000 130.223325 8.298451 818.015368 21.077620 19.212924 0.000000 0.042391
196.000000 49.929000 9.000000 -12.000000 1.000000 130.080057 0.792279 960.116178 35.229558 20.021496 0.000000 0.051208
197.000000 47.733000 10.000000 -12.000000 1.000000 129.291066 -5.997848 1088.082215 55.496142 20.942887 0.000000 0.053045
198.000000 45.513000 11.000000 -12.000000 1.000000 128.034608 -12.007595 1203.922536 80.225602 21.964772 0.000000 0.049497
200.000000 62.291000 3.000000 -11.000000 1.000000 116.991761 45.507846 -120.545069 158.757810 16.050594 0.000000 0.217989
201.000000 62.136000 4.000000 -11.000000 1.000000 122.044815 37.468187 150.079405 92.163061 16.089534 0.000000 0.110260
202.000000 61.128000 5.000000 -11.000000 1.000000 125.787511 28.796896 383.378144 55.615631 16.354131 0.000000 0.041757
203.000000 59.461000 6.000000 -11.000000 1.000000 128.201648 19.844053 586.575163 40.519299 16.812228 0.000000 0.022227
204.000000 57.328000 7.000000 -11.000000 1.000000 129.382460 11.033150 765.143272 40.835489 17.437505 0.000000 0.041482
205.000000 54.901000 8.000000 -11.000000 1.000000 129.515604 2.749866 923.304404 52.255663 18.208204 0.000000 0.053581
206.000000 52.322000 9.000000 -11.000000 1.000000 128.832022 -4.746538 1064.367673 71.664966 19.106188 0.000000 0.056809
207.000000 49.696000 10.000000 -11.000000 1.000000 127.561781 -11.345993 1190.963428 96.786534 20.116217 0.000000 0.053257
208.000000 47.100000 11.000000 -11.000000 1.000000 125.903640 -17.056097 1305.208794 125.940773 21.225387 0.000000 0.044879
211.000000 68.235000 3.000000 -10.000000 1.000000 117.900265 42.563553 -13.440474 167.268081 14.652154 0.000000 0.165121
212.000000 67.670000 4.000000 -10.000000 1.000000 122.905486 33.537854 261.593297 105.469513 14.773674 0.000000 0.067253
213.000000 66.077000 5.000000 -10.000000 1.000000 126.325184 23.945055 497.039129 75.133996 15.129098 0.000000 0.018755
214.000000 63.744000 6.000000 -10.000000 1.000000 128.209276 14.289278 700.870519 66.708844 15.682697 0.000000 0.038959
215.000000 60.934000 7.000000 -10.000000 1.000000 128.754120 5.094132 879.054395 73.629300 16.405668 0.000000 0.055885
216.000000 57.870000 8.000000 -10.000000 1.000000 128.244839 -3.251515 1036.144966 91.307328 17.274530 0.000000 0.061243
217.000000 54.718000 9.000000 -10.000000 1.000000 126.982820 -10.561701 1175.678444 116.491215 18.269951 0.000000 0.057917
218.000000 51.596000 10.000000 -10.000000 1.000000 125.232605 -16.823904 1300.442432 146.849701 19.375870 0.000000 0.048462
219.000000 48.581000 11.000000 -10.000000 1.000000 123.199751 -22.128615 1412.664065 180.695928 20.578835 0.000000 0.035049
220.000000 45.720000 12.000000 -10.000000 1.000000 121.031307 -26.607495 1514.144127 216.800616 21.867489 0.000000 0.020637
222.000000 74.853000 2.000000 -9.000000 1.000000 112.132775 48.181875 -228.003542 284.467344 13.357907 0.000000 0.254508
223.000000 75.276000 3.000000 -9.000000 1.000000 118.807034 38.944451 105.160457 180.002880 13.281599 0.000000 0.111002
224.000000 74.063000 4.000000 -9.000000 1.000000 123.623292 28.767263 384.102793 124.511374 13.498363 0.000000 0.026937
225.000000 71.626000 5.000000 -9.000000 1.000000 126.527390 18.203285 621.064074 101.788560 13.957163 0.000000 0.033519
226.000000 68.386000 6.000000 -9.000000 1.000000 127.695816 7.941440 824.858318 101.217103 14.618161 0.000000 0.057774
227.000000 64.706000 7.000000 -9.000000 1.000000 127.472743 -1.436682 1001.993559 115.684113 15.449808 0.000000 0.066439
228.000000 60.858000 8.000000 -9.000000 1.000000 126.258248 -9.617499 1157.379687 140.336842 16.426793 0.000000 0.063714
229.000000 57.034000 9.000000 -9.000000 1.000000 124.413514 -16.547839 1294.790634 171.815093 17.528576 0.000000 0.053126
230.000000 53.354000 10.000000 -9.000000 1.000000 122.217183 -22.334372 1417.174927 207.764541 18.738312 0.000000 0.037350
231.000000 49.885000 11.000000 -9.000000 1.000000 119.863217 -27.146473 1526.869653 246.520685 20.042059 0.000000 0.019170
232.000000 46.660000 12.000000 -9.000000 1.000000 117.477327 -31.158079 1625.751138 286.899298 21.428175 0.000000 0.012990
234.000000 83.826000 2.000000 -8.000000 1.000000 112.870324 45.049581 -103.158650 298.408088 11.927842 0.000000 0.187023
235.000000 83.681000 3.000000 -8.000000 1.000000 119.632005 34.430152 237.213679 198.754856 11.947487 0.000000 0.056453
236.000000 81.443000 4.000000 -8.000000 1.000000 124.038155 22.946827 519.318531 151.512598 12.275209 0.000000 0.022735
237.000000 77.783000 5.000000 -8.000000 1.000000 126.171450 11.453333 756.938220 138.106742 12.852564 0.000000 0.058534
238.000000 73.319000 6.000000 -8.000000 1.000000 126.422537 0.807721 959.826054 146.754843 13.635009 0.000000 0.072465
239.000000 68.530000 7.000000 -8.000000 1.000000 125.326688 -8.459644 1135.078326 169.797378 14.588007 0.000000 0.070959
240.000000 63.742000 8.000000 -8.000000 1.000000 123.391493 -16.214187 1287.981409 202.156105 15.684359 0.000000 0.059200
241.000000 59.150000 9.000000 -8.000000 1.000000 121.007292 -22.578950 1422.554194 240.411537 16.902362 0.000000 0.040746
242.000000 54.861000 10.000000 -8.000000 1.000000 118.437333 -27.776705 1541.906480 282.233935 18.224481 0.000000 0.018311
243.000000 50.918000 11.000000 -8.000000 1.000000 115.844193 -32.035934 1648.482268 326.023060 19.636397 0.000000 0.010219
244.000000 47.329000 12.000000 -8.000000 1.000000 113.321367 -35.553441 1744.228888 370.674867 21.126301 0.000000 0.036182
246.000000 94.979000 2.000000 -7.000000 1.000000 113.569672 41.031512 38.351907 318.551598 10.527181 0.000000 0.116655
247.000000 93.768000 3.000000 -7.000000 1.000000 120.214309 28.724592 385.145531 226.266776 10.662279 0.000000 0.005912
248.000000 89.899000 4.000000 -7.000000 1.000000 123.878174 15.854893 669.325397 189.776198 11.120713 0.000000 0.056677
249.000000 84.471000 5.000000 -7.000000 1.000000 124.932209 3.644563 906.444840 187.743469 11.835124 0.000000 0.079298
250.000000 78.377000 6.000000 -7.000000 1.000000 124.087587 -7.007735 1107.299819 207.151938 12.755647 0.000000 0.080084
251.000000 72.214000 7.000000 -7.000000 1.000000 122.080873 -15.802862 1279.618656 239.841744 13.844580 0.000000 0.067139
252.000000 66.332000 8.000000 -7.000000 1.000000 119.481363 -22.874465 1429.079343 280.588465 15.072887 0.000000 0.045620
253.000000 60.900000 9.000000 -7.000000 1.000000 116.659151 -28.523310 1559.947194 325.993828 16.417845 0.000000 0.018861
254.000000 55.980000 10.000000 -7.000000 1.000000 113.829503 -33.057430 1675.488458 373.823333 17.861415 0.000000 0.011001
255.000000 51.572000 11.000000 -7.000000 1.000000 111.106876 -36.734262 1778.246654 422.599212 19.389096 0.000000 0.042427
256.000000 47.642000 12.000000 -7.000000 1.000000 108.545646 -39.752753 1870.231988 471.344023 20.989097 0.000000 0.074519
258.000000 107.037000 1.000000 -6.000000 1.000000 104.100493 48.604159 -245.994866 532.148206 9.342627 0.000000 0.238471
259.000000 109.056000 2.000000 -6.000000 1.000000 114.083691 35.752634 200.103865 348.203768 9.168407 0.000000 0.045224
260.000000 105.856000 3.000000 -6.000000 1.000000 120.238835 21.455434 552.003184 266.890557 9.444845 0.000000 0.049033
261.000000 99.388000 4.000000 -6.000000 1.000000 122.699388 7.322663 836.690795 244.365911 10.059158 0.000000 0.086639
262.000000 91.443000 5.000000 -6.000000 1.000000 122.365017 -5.136294 1071.743948 256.134287 10.933297 0.000000 0.091672
263.000000 83.237000 6.000000 -6.000000 1.000000 120.340196 -15.283232 1269.102259 287.955917 12.011534 0.000000 0.077593
264.000000 75.443000 7.000000 -6.000000 1.000000 117.497986 -23.238659 1437.160162 331.299313 13.253014 0.000000 0.052468
265.000000 68.358000 8.000000 -6.000000 1.000000 114.382423 -29.421457 1581.991805 380.938089 14.627106 0.000000 0.021894
266.000000 62.067000 9.000000 -6.000000 1.000000 111.286751 -34.260118 1708.100911 433.622131 16.110389 0.000000 0.017758
267.000000 56.545000 10.000000 -6.000000 1.000000 108.351557 -38.099175 1818.897495 487.314489 17.684651 0.000000 0.052691
268.000000 51.719000 11.000000 -6.000000 1.000000 105.633834 -41.193563 1917.010862 540.738962 19.335518 0.000000 0.089350
269.000000 47.505000 12.000000 -6.000000 1.000000 103.147565 -43.727027 2004.500938 593.104509 21.051492 0.000000 0.125796
271.000000 126.467000 1.000000 -5.000000 1.000000 103.786220 44.195925 -71.501510 572.654896 7.907396 0.000000 0.144933
272.000000 127.014000 2.000000 -5.000000 1.000000 114.070693 28.657854 386.774690 393.091615 7.872231 0.000000 0.031161
273.000000 120.096000 3.000000 -5.000000 1.000000 119.106898 12.232044 741.666779 327.852600 8.325199 0.000000 0.093370
274.000000 109.535000 4.000000 -5.000000 1.000000 119.823716 -2.639235 1024.612814 323.353545 9.127809 0.000000 0.106478
275.000000 98.126000 5.000000 -5.000000 1.000000 117.918407 -14.606165 1255.477325 351.641874 10.189433 0.000000 0.091493
276.000000 87.340000 6.000000 -5.000000 1.000000 114.817552 -23.698577 1447.428280 397.445501 11.448273 0.000000 0.061956
277.000000 77.751000 7.000000 -5.000000 1.000000 111.368969 -30.521883 1609.539605 452.138171 12.860742 0.000000 0.028425
278.000000 69.466000 8.000000 -5.000000 1.000000 107.986446 -35.695493 1748.267531 510.738858 14.395216 0.000000 0.030047
279.000000 62.392000 9.000000 -5.000000 1.000000 104.842106 -39.692887 1868.331049 570.339335 16.028194 0.000000 0.068683
280.000000 56.368000 10.000000 -5.000000 1.000000 101.989909 -42.845820 1973.259402 629.243885 17.741845 0.000000 0.110647
281.000000 51.229000 11.000000 -5.000000 1.000000 99.430478 -45.382061 2065.744802 686.481557 19.522398 0.000000 0.152188
282.000000 46.825000 12.000000 -5.000000 1.000000 97.142556 -47.458847 2147.876685 741.521350 21.359047 0.000000 0.192413
284.000000 153.284000 1.000000 -4.000000 1.000000 102.756746 37.911860 136.769916 632.144432 6.524206 0.000000 0.062784
285.000000 149.785000 2.000000 -4.000000 1.000000 112.742329 18.990427 604.603307 463.873173 6.675716 0.000000 0.095967
286.000000 135.963000 3.000000 -4.000000 1.000000 115.746848 0.843441 959.154925 421.873996 7.354142 0.000000 0.125184
287.000000 119.222000 4.000000 -4.000000 1.000000 114.324774 -13.687653 1237.126551 440.253000 8.386926 0.000000 0.110090
288.000000 103.414000 5.000000 -4.000000 1.000000 111.000534 -24.297580 1460.910779 487.683325 9.669443 0.000000 0.074925
289.000000 89.811000 6.000000 -4.000000 1.000000 107.205299 -31.900423 1644.945210 548.431736 11.134565 0.000000 0.039528
290.000000 78.514000 7.000000 -4.000000 1.000000 103.550593 -37.435854 1798.956831 614.312928 12.737243 0.000000 0.049019
291.000000 69.230000 8.000000 -4.000000 1.000000 100.243855 -41.574971 1929.738318 680.995172 14.446123 0.000000 0.093294
292.000000 61.590000 9.000000 -4.000000 1.000000 97.323904 -44.756291 2042.176919 746.194583 16.238703 0.000000 0.141798
293.000000 55.263000 10.000000 -4.000000 1.000000 94.766763 -47.263492 2139.878790 808.747485 18.098423 0.000000 0.189415
294.000000 49.979000 11.000000 -4.000000 1.000000 92.529369 -49.283139 2225.562946 868.114501 20.012818 0.000000 0.234929
295.000000 45.523000 12.000000 -4.000000 1.000000 90.566643 -50.941009 2301.318256 924.106916 21.972331 0.000000 0.277966
296.000000 171.461000 0.000000 -3.000000 1.000000 80.249324 49.513309 -285.771603 1225.864315 5.834650 0.000000 0.296621
297.000000 190.884000 1.000000 -3.000000 1.000000 99.874560 28.538690 389.678488 727.736312 5.239534 0.000000 0.087802
298.000000 176.921000 2.000000 -3.000000 1.000000 108.331690 5.988201 862.101000 582.432611 5.652380 0.000000 0.146468
299.000000 150.945000 3.000000 -3.000000 1.000000 108.460563 -12.371391 1211.075304 573.159037 6.625039 0.000000 0.134396
300.000000 125.940000 4.000000 -3.000000 1.000000 105.149860 -25.109780 1479.397121 619.174835 7.940740 0.000000 0.092098
301.000000 105.476000 5.000000 -3.000000 1.000000 101.112813 -33.675339 1692.129955 686.959728 9.481835 0.000000 0.057322
302.000000 89.468000 6.000000 -3.000000 1.000000 97.317857 -39.585429 1864.927124 761.654124 11.178954 0.000000 0.078913
303.000000 77.007000 7.000000 -3.000000 1.000000 94.008031 -43.826058 2008.069156 836.468962 12.988545 0.000000 0.132079
304.000000 67.212000 8.000000 -3.000000 1.000000 91.186177 -46.985201 2128.586791 908.332469 14.881886 0.000000 0.188942
305.000000 59.401000 9.000000 -3.000000 1.000000 88.789519 -49.416159 2231.451049 975.957757 16.839268 0.000000 0.243774
306.000000 53.076000 10.000000 -3.000000 1.000000 86.746554 -51.338284 2320.276024 1038.933901 18.846714 0.000000 0.295225
308.000000 158.012000 3.000000 -2.000000 1.000000 95.138850 -26.273036 1506.307676 833.056524 6.330194 0.000000 0.111868
309.000000 125.246000 4.000000 -2.000000 1.000000 91.463777 -36.040794 1758.145000 906.986985 7.986497 0.000000 0.087782
310.000000 101.878000 5.000000 -2.000000 1.000000 88.045966 -42.298905 1954.314826 990.646214 9.818744 0.000000 0.130373
311.000000 85.038000 6.000000 -2.000000 1.000000 85.191125 -46.556953 2111.437770 1072.678993 11.763604 0.000000 0.197048
312.000000 72.570000 7.000000 -2.000000 1.000000 82.857678 -49.610626 2240.116799 1149.134886 13.784883 0.000000 0.264353
313.000000 63.075000 8.000000 -2.000000 1.000000 80.945816 -51.895655 2347.434611 1218.933946 15.860396 0.000000 0.327190
316.000000 195.027000 2.000000 -1.000000 1.000000 74.713739 -28.075653 1549.100008 1274.395036 5.130651 0.000000 0.120265
317.000000 144.191000 3.000000 -1.000000 1.000000 74.384542 -39.336184 1857.072312 1329.937453 6.939153 0.000000 0.157088
318.000000 111.818000 4.000000 -1.000000 1.000000 73.219360 -45.812972 2082.279147 1406.644650 8.948024 0.000000 0.235101
319.000000 90.500000 5.000000 -1.000000 1.000000 72.102186 -49.921896 2254.132380 1480.874736 11.055745 0.000000 0.318736
324.000000 47.128000 3.000000 -14.000000 2.000000 109.163426 46.655722 -165.368808 396.061588 21.217384 0.000000 0.206638
325.000000 47.388000 5.000000 -14.000000 2.000000 117.266976 35.020333 220.801271 263.629491 21.098437 0.000000 0.050260
326.000000 46.047000 7.000000 -14.000000 2.000000 122.407258 22.283014 533.952245 202.631884 21.711557 0.000000 0.033465
328.000000 49.639000 2.000000 -13.000000 2.000000 104.133602 50.335593 -323.042625 516.400381 20.145292 0.000000 0.283699
329.000000 50.527000 3.000000 -13.000000 2.000000 109.375192 44.698470 -90.025079 408.516054 19.789941 0.000000 0.166409
330.000000 50.798000 4.000000 -13.000000 2.000000 113.864670 38.579508 116.435649 331.907438 19.683040 0.000000 0.080825
331.000000 50.518000 5.000000 -13.000000 2.000000 117.525301 32.069699 300.634784 279.109899 19.791296 0.000000 0.019182
332.000000 49.772000 6.000000 -13.000000 2.000000 120.325082 25.310849 465.988672 244.576666 20.087109 0.000000 0.024390
333.000000 48.656000 7.000000 -13.000000 2.000000 122.280396 18.482205 615.248630 224.136016 20.547408 0.000000 0.053878
334.000000 47.263000 8.000000 -13.000000 2.000000 123.452441 11.774246 750.655258 214.616753 21.152756 0.000000 0.072595
335.000000 45.678000 9.000000 -13.000000 2.000000 123.936522 5.358238 874.051686 213.585402 21.886661 0.000000 0.082945
337.000000 54.401000 3.000000 -12.000000 2.000000 109.540533 42.433747 -8.954845 423.435161 18.380556 0.000000 0.125463
338.000000 53.996000 5.000000 -12.000000 2.000000 117.654241 28.695347 385.859701 298.067233 18.516702 0.000000 0.011707
339.000000 51.454000 7.000000 -12.000000 2.000000 121.886808 14.258574 701.484615 250.126575 19.430564 0.000000 0.073059
340.000000 47.755000 9.000000 -12.000000 2.000000 122.810460 0.821167 959.573429 247.026258 20.935301 0.000000 0.092221
343.000000 58.004000 2.000000 -11.000000 2.000000 103.997466 46.582047 -162.435159 550.640866 17.240344 0.000000 0.191967
344.000000 58.842000 3.000000 -11.000000 2.000000 109.626328 39.791982 78.520547 441.491980 16.993588 0.000000 0.084530
345.000000 58.742000 4.000000 -11.000000 2.000000 114.177386 32.475269 289.977870 368.238048 17.021413 0.000000 0.014386
346.000000 57.855000 5.000000 -11.000000 2.000000 117.585277 24.828112 477.041255 321.411456 17.281709 0.000000 0.041369
347.000000 56.357000 6.000000 -11.000000 2.000000 119.870855 17.109093 643.701667 294.208771 17.740556 0.000000 0.072297
348.000000 54.424000 7.000000 -11.000000 2.000000 121.133199 9.591406 793.124504 281.670155 18.370329 0.000000 0.090213
349.000000 52.213000 8.000000 -11.000000 2.000000 121.526258 2.508257 927.852573 280.134175 19.148298 0.000000 0.098170
350.000000 49.851000 9.000000 -11.000000 2.000000 121.228206 -3.983586 1049.951982 286.868234 20.055595 0.000000 0.098622
351.000000 47.437000 10.000000 -11.000000 2.000000 120.413914 -9.810883 1161.118849 299.813518 21.076422 0.000000 0.093437
352.000000 61.187000 1.000000 -10.000000 2.000000 96.841176 51.011006 -354.634875 735.769873 16.345440 0.000000 0.294596
353.000000 63.956000 3.000000 -10.000000 2.000000 109.580323 36.685062 173.191402 463.609178 15.634922 0.000000 0.046326
354.000000 62.119000 5.000000 -10.000000 2.000000 117.219873 20.395473 574.826552 350.360394 16.095569 0.000000 0.069619
355.000000 57.531000 7.000000 -10.000000 2.000000 119.901970 4.478897 890.692673 320.158149 17.378612 0.000000 0.104595
356.000000 51.909000 9.000000 -10.000000 2.000000 119.096096 -9.007525 1145.613165 334.559582 19.261259 0.000000 0.101489
357.000000 46.302000 11.000000 -10.000000 2.000000 116.451703 -19.478202 1355.675029 373.004492 21.594527 0.000000 0.077923
359.000000 67.151000 1.000000 -9.000000 2.000000 96.056818 48.957041 -261.261655 767.076749 14.893905 0.000000 0.241564
360.000000 69.377000 2.000000 -9.000000 2.000000 103.405756 41.348791 27.827239 599.288131 14.414576 0.000000 0.099427
361.000000 69.865000 3.000000 -9.000000 2.000000 109.319442 33.002348 275.983616 491.081991 14.312702 0.000000 0.029417
362.000000 68.881000 4.000000 -9.000000 2.000000 113.649654 24.198580 491.326245 424.261744 14.516318 0.000000 0.064225
363.000000 66.788000 5.000000 -9.000000 2.000000 116.418023 15.329675 679.959953 386.574718 14.970659 0.000000 0.095582
364.000000 63.956000 6.000000 -9.000000 2.000000 117.796327 6.805041 846.563635 369.597090 15.633313 0.000000 0.111369
365.000000 60.704000 7.000000 -9.000000 2.000000 118.049508 -1.053048 994.783611 367.433841 16.470921 0.000000 0.115328
366.000000 57.276000 8.000000 -9.000000 2.000000 117.467785 -8.064736 1127.503578 375.896820 17.456889 0.000000 0.110748
367.000000 53.844000 9.000000 -9.000000 2.000000 116.315027 -14.184477 1247.034078 391.972077 18.569750 0.000000 0.100117
368.000000 50.520000 10.000000 -9.000000 2.000000 114.803756 -19.458002 1355.248160 413.467045 19.791990 0.000000 0.085331
369.000000 47.369000 11.000000 -9.000000 2.000000 113.091500 -23.977034 1453.680243 438.772275 21.109175 0.000000 0.067949
371.000000 74.270000 1.000000 -8.000000 2.000000 94.991917 46.471958 -158.066381 804.497521 13.466619 0.000000 0.188852
372.000000 76.694000 3.000000 -8.000000 2.000000 108.710613 28.608053 387.989061 525.780472 13.038528 0.000000 0.056629
373.000000 71.811000 5.000000 -8.000000 2.000000 114.984707 9.582216 793.302055 432.368891 13.923922 0.000000 0.118156
374.000000 63.818000 7.000000 -8.000000 2.000000 115.407731 -6.943444 1106.074044 425.982762 15.667822 0.000000 0.121368
375.000000 55.540000 9.000000 -8.000000 2.000000 112.785959 -19.434472 1354.751054 461.560690 18.003630 0.000000 0.093907
376.000000 48.157000 11.000000 -8.000000 2.000000 109.110070 -28.410457 1557.204030 517.025031 20.764780 0.000000 0.055419
378.000000 76.877000 0.000000 -7.000000 2.000000 83.414653 52.032092 -404.185433 1142.964437 13.012422 0.000000 0.349626
379.000000 82.840000 1.000000 -7.000000 2.000000 93.501849 43.417203 -43.413224 850.324471 12.073958 0.000000 0.140434
380.000000 85.263000 2.000000 -7.000000 2.000000 101.673663 33.715018 256.793290 673.662169 11.729538 0.000000 0.057898
381.000000 84.535000 3.000000 -7.000000 2.000000 107.539755 23.343541 510.504521 570.497192 11.829506 0.000000 0.093273
382.000000 81.493000 4.000000 -7.000000 2.000000 111.092965 12.937928 727.745743 515.030406 12.270582 0.000000 0.124152
383.000000 77.042000 5.000000 -7.000000 2.000000 112.656761 3.145469 915.853305 491.052536 12.979188 0.000000 0.135841
384.000000 71.931000 6.000000 -7.000000 2.000000 112.724082 -5.588817 1080.319489 488.091786 13.901490 0.000000 0.133412
385.000000 66.676000 7.000000 -7.000000 2.000000 111.790880 -13.093745 1225.337661 499.225903 14.997189 0.000000 0.121539
386.000000 61.592000 8.000000 -7.000000 2.000000 110.259875 -19.406714 1354.164821 519.791845 16.235519 0.000000 0.103760
387.000000 56.842000 9.000000 -7.000000 2.000000 108.417496 -24.670514 1469.369149 546.599859 17.592586 0.000000 0.082974
388.000000 52.496000 10.000000 -7.000000 2.000000 106.450408 -29.057113 1573.002954 577.441216 19.049551 0.000000 0.062348
389.000000 48.567000 11.000000 -7.000000 2.000000 104.472685 -32.728542 1666.726011 610.772292 20.591361 0.000000 0.047367
391.000000 93.193000 1.000000 -6.000000 2.000000 91.341653 39.596640 84.718254 908.286512 10.733203 0.000000 0.105855
392.000000 93.360000 3.000000 -6.000000 2.000000 105.463645 17.041941 645.082125 629.578107 10.711954 0.000000 0.127505
393.000000 82.163000 5.000000 -6.000000 2.000000 109.096153 -3.921684 1048.783609 567.506074 12.171067 0.000000 0.146618
394.000000 68.979000 7.000000 -6.000000 2.000000 107.009491 -19.373478 1353.463131 591.986415 14.497768 0.000000 0.114857
395.000000 57.554000 9.000000 -6.000000 2.000000 103.135453 -29.806973 1591.573513 651.542546 17.376475 0.000000 0.070568
396.000000 48.484000 11.000000 -6.000000 2.000000 99.160779 -36.889052 1782.783044 723.988536 20.628110 0.000000 0.060659
398.000000 96.002000 0.000000 -5.000000 2.000000 75.803570 46.289600 -150.868397 1335.019676 10.421704 0.000000 0.251895
399.000000 105.572000 1.000000 -5.000000 2.000000 88.077957 34.731843 228.853191 984.949477 9.475428 0.000000 0.099082
400.000000 107.171000 2.000000 -5.000000 2.000000 96.871622 22.116095 537.609983 800.993679 9.332884 0.000000 0.124277
401.000000 102.805000 3.000000 -5.000000 2.000000 101.942426 9.567029 793.595455 710.145970 9.728574 0.000000 0.154405
402.000000 95.227000 4.000000 -5.000000 2.000000 103.950088 -1.823916 1009.273616 673.509830 10.502338 0.000000 0.159672
403.000000 86.576000 5.000000 -5.000000 2.000000 103.900568 -11.474196 1193.469795 669.200698 11.551825 0.000000 0.147937
404.000000 78.082000 6.000000 -5.000000 2.000000 102.679603 -19.332962 1352.608149 684.378475 12.808571 0.000000 0.126715
405.000000 70.308000 7.000000 -5.000000 2.000000 100.893007 -25.634733 1491.476282 711.261563 14.225047 0.000000 0.102038
406.000000 63.433000 8.000000 -5.000000 2.000000 98.899883 -30.686553 1613.715183 745.015811 15.767223 0.000000 0.080285
407.000000 57.449000 9.000000 -5.000000 2.000000 96.894182 -34.767649 1722.143097 782.582983 17.410095 0.000000 0.070248
408.000000 52.271000 10.000000 -5.000000 2.000000 94.972301 -38.101746 1818.975489 822.004792 19.134880 0.000000 0.078570
409.000000 47.796000 11.000000 -5.000000 2.000000 93.176645 -40.859302 1905.978025 862.019876 20.927190 0.000000 0.100800
411.000000 106.947000 0.000000 -4.000000 2.000000 69.230945 42.049178 4.226215 1490.686475 9.356381 0.000000 0.222707
412.000000 119.634000 1.000000 -4.000000 2.000000 82.911875 28.435427 392.189512 1093.194649 8.362696 0.000000 0.113371
413.000000 119.696000 2.000000 -4.000000 2.000000 91.821884 14.167928 703.296623 905.690572 8.357292 0.000000 0.151227
414.000000 111.717000 3.000000 -4.000000 2.000000 96.167417 0.887488 958.327306 824.682330 8.953545 0.000000 0.167715
415.000000 100.595000 4.000000 -4.000000 2.000000 97.308990 -10.330596 1171.189606 800.677156 9.943235 0.000000 0.159290
416.000000 89.272000 5.000000 -4.000000 2.000000 96.647030 -19.282481 1351.543485 808.118754 11.204285 0.000000 0.137501
417.000000 70.138000 7.000000 -4.000000 2.000000 93.321408 -31.732156 1640.567628 867.559613 14.261395 0.000000 0.091850
418.000000 56.288000 9.000000 -4.000000 2.000000 89.688972 -39.491718 1861.967274 948.571008 17.770909 0.000000 0.102976
419.000000 46.399000 11.000000 -4.000000 2.000000 86.547844 -44.616729 2036.990364 1032.212417 21.559586 0.000000 0.162928
421.000000 114.896000 0.000000 -3.000000 2.000000 58.898838 36.299003 184.412091 1746.634569 8.710722 0.000000 0.218558
422.000000 132.721000 1.000000 -3.000000 2.000000 74.336093 20.207634 578.837991 1262.596469 7.539518 0.000000 0.113480
423.000000 130.108000 2.000000 -3.000000 2.000000 83.328290 4.508189 890.139014 1067.287519 7.689913 0.000000 0.152145
424.000000 117.311000 3.000000 -3.000000 2.000000 87.050473 -8.824365 1142.087855 997.119773 8.528081 0.000000 0.157829
425.000000 102.400000 4.000000 -3.000000 2.000000 87.727370 -19.217845 1350.181221 986.234212 9.769636 0.000000 0.141136
426.000000 88.782000 5.000000 -3.000000 2.000000 86.985212 -27.065619 1524.952885 1004.655970 11.267985 0.000000 0.119094
427.000000 77.311000 6.000000 -3.000000 2.000000 85.695277 -32.994739 1673.813182 1037.594969 12.939892 0.000000 0.106494
428.000000 67.895000 7.000000 -3.000000 2.000000 84.264020 -37.542099 1802.126797 1077.347981 14.734586 0.000000 0.113568
429.000000 60.196000 8.000000 -3.000000 2.000000 82.865831 -41.098844 1913.873087 1119.762710 16.619340 0.000000 0.138262
430.000000 53.867000 9.000000 -3.000000 2.000000 81.567927 -43.936599 2012.066125 1162.562569 18.572107 0.000000 0.172186
431.000000 48.618000 10.000000 -3.000000 2.000000 80.389805 -46.242846 2099.030659 1204.501584 20.577494 0.000000 0.209512
433.000000 134.573000 1.000000 -2.000000 2.000000 59.624085 9.537131 794.172993 1580.691631 7.437831 0.000000 0.046345
434.000000 130.465000 2.000000 -2.000000 2.000000 69.383004 -6.754073 1102.465402 1348.746556 7.670855 0.000000 0.098514
435.000000 114.255000 3.000000 -2.000000 2.000000 73.445897 -19.132127 1348.376304 1279.622413 8.758257 0.000000 0.118038
436.000000 83.397000 5.000000 -2.000000 2.000000 74.785981 -34.547949 1716.043490 1296.375241 11.997748 0.000000 0.130919
437.000000 63.110000 7.000000 -2.000000 2.000000 73.818735 -42.975084 1977.785974 1367.858073 15.854080 0.000000 0.193817
438.000000 50.063000 9.000000 -2.000000 2.000000 72.640370 -48.077810 2173.615364 1444.587914 19.985895 0.000000 0.277344
440.000000 106.135000 2.000000 -1.000000 2.000000 48.176705 -19.013005 1345.871128 1959.680320 9.431780 0.000000 0.145814
441.000000 95.737000 3.000000 -1.000000 2.000000 54.850109 -29.405866 1581.605836 1810.909297 10.454747 0.000000 0.163901
442.000000 83.021000 4.000000 -1.000000 2.000000 58.348388 -36.501857 1771.469870 1766.387979 12.055084 0.000000 0.203786
443.000000 71.927000 5.000000 -1.000000 2.000000 60.311725 -41.513138 1927.664791 1760.461073 13.913736 0.000000 0.247141
444.000000 62.899000 6.000000 -1.000000 2.000000 61.489531 -45.188964 2058.417137 1770.538777 15.910161 0.000000 0.292569
452.000000 46.911000 2.000000 -13.000000 3.000000 98.390200 45.643345 -125.740112 713.936538 21.319390 0.000000 0.169996
453.000000 47.775000 3.000000 -13.000000 3.000000 103.225710 40.276136 63.006477 609.449812 20.932300 0.000000 0.085515
454.000000 48.070000 4.000000 -13.000000 3.000000 107.369140 34.574008 233.234689 532.138992 20.802550 0.000000 0.036064
455.000000 47.856000 5.000000 -13.000000 3.000000 110.768833 28.626376 387.542405 475.981253 20.894880 0.000000 0.047429
456.000000 47.210000 6.000000 -13.000000 3.000000 113.411867 22.550919 528.063284 436.398919 21.180190 0.000000 0.075079
457.000000 46.218000 7.000000 -13.000000 3.000000 115.323424 16.481454 656.566018 409.876579 21.634253 0.000000 0.095970
458.000000 48.615000 1.000000 -12.000000 3.000000 92.055685 49.112585 -268.059697 881.980965 20.574042 0.000000 0.249857
459.000000 50.225000 2.000000 -12.000000 3.000000 97.764207 43.720323 -54.259791 737.949522 19.913040 0.000000 0.137450
460.000000 51.273000 4.000000 -12.000000 3.000000 106.939368 31.768695 308.483132 555.421673 19.503414 0.000000 0.044606
461.000000 50.848000 5.000000 -12.000000 3.000000 110.266188 25.411692 463.668713 501.019450 19.665700 0.000000 0.071085
462.000000 48.631000 7.000000 -12.000000 3.000000 114.419479 12.663662 733.163779 440.146101 20.561186 0.000000 0.112673
463.000000 47.063000 8.000000 -12.000000 3.000000 115.384911 6.576740 850.911273 426.902121 21.245760 0.000000 0.121954
466.000000 52.197000 1.000000 -11.000000 3.000000 90.963348 47.384194 -194.813394 914.270361 19.162834 0.000000 0.214103
467.000000 53.970000 2.000000 -11.000000 3.000000 96.956780 41.515258 22.264172 765.610161 18.531722 0.000000 0.108464
468.000000 54.816000 3.000000 -11.000000 3.000000 102.097163 35.210883 215.451695 658.660020 18.244232 0.000000 0.054424
469.000000 54.816000 4.000000 -11.000000 3.000000 106.285701 28.587609 388.487242 582.904381 18.243311 0.000000 0.066524
470.000000 54.100000 5.000000 -11.000000 3.000000 109.490384 21.806669 544.367676 530.708056 18.483875 0.000000 0.094584
471.000000 52.824000 6.000000 -11.000000 3.000000 111.745353 15.053833 685.523696 496.447248 18.929827 0.000000 0.115281
472.000000 51.142000 7.000000 -11.000000 3.000000 113.139338 8.510374 813.947507 475.927054 19.551920 0.000000 0.127366
473.000000 49.194000 8.000000 -11.000000 3.000000 113.796571 2.325730 931.287428 465.983328 20.326212 0.000000 0.132230
474.000000 47.093000 9.000000 -11.000000 3.000000 113.855830 -3.398693 1038.919027 464.205765 21.232909 0.000000 0.131389
476.000000 53.111000 0.000000 -10.000000 3.000000 82.467932 51.256692 -366.355807 1168.392689 18.835596 0.000000 0.331426
477.000000 56.258000 1.000000 -10.000000 3.000000 89.606604 45.385236 -115.865700 951.522043 17.780078 0.000000 0.180602
478.000000 58.209000 2.000000 -10.000000 3.000000 95.901582 38.969410 104.385116 797.904401 17.182679 0.000000 0.087425
479.000000 58.984000 3.000000 -10.000000 3.000000 101.172233 32.110740 299.560691 690.038462 16.955613 0.000000 0.065582
480.000000 58.715000 4.000000 -10.000000 3.000000 105.321277 24.973897 473.712564 615.715531 17.032176 0.000000 0.091560
481.000000 57.602000 5.000000 -10.000000 3.000000 108.343787 17.769865 630.064045 566.258048 17.360777 0.000000 0.116670
482.000000 55.862000 6.000000 -10.000000 3.000000 110.318203 10.721613 771.211559 535.397150 17.900885 0.000000 0.132380
483.000000 53.703000 7.000000 -10.000000 3.000000 111.382631 4.024802 899.269978 518.539339 18.620220 0.000000 0.139460
484.000000 51.299000 8.000000 -10.000000 3.000000 111.704751 -2.180452 1015.979320 512.276685 19.492749 0.000000 0.139670
485.000000 48.785000 9.000000 -10.000000 3.000000 111.454571 -7.818303 1122.784273 514.053189 20.497253 0.000000 0.134629
486.000000 46.260000 10.000000 -10.000000 3.000000 110.785775 -12.869142 1220.894300 521.933490 21.616253 0.000000 0.125682
489.000000 60.862000 1.000000 -9.000000 3.000000 87.891769 43.053010 -30.523978 995.221343 16.435625 0.000000 0.151705
490.000000 63.001000 2.000000 -9.000000 3.000000 94.502427 36.009965 192.740396 836.227441 15.876242 0.000000 0.080655
491.000000 62.963000 4.000000 -9.000000 3.000000 103.925044 20.868202 564.687459 655.410784 15.883630 0.000000 0.116038
492.000000 61.308000 5.000000 -9.000000 3.000000 106.696557 13.266617 721.236863 609.314977 16.311733 0.000000 0.136328
493.000000 56.231000 7.000000 -9.000000 3.000000 109.030460 -0.773168 989.524755 569.728216 17.784110 0.000000 0.148235
494.000000 53.293000 8.000000 -9.000000 3.000000 109.007438 -6.905153 1105.344135 567.536958 18.764340 0.000000 0.143639
495.000000 47.399000 10.000000 -9.000000 3.000000 107.555102 -17.190895 1307.981322 584.584650 21.098002 0.000000 0.121921
498.000000 61.625000 0.000000 -8.000000 3.000000 77.469016 47.458832 -197.876072 1294.812163 16.234710 0.000000 0.265450
499.000000 66.054000 1.000000 -8.000000 3.000000 85.681281 40.306648 62.021343 1047.584478 15.144471 0.000000 0.130671
500.000000 68.382000 2.000000 -8.000000 3.000000 92.617644 32.547571 288.067957 882.625645 14.627683 0.000000 0.089756
501.000000 68.740000 3.000000 -8.000000 3.000000 98.048986 24.413173 486.472849 773.853428 14.550249 0.000000 0.112524
502.000000 67.500000 4.000000 -8.000000 3.000000 101.929397 16.214409 662.014064 704.193056 14.816861 0.000000 0.137953
503.000000 65.119000 5.000000 -8.000000 3.000000 104.379114 8.276919 818.428418 662.168425 15.357918 0.000000 0.152380
504.000000 62.034000 6.000000 -8.000000 3.000000 105.627913 0.868692 958.680479 639.893338 16.121405 0.000000 0.156534
505.000000 58.594000 7.000000 -8.000000 3.000000 105.947135 -5.843533 1085.152256 631.845542 17.067673 0.000000 0.152819
506.000000 55.052000 8.000000 -8.000000 3.000000 105.595845 -11.796429 1199.779591 634.095598 18.165965 0.000000 0.143450
507.000000 51.572000 9.000000 -8.000000 3.000000 104.791486 -17.004662 1304.151955 643.808972 19.392061 0.000000 0.130270
508.000000 48.252000 10.000000 -8.000000 3.000000 103.701549 -21.528705 1399.586594 658.917064 20.726626 0.000000 0.114845
511.000000 66.440000 0.000000 -7.000000 3.000000 73.907831 45.008852 -101.626905 1380.176968 15.059313 0.000000 0.240077
512.000000 71.815000 1.000000 -7.000000 3.000000 82.768540 37.041793 162.722523 1112.095799 13.930616 0.000000 0.120112
513.000000 74.315000 2.000000 -7.000000 3.000000 90.035813 28.475034 391.226993 940.234680 13.460559 0.000000 0.107436
514.000000 74.224000 3.000000 -7.000000 3.000000 95.471458 19.648862 590.714288 831.531508 13.476059 0.000000 0.134986
515.000000 72.165000 4.000000 -7.000000 3.000000 99.105799 10.969627 766.381638 765.283185 13.859794 0.000000 0.155326
516.000000 68.837000 5.000000 -7.000000 3.000000 101.176353 2.805597 922.255039 728.094388 14.529423 0.000000 0.163300
517.000000 64.837000 6.000000 -7.000000 3.000000 102.021710 -4.594976 1061.501591 711.061255 15.425451 0.000000 0.161307
518.000000 60.601000 7.000000 -7.000000 3.000000 101.985711 -11.124931 1186.646942 708.131237 16.503820 0.000000 0.152231
519.000000 56.406000 8.000000 -7.000000 3.000000 101.361126 -16.789142 1299.729859 715.112207 17.731207 0.000000 0.138526
520.000000 52.414000 9.000000 -7.000000 3.000000 100.371388 -21.658841 1402.414156 729.054791 19.081944 0.000000 0.122267
521.000000 48.703000 10.000000 -7.000000 3.000000 99.175103 -25.833222 1496.071104 747.856771 20.535936 0.000000 0.105407
524.000000 77.952000 1.000000 -6.000000 3.000000 78.836768 33.124843 272.707403 1194.610663 12.835009 0.000000 0.118162
525.000000 80.593000 2.000000 -6.000000 3.000000 86.439097 23.669460 503.223917 1014.129271 12.413220 0.000000 0.124402
526.000000 76.622000 4.000000 -6.000000 3.000000 95.151640 5.119033 878.582911 843.576857 13.054699 0.000000 0.165581
527.000000 72.113000 5.000000 -6.000000 3.000000 96.827800 -3.106909 1033.420183 811.940307 13.870516 0.000000 0.167068
528.000000 61.977000 7.000000 -6.000000 3.000000 96.998978 -16.536844 1294.565871 803.165925 16.138750 0.000000 0.145630
529.000000 57.136000 8.000000 -6.000000 3.000000 96.204605 -21.809433 1405.692546 814.968778 17.506303 0.000000 0.128945
530.000000 48.625000 10.000000 -6.000000 3.000000 93.941035 -30.057322 1597.835348 855.330757 20.570989 0.000000 0.097240
532.000000 75.388000 0.000000 -5.000000 3.000000 62.914669 38.424299 121.196223 1643.577081 13.274759 0.000000 0.215820
533.000000 83.849000 1.000000 -5.000000 3.000000 73.393375 28.388796 393.321823 1305.871661 11.933731 0.000000 0.116129
534.000000 86.607000 2.000000 -5.000000 3.000000 81.352109 18.002190 625.245302 1113.120757 11.552581 0.000000 0.131627
535.000000 84.812000 3.000000 -5.000000 3.000000 86.656055 7.920324 825.262672 1004.492691 11.796061 0.000000 0.156174
536.000000 80.232000 4.000000 -5.000000 3.000000 89.686890 -1.305838 999.534256 946.883318 12.468764 0.000000 0.165104
537.000000 74.381000 5.000000 -5.000000 3.000000 91.040910 -9.376735 1152.730387 921.179657 13.449092 0.000000 0.161170
538.000000 68.248000 6.000000 -5.000000 3.000000 91.285915 -16.237489 1288.456198 915.836441 14.657416 0.000000 0.149171
539.000000 62.368000 7.000000 -5.000000 3.000000 90.857399 -21.985712 1409.538925 923.629432 16.039406 0.000000 0.133278
540.000000 56.977000 8.000000 -5.000000 3.000000 90.051763 -26.780980 1518.226984 939.910796 17.556724 0.000000 0.117228
541.000000 52.151000 9.000000 -5.000000 3.000000 89.056921 -30.789423 1616.330883 961.624098 19.181543 0.000000 0.104783
542.000000 47.879000 10.000000 -5.000000 3.000000 87.986623 -34.159051 1705.324886 986.724993 20.893176 0.000000 0.099578
544.000000 76.705000 0.000000 -4.000000 3.000000 54.130426 33.923055 251.131453 1878.874016 13.048818 0.000000 0.229735
545.000000 87.897000 1.000000 -4.000000 3.000000 65.675027 22.636151 526.184972 1468.137000 11.385945 0.000000 0.101131
546.000000 90.915000 2.000000 -4.000000 3.000000 74.085539 11.363211 758.700085 1254.020055 11.006797 0.000000 0.116877
547.000000 87.967000 3.000000 -4.000000 3.000000 79.395524 0.913602 957.836649 1142.535649 11.374730 0.000000 0.142112
548.000000 81.906000 4.000000 -4.000000 3.000000 82.278147 -8.210659 1130.300771 1088.450138 12.215631 0.000000 0.149116
549.000000 74.804000 5.000000 -4.000000 3.000000 83.527749 -15.876579 1281.114877 1067.942696 13.374875 0.000000 0.143499
550.000000 67.789000 6.000000 -4.000000 3.000000 83.782799 -22.194859 1414.114900 1067.632840 14.758613 0.000000 0.131938
551.000000 61.353000 7.000000 -4.000000 3.000000 83.474572 -27.374111 1532.281111 1079.636165 16.306588 0.000000 0.120174
552.000000 55.648000 8.000000 -4.000000 3.000000 82.869432 -31.631789 1637.964102 1099.136011 17.978333 0.000000 0.113239
553.000000 50.667000 9.000000 -4.000000 3.000000 82.124076 -35.157346 1733.042743 1123.108605 19.745670 0.000000 0.114717
554.000000 46.342000 10.000000 -4.000000 3.000000 81.327903 -38.103769 1819.036863 1149.617286 21.588368 0.000000 0.125308
555.000000 86.367000 1.000000 -3.000000 3.000000 54.553847 15.660761 673.262499 1736.728052 11.589904 0.000000 0.090061
556.000000 90.527000 2.000000 -3.000000 3.000000 63.724199 3.706624 905.274217 1473.486150 11.056124 0.000000 0.058294
557.000000 80.031000 4.000000 -3.000000 3.000000 72.518319 -15.432993 1272.127731 1292.655877 12.503926 0.000000 0.115238
558.000000 72.314000 5.000000 -3.000000 3.000000 74.075257 -22.447004 1419.649811 1273.267976 13.837482 0.000000 0.119059
559.000000 58.516000 7.000000 -3.000000 3.000000 74.838372 -32.610900 1663.607446 1287.232369 17.099460 0.000000 0.125625
560.000000 52.892000 8.000000 -3.000000 3.000000 74.684084 -36.300052 1765.618264 1306.742681 18.917345 0.000000 0.138044
561.000000 72.016000 1.000000 -2.000000 3.000000 38.620200 7.308333 836.964409 2299.311066 13.901889 0.000000 0.256773
562.000000 80.383000 2.000000 -2.000000 3.000000 49.308264 -4.885799 1067.002259 1869.864146 12.453731 0.000000 0.087835
563.000000 78.633000 3.000000 -2.000000 3.000000 56.087585 -14.874725 1260.871431 1689.666556 12.729590 0.000000 0.072194
564.000000 72.724000 4.000000 -2.000000 3.000000 60.189054 -22.756914 1426.480368 1609.730410 13.762715 0.000000 0.104908
565.000000 65.863000 5.000000 -2.000000 3.000000 62.649031 -28.918037 1569.588518 1577.035783 15.195338 0.000000 0.131587
566.000000 59.341000 6.000000 -2.000000 3.000000 64.135065 -33.762254 1694.489849 1568.661245 16.864397 0.000000 0.155736
567.000000 53.558000 7.000000 -2.000000 3.000000 65.041464 -37.619807 1804.451079 1573.432547 18.684944 0.000000 0.181026
568.000000 48.558000 8.000000 -2.000000 3.000000 65.596906 -40.737993 1902.001532 1585.447240 20.608374 0.000000 0.208390
571.000000 58.754000 4.000000 -1.000000 3.000000 45.487273 -29.947905 1595.094678 2162.196003 17.037184 0.000000 0.240055
572.000000 54.944000 5.000000 -1.000000 3.000000 49.501612 -35.134451 1732.399528 2064.973461 18.217288 0.000000 0.250711
573.000000 50.613000 6.000000 -1.000000 3.000000 52.292135 -39.159422 1851.535651 2014.122852 19.775182 0.000000 0.273213
575.000000 47.470000 3.000000 -12.000000 4.000000 95.967058 34.174445 244.252702 805.023655 21.070210 0.000000 0.076549
576.000000 47.426000 5.000000 -12.000000 4.000000 103.035985 22.790029 522.787939 670.703927 21.087538 0.000000 0.109390
577.000000 45.583000 7.000000 -12.000000 4.000000 107.204690 11.407841 757.827713 601.018077 21.939009 0.000000 0.139761
578.000000 47.868000 1.000000 -11.000000 4.000000 84.375650 42.841948 -23.124118 1085.556403 20.898665 0.000000 0.161701
579.000000 49.563000 2.000000 -11.000000 4.000000 89.886118 37.316162 154.603575 943.689866 20.182239 0.000000 0.098533
580.000000 50.440000 3.000000 -11.000000 4.000000 94.639295 31.501306 315.412268 838.564330 19.829930 0.000000 0.087882
581.000000 50.566000 4.000000 -11.000000 4.000000 98.565708 25.501120 461.608127 761.386089 19.779590 0.000000 0.106403
582.000000 50.050000 5.000000 -11.000000 4.000000 101.650066 19.441693 595.096410 705.669871 19.982454 0.000000 0.127061
583.000000 49.025000 6.000000 -11.000000 4.000000 103.927214 13.456688 717.464951 666.567257 20.399721 0.000000 0.142202
584.000000 47.622000 7.000000 -11.000000 4.000000 105.471228 7.670287 830.047627 640.409637 21.000130 0.000000 0.151082
585.000000 45.963000 8.000000 -11.000000 4.000000 106.380808 2.182978 933.973174 624.391309 21.758219 0.000000 0.154460
586.000000 50.911000 1.000000 -10.000000 4.000000 82.317457 40.697915 49.309024 1132.499352 19.650405 0.000000 0.146649
587.000000 53.642000 3.000000 -10.000000 4.000000 92.950900 28.492681 390.797902 877.872517 18.647132 0.000000 0.103153
588.000000 52.778000 5.000000 -10.000000 4.000000 99.846548 15.756795 671.315819 746.897292 18.950419 0.000000 0.142677
589.000000 49.631000 7.000000 -10.000000 4.000000 103.267437 3.675911 905.853558 686.697420 20.151190 0.000000 0.159712
590.000000 45.470000 9.000000 -10.000000 4.000000 104.121038 -6.879742 1104.859823 668.269676 21.995003 0.000000 0.155412
592.000000 50.753000 0.000000 -9.000000 4.000000 72.859712 44.321984 -76.118121 1404.976087 19.714545 0.000000 0.234903
593.000000 54.155000 1.000000 -9.000000 4.000000 79.779724 38.244888 126.673715 1188.079219 18.474406 0.000000 0.136816
594.000000 56.234000 2.000000 -9.000000 4.000000 85.804786 31.791547 307.889098 1033.882914 17.789806 0.000000 0.105392
595.000000 57.033000 3.000000 -9.000000 4.000000 90.786802 25.101280 470.797598 924.677591 17.539539 0.000000 0.118751
596.000000 56.720000 4.000000 -9.000000 4.000000 94.674609 18.348440 618.039947 848.278688 17.635270 0.000000 0.139796
597.000000 55.534000 5.000000 -9.000000 4.000000 97.508716 11.717246 751.772283 796.117501 18.011094 0.000000 0.155199
598.000000 53.725000 6.000000 -9.000000 4.000000 99.398968 5.372974 873.772433 762.054308 18.616847 0.000000 0.163267
599.000000 51.519000 7.000000 -9.000000 4.000000 100.494485 -0.559975 985.519398 741.618273 19.413669 0.000000 0.164925
600.000000 49.098000 8.000000 -9.000000 4.000000 100.955437 -6.006872 1088.253608 731.507951 20.370989 0.000000 0.161500
601.000000 46.596000 9.000000 -9.000000 4.000000 100.932608 -10.939086 1183.023158 729.255571 21.464427 0.000000 0.154244
603.000000 57.502000 1.000000 -8.000000 4.000000 76.605353 35.422140 209.491344 1255.519539 17.400303 0.000000 0.131364
604.000000 60.509000 3.000000 -8.000000 4.000000 87.992077 21.277911 555.848340 981.494501 16.532997 0.000000 0.131640
605.000000 58.184000 5.000000 -8.000000 4.000000 94.492045 7.315414 836.829209 855.750244 17.191896 0.000000 0.163322
606.000000 53.158000 7.000000 -8.000000 4.000000 97.042870 -5.009726 1069.347658 807.520242 18.816483 0.000000 0.165850
607.000000 47.425000 9.000000 -8.000000 4.000000 97.132151 -15.077157 1264.946182 801.525906 21.090779 0.000000 0.149434
609.000000 55.887000 0.000000 -7.000000 4.000000 64.686163 39.403335 90.816981 1599.835563 17.906052 0.000000 0.216309
610.000000 60.731000 1.000000 -7.000000 4.000000 72.574362 32.156595 298.359485 1340.032034 16.476508 0.000000 0.127508
611.000000 63.330000 2.000000 -7.000000 4.000000 79.186014 24.597159 482.298551 1167.103807 15.798900 0.000000 0.118056
612.000000 63.860000 3.000000 -7.000000 4.000000 84.360086 16.975641 646.444096 1052.130702 15.666725 0.000000 0.138619
613.000000 62.751000 4.000000 -7.000000 4.000000 88.119156 9.554995 793.827939 976.841354 15.942754 0.000000 0.156358
614.000000 60.511000 5.000000 -7.000000 4.000000 90.623202 2.559251 926.892790 929.281079 16.532233 0.000000 0.165329
615.000000 57.598000 6.000000 -7.000000 4.000000 92.102281 -3.860486 1047.628708 901.401317 17.367625 0.000000 0.166411
616.000000 54.367000 7.000000 -7.000000 4.000000 92.797599 -9.632693 1157.673308 887.653483 18.399498 0.000000 0.161519
617.000000 51.060000 8.000000 -7.000000 4.000000 92.924808 -14.751087 1258.386473 884.135886 19.590835 0.000000 0.152490
618.000000 47.831000 9.000000 -7.000000 4.000000 92.658771 -19.252280 1350.906842 888.058732 20.913369 0.000000 0.140936
620.000000 63.387000 1.000000 -6.000000 4.000000 67.378374 28.362235 393.966338 1450.675224 15.787868 0.000000 0.121265
621.000000 66.691000 3.000000 -6.000000 4.000000 79.621326 12.156842 743.145410 1142.644814 15.003251 0.000000 0.135484
622.000000 62.176000 5.000000 -6.000000 4.000000 85.704680 -2.522659 1022.418486 1021.916981 16.090865 0.000000 0.158989
623.000000 54.910000 7.000000 -6.000000 4.000000 87.647580 -14.376168 1250.868253 986.644043 18.219263 0.000000 0.151132
624.000000 47.670000 9.000000 -6.000000 4.000000 87.464749 -23.420490 1441.211178 992.934216 20.985839 0.000000 0.129831
626.000000 57.109000 0.000000 -5.000000 4.000000 51.410399 32.629606 285.897240 1960.830531 17.526842 0.000000 0.240892
627.000000 64.581000 1.000000 -5.000000 4.000000 60.591151 23.941966 497.108584 1604.794591 15.497890 0.000000 0.112578
628.000000 68.130000 2.000000 -5.000000 4.000000 67.975635 15.202760 682.521635 1392.172927 14.689229 0.000000 0.091632
629.000000 68.313000 3.000000 -5.000000 4.000000 73.440003 6.803604 846.591019 1263.308871 14.648758 0.000000 0.115958
630.000000 66.166000 4.000000 -5.000000 4.000000 77.175742 -0.947569 992.801594 1186.040815 15.123154 0.000000 0.134371
631.000000 62.696000 5.000000 -5.000000 4.000000 79.529924 -7.877570 1123.918729 1141.792821 15.959449 0.000000 0.141709
632.000000 58.650000 6.000000 -5.000000 4.000000 80.867841 -13.940573 1242.164875 1119.264663 17.059809 0.000000 0.140860
633.000000 54.499000 7.000000 -5.000000 4.000000 81.500237 -19.178217 1349.346565 1111.300136 18.358749 0.000000 0.135132
634.000000 50.503000 8.000000 -5.000000 4.000000 81.663020 -23.677108 1446.947366 1113.220892 19.810785 0.000000 0.127450
635.000000 46.789000 9.000000 -5.000000 4.000000 81.523856 -27.538253 1536.196958 1121.889492 21.383336 0.000000 0.120389
636.000000 62.691000 1.000000 -4.000000 4.000000 51.649907 18.794557 608.713640 1840.496200 15.967404 0.000000 0.130571
637.000000 67.628000 3.000000 -4.000000 4.000000 65.433955 0.930881 957.511972 1433.059613 14.799226 0.000000 0.070334
638.000000 61.434000 5.000000 -4.000000 4.000000 71.914903 -13.428341 1231.972121 1302.356433 16.289305 0.000000 0.112743
639.000000 52.819000 7.000000 -4.000000 4.000000 74.301478 -23.972162 1453.570635 1272.058884 18.944827 0.000000 0.119279
640.000000 55.066000 1.000000 -3.000000 4.000000 39.894504 12.830588 729.867623 2261.454979 18.180827 0.000000 0.252716
641.000000 61.756000 2.000000 -3.000000 4.000000 48.766896 3.204172 914.747199 1885.800413 16.210349 0.000000 0.097343
642.000000 63.112000 3.000000 -3.000000 4.000000 55.245344 -5.400484 1076.748936 1691.111083 15.860820 0.000000 0.030397
643.000000 61.193000 4.000000 -3.000000 4.000000 59.732801 -12.817405 1219.871912 1585.160482 16.356788 0.000000 0.061624
644.000000 57.688000 5.000000 -3.000000 4.000000 62.750298 -19.077853 1347.234466 1527.536220 17.349401 0.000000 0.090380
645.000000 53.638000 6.000000 -3.000000 4.000000 64.748229 -24.314967 1461.304006 1498.068332 18.658519 0.000000 0.109750
646.000000 49.587000 7.000000 -3.000000 4.000000 66.059065 -28.691993 1564.058430 1485.757193 20.181725 0.000000 0.125011
647.000000 45.786000 8.000000 -3.000000 4.000000 66.911319 -32.364490 1657.101783 1484.209344 21.856486 0.000000 0.139712
648.000000 53.152000 3.000000 -2.000000 4.000000 42.692040 -12.076385 1205.273540 2134.097912 18.834865 0.000000 0.185794
649.000000 50.893000 5.000000 -2.000000 4.000000 52.069694 -24.718102 1470.452098 1864.391664 19.668261 0.000000 0.147930
650.000000 45.928000 3.000000 -11.000000 5.000000 87.416896 28.459929 391.594145 996.230810 21.781439 0.000000 0.110300
651.000000 46.189000 4.000000 -11.000000 5.000000 91.149345 23.004742 518.035053 917.541167 21.657422 0.000000 0.125999
652.000000 45.881000 5.000000 -11.000000 5.000000 94.162108 17.546189 634.691567 858.855670 21.801647 0.000000 0.142472
654.000000 47.277000 2.000000 -10.000000 5.000000 80.530579 31.262210 321.574747 1151.013068 21.162553 0.000000 0.113283
655.000000 48.221000 3.000000 -10.000000 5.000000 85.095402 25.580967 459.765719 1043.395153 20.746798 0.000000 0.119071
656.000000 48.379000 4.000000 -10.000000 5.000000 88.856600 19.845022 586.554589 963.837720 20.677825 0.000000 0.135976
657.000000 46.864000 6.000000 -10.000000 5.000000 94.043567 8.656475 811.140488 864.039035 21.344735 0.000000 0.161553
658.000000 45.479000 7.000000 -10.000000 5.000000 95.604379 3.399478 911.066173 835.199210 21.994406 0.000000 0.166799
659.000000 47.478000 1.000000 -9.000000 5.000000 71.996630 34.305279 240.656512 1364.437721 21.075438 0.000000 0.139103
660.000000 49.509000 2.000000 -9.000000 5.000000 77.553454 28.408407 392.845746 1211.078640 20.209698 0.000000 0.115005
661.000000 50.475000 3.000000 -9.000000 5.000000 82.242645 22.390742 531.586958 1099.573153 19.821740 0.000000 0.124802
662.000000 50.499000 4.000000 -9.000000 5.000000 86.027518 16.382468 658.587205 1018.905331 19.811036 0.000000 0.142077
663.000000 49.763000 5.000000 -9.000000 5.000000 88.938522 10.512572 775.276353 961.282454 20.103413 0.000000 0.155966
664.000000 48.460000 6.000000 -9.000000 5.000000 91.056318 4.893018 882.861146 921.082357 20.642943 0.000000 0.164288
665.000000 46.774000 7.000000 -9.000000 5.000000 92.490814 -0.392176 982.367090 894.179774 21.386666 0.000000 0.167360
666.000000 45.583000 0.000000 -8.000000 5.000000 61.388811 37.602066 146.080000 1682.021524 21.955355 0.000000 0.216220
667.000000 49.246000 1.000000 -8.000000 5.000000 68.078786 31.509742 315.194269 1449.040393 20.320799 0.000000 0.134896
668.000000 51.547000 2.000000 -8.000000 5.000000 73.894140 25.213536 468.223735 1284.502322 19.412125 0.000000 0.112827
669.000000 52.536000 3.000000 -8.000000 5.000000 78.717930 18.859159 607.359011 1167.895218 19.045488 0.000000 0.124915
670.000000 52.399000 4.000000 -8.000000 5.000000 82.530140 12.600483 734.410190 1085.603670 19.094291 0.000000 0.142384
671.000000 51.389000 5.000000 -8.000000 5.000000 85.392146 6.578066 850.886036 1028.319936 19.468515 0.000000 0.155193
672.000000 49.767000 6.000000 -8.000000 5.000000 87.418960 0.902025 958.054176 989.523351 20.102395 0.000000 0.161899
673.000000 47.760000 7.000000 -8.000000 5.000000 88.750120 -4.356131 1056.987429 964.550600 20.946771 0.000000 0.163228
674.000000 45.547000 8.000000 -8.000000 5.000000 89.526613 -9.162554 1148.599840 950.007645 21.964153 0.000000 0.160321
675.000000 46.099000 0.000000 -7.000000 5.000000 56.138579 34.905795 224.004853 1821.616450 21.711552 0.000000 0.223845
676.000000 50.463000 1.000000 -7.000000 5.000000 63.254161 28.345082 394.382405 1557.289584 19.832330 0.000000 0.130314
677.000000 53.119000 2.000000 -7.000000 5.000000 69.363686 21.636379 548.074245 1377.054414 18.839636 0.000000 0.103183
678.000000 54.153000 3.000000 -7.000000 5.000000 74.346249 14.959797 687.417092 1253.175985 18.478519 0.000000 0.116013
679.000000 53.845000 4.000000 -7.000000 5.000000 78.207001 8.490415 814.330803 1168.202349 18.583235 0.000000 0.134287
680.000000 52.547000 5.000000 -7.000000 5.000000 81.046673 2.372501 930.407363 1110.715122 19.041370 0.000000 0.146941
681.000000 50.598000 6.000000 -7.000000 5.000000 83.019221 -3.295717 1036.978010 1073.004154 19.773987 0.000000 0.152944
682.000000 48.277000 7.000000 -7.000000 5.000000 84.294005 -8.464133 1135.164519 1049.726410 20.724028 0.000000 0.153431
683.000000 45.790000 8.000000 -7.000000 5.000000 85.030375 -13.123092 1225.918841 1037.098265 21.849225 0.000000 0.149839
684.000000 50.626000 1.000000 -6.000000 5.000000 57.264919 24.756647 478.670138 1702.924605 19.770819 0.000000 0.130896
685.000000 53.776000 2.000000 -6.000000 5.000000 63.725921 17.637324 632.807508 1498.540043 18.611242 0.000000 0.083312
686.000000 54.930000 3.000000 -6.000000 5.000000 68.917675 10.674126 772.135443 1363.232066 18.219220 0.000000 0.093244
687.000000 54.491000 4.000000 -6.000000 5.000000 72.879032 4.055500 898.690435 1273.374832 18.364913 0.000000 0.114142
688.000000 52.940000 5.000000 -6.000000 5.000000 75.756810 -2.083308 1014.151948 1214.388455 18.901916 0.000000 0.128746
689.000000 50.709000 6.000000 -6.000000 5.000000 77.745462 -7.668457 1119.917373 1176.885235 19.732553 0.000000 0.135943
690.000000 48.130000 7.000000 -6.000000 5.000000 79.041449 -12.680011 1217.158864 1154.612250 20.789157 0.000000 0.137377
691.000000 48.928000 1.000000 -5.000000 5.000000 49.793485 20.687693 568.566466 1913.452814 20.459205 0.000000 0.159892
692.000000 52.828000 2.000000 -5.000000 5.000000 56.700744 13.183446 722.885510 1667.109930 18.947803 0.000000 0.065676
693.000000 54.281000 3.000000 -5.000000 5.000000 62.196662 5.997037 861.933182 1511.668840 18.439108 0.000000 0.049623
694.000000 53.856000 4.000000 -5.000000 5.000000 66.359037 -0.685065 987.869483 1412.171743 18.583551 0.000000 0.077166
695.000000 49.805000 6.000000 -5.000000 5.000000 71.500764 -12.173738 1207.186722 1309.391214 20.092817 0.000000 0.110787
696.000000 47.097000 7.000000 -5.000000 5.000000 72.930545 -16.961087 1303.257047 1286.512078 21.247325 0.000000 0.116655
697.000000 49.289000 2.000000 -4.000000 5.000000 47.989431 8.255961 818.830416 1920.611523 20.310650 0.000000 0.120094
698.000000 51.423000 3.000000 -4.000000 5.000000 53.951113 0.943161 957.281238 1724.483688 19.466279 0.000000 0.032624
699.000000 51.340000 4.000000 -4.000000 5.000000 58.480829 -5.692865 1082.293087 1604.320999 19.496734 0.000000 0.029589
700.000000 49.841000 5.000000 -4.000000 5.000000 61.817231 -11.589815 1195.732110 1529.690060 20.081646 0.000000 0.064278
701.000000 47.568000 6.000000 -4.000000 5.000000 64.223537 -16.760075 1299.134225 1483.814002 21.040056 0.000000 0.087002
703.000000 46.315000 4.000000 -3.000000 5.000000 49.148848 -10.909049 1182.437906 1888.838975 21.614024 0.000000 0.103093
706.000000 45.789000 4.000000 -7.000000 6.000000 69.355199 7.660792 830.229223 1350.165134 21.856485 0.000000 0.095085
#UB matrix in q= (UB) B0 G* 
#[[-0.529807056  0.767557252  0.358827999]
# [-0.781735219 -0.607045766  0.14433576 ]
# [ 0.328929371 -0.204209901  0.922632277]]
#B0 matrix in q= UB (B0) G*
#[[ 0.19670273 -0.          0.03056101]
# [ 0.          0.19187965 -0.        ]
# [ 0.          0.          0.18806537]]
#UBB0 matrix in q= (UB B0) G* i.e. recip. basis vectors are columns in LT frame: astar = UBB0[:,0], bstar = UBB0[:,1], cstar = UBB0[:,2]. (abcstar as columns on xyzlab1, xlab1 = ui, ui = unit vector along incident beam)
#[[-0.1042145   0.14727862  0.05129168]
# [-0.15376945 -0.11647973  0.00325394]
# [ 0.06470131 -0.03918372  0.18356759]]
#Euler angles phi theta psi (deg)
#[58.128 22.788 68.122]
#deviatoric strain in direct crystal frame (10-3 unit)
#[[ 2.23 -0.41 -0.36]
# [-0.41  2.48  0.46]
# [-0.36  0.46 -4.71]]
#deviatoric strain in sample2 frame (10-3 unit)
#[[-2.39 -0.8  -3.41]
# [-0.8   1.79 -0.51]
# [-3.41 -0.51  0.59]]
#new lattice parameters
#[ 5.1505     5.2129054  5.31467   89.9651438 99.2562824 90.046402 ]
#CCDLabel
#sCMOS
#DetectorParameters
#[79.0, 975.0, 941.0, 0.0, 0.0]
#pixelsize
#0.0734
#Frame dimensions
#[2018, 2016]
#
