#Strain and Orientation Refinement from experimental file: /home/micha/LaueProjects/DepthEffects/testZrO2_92.cor
#File created at Wed Jun 28 14:24:00 2023 with indexingSpotsSet.py
#Number of indexed spots: 535
#Element
#ZrO2
#grainIndex
#G_0
#Mean Deviation(pixel): 0.114
##spot_index intensity h k l 2theta Chi Xexp Yexp Energy GrainIndex PixDev
0.000000 45.612000 5.000000 7.000000 -9.000000 80.019325 -6.593284 1099.403653 1131.666465 21.935574 0.000000 0.141468
1.000000 45.517000 6.000000 7.000000 -9.000000 82.747729 -12.356036 1210.773018 1081.213061 21.980260 0.000000 0.143025
2.000000 45.537000 4.000000 8.000000 -9.000000 82.744841 1.950521 938.345546 1078.099852 21.970811 0.000000 0.152049
3.000000 46.065000 5.000000 8.000000 -9.000000 86.172401 -3.819796 1046.860911 1013.168459 21.717375 0.000000 0.158262
4.000000 45.955000 6.000000 8.000000 -9.000000 88.870330 -9.597634 1156.995832 962.524751 21.768354 0.000000 0.156649
5.000000 45.900000 5.000000 9.000000 -9.000000 91.598594 -1.069950 995.101227 910.957570 21.793325 0.000000 0.166261
6.000000 45.808000 2.000000 3.000000 -3.000000 94.298495 -6.835989 1104.026036 859.522221 7.278671 0.000000 0.163231
7.000000 45.799000 5.000000 4.000000 -8.000000 63.117109 -17.080193 1305.704119 1511.806869 21.852280 0.000000 0.083263
8.000000 45.495000 3.000000 2.000000 -4.000000 65.981958 -23.184514 1435.956018 1462.737867 10.998437 0.000000 0.105662
9.000000 47.083000 3.000000 5.000000 -8.000000 64.070813 -0.945141 992.755966 1464.369344 21.256566 0.000000 0.060613
10.000000 48.731000 4.000000 5.000000 -8.000000 68.572693 -7.518217 1117.044975 1367.049587 20.536326 0.000000 0.091569
11.000000 49.178000 5.000000 5.000000 -8.000000 72.136339 -14.005145 1243.452963 1298.507150 20.347708 0.000000 0.109128
12.000000 48.625000 6.000000 5.000000 -8.000000 74.786520 -20.248532 1372.034585 1252.974585 20.578000 0.000000 0.115701
13.000000 47.320000 7.000000 5.000000 -8.000000 76.616607 -26.124692 1502.846392 1226.218324 21.144250 0.000000 0.116200
14.000000 45.510000 8.000000 5.000000 -8.000000 77.757272 -31.553877 1635.946914 1215.064167 21.984052 0.000000 0.118559
15.000000 46.901000 1.000000 3.000000 -4.000000 67.070264 8.508847 813.976827 1401.370183 10.669047 0.000000 0.085305
16.000000 49.433000 3.000000 6.000000 -8.000000 72.323530 2.144336 934.700095 1284.242715 20.243310 0.000000 0.112387
17.000000 50.803000 2.000000 3.000000 -4.000000 76.710563 -4.380445 1057.446818 1195.960454 9.847928 0.000000 0.130992
18.000000 51.080000 5.000000 6.000000 -8.000000 80.160736 -10.900343 1182.268301 1131.097788 19.587286 0.000000 0.138353
19.000000 50.437000 3.000000 3.000000 -4.000000 82.689387 -17.250939 1309.217594 1085.583174 9.918016 0.000000 0.135297
20.000000 49.089000 7.000000 6.000000 -8.000000 84.380191 -23.292097 1438.349576 1056.304476 20.379555 0.000000 0.124358
21.000000 47.256000 4.000000 3.000000 -4.000000 85.357990 -28.923441 1569.721024 1040.844870 10.584556 0.000000 0.110737
22.000000 48.205000 2.000000 7.000000 -8.000000 74.352841 11.380729 758.357696 1248.508262 20.757994 0.000000 0.121367
23.000000 50.417000 3.000000 7.000000 -8.000000 79.506016 5.170190 877.614141 1141.176901 19.845338 0.000000 0.142051
24.000000 51.597000 4.000000 7.000000 -8.000000 83.819576 -1.269570 998.852620 1057.579540 19.389875 0.000000 0.154391
25.000000 51.803000 5.000000 7.000000 -8.000000 87.216987 -7.783748 1122.122959 993.806261 19.311550 0.000000 0.156767
26.000000 51.173000 6.000000 7.000000 -8.000000 89.699773 -14.206621 1247.476669 946.817694 19.547965 0.000000 0.149413
27.000000 49.890000 7.000000 7.000000 -8.000000 91.336194 -20.385817 1374.967016 914.217791 20.049770 0.000000 0.133545
28.000000 48.141000 8.000000 7.000000 -8.000000 92.239266 -26.202000 1504.649097 894.094352 20.777416 0.000000 0.111885
29.000000 46.096000 9.000000 7.000000 -8.000000 92.542337 -31.578340 1636.579922 884.904848 21.698844 0.000000 0.091300
30.000000 45.645000 1.000000 8.000000 -8.000000 74.930523 19.789821 587.726192 1248.980495 21.921568 0.000000 0.120043
31.000000 48.455000 1.000000 4.000000 -4.000000 80.649519 14.150112 703.652605 1123.769271 10.324183 0.000000 0.139460
32.000000 50.404000 3.000000 8.000000 -8.000000 85.714532 8.118086 821.474000 1022.468848 19.848006 0.000000 0.156056
33.000000 51.452000 2.000000 4.000000 -4.000000 89.982045 1.796749 941.237223 941.337453 9.721108 0.000000 0.165083
34.000000 51.643000 5.000000 8.000000 -8.000000 93.369339 -4.673729 1062.990679 877.422918 19.369100 0.000000 0.165206
35.000000 51.086000 3.000000 4.000000 -4.000000 95.862595 -11.131976 1186.784394 828.366730 9.789532 0.000000 0.156324
36.000000 49.929000 7.000000 8.000000 -8.000000 97.511458 -17.418414 1312.670085 792.263772 20.031904 0.000000 0.138965
37.000000 48.328000 2.000000 2.000000 -2.000000 98.412754 -23.397628 1440.701233 767.560104 5.173672 0.000000 0.114415
38.000000 46.430000 9.000000 8.000000 -8.000000 98.689355 -28.972851 1570.933155 752.977300 21.540174 0.000000 0.086178
39.000000 45.495000 1.000000 9.000000 -8.000000 80.486059 22.222500 535.279309 1135.852323 21.991393 0.000000 0.127913
40.000000 47.971000 2.000000 9.000000 -8.000000 86.077777 16.810166 649.839205 1018.087905 20.854068 0.000000 0.144916
41.000000 49.702000 3.000000 9.000000 -8.000000 91.060634 10.976054 766.256358 920.702544 20.126110 0.000000 0.159039
42.000000 50.654000 4.000000 9.000000 -8.000000 95.297866 4.802365 884.576305 840.844024 19.746465 0.000000 0.166465
43.000000 50.859000 5.000000 9.000000 -8.000000 98.701773 -1.588428 1004.846078 776.206424 19.665646 0.000000 0.165900
44.000000 50.401000 6.000000 9.000000 -8.000000 101.243780 -8.044419 1127.114277 724.906827 19.843114 0.000000 0.157032
45.000000 49.398000 7.000000 9.000000 -8.000000 102.953937 -14.404281 1251.431127 685.394037 20.245348 0.000000 0.140005
46.000000 47.977000 8.000000 9.000000 -8.000000 103.910235 -20.520483 1377.848554 656.380028 20.844386 0.000000 0.115349
47.000000 46.262000 9.000000 9.000000 -8.000000 104.221505 -26.277855 1506.420250 636.787784 21.616720 0.000000 0.084555
48.000000 47.004000 1.000000 5.000000 -4.000000 90.754125 19.356468 596.895870 925.984277 10.640706 0.000000 0.141424
49.000000 48.550000 3.000000 10.000000 -8.000000 95.656693 13.734620 711.938665 831.255039 20.601694 0.000000 0.154155
50.000000 49.427000 2.000000 5.000000 -4.000000 99.870637 7.733088 828.846342 752.006143 10.117275 0.000000 0.161057
51.000000 49.658000 5.000000 10.000000 -8.000000 103.305209 1.454867 947.664616 686.389423 20.139399 0.000000 0.160773
52.000000 49.305000 3.000000 5.000000 -4.000000 105.919017 -4.961810 1068.440711 632.868545 10.141195 0.000000 0.152834
53.000000 48.460000 7.000000 10.000000 -8.000000 107.723238 -11.359297 1191.223419 590.157103 20.635066 0.000000 0.137163
54.000000 47.227000 4.000000 5.000000 -4.000000 108.775992 -17.582707 1316.063165 557.170947 10.586666 0.000000 0.113904
55.000000 45.708000 9.000000 10.000000 -8.000000 109.169612 -23.501164 1443.012080 532.991081 21.876647 0.000000 0.083545
56.000000 45.734000 2.000000 11.000000 -8.000000 94.786270 21.786751 544.801669 843.948552 21.870480 0.000000 0.131524
57.000000 47.124000 3.000000 11.000000 -8.000000 99.607847 16.386785 658.499096 751.092605 21.223684 0.000000 0.143583
58.000000 47.940000 4.000000 11.000000 -8.000000 103.799435 10.576978 774.024578 672.078835 20.860901 0.000000 0.150671
59.000000 48.197000 5.000000 11.000000 -8.000000 107.269364 4.440276 891.422560 605.395593 20.748182 0.000000 0.151295
60.000000 47.944000 6.000000 11.000000 -8.000000 109.966051 -1.901839 1010.738940 549.767454 20.856782 0.000000 0.144857
61.000000 47.250000 7.000000 11.000000 -8.000000 111.883693 -8.300353 1132.021128 504.111806 21.162197 0.000000 0.131143
62.000000 46.198000 8.000000 11.000000 -8.000000 113.060849 -14.598228 1255.318110 467.504709 21.643414 0.000000 0.110108
63.000000 45.546000 3.000000 12.000000 -8.000000 103.008299 18.927897 605.916527 678.140207 21.957220 0.000000 0.128854
64.000000 46.309000 1.000000 3.000000 -2.000000 107.174635 13.324491 720.088991 599.150915 5.398464 0.000000 0.136613
65.000000 46.590000 5.000000 12.000000 -8.000000 110.678159 7.353760 836.096946 531.402045 21.462218 0.000000 0.138566
66.000000 46.425000 3.000000 6.000000 -4.000000 113.459928 1.118576 953.985016 473.819690 10.768778 0.000000 0.133993
67.000000 45.868000 7.000000 12.000000 -8.000000 115.499738 -5.244812 1073.799279 425.481637 21.798523 0.000000 0.122593
68.000000 46.751000 3.000000 3.000000 -7.000000 50.985729 -8.719850 1140.077798 1823.206940 21.411613 0.000000 0.086727
69.000000 48.935000 4.000000 3.000000 -7.000000 55.962319 -16.127631 1286.218753 1697.782951 20.454265 0.000000 0.086724
70.000000 49.323000 5.000000 3.000000 -7.000000 59.777483 -23.153391 1435.264292 1622.908615 20.291631 0.000000 0.112894
71.000000 48.359000 6.000000 3.000000 -7.000000 62.535185 -29.635470 1587.301877 1584.638560 20.694321 0.000000 0.143069
72.000000 46.515000 7.000000 3.000000 -7.000000 64.413637 -35.489741 1742.422519 1573.948350 21.513481 0.000000 0.179284
73.000000 49.677000 2.000000 4.000000 -7.000000 56.390101 2.396170 929.961967 1656.982320 20.149009 0.000000 0.009824
74.000000 53.137000 3.000000 4.000000 -7.000000 62.259388 -5.109486 1071.236327 1509.298902 18.835456 0.000000 0.050357
75.000000 54.659000 4.000000 4.000000 -7.000000 66.948834 -12.583936 1215.263463 1410.267371 18.309365 0.000000 0.086457
76.000000 54.494000 5.000000 4.000000 -7.000000 70.430228 -19.782790 1362.124624 1347.608479 18.363227 0.000000 0.105404
77.000000 53.064000 6.000000 4.000000 -7.000000 72.812715 -26.512097 1511.904288 1313.029591 18.856559 0.000000 0.115256
78.000000 50.813000 7.000000 4.000000 -7.000000 74.282608 -32.651785 1664.690328 1300.736085 19.690858 0.000000 0.127721
79.000000 48.113000 8.000000 4.000000 -7.000000 75.046278 -38.154408 1820.574175 1306.563829 20.795014 0.000000 0.155542
80.000000 49.283000 1.000000 5.000000 -7.000000 59.688012 12.936205 727.779809 1586.623694 20.308888 0.000000 0.059183
81.000000 53.892000 2.000000 5.000000 -7.000000 66.384374 5.864584 864.448159 1414.046867 18.570093 0.000000 0.079268
82.000000 56.777000 3.000000 5.000000 -7.000000 72.083159 -1.528968 1003.728298 1289.106916 17.624906 0.000000 0.110673
83.000000 57.902000 4.000000 5.000000 -7.000000 76.595038 -9.011817 1145.695817 1200.713862 17.280952 0.000000 0.128321
84.000000 57.490000 5.000000 5.000000 -7.000000 79.883639 -16.334263 1290.429252 1141.111362 17.403382 0.000000 0.131240
85.000000 55.907000 6.000000 5.000000 -7.000000 82.045481 -23.276855 1438.010230 1104.717800 17.894872 0.000000 0.122998
86.000000 53.545000 7.000000 5.000000 -7.000000 83.259634 -29.684582 1588.523622 1087.419736 18.683412 0.000000 0.111573
87.000000 50.743000 8.000000 5.000000 -7.000000 83.733768 -35.476864 1742.057704 1086.124308 19.714585 0.000000 0.112598
88.000000 47.758000 9.000000 5.000000 -7.000000 83.664802 -40.637069 1898.704332 1098.466260 20.946498 0.000000 0.142391
89.000000 46.586000 0.000000 6.000000 -7.000000 61.164208 22.322291 533.090302 1581.577191 21.483232 0.000000 0.099359
90.000000 51.840000 1.000000 6.000000 -7.000000 68.387230 16.048345 665.394511 1384.704257 19.304110 0.000000 0.098245
91.000000 55.819000 2.000000 6.000000 -7.000000 74.930303 9.225882 800.179380 1234.593836 17.926199 0.000000 0.124181
92.000000 58.273000 3.000000 6.000000 -7.000000 80.504060 1.994664 937.515338 1121.140642 17.169682 0.000000 0.145683
93.000000 59.181000 4.000000 6.000000 -7.000000 84.922283 -5.438817 1077.475502 1037.067301 16.904805 0.000000 0.154811
94.000000 58.722000 5.000000 6.000000 -7.000000 88.131836 -12.830762 1220.135814 977.004699 17.035589 0.000000 0.150778
95.000000 57.195000 6.000000 6.000000 -7.000000 90.204690 -19.945269 1365.575173 936.909555 17.489511 0.000000 0.135056
96.000000 54.927000 7.000000 6.000000 -7.000000 91.300089 -26.596065 1513.875581 913.683276 18.210752 0.000000 0.111523
97.000000 52.216000 8.000000 6.000000 -7.000000 91.616640 -32.668084 1665.122300 904.915373 19.155649 0.000000 0.090878
98.000000 49.297000 9.000000 6.000000 -7.000000 91.352296 -38.115870 1819.404014 908.706418 20.289557 0.000000 0.097272
99.000000 46.339000 10.000000 6.000000 -7.000000 90.680198 -42.947345 1976.813000 923.543199 21.584636 0.000000 0.143331
100.000000 48.117000 0.000000 2.000000 -2.000000 68.742278 24.976660 473.649408 1402.913125 5.942011 0.000000 0.111247
101.000000 52.680000 1.000000 7.000000 -7.000000 75.780855 19.010914 604.172823 1229.460664 18.993810 0.000000 0.122618
102.000000 56.118000 2.000000 7.000000 -7.000000 82.170650 12.462996 737.120475 1092.567294 17.828321 0.000000 0.144802
103.000000 58.243000 3.000000 7.000000 -7.000000 87.647489 5.436916 872.560534 985.416300 17.175999 0.000000 0.160973
104.000000 59.040000 4.000000 7.000000 -7.000000 92.027887 -1.892523 1010.563753 902.869681 16.942733 0.000000 0.166267
105.000000 58.644000 5.000000 7.000000 -7.000000 95.239624 -9.297597 1151.203588 840.985049 17.056099 0.000000 0.159760
106.000000 57.286000 6.000000 7.000000 -7.000000 97.324316 -16.536377 1294.556327 796.690465 17.459451 0.000000 0.141928
107.000000 52.734000 8.000000 7.000000 -7.000000 98.685458 -29.732655 1589.720684 751.656076 18.965187 0.000000 0.082335
108.000000 50.000000 9.000000 7.000000 -7.000000 98.334220 -35.464246 1741.700332 747.414715 20.002112 0.000000 0.065955
109.000000 47.187000 10.000000 7.000000 -7.000000 97.534976 -40.576468 1896.729267 753.563422 21.194529 0.000000 0.098112
110.000000 48.409000 0.000000 8.000000 -7.000000 75.206442 27.475686 415.297037 1261.376034 20.668934 0.000000 0.118189
111.000000 52.359000 1.000000 8.000000 -7.000000 82.042874 21.819754 544.082491 1103.051855 19.107714 0.000000 0.130492
112.000000 55.339000 2.000000 8.000000 -7.000000 88.277709 15.563234 675.237597 974.594524 18.076959 0.000000 0.149382
113.000000 57.207000 3.000000 8.000000 -7.000000 93.671722 8.776733 808.828365 871.114251 17.484943 0.000000 0.162803
114.000000 57.948000 4.000000 8.000000 -7.000000 98.045944 1.600697 944.923278 788.797106 17.259935 0.000000 0.166730
115.000000 57.660000 5.000000 8.000000 -7.000000 101.310994 -5.761398 1083.593414 724.627405 17.345034 0.000000 0.160050
116.000000 56.518000 6.000000 8.000000 -7.000000 103.477361 -13.072275 1224.912563 676.191992 17.694523 0.000000 0.142715
117.000000 54.732000 7.000000 8.000000 -7.000000 104.642883 -20.104206 1368.957364 641.539551 18.271249 0.000000 0.115292
118.000000 52.508000 8.000000 8.000000 -7.000000 104.963184 -26.678235 1515.807440 619.077720 19.044711 0.000000 0.079680
119.000000 50.026000 9.000000 8.000000 -7.000000 104.617105 -32.684047 1665.545547 607.496669 19.989632 0.000000 0.046400
120.000000 47.427000 10.000000 8.000000 -7.000000 103.778216 -38.078078 1818.257725 605.711545 21.084886 0.000000 0.062828
121.000000 47.880000 0.000000 9.000000 -7.000000 80.720993 29.823922 358.003562 1143.689707 20.894898 0.000000 0.116306
122.000000 51.301000 1.000000 9.000000 -7.000000 87.345721 24.474076 485.092442 995.821813 19.499689 0.000000 0.126598
123.000000 53.895000 2.000000 9.000000 -7.000000 93.423335 18.518134 614.498152 873.100825 18.559251 0.000000 0.143149
124.000000 55.555000 3.000000 9.000000 -7.000000 98.738905 11.997044 746.284631 771.861555 18.003042 0.000000 0.155388
125.000000 56.265000 4.000000 9.000000 -7.000000 103.120487 5.016813 880.518187 689.168017 17.774394 0.000000 0.159387
126.000000 56.095000 5.000000 9.000000 -7.000000 106.465686 -2.248932 1017.267619 622.642925 17.827258 0.000000 0.153831
127.000000 55.174000 6.000000 9.000000 -7.000000 108.756588 -9.577370 1156.604325 570.343016 18.123833 0.000000 0.138368
128.000000 53.665000 7.000000 9.000000 -7.000000 110.057204 -16.734116 1298.602434 530.666435 18.632794 0.000000 0.113049
129.000000 51.734000 8.000000 9.000000 -7.000000 110.494006 -23.515796 1443.338932 502.282989 19.327964 0.000000 0.078348
130.000000 49.531000 9.000000 9.000000 -7.000000 110.227178 -29.779723 1590.893803 484.080924 20.187299 0.000000 0.037255
131.000000 47.183000 10.000000 9.000000 -7.000000 109.422702 -35.451878 1741.350178 475.125860 21.192102 0.000000 0.035745
132.000000 46.834000 0.000000 10.000000 -7.000000 85.436148 32.027415 301.740417 1042.337284 21.359554 0.000000 0.107687
133.000000 49.804000 1.000000 10.000000 -7.000000 91.845617 26.975818 427.172728 902.084206 20.083811 0.000000 0.114661
134.000000 52.074000 2.000000 10.000000 -7.000000 97.764036 21.323086 554.870739 783.470499 19.206549 0.000000 0.129499
135.000000 53.561000 3.000000 10.000000 -7.000000 102.999660 15.084969 684.896397 683.656809 18.671727 0.000000 0.141535
136.000000 54.249000 4.000000 10.000000 -7.000000 107.389904 8.335010 817.313930 600.319606 18.433344 0.000000 0.146502
137.000000 54.187000 5.000000 10.000000 -7.000000 110.824247 1.214095 952.189949 531.540953 18.453283 0.000000 0.142847
138.000000 53.471000 6.000000 10.000000 -7.000000 113.261102 -6.077413 1089.593563 475.725464 18.699694 0.000000 0.130015
139.000000 52.223000 7.000000 10.000000 -7.000000 114.732547 -13.308637 1229.596496 431.536967 19.145758 0.000000 0.107828
140.000000 50.577000 8.000000 10.000000 -7.000000 115.334153 -20.259712 1372.273209 397.849606 19.768727 0.000000 0.076261
141.000000 48.655000 9.000000 10.000000 -7.000000 115.203227 -26.758662 1517.701039 373.709708 20.549184 0.000000 0.035482
142.000000 46.567000 10.000000 10.000000 -7.000000 114.493373 -32.699686 1665.960329 358.305731 21.470453 0.000000 0.016836
143.000000 45.482000 0.000000 11.000000 -7.000000 89.482463 34.093208 246.480057 952.739909 21.992743 0.000000 0.095277
144.000000 48.071000 1.000000 11.000000 -7.000000 95.677385 29.329033 370.294482 818.269078 20.806251 0.000000 0.097420
145.000000 50.068000 2.000000 11.000000 -7.000000 101.435451 23.976797 496.325095 702.727381 19.974698 0.000000 0.110701
146.000000 51.407000 3.000000 11.000000 -7.000000 106.586606 18.031719 624.631936 603.858058 19.452430 0.000000 0.123147
147.000000 52.076000 4.000000 11.000000 -7.000000 110.979366 11.538243 755.277232 519.781762 19.201300 0.000000 0.129672
148.000000 52.106000 5.000000 11.000000 -7.000000 114.499747 4.604121 888.325502 448.922306 19.189186 0.000000 0.128398
149.000000 51.567000 6.000000 11.000000 -7.000000 117.088038 -2.598375 1023.843657 389.949355 19.388849 0.000000 0.118623
150.000000 50.553000 7.000000 11.000000 -7.000000 118.748154 -9.851313 1161.901119 341.733709 19.777036 0.000000 0.100080
151.000000 49.168000 8.000000 11.000000 -7.000000 119.545187 -16.927616 1302.569932 303.312088 20.333779 0.000000 0.072690
152.000000 47.513000 9.000000 11.000000 -7.000000 119.590989 -23.631440 1445.924896 273.859129 21.041832 0.000000 0.036622
153.000000 45.680000 10.000000 11.000000 -7.000000 119.022780 -29.825815 1592.043692 252.664951 21.886226 0.000000 0.012468
154.000000 46.234000 1.000000 12.000000 -7.000000 98.954257 31.539310 314.429863 742.019323 21.631567 0.000000 0.077158
155.000000 47.999000 2.000000 12.000000 -7.000000 104.551867 26.480701 438.832047 628.863751 20.834005 0.000000 0.088332
156.000000 49.213000 3.000000 12.000000 -7.000000 109.612943 20.832255 565.460668 530.648388 20.318715 0.000000 0.101540
157.000000 49.860000 4.000000 12.000000 -7.000000 113.998130 14.613474 694.376038 445.826063 20.053515 0.000000 0.110039
158.000000 49.963000 5.000000 12.000000 -7.000000 117.593921 7.900583 825.640664 373.081693 20.010938 0.000000 0.111462
159.000000 49.573000 6.000000 12.000000 -7.000000 120.328010 0.834689 959.319353 311.291542 20.167396 0.000000 0.104969
160.000000 48.761000 7.000000 12.000000 -7.000000 122.180954 -6.387044 1095.479319 259.490823 20.502520 0.000000 0.090284
161.000000 47.608000 8.000000 12.000000 -7.000000 123.189504 -13.540003 1234.190292 216.847736 20.998628 0.000000 0.067476
162.000000 46.196000 9.000000 12.000000 -7.000000 123.439112 -20.411896 1375.524642 182.642487 21.640299 0.000000 0.037639
163.000000 45.946000 2.000000 13.000000 -7.000000 107.208059 28.838361 382.363460 560.474042 21.763771 0.000000 0.063570
164.000000 47.049000 3.000000 13.000000 -7.000000 112.173545 23.484813 507.353117 462.735341 21.251860 0.000000 0.077641
165.000000 47.673000 4.000000 13.000000 -7.000000 116.539520 17.551614 634.579454 377.205139 20.972209 0.000000 0.088462
166.000000 47.833000 5.000000 13.000000 -7.000000 120.195983 11.086487 764.103053 302.772201 20.901039 0.000000 0.092803
167.000000 47.565000 6.000000 13.000000 -7.000000 123.063009 4.198686 895.986699 238.476869 21.017714 0.000000 0.089689
168.000000 46.924000 7.000000 13.000000 -7.000000 125.102954 -2.941031 1030.295491 183.487062 21.304233 0.000000 0.078885
169.000000 45.972000 8.000000 13.000000 -7.000000 126.327583 -10.119592 1167.096940 137.078760 21.744822 0.000000 0.060691
170.000000 45.560000 4.000000 14.000000 -7.000000 118.682197 20.347232 575.857698 312.994804 21.944272 0.000000 0.065687
171.000000 45.761000 5.000000 14.000000 -7.000000 122.382880 14.148668 703.681459 237.059691 21.846443 0.000000 0.073131
172.000000 45.592000 6.000000 14.000000 -7.000000 125.365766 7.473321 833.812985 170.540269 21.926529 0.000000 0.073381
173.000000 49.497000 3.000000 2.000000 -6.000000 45.458755 -14.839319 1260.159520 2036.740816 20.224575 0.000000 0.176569
174.000000 51.804000 2.000000 1.000000 -3.000000 50.805179 -23.111622 1434.336479 1895.226633 9.661033 0.000000 0.165869
175.000000 51.634000 5.000000 2.000000 -6.000000 54.704169 -30.643169 1612.613701 1826.609296 19.383827 0.000000 0.193582
176.000000 49.854000 3.000000 1.000000 -3.000000 57.391392 -37.307450 1795.137693 1806.666794 10.037287 0.000000 0.241351
177.000000 47.208000 7.000000 2.000000 -6.000000 59.153287 -43.096698 1982.062029 1821.291168 21.198321 0.000000 0.308115
178.000000 48.838000 1.000000 3.000000 -6.000000 45.100966 6.798280 846.692448 2021.101812 20.497504 0.000000 0.144075
179.000000 56.000000 2.000000 3.000000 -6.000000 52.937224 -1.879708 1010.322765 1754.333958 17.874894 0.000000 0.045360
180.000000 60.044000 1.000000 1.000000 -2.000000 59.361797 -10.664284 1177.673115 1589.691653 5.556395 0.000000 0.053199
181.000000 61.071000 4.000000 3.000000 -6.000000 64.167387 -19.155668 1348.871815 1492.598709 16.387208 0.000000 0.091473
182.000000 59.776000 5.000000 3.000000 -6.000000 67.442259 -27.027625 1524.053152 1442.900803 16.740873 0.000000 0.118362
183.000000 57.014000 2.000000 1.000000 -2.000000 69.454296 -34.087285 1703.357737 1428.075855 5.850202 0.000000 0.147957
184.000000 53.511000 7.000000 3.000000 -6.000000 70.521597 -40.274257 1886.932874 1439.951251 18.698652 0.000000 0.195740
185.000000 49.767000 8.000000 3.000000 -6.000000 70.930427 -45.622336 2074.932974 1472.982310 20.104584 0.000000 0.268757
187.000000 48.632000 0.000000 2.000000 -3.000000 49.048261 18.537601 614.091395 1926.131168 10.291479 0.000000 0.135152
188.000000 56.997000 1.000000 4.000000 -6.000000 57.652801 10.704525 771.544043 1634.718602 17.560858 0.000000 0.046953
189.000000 63.002000 1.000000 2.000000 -3.000000 65.259347 2.261486 932.496180 1437.352169 7.942670 0.000000 0.069775
190.000000 66.114000 3.000000 4.000000 -6.000000 71.403415 -6.470440 1097.065784 1305.463216 15.136050 0.000000 0.106526
191.000000 66.480000 2.000000 2.000000 -3.000000 75.886682 -15.098497 1265.376197 1221.288114 7.525554 0.000000 0.121770
192.000000 64.721000 5.000000 4.000000 -6.000000 78.787931 -23.256467 1437.556434 1173.215939 15.458852 0.000000 0.119964
193.000000 61.597000 3.000000 2.000000 -3.000000 80.370413 -30.687590 1613.741510 1153.350214 8.121036 0.000000 0.114239
194.000000 57.767000 7.000000 4.000000 -6.000000 80.961617 -37.271568 1794.072796 1156.145805 17.318006 0.000000 0.128326
195.000000 53.708000 4.000000 2.000000 -3.000000 80.866521 -43.001075 1978.698395 1177.605805 9.313275 0.000000 0.179512
196.000000 49.713000 9.000000 4.000000 -6.000000 80.328815 -47.938615 2167.773549 1214.787246 20.123002 0.000000 0.263567
198.000000 53.870000 0.000000 5.000000 -6.000000 59.781183 21.864584 543.105089 1616.481157 18.578728 0.000000 0.098394
199.000000 61.051000 1.000000 5.000000 -6.000000 68.183582 14.430117 698.051473 1385.879724 16.391684 0.000000 0.095907
200.000000 66.088000 2.000000 5.000000 -6.000000 75.585499 6.288046 856.403284 1219.310149 15.140770 0.000000 0.127409
201.000000 68.604000 3.000000 5.000000 -6.000000 81.559671 -2.302423 1018.274039 1100.836517 14.583917 0.000000 0.148194
202.000000 68.729000 4.000000 5.000000 -6.000000 85.898950 -10.978040 1183.782352 1019.608069 14.555893 0.000000 0.150792
203.000000 66.957000 5.000000 5.000000 -6.000000 88.644607 -19.354008 1353.052232 967.990924 14.940059 0.000000 0.136488
204.000000 63.909000 6.000000 5.000000 -6.000000 90.025221 -27.118803 1526.213389 940.467712 15.651728 0.000000 0.111095
205.000000 60.155000 7.000000 5.000000 -6.000000 90.354431 -34.088886 1703.401565 932.960538 16.627924 0.000000 0.092455
206.000000 56.128000 8.000000 5.000000 -6.000000 89.943132 -40.206823 1884.758892 942.398748 17.820846 0.000000 0.116130
207.000000 52.113000 9.000000 5.000000 -6.000000 89.051160 -45.504949 2070.434268 966.434151 19.193556 0.000000 0.186498
208.000000 48.281000 10.000000 5.000000 -6.000000 87.873775 -50.063837 2260.583767 1003.248204 20.717057 0.000000 0.285301
209.000000 48.782000 -1.000000 6.000000 -6.000000 60.107304 31.154193 324.348525 1663.984244 20.515632 0.000000 0.150581
210.000000 62.227000 1.000000 6.000000 -6.000000 76.898696 17.958108 626.160606 1204.315498 16.079224 0.000000 0.126255
211.000000 66.473000 1.000000 3.000000 -3.000000 84.108821 10.166856 781.986787 1053.828376 7.525301 0.000000 0.151236
212.000000 67.162000 5.000000 6.000000 -6.000000 97.050426 -15.351085 1270.472482 802.961068 14.892101 0.000000 0.145637
213.000000 61.005000 7.000000 6.000000 -6.000000 98.665194 -30.730923 1614.842693 750.176869 16.393924 0.000000 0.077521
214.000000 57.242000 4.000000 3.000000 -3.000000 98.109678 -37.236510 1793.033332 748.365570 8.735730 0.000000 0.071026
215.000000 53.418000 3.000000 2.000000 -2.000000 97.014425 -42.907474 1975.416039 760.200418 6.240763 0.000000 0.128569
216.000000 49.705000 5.000000 3.000000 -3.000000 95.590508 -47.803682 2162.140508 784.150524 10.060583 0.000000 0.219198
217.000000 46.201000 11.000000 6.000000 -6.000000 93.990951 -52.015527 2353.363645 818.989639 21.647524 0.000000 0.329384
218.000000 50.158000 -1.000000 7.000000 -6.000000 67.843266 33.646271 258.658238 1467.478561 19.950166 0.000000 0.141604
219.000000 56.430000 0.000000 7.000000 -6.000000 76.187200 27.877383 405.675375 1240.358684 17.730769 0.000000 0.118454
220.000000 61.577000 1.000000 7.000000 -6.000000 84.071597 21.279237 555.819645 1060.940685 16.246734 0.000000 0.133637
221.000000 65.180000 2.000000 7.000000 -6.000000 91.093521 13.872518 709.191893 919.838610 15.346794 0.000000 0.154242
222.000000 67.044000 3.000000 7.000000 -6.000000 96.899644 5.788232 865.897350 810.093429 14.918508 0.000000 0.165315
223.000000 67.228000 4.000000 7.000000 -6.000000 101.261712 -2.715357 1026.045869 726.442125 14.876556 0.000000 0.162778
224.000000 65.988000 5.000000 7.000000 -6.000000 104.123977 -11.283995 1189.752185 664.836267 15.155025 0.000000 0.145885
225.000000 63.686000 6.000000 7.000000 -6.000000 105.599923 -19.547307 1357.136187 622.116100 15.702190 0.000000 0.115139
226.000000 60.690000 7.000000 7.000000 -6.000000 105.921099 -27.207710 1528.323212 595.784549 16.476890 0.000000 0.072994
227.000000 57.319000 8.000000 7.000000 -6.000000 105.366181 -34.090448 1703.444360 583.847177 17.445964 0.000000 0.040045
228.000000 53.814000 9.000000 7.000000 -6.000000 104.201798 -40.140869 1882.636823 584.696690 18.582395 0.000000 0.085666
229.000000 50.342000 10.000000 7.000000 -6.000000 102.649862 -45.389924 2066.044251 597.028202 19.863952 0.000000 0.170148
230.000000 47.011000 11.000000 7.000000 -6.000000 100.878553 -49.914939 2253.817130 619.776122 21.272175 0.000000 0.272190
231.000000 50.179000 -1.000000 8.000000 -6.000000 74.351280 35.954199 194.340197 1313.450318 19.939203 0.000000 0.135368
232.000000 55.506000 0.000000 4.000000 -3.000000 82.374661 30.574170 339.136080 1108.360742 9.011744 0.000000 0.114043
233.000000 59.862000 1.000000 8.000000 -6.000000 89.974471 24.390828 486.979002 941.526565 16.710128 0.000000 0.125958
234.000000 62.944000 1.000000 4.000000 -3.000000 96.806735 17.387573 637.966169 806.379921 7.945051 0.000000 0.144030
235.000000 64.609000 3.000000 8.000000 -6.000000 102.555604 9.639302 792.198962 697.862453 15.479198 0.000000 0.154598
236.000000 64.888000 2.000000 4.000000 -3.000000 106.991913 1.342155 949.783172 612.019669 7.705671 0.000000 0.153353
237.000000 63.960000 5.000000 8.000000 -6.000000 110.020237 -7.192751 1110.829235 545.719711 15.633961 0.000000 0.139094
238.000000 62.088000 3.000000 4.000000 -3.000000 111.693840 -15.597320 1275.452495 496.454179 8.052351 0.000000 0.111619
239.000000 59.556000 7.000000 8.000000 -6.000000 112.188518 -23.535243 1443.773477 462.194408 16.789062 0.000000 0.071283
240.000000 56.622000 4.000000 4.000000 -3.000000 111.747980 -30.773207 1615.918182 441.286000 8.829327 0.000000 0.022776
241.000000 53.498000 9.000000 8.000000 -6.000000 110.626784 -37.202249 1792.018401 432.370245 18.689909 0.000000 0.055931
242.000000 50.339000 5.000000 4.000000 -3.000000 109.050895 -42.815834 1972.212053 434.324794 9.931545 0.000000 0.135448
243.000000 47.251000 11.000000 8.000000 -6.000000 107.200419 -47.671329 2156.643542 446.218301 21.161550 0.000000 0.229692
244.000000 49.355000 -1.000000 9.000000 -6.000000 79.842662 38.090954 131.351848 1186.007283 20.269950 0.000000 0.128442
245.000000 53.884000 0.000000 3.000000 -2.000000 87.535556 33.077057 273.986572 996.282005 6.188097 0.000000 0.101759
246.000000 57.586000 1.000000 9.000000 -6.000000 94.847721 27.295456 419.591184 838.280814 17.368789 0.000000 0.108669
247.000000 60.243000 2.000000 9.000000 -6.000000 101.487165 20.701997 568.259417 707.179107 16.601017 0.000000 0.125224
248.000000 62.110000 4.000000 9.000000 -6.000000 111.687449 5.298595 875.181823 511.126713 16.099088 0.000000 0.137788
249.000000 61.458000 5.000000 9.000000 -6.000000 114.901798 -3.118803 1033.644263 440.618652 16.269078 0.000000 0.127162
250.000000 59.977000 2.000000 3.000000 -2.000000 116.817917 -11.582419 1195.587332 385.592313 5.556653 0.000000 0.104238
251.000000 57.884000 7.000000 9.000000 -6.000000 117.554404 -19.735751 1361.126980 344.371148 17.272340 0.000000 0.068860
252.000000 55.385000 8.000000 9.000000 -6.000000 117.311934 -27.294429 1530.384366 315.564310 18.051613 0.000000 0.020970
253.000000 52.657000 3.000000 3.000000 -2.000000 116.323356 -34.091974 1703.486155 298.011467 6.329008 0.000000 0.039603
254.000000 49.838000 10.000000 9.000000 -6.000000 114.811088 -40.076347 1880.564831 290.740123 20.060937 0.000000 0.112859
255.000000 47.032000 11.000000 9.000000 -6.000000 112.962592 -45.277192 2061.759033 292.932279 21.258282 0.000000 0.199065
256.000000 48.033000 -1.000000 10.000000 -6.000000 84.498870 40.069576 69.652379 1076.452431 20.826149 0.000000 0.123234
257.000000 51.897000 0.000000 5.000000 -3.000000 91.863681 35.397655 210.183760 898.036984 9.636658 0.000000 0.086550
258.000000 55.063000 1.000000 10.000000 -6.000000 98.891558 29.999622 353.610680 746.571437 18.163075 0.000000 0.085561
259.000000 57.370000 1.000000 5.000000 -3.000000 105.335399 23.812214 500.023561 618.380950 8.715419 0.000000 0.100739
260.000000 58.736000 3.000000 10.000000 -6.000000 110.950587 16.825901 649.516630 510.483007 17.024000 0.000000 0.113764
261.000000 59.165000 2.000000 5.000000 -3.000000 115.526725 9.121666 802.188120 420.434472 8.449644 0.000000 0.118043
262.000000 58.739000 5.000000 10.000000 -6.000000 118.922968 0.897431 958.140487 346.217626 17.020771 0.000000 0.111576
263.000000 57.594000 3.000000 5.000000 -3.000000 121.096879 -7.541011 1117.480636 286.154091 8.679187 0.000000 0.093749
264.000000 55.892000 7.000000 10.000000 -6.000000 122.113322 -15.837431 1280.320171 238.839000 17.886731 0.000000 0.064546
265.000000 53.793000 4.000000 5.000000 -3.000000 122.125836 -23.669441 1446.775649 203.090073 9.292146 0.000000 0.025988
266.000000 51.445000 9.000000 10.000000 -6.000000 121.337671 -30.814480 1616.968866 177.907819 19.432638 0.000000 0.036056
267.000000 48.968000 5.000000 5.000000 -3.000000 119.960092 -37.168756 1791.027145 162.444144 10.207964 0.000000 0.099761
268.000000 46.456000 11.000000 10.000000 -6.000000 118.182555 -42.726092 1969.083661 155.977366 21.520466 0.000000 0.177597
269.000000 46.440000 -1.000000 11.000000 -6.000000 88.470200 41.902765 9.202630 979.619823 21.538907 0.000000 0.123502
270.000000 49.755000 0.000000 11.000000 -6.000000 95.516674 37.548353 147.686314 809.887072 20.101665 0.000000 0.074730
271.000000 52.481000 1.000000 11.000000 -6.000000 102.267783 32.512534 288.993859 663.467128 19.055389 0.000000 0.060055
272.000000 54.499000 2.000000 11.000000 -6.000000 108.514662 26.719874 433.212530 537.481123 18.348063 0.000000 0.072477
273.000000 55.744000 3.000000 11.000000 -6.000000 114.044575 20.132810 580.433220 429.548153 17.936507 0.000000 0.087667
274.000000 56.216000 4.000000 11.000000 -6.000000 118.663204 12.785890 730.750650 337.684288 17.784575 0.000000 0.095532
275.000000 55.970000 5.000000 11.000000 -6.000000 122.222468 4.818896 884.263568 260.225334 17.861783 0.000000 0.093475
276.000000 55.103000 6.000000 11.000000 -6.000000 124.648551 -3.513046 1041.074963 195.767079 18.142238 0.000000 0.080879
277.000000 53.734000 7.000000 11.000000 -6.000000 125.959436 -11.873570 1201.292300 143.118585 18.603806 0.000000 0.058111
278.000000 51.991000 8.000000 11.000000 -6.000000 126.261199 -19.919515 1365.027763 101.265328 19.227456 0.000000 0.029769
279.000000 49.991000 9.000000 11.000000 -6.000000 125.721904 -27.379039 1532.398516 69.339854 19.996733 0.000000 0.039128
280.000000 47.837000 10.000000 11.000000 -6.000000 124.534668 -34.093465 1703.526988 46.598234 20.897334 0.000000 0.092915
281.000000 45.612000 11.000000 11.000000 -6.000000 122.885230 -40.013213 1878.541162 32.401032 21.916774 0.000000 0.162612
282.000000 47.583000 0.000000 4.000000 -2.000000 98.620823 39.541715 86.454580 729.404400 7.005904 0.000000 0.074014
283.000000 49.947000 1.000000 12.000000 -6.000000 105.105263 34.845100 225.698879 587.018471 20.020855 0.000000 0.038645
284.000000 51.724000 1.000000 6.000000 -3.000000 111.155595 29.430585 367.782156 462.778613 9.665708 0.000000 0.041778
285.000000 52.863000 1.000000 4.000000 -2.000000 116.587783 23.240803 512.792130 354.747251 6.304429 0.000000 0.059525
286.000000 53.360000 2.000000 6.000000 -3.000000 121.225518 16.272992 660.820170 261.286648 9.367900 0.000000 0.071426
287.000000 53.252000 5.000000 12.000000 -6.000000 124.921102 8.613755 811.961488 181.004849 18.772741 0.000000 0.073850
288.000000 52.608000 2.000000 4.000000 -2.000000 127.580006 0.462312 966.315344 112.713028 6.333856 0.000000 0.066314
289.000000 51.519000 7.000000 12.000000 -6.000000 129.182080 -7.881045 1123.985263 55.391515 19.402799 0.000000 0.049670
290.000000 50.082000 4.000000 6.000000 -3.000000 129.788817 -16.071636 1285.079267 8.162528 9.979747 0.000000 0.030517
291.000000 48.391000 3.000000 4.000000 -2.000000 129.530086 -23.800347 1449.710119 -29.731880 6.885623 0.000000 0.042597
292.000000 46.532000 5.000000 6.000000 -3.000000 128.574978 -30.854777 1617.995592 -58.947777 10.740975 0.000000 0.089103
294.000000 47.520000 1.000000 13.000000 -6.000000 107.506030 37.009116 163.685587 515.875487 21.042356 0.000000 0.039007
295.000000 49.094000 2.000000 13.000000 -6.000000 113.361973 31.952755 303.690082 393.074699 20.366009 0.000000 0.010807
296.000000 50.138000 3.000000 13.000000 -6.000000 118.685846 26.150646 446.548659 284.935811 19.940397 0.000000 0.030833
297.000000 50.646000 4.000000 13.000000 -6.000000 123.319841 19.571618 592.349492 190.088098 19.739157 0.000000 0.047298
298.000000 50.642000 5.000000 13.000000 -6.000000 127.122010 12.256567 741.184421 107.353400 19.739495 0.000000 0.053954
299.000000 50.177000 6.000000 13.000000 -6.000000 129.986265 4.348902 893.149153 35.714933 19.921605 0.000000 0.050901
300.000000 49.318000 7.000000 13.000000 -6.000000 131.863633 -3.898361 1048.343459 -25.707943 20.268191 0.000000 0.039538
301.000000 48.139000 8.000000 13.000000 -6.000000 132.776305 -12.157697 1206.871398 -77.680280 20.764087 0.000000 0.028080
302.000000 46.717000 9.000000 13.000000 -6.000000 132.815556 -20.098769 1368.841547 -120.868396 21.395933 0.000000 0.043870
303.000000 46.631000 1.000000 7.000000 -3.000000 115.216031 34.296591 240.895662 327.498014 10.720555 0.000000 0.026085
304.000000 47.589000 3.000000 14.000000 -6.000000 120.423370 28.867092 381.659932 219.271016 21.007652 0.000000 0.013986
305.000000 48.097000 2.000000 7.000000 -3.000000 125.032999 22.676571 525.293377 123.229370 10.392221 0.000000 0.028231
306.000000 48.171000 5.000000 14.000000 -6.000000 128.912122 15.728744 671.884623 38.365599 20.751473 0.000000 0.036696
307.000000 47.847000 3.000000 7.000000 -3.000000 131.950339 8.115374 821.525983 -36.197707 10.445597 0.000000 0.036355
308.000000 47.175000 7.000000 14.000000 -6.000000 134.078717 0.036537 974.313655 -101.226978 21.188150 0.000000 0.028429
309.000000 46.213000 4.000000 7.000000 -3.000000 135.286911 -8.213118 1130.347922 -157.393415 10.814339 0.000000 0.022613
310.000000 45.721000 4.000000 15.000000 -6.000000 126.435606 25.587778 459.608438 60.055624 21.863954 0.000000 0.031158
311.000000 45.852000 5.000000 15.000000 -6.000000 130.364050 19.018361 604.016319 -26.654585 21.800613 0.000000 0.030799
312.000000 45.638000 2.000000 5.000000 -2.000000 133.543934 11.736372 751.397533 -103.776996 7.300586 0.000000 0.027732
317.000000 52.010000 1.000000 2.000000 -5.000000 38.262271 2.640767 925.358347 2307.122284 19.248402 0.000000 0.246198
318.000000 62.147000 2.000000 2.000000 -5.000000 47.414663 -7.936040 1125.038279 1939.760417 16.107747 0.000000 0.125534
319.000000 66.781000 3.000000 2.000000 -5.000000 54.480710 -18.265985 1330.241581 1750.025509 14.988326 0.000000 0.106930
320.000000 66.697000 4.000000 2.000000 -5.000000 59.337310 -27.747283 1541.200642 1662.019432 15.005405 0.000000 0.143204
321.000000 63.640000 5.000000 2.000000 -5.000000 62.341419 -36.041354 1758.161071 1638.601025 15.724858 0.000000 0.195319
322.000000 59.181000 6.000000 2.000000 -5.000000 64.005516 -43.077408 1981.382655 1659.500549 16.908691 0.000000 0.271397
325.000000 54.545000 0.000000 3.000000 -5.000000 44.212877 17.146809 642.925877 2098.738746 18.352606 0.000000 0.181670
326.000000 66.965000 1.000000 3.000000 -5.000000 54.516854 7.488781 833.517557 1714.836170 14.947527 0.000000 0.041534
327.000000 74.979000 2.000000 3.000000 -5.000000 63.265029 -2.884902 1029.238377 1483.830939 13.348248 0.000000 0.055304
328.000000 77.790000 3.000000 3.000000 -5.000000 69.767806 -13.344007 1230.298211 1348.692888 12.864207 0.000000 0.099429
329.000000 76.282000 4.000000 3.000000 -5.000000 73.936067 -23.227798 1436.918541 1278.259420 13.117140 0.000000 0.113778
330.000000 72.071000 5.000000 3.000000 -5.000000 76.151700 -32.068478 1649.333273 1254.100123 13.882472 0.000000 0.122271
331.000000 66.616000 6.000000 3.000000 -5.000000 76.968599 -39.675817 1867.789619 1264.650120 15.018459 0.000000 0.160428
332.000000 60.887000 7.000000 3.000000 -5.000000 76.890976 -46.077308 2092.549055 1302.315952 16.431225 0.000000 0.244247
336.000000 51.024000 -1.000000 4.000000 -5.000000 47.092577 29.137723 375.013808 2086.357069 19.617458 0.000000 0.219789
337.000000 63.715000 0.000000 4.000000 -5.000000 57.783864 21.216410 557.178295 1668.512750 15.708573 0.000000 0.098652
338.000000 74.099000 1.000000 4.000000 -5.000000 67.816046 12.107466 744.115809 1389.860463 13.505653 0.000000 0.092186
339.000000 80.503000 2.000000 4.000000 -5.000000 76.263018 2.074356 936.016434 1204.280891 12.429496 0.000000 0.130452
340.000000 82.436000 3.000000 4.000000 -5.000000 82.486962 -8.355564 1133.080481 1084.468881 12.136443 0.000000 0.146914
341.000000 80.613000 4.000000 4.000000 -5.000000 86.357686 -18.518964 1335.519188 1013.254160 12.409689 0.000000 0.137255
342.000000 76.327000 5.000000 4.000000 -5.000000 88.196730 -27.845380 1543.555476 979.322731 13.105700 0.000000 0.110679
343.000000 70.813000 6.000000 4.000000 -5.000000 88.538951 -36.015718 1757.424765 974.938774 14.125669 0.000000 0.099366
344.000000 64.955000 7.000000 4.000000 -5.000000 87.910733 -42.963395 1977.375865 994.654845 15.399355 0.000000 0.152227
345.000000 59.273000 8.000000 4.000000 -5.000000 86.722308 -48.782230 2203.671941 1034.544039 16.875453 0.000000 0.257913
348.000000 56.668000 -1.000000 5.000000 -5.000000 58.363288 32.289742 294.864685 1725.392021 17.660988 0.000000 0.166441
349.000000 75.886000 1.000000 5.000000 -5.000000 78.430716 16.457408 657.057214 1170.742664 13.184909 0.000000 0.131550
350.000000 81.097000 2.000000 5.000000 -5.000000 86.635448 6.872942 845.269772 1004.733445 12.335918 0.000000 0.158539
351.000000 82.670000 3.000000 5.000000 -5.000000 92.763948 -3.375318 1038.478392 888.948971 12.099775 0.000000 0.165909
352.000000 81.098000 4.000000 5.000000 -5.000000 96.618882 -13.675497 1236.884679 812.465130 12.333152 0.000000 0.150350
353.000000 72.323000 6.000000 5.000000 -5.000000 98.609423 -32.099782 1650.152409 748.637050 13.828471 0.000000 0.071710
354.000000 66.850000 7.000000 5.000000 -5.000000 97.723160 -39.602752 1865.475141 751.555443 14.960441 0.000000 0.088026
355.000000 61.403000 8.000000 5.000000 -5.000000 96.188508 -45.932730 2086.919834 773.201092 16.287715 0.000000 0.180272
356.000000 56.258000 9.000000 5.000000 -5.000000 94.319295 -51.223215 2314.751339 811.201105 17.777427 0.000000 0.305968
359.000000 49.050000 -2.000000 6.000000 -5.000000 57.566648 40.813187 45.535343 1844.641561 20.403039 0.000000 0.256039
360.000000 58.740000 -1.000000 6.000000 -5.000000 67.558611 35.165167 216.737432 1484.766299 17.035373 0.000000 0.151269
361.000000 67.587000 0.000000 6.000000 -5.000000 77.517396 28.432764 392.254203 1211.948659 14.803322 0.000000 0.118415
362.000000 74.551000 1.000000 6.000000 -5.000000 86.822070 20.515841 572.250846 1004.805136 13.418625 0.000000 0.137382
363.000000 78.865000 2.000000 6.000000 -5.000000 94.806417 11.455232 756.901095 848.660269 12.682970 0.000000 0.158855
364.000000 80.296000 3.000000 6.000000 -5.000000 100.927911 1.522793 946.387784 733.121167 12.455450 0.000000 0.164143
365.000000 79.160000 4.000000 6.000000 -5.000000 104.929653 -8.762788 1140.903450 650.634398 12.633195 0.000000 0.149444
366.000000 76.106000 5.000000 6.000000 -5.000000 106.902333 -18.764239 1340.650991 595.590480 13.139345 0.000000 0.114774
367.000000 71.861000 6.000000 6.000000 -5.000000 107.205272 -27.940560 1545.844366 563.748053 13.915321 0.000000 0.063320
368.000000 67.041000 7.000000 6.000000 -5.000000 106.306548 -35.990793 1756.709362 551.852132 14.915695 0.000000 0.042820
369.000000 62.092000 8.000000 6.000000 -5.000000 104.644167 -42.852259 1973.484424 557.374272 16.104694 0.000000 0.126423
370.000000 57.294000 9.000000 6.000000 -5.000000 102.558913 -48.614089 2196.421550 578.331582 17.453765 0.000000 0.241292
373.000000 50.491000 -2.000000 7.000000 -5.000000 65.487394 42.970187 -27.614131 1611.733751 19.818098 0.000000 0.234815
374.000000 58.621000 -1.000000 7.000000 -5.000000 75.058942 37.786174 140.556496 1304.412314 17.067436 0.000000 0.142545
375.000000 65.903000 0.000000 7.000000 -5.000000 84.550504 31.597968 312.911956 1061.549998 15.179531 0.000000 0.109813
376.000000 71.614000 1.000000 7.000000 -5.000000 93.454907 24.274528 489.610422 869.718985 13.966960 0.000000 0.123511
377.000000 75.236000 2.000000 7.000000 -5.000000 101.219432 15.781332 670.818141 719.146224 13.292920 0.000000 0.142821
378.000000 76.598000 3.000000 7.000000 -5.000000 107.357578 6.271916 856.709955 602.559078 13.055222 0.000000 0.149351
379.000000 75.889000 4.000000 7.000000 -5.000000 111.575058 -3.852069 1047.469864 514.443174 13.175994 0.000000 0.138449
380.000000 73.548000 5.000000 7.000000 -5.000000 113.852782 -13.997059 1243.291630 450.550435 13.594852 0.000000 0.109089
381.000000 70.094000 6.000000 7.000000 -5.000000 114.432317 -23.562352 1444.379440 407.564197 14.264254 0.000000 0.061273
382.000000 66.012000 7.000000 7.000000 -5.000000 113.708531 -32.130188 1650.948610 382.865898 15.146257 0.000000 0.011394
383.000000 61.680000 8.000000 7.000000 -5.000000 112.099522 -39.531613 1863.226359 374.369190 16.210213 0.000000 0.092456
384.000000 57.361000 9.000000 7.000000 -5.000000 109.960071 -45.791588 2081.452637 380.399838 17.431093 0.000000 0.196870
387.000000 50.462000 -2.000000 8.000000 -5.000000 72.091924 44.938476 -98.985299 1432.337749 19.827257 0.000000 0.226517
388.000000 57.256000 -1.000000 8.000000 -5.000000 81.206704 40.175481 66.250042 1158.898535 17.472509 0.000000 0.135833
389.000000 63.264000 0.000000 8.000000 -5.000000 90.221512 34.490507 235.545965 935.951471 15.810950 0.000000 0.092626
390.000000 67.985000 1.000000 8.000000 -5.000000 98.724904 27.736664 409.054011 754.381862 14.710970 0.000000 0.098152
391.000000 71.062000 2.000000 8.000000 -5.000000 106.261647 19.827180 586.933359 607.267781 14.072294 0.000000 0.116888
392.000000 72.366000 3.000000 8.000000 -5.000000 112.404151 10.817185 769.351311 489.265423 13.817178 0.000000 0.126433
393.000000 72.010000 4.000000 8.000000 -5.000000 116.844655 0.985599 956.483814 396.190743 13.884418 0.000000 0.120733
394.000000 70.282000 5.000000 8.000000 -5.000000 119.478952 -9.158206 1148.516031 324.727974 14.225176 0.000000 0.098270
395.000000 67.550000 6.000000 8.000000 -5.000000 120.434657 -19.002147 1345.642951 272.222344 14.800003 0.000000 0.058777
396.000000 64.182000 7.000000 8.000000 -5.000000 120.016807 -28.032951 1548.070045 236.529959 15.576690 0.000000 0.010198
397.000000 60.486000 8.000000 8.000000 -5.000000 118.601901 -35.966552 1756.013986 215.907304 16.528677 0.000000 0.075235
398.000000 56.696000 9.000000 8.000000 -5.000000 116.542997 -42.743892 1969.703421 208.928730 17.633868 0.000000 0.167981
401.000000 49.549000 -2.000000 9.000000 -5.000000 77.629746 46.737694 -168.642231 1285.432155 20.190596 0.000000 0.228012
402.000000 55.236000 -1.000000 9.000000 -5.000000 86.284000 42.355220 -6.250274 1035.593149 18.109493 0.000000 0.135377
403.000000 60.226000 0.000000 9.000000 -5.000000 94.833618 37.131201 160.083301 826.839640 16.606790 0.000000 0.076448
404.000000 64.167000 1.000000 9.000000 -5.000000 102.945245 30.913614 330.503764 652.637025 15.584960 0.000000 0.066721
405.000000 66.807000 2.000000 9.000000 -5.000000 110.245276 23.582787 505.163614 507.860357 14.967236 0.000000 0.084838
406.000000 68.051000 3.000000 9.000000 -5.000000 116.364066 15.118382 684.223032 388.439296 14.692367 0.000000 0.098489
407.000000 67.960000 4.000000 9.000000 -5.000000 120.999794 5.685303 867.850372 291.105607 14.710883 0.000000 0.098687
408.000000 66.725000 5.000000 9.000000 -5.000000 123.991090 -4.315653 1056.222689 213.210276 14.982397 0.000000 0.083611
409.000000 64.605000 6.000000 9.000000 -5.000000 125.367066 -14.309114 1249.526306 152.588860 15.473606 0.000000 0.053662
410.000000 61.873000 7.000000 9.000000 -5.000000 125.337283 -23.722191 1447.957433 107.460887 16.156810 0.000000 0.023062
411.000000 58.774000 8.000000 9.000000 -5.000000 124.219389 -32.159735 1651.722827 76.353705 17.008776 0.000000 0.069404
412.000000 55.508000 9.000000 9.000000 -5.000000 122.348453 -39.462324 1861.040516 58.044145 18.009875 0.000000 0.149896
416.000000 48.135000 -2.000000 10.000000 -5.000000 82.305977 48.385601 -236.645954 1159.947856 20.782053 0.000000 0.238940
417.000000 52.920000 -1.000000 10.000000 -5.000000 90.513961 44.346261 -77.009513 927.498997 18.900488 0.000000 0.145491
418.000000 60.422000 1.000000 10.000000 -5.000000 106.355919 33.821981 253.885660 560.785640 16.549680 0.000000 0.036124
419.000000 62.709000 2.000000 10.000000 -5.000000 113.412893 27.049457 425.429909 417.718836 15.944529 0.000000 0.048971
420.000000 63.884000 3.000000 10.000000 -5.000000 119.476132 19.150319 601.240781 297.016446 15.649738 0.000000 0.067723
421.000000 63.983000 4.000000 10.000000 -5.000000 124.262858 10.193020 781.479458 196.066597 15.624440 0.000000 0.074164
422.000000 61.508000 6.000000 10.000000 -5.000000 129.379731 -9.542287 1155.926599 45.164171 16.251836 0.000000 0.045549
423.000000 59.317000 7.000000 10.000000 -5.000000 129.780227 -19.233008 1350.500706 -8.076534 16.851938 0.000000 0.029235
424.000000 56.749000 8.000000 10.000000 -5.000000 129.029134 -28.122674 1550.235095 -48.264629 17.614462 0.000000 0.068152
425.000000 53.970000 9.000000 10.000000 -5.000000 127.428402 -35.942965 1755.337807 -76.456880 18.521869 0.000000 0.138055
429.000000 46.461000 -2.000000 11.000000 -5.000000 86.284961 49.898102 -303.054633 1049.491237 21.529046 0.000000 0.258710
430.000000 50.515000 -1.000000 11.000000 -5.000000 94.070013 46.167857 -146.089648 830.417681 19.798969 0.000000 0.166899
431.000000 54.048000 0.000000 11.000000 -5.000000 101.761408 41.743388 14.593750 640.661113 18.502619 0.000000 0.092208
432.000000 56.877000 1.000000 11.000000 -5.000000 109.138520 36.481243 179.129277 476.464029 17.580241 0.000000 0.034094
433.000000 58.873000 2.000000 11.000000 -5.000000 115.949834 30.236754 347.657136 334.742038 16.982573 0.000000 0.010867
434.000000 59.976000 3.000000 11.000000 -5.000000 121.928166 22.901404 520.324417 212.943058 16.668641 0.000000 0.037006
435.000000 60.205000 4.000000 11.000000 -5.000000 126.817070 14.468353 697.285529 108.940666 16.604088 0.000000 0.049450
436.000000 59.642000 5.000000 11.000000 -5.000000 130.412003 5.112709 878.702653 20.952337 16.759887 0.000000 0.047833
437.000000 58.415000 6.000000 11.000000 -5.000000 132.611090 -4.766552 1064.746243 -52.523932 17.111349 0.000000 0.034710
438.000000 56.672000 7.000000 11.000000 -5.000000 133.452666 -14.612059 1255.595562 -112.759244 17.637339 0.000000 0.029640
439.000000 54.562000 8.000000 11.000000 -5.000000 133.110021 -23.877360 1451.439251 -160.833006 18.319661 0.000000 0.066596
440.000000 52.217000 9.000000 11.000000 -5.000000 131.839437 -32.188459 1652.475958 -197.664165 19.142565 0.000000 0.128701
443.000000 48.138000 -1.000000 12.000000 -5.000000 97.086245 47.837505 -213.549746 741.670326 20.775436 0.000000 0.197297
444.000000 51.151000 0.000000 12.000000 -5.000000 104.390913 43.756513 -55.562106 558.653259 19.549404 0.000000 0.124516
445.000000 53.583000 1.000000 12.000000 -5.000000 111.430132 38.912006 106.167573 398.085297 18.660093 0.000000 0.067673
446.000000 55.338000 2.000000 12.000000 -5.000000 117.996857 33.159686 271.773832 257.489858 18.066714 0.000000 0.029372
447.000000 56.369000 3.000000 12.000000 -5.000000 123.866089 26.371170 441.397743 134.786213 17.734812 0.000000 0.022550
448.000000 56.683000 4.000000 12.000000 -5.000000 128.810562 18.485142 615.187304 28.216203 17.635078 0.000000 0.031401
449.000000 56.338000 5.000000 12.000000 -5.000000 132.628577 9.582433 793.297874 -63.713161 17.742428 0.000000 0.031704
450.000000 55.421000 6.000000 12.000000 -5.000000 135.185198 -0.047519 975.892634 -142.275074 18.035265 0.000000 0.022229
451.000000 54.043000 7.000000 12.000000 -5.000000 136.454822 -9.915480 1163.143088 -208.559111 18.494895 0.000000 0.025020
452.000000 52.316000 8.000000 12.000000 -5.000000 136.538691 -19.457123 1355.229596 -263.500290 19.105053 0.000000 0.062378
453.000000 50.349000 9.000000 12.000000 -5.000000 135.638678 -28.209841 1552.341960 -307.902584 19.851523 0.000000 0.119230
456.000000 45.852000 -1.000000 13.000000 -5.000000 99.666476 49.370946 -279.446134 659.461642 21.810280 0.000000 0.233788
457.000000 48.444000 0.000000 13.000000 -5.000000 106.612746 45.599933 -124.072955 482.039820 20.640896 0.000000 0.163678
458.000000 50.553000 1.000000 13.000000 -5.000000 113.334566 41.134805 34.936687 324.539903 19.777804 0.000000 0.108886
459.000000 52.106000 2.000000 13.000000 -5.000000 119.660859 35.836407 197.711969 184.938089 19.186661 0.000000 0.070183
460.000000 53.066000 3.000000 13.000000 -5.000000 125.402636 29.567450 364.388260 61.511959 18.838076 0.000000 0.047975
461.000000 53.435000 4.000000 13.000000 -5.000000 130.361689 22.230338 535.107496 -47.211362 18.706744 0.000000 0.037803
462.000000 53.250000 5.000000 13.000000 -5.000000 134.348194 13.831032 710.018584 -142.496548 18.770762 0.000000 0.029170
463.000000 52.575000 6.000000 13.000000 -5.000000 137.211281 4.553748 889.277832 -225.433312 19.011077 0.000000 0.014292
464.000000 51.490000 7.000000 13.000000 -5.000000 138.878799 -5.205225 1073.049419 -296.963315 19.411034 0.000000 0.016031
465.000000 50.084000 8.000000 13.000000 -5.000000 139.387761 -14.906270 1261.505895 -357.902100 19.956012 0.000000 0.054617
468.000000 45.936000 0.000000 14.000000 -5.000000 108.506330 47.290868 -190.995986 409.866921 21.767112 0.000000 0.206147
469.000000 47.780000 1.000000 14.000000 -5.000000 114.930923 43.169338 -34.624248 255.025103 20.925224 0.000000 0.152124
470.000000 49.162000 2.000000 14.000000 -5.000000 121.023283 38.286465 125.406743 116.335088 20.334974 0.000000 0.111710
471.000000 50.054000 3.000000 14.000000 -5.000000 126.624748 32.503710 289.226953 -7.647535 19.970986 0.000000 0.083403
472.000000 50.455000 4.000000 14.000000 -5.000000 131.564289 25.701814 456.972576 -118.170698 19.811184 0.000000 0.063422
473.000000 50.389000 5.000000 14.000000 -5.000000 135.668831 17.831522 628.786412 -216.316300 19.836274 0.000000 0.045896
474.000000 49.901000 6.000000 14.000000 -5.000000 138.784254 8.985119 804.818274 -303.025030 20.029318 0.000000 0.024991
475.000000 49.052000 7.000000 14.000000 -5.000000 140.808292 -0.544327 985.225420 -379.116750 20.375386 0.000000 0.004872
476.000000 47.909000 8.000000 14.000000 -5.000000 141.725266 -10.278211 1170.173025 -445.307311 20.861267 0.000000 0.043113
478.000000 46.484000 2.000000 15.000000 -5.000000 122.146504 40.529581 54.796390 51.114111 21.506140 0.000000 0.153722
479.000000 47.313000 3.000000 15.000000 -5.000000 127.599522 35.196795 215.848077 -73.276859 21.127962 0.000000 0.120960
480.000000 47.729000 4.000000 15.000000 -5.000000 132.492394 28.905757 380.712539 -185.297904 20.942418 0.000000 0.094789
481.000000 47.749000 2.000000 6.000000 -2.000000 136.670711 21.569535 549.526793 -285.882668 8.372952 0.000000 0.071036
482.000000 47.407000 6.000000 15.000000 -5.000000 139.985626 13.206204 722.434505 -375.849449 21.082691 0.000000 0.045462
483.000000 46.747000 7.000000 15.000000 -5.000000 142.318671 4.008041 899.586389 -455.916870 21.379893 0.000000 0.015553
486.000000 69.408000 3.000000 1.000000 -4.000000 45.905472 -28.821785 1567.230812 2131.245971 14.421745 0.000000 0.261320
492.000000 79.172000 1.000000 2.000000 -4.000000 49.169848 2.497746 928.050398 1871.905593 12.643780 0.000000 0.087252
493.000000 77.469000 5.000000 2.000000 -4.000000 70.792781 -43.048629 1980.369864 1454.095800 12.915582 0.000000 0.229013
497.000000 77.539000 0.000000 3.000000 -4.000000 54.650522 20.227989 578.403769 1754.636718 12.908646 0.000000 0.104444
498.000000 85.718000 5.000000 3.000000 -4.000000 85.726320 -38.769486 1839.419463 1044.158533 11.669868 0.000000 0.120345
499.000000 76.590000 6.000000 3.000000 -4.000000 84.782357 -46.741851 2118.808493 1084.421200 13.060470 0.000000 0.222284
503.000000 67.287000 -1.000000 4.000000 -4.000000 55.752163 33.932621 250.870441 1824.172229 14.874122 0.000000 0.194394
504.000000 88.718000 5.000000 4.000000 -4.000000 98.470459 -34.089672 1703.423090 747.455607 11.272823 0.000000 0.066300
505.000000 71.884000 7.000000 4.000000 -4.000000 94.805156 -49.989045 2257.179643 800.275636 13.913029 0.000000 0.272111
507.000000 70.741000 -1.000000 5.000000 -4.000000 67.089184 37.319358 154.508656 1512.987749 14.145226 0.000000 0.168182
508.000000 84.124000 0.000000 5.000000 -4.000000 79.422850 29.250689 372.229239 1171.350765 11.892865 0.000000 0.117515
509.000000 87.993000 5.000000 5.000000 -4.000000 109.014705 -29.021351 1572.124072 516.834491 11.363698 0.000000 0.048259
510.000000 80.599000 6.000000 5.000000 -4.000000 107.507839 -38.693124 1837.062259 506.004725 12.406211 0.000000 0.069180
511.000000 73.178000 7.000000 5.000000 -4.000000 105.042828 -46.554681 2111.347511 520.365099 13.664594 0.000000 0.198359
515.000000 58.487000 -1.000000 3.000000 -2.000000 64.346870 46.149327 -145.364130 1687.125165 8.554336 0.000000 0.290276
516.000000 70.306000 -1.000000 6.000000 -4.000000 75.939218 40.334543 61.119943 1294.628581 14.230557 0.000000 0.157004
517.000000 88.582000 1.000000 6.000000 -4.000000 98.269775 24.100620 493.536337 769.626823 11.290584 0.000000 0.117000
518.000000 85.010000 5.000000 6.000000 -4.000000 117.541163 -23.602761 1445.283172 328.493309 11.760829 0.000000 0.046479
519.000000 72.643000 7.000000 6.000000 -4.000000 113.918813 -42.770729 1970.638576 290.699112 13.763357 0.000000 0.154329
523.000000 58.407000 -2.000000 7.000000 -4.000000 72.001036 48.264195 -231.487426 1466.295750 17.130041 0.000000 0.283774
524.000000 67.931000 -1.000000 7.000000 -4.000000 82.907221 43.021933 -29.431201 1124.180341 14.725987 0.000000 0.154701
525.000000 76.254000 0.000000 7.000000 -4.000000 93.766007 36.493455 178.774383 852.874787 13.116569 0.000000 0.079737
526.000000 82.429000 1.000000 7.000000 -4.000000 103.909469 28.384982 393.414386 638.030247 12.131940 0.000000 0.078965
527.000000 85.846000 2.000000 7.000000 -4.000000 112.573974 18.504079 614.791767 469.161893 11.647437 0.000000 0.101041
528.000000 86.415000 3.000000 7.000000 -4.000000 119.060526 6.980012 843.228804 338.447392 11.569493 0.000000 0.106265
529.000000 84.532000 4.000000 7.000000 -4.000000 122.956658 -5.522854 1079.068664 239.948925 11.826513 0.000000 0.087569
530.000000 80.862000 5.000000 7.000000 -4.000000 124.312139 -17.902099 1322.677122 169.094393 12.362780 0.000000 0.045122
531.000000 76.112000 6.000000 7.000000 -4.000000 123.605178 -29.115716 1574.444454 122.322505 13.134283 0.000000 0.037248
532.000000 70.872000 7.000000 7.000000 -4.000000 121.500052 -38.619279 1834.787524 96.834548 14.105801 0.000000 0.130952
536.000000 57.003000 -1.000000 4.000000 -2.000000 78.235161 50.162061 -315.070573 1290.912506 8.774929 0.000000 0.293543
537.000000 64.712000 -1.000000 8.000000 -4.000000 88.461904 45.422145 -117.272168 982.175090 15.456864 0.000000 0.166883
538.000000 76.370000 1.000000 8.000000 -4.000000 108.196171 32.232049 296.380246 522.759135 13.093404 0.000000 0.035784
539.000000 80.067000 3.000000 8.000000 -4.000000 123.198523 12.520078 735.995563 219.577025 12.485969 0.000000 0.073882
540.000000 76.257000 5.000000 8.000000 -4.000000 129.603060 -12.016497 1204.097321 30.565408 13.108456 0.000000 0.039262
541.000000 68.346000 7.000000 8.000000 -4.000000 127.891826 -34.094197 1703.547052 -70.482125 14.625838 0.000000 0.118673
544.000000 54.933000 -2.000000 9.000000 -4.000000 83.366300 51.871106 -396.224319 1143.731546 18.209633 0.000000 0.316944
545.000000 61.227000 -1.000000 9.000000 -4.000000 92.950446 47.571670 -202.522835 858.777551 16.335383 0.000000 0.194961
546.000000 66.634000 0.000000 9.000000 -4.000000 102.462181 42.263583 -3.102664 619.588397 15.007550 0.000000 0.099318
547.000000 70.737000 1.000000 9.000000 -4.000000 111.500941 35.675799 202.293241 419.064270 14.135155 0.000000 0.028654
548.000000 73.262000 2.000000 9.000000 -4.000000 119.595094 27.532622 413.937563 251.628844 13.646354 0.000000 0.018159
549.000000 74.138000 3.000000 9.000000 -4.000000 126.246654 17.670565 632.119835 112.850915 13.483661 0.000000 0.041765
550.000000 73.496000 4.000000 9.000000 -4.000000 131.018840 6.248887 857.147757 -0.825748 13.600528 0.000000 0.043330
551.000000 71.607000 5.000000 9.000000 -4.000000 133.671240 -6.064521 1089.348646 -92.278717 13.958864 0.000000 0.028356
552.000000 68.804000 6.000000 9.000000 -4.000000 134.278393 -18.209774 1329.071024 -163.851817 14.527198 0.000000 0.043422
553.000000 65.418000 7.000000 9.000000 -4.000000 133.213420 -29.206726 1576.686363 -217.463596 15.279299 0.000000 0.109541
558.000000 57.767000 -1.000000 10.000000 -4.000000 96.626516 49.502636 -285.296115 748.462608 17.312570 0.000000 0.235210
559.000000 62.216000 0.000000 5.000000 -2.000000 105.547342 44.698321 -90.019519 519.739037 8.036106 0.000000 0.143528
560.000000 65.634000 1.000000 10.000000 -4.000000 114.085086 38.755226 111.021113 324.051260 15.233224 0.000000 0.076577
561.000000 67.831000 1.000000 5.000000 -2.000000 121.867986 31.397764 318.084811 157.116749 7.369147 0.000000 0.038322
562.000000 68.747000 3.000000 10.000000 -4.000000 128.487018 22.397140 531.446364 15.456653 14.540526 0.000000 0.030867
563.000000 67.135000 5.000000 10.000000 -4.000000 136.744776 -0.172925 978.248383 -202.930720 14.887945 0.000000 0.013937
564.000000 65.013000 3.000000 5.000000 -2.000000 138.020623 -12.435038 1212.328745 -283.947802 7.686859 0.000000 0.037545
565.000000 62.330000 7.000000 10.000000 -4.000000 137.584432 -23.990791 1453.989810 -348.443635 16.035540 0.000000 0.098713
569.000000 54.471000 -1.000000 11.000000 -4.000000 99.675649 51.242982 -365.698451 647.872178 18.358956 0.000000 0.283146
570.000000 58.181000 0.000000 11.000000 -4.000000 108.060085 46.881550 -174.411059 427.535575 17.186188 0.000000 0.195326
571.000000 61.066000 1.000000 11.000000 -4.000000 116.133394 41.510028 22.439401 235.843507 16.372319 0.000000 0.129914
572.000000 62.990000 2.000000 11.000000 -4.000000 123.600999 34.866596 225.099189 69.424053 15.870539 0.000000 0.086323
573.000000 63.905000 3.000000 11.000000 -4.000000 130.129751 26.693671 433.829319 -74.511737 15.641835 0.000000 0.060223
574.000000 63.853000 4.000000 11.000000 -4.000000 135.371411 16.855646 648.906678 -198.284920 15.653439 0.000000 0.040563
575.000000 62.949000 5.000000 11.000000 -4.000000 139.020376 5.538997 870.625254 -303.837042 15.877625 0.000000 0.014781
576.000000 61.351000 6.000000 11.000000 -4.000000 140.912963 -6.587706 1099.297474 -392.798727 16.290771 0.000000 0.025300
582.000000 54.528000 0.000000 6.000000 -2.000000 110.133154 48.844877 -256.385764 341.434355 9.168333 0.000000 0.250327
583.000000 56.991000 1.000000 12.000000 -4.000000 117.777805 43.978060 -63.569124 153.161826 17.542226 0.000000 0.184565
584.000000 58.688000 1.000000 6.000000 -2.000000 124.933595 37.975292 134.853951 -12.690964 8.516726 0.000000 0.136288
585.000000 59.578000 3.000000 12.000000 -4.000000 131.330089 30.574347 339.131593 -158.399160 16.777374 0.000000 0.100931
586.000000 59.087000 5.000000 12.000000 -4.000000 140.664433 10.972864 766.318536 -396.768292 16.914970 0.000000 0.038380
595.000000 54.864000 2.000000 13.000000 -4.000000 125.966373 40.761479 47.229714 -90.124370 18.220247 0.000000 0.187229
596.000000 55.717000 3.000000 13.000000 -4.000000 132.202270 34.066033 247.224159 -237.187510 17.939836 0.000000 0.144950
630.000000 88.140000 1.000000 1.000000 -3.000000 38.610376 -6.095805 1089.942974 2296.413797 11.358213 0.000000 0.250987
637.000000 81.779000 -1.000000 3.000000 -3.000000 51.437413 36.514668 178.157649 2008.611679 12.238589 0.000000 0.250534
639.000000 88.549000 -1.000000 4.000000 -3.000000 66.224963 40.600188 52.498115 1565.471943 11.300486 0.000000 0.202468
644.000000 87.369000 -1.000000 5.000000 -3.000000 77.022945 44.101882 -68.070271 1286.393371 11.450882 0.000000 0.191668
649.000000 82.967000 -1.000000 6.000000 -3.000000 85.038469 47.115294 -183.850770 1078.298962 12.056644 0.000000 0.205461
653.000000 77.558000 -1.000000 7.000000 -3.000000 91.120951 49.722268 -295.123028 908.424857 12.895920 0.000000 0.244386
654.000000 86.828000 0.000000 7.000000 -3.000000 103.564253 43.105225 -32.362502 585.333240 11.516947 0.000000 0.112716
655.000000 87.320000 5.000000 7.000000 -3.000000 135.216419 -23.928079 1452.579152 -245.422713 11.446640 0.000000 0.081617
660.000000 72.101000 -1.000000 8.000000 -3.000000 95.840964 51.990948 -402.145328 762.198435 13.870837 0.000000 0.301327
661.000000 79.310000 0.000000 8.000000 -3.000000 107.277056 46.179718 -146.554309 457.527644 12.607708 0.000000 0.177570
662.000000 84.428000 1.000000 8.000000 -3.000000 118.114733 38.494509 119.045274 206.277910 11.841528 0.000000 0.095330
663.000000 87.031000 2.000000 8.000000 -3.000000 127.584919 28.309169 395.253044 0.057744 11.485883 0.000000 0.053864
664.000000 87.118000 3.000000 8.000000 -3.000000 134.828437 15.193051 682.717494 -167.615937 11.473297 0.000000 0.033154
665.000000 85.060000 4.000000 8.000000 -3.000000 139.106188 -0.380145 982.141078 -301.806659 11.750314 0.000000 0.003571
666.000000 81.429000 5.000000 8.000000 -3.000000 140.201044 -16.523148 1294.285937 -406.501566 12.274035 0.000000 0.067188
672.000000 76.860000 1.000000 9.000000 -3.000000 120.230048 42.116305 1.937005 95.506928 13.006975 0.000000 0.166691
673.000000 79.161000 2.000000 9.000000 -3.000000 129.300267 33.211931 270.372622 -111.942972 12.627360 0.000000 0.111695
674.000000 78.332000 4.000000 9.000000 -3.000000 141.655155 7.146434 840.054580 -430.286991 12.759164 0.000000 0.025864
#UB matrix in q= (UB) B0 G* 
#[[-0.439378075 -0.896887166 -0.032342998]
# [-0.895892103  0.435694706  0.08891925 ]
# [-0.06575901   0.068072679 -0.996043424]]
#B0 matrix in q= UB (B0) G*
#[[ 0.19670273 -0.          0.03056101]
# [ 0.          0.19187965 -0.        ]
# [ 0.          0.          0.18806537]]
#UBB0 matrix in q= (UB B0) G* i.e. recip. basis vectors are columns in LT frame: astar = UBB0[:,0], bstar = UBB0[:,1], cstar = UBB0[:,2]. (abcstar as columns on xyzlab1, xlab1 = ui, ui = unit vector along incident beam)
#[[-0.08642687 -0.1720944  -0.01951043]
# [-0.17622442  0.08360095 -0.01065673]
# [-0.01293498  0.01306176 -0.18933094]]
#Euler angles phi theta psi (deg)
#[224.014 174.569  19.99 ]
#deviatoric strain in direct crystal frame (10-3 unit)
#[[-0.69  0.36  0.12]
# [ 0.36 -0.12  0.16]
# [ 0.12  0.16  0.8 ]]
#deviatoric strain in sample2 frame (10-3 unit)
#[[ 0.58 -0.09  0.39]
# [-0.09 -0.85 -0.07]
# [ 0.39 -0.07  0.27]]
#new lattice parameters
#[ 5.1505     5.2145777  5.3145275 89.9969264 99.2278678 89.9586597]
#CCDLabel
#sCMOS
#DetectorParameters
#[79.0, 975.0, 941.0, 0.0, 0.0]
#pixelsize
#0.0734
#Frame dimensions
#[2018, 2016]
#
