#Strain and Orientation Refinement from experimental file: /home/micha/LaueProjects/DepthEffects/testZrO2_79.cor
#File created at Wed Jun 28 14:23:16 2023 with indexingSpotsSet.py
#Number of indexed spots: 532
#Element
#ZrO2
#grainIndex
#G_0
#Mean Deviation(pixel): 0.114
##spot_index intensity h k l 2theta Chi Xexp Yexp Energy GrainIndex PixDev
15.000000 48.071000 1.000000 10.000000 -5.000000 79.116044 49.928909 -304.450214 1262.480456 20.810095 0.000000 0.290420
17.000000 49.152000 0.000000 11.000000 -5.000000 89.747806 51.081776 -357.998319 948.541202 20.348814 0.000000 0.285020
18.000000 45.527000 1.000000 11.000000 -5.000000 81.415459 47.637019 -205.223145 1182.126621 21.972499 0.000000 0.233503
21.000000 46.246000 0.000000 12.000000 -5.000000 91.176099 48.711762 -250.627397 907.513503 21.627175 0.000000 0.225989
23.000000 45.811000 -1.000000 13.000000 -5.000000 99.544876 49.796136 -298.448072 660.637457 21.829283 0.000000 0.247611
33.000000 58.606000 1.000000 8.000000 -4.000000 76.865811 49.047631 -265.215743 1324.165404 17.070057 0.000000 0.281364
34.000000 50.461000 1.000000 4.000000 -2.000000 65.556303 45.053030 -103.288457 1633.501132 9.914556 0.000000 0.271615
36.000000 60.503000 0.000000 9.000000 -4.000000 90.134333 50.461935 -328.883468 937.036022 16.531004 0.000000 0.268524
37.000000 54.918000 1.000000 9.000000 -4.000000 79.842696 46.333061 -152.579540 1220.272630 18.215538 0.000000 0.217206
38.000000 48.251000 2.000000 9.000000 -4.000000 69.386694 42.816046 -22.219476 1492.896244 20.736655 0.000000 0.217465
41.000000 56.105000 0.000000 5.000000 -2.000000 91.784461 47.629371 -204.906769 891.244023 8.913248 0.000000 0.202444
42.000000 51.429000 1.000000 10.000000 -4.000000 82.212577 43.991835 -64.068945 1145.594593 19.450755 0.000000 0.173422
43.000000 45.896000 1.000000 5.000000 -2.000000 72.510793 40.874155 43.534093 1389.498267 10.899871 0.000000 0.180291
45.000000 55.274000 -1.000000 11.000000 -4.000000 101.698456 48.940922 -260.559582 601.707858 18.091271 0.000000 0.229231
46.000000 52.173000 0.000000 11.000000 -4.000000 93.061182 45.183554 -108.212552 859.337651 19.169775 0.000000 0.156306
47.000000 48.209000 1.000000 11.000000 -4.000000 84.129439 41.958309 7.317440 1089.817405 20.749515 0.000000 0.143287
50.000000 51.383000 -1.000000 12.000000 -4.000000 102.191747 46.390477 -154.844255 603.857269 19.461358 0.000000 0.173619
51.000000 48.671000 0.000000 3.000000 -1.000000 94.064080 43.057666 -30.687770 836.340071 5.137259 0.000000 0.123727
53.000000 49.719000 -2.000000 13.000000 -4.000000 109.881015 47.611806 -204.180512 363.666095 20.110063 0.000000 0.221206
54.000000 47.940000 -1.000000 13.000000 -4.000000 102.527176 44.171721 -70.617383 607.583740 20.858808 0.000000 0.132682
55.000000 45.551000 0.000000 13.000000 -4.000000 94.862893 41.197639 32.853937 819.304483 21.956067 0.000000 0.101009
58.000000 46.507000 -1.000000 7.000000 -2.000000 109.741206 45.299914 -112.621359 391.888572 10.749465 0.000000 0.170577
63.000000 74.683000 1.000000 6.000000 -3.000000 73.098754 47.642337 -205.443162 1426.381208 13.396192 0.000000 0.272487
64.000000 59.471000 2.000000 6.000000 -3.000000 58.095768 42.729326 -19.196212 1853.162046 16.826998 0.000000 0.286923
66.000000 78.645000 0.000000 7.000000 -3.000000 90.733646 49.470053 -283.845767 919.791566 12.717443 0.000000 0.243713
67.000000 68.980000 1.000000 7.000000 -3.000000 77.296154 44.330261 -76.421940 1280.188102 14.503108 0.000000 0.198604
68.000000 57.263000 2.000000 7.000000 -3.000000 63.751972 40.160055 66.746271 1635.440877 17.474715 0.000000 0.216289
70.000000 71.245000 0.000000 8.000000 -3.000000 92.670220 45.960265 -137.989645 868.791696 14.038143 0.000000 0.169935
71.000000 63.574000 1.000000 8.000000 -3.000000 80.452977 41.595212 19.582052 1183.050167 15.735638 0.000000 0.153974
72.000000 54.354000 2.000000 8.000000 -3.000000 68.153620 38.012574 133.726310 1488.672667 18.409138 0.000000 0.173135
74.000000 69.493000 -1.000000 9.000000 -3.000000 104.822550 47.617430 -204.412983 518.463499 14.388866 0.000000 0.204570
75.000000 58.678000 1.000000 9.000000 -3.000000 82.889616 39.308233 93.805040 1114.515711 17.048058 0.000000 0.127119
76.000000 51.275000 2.000000 9.000000 -3.000000 71.652075 36.195683 187.396184 1383.313739 19.513657 0.000000 0.146698
78.000000 63.362000 -1.000000 10.000000 -3.000000 105.060013 44.546244 -84.380376 534.647965 15.781288 0.000000 0.142635
79.000000 59.451000 0.000000 10.000000 -3.000000 95.092830 40.628905 51.561955 814.612426 16.822635 0.000000 0.095205
80.000000 54.323000 1.000000 10.000000 -3.000000 84.813713 37.373338 152.904226 1063.928240 18.414436 0.000000 0.111630
81.000000 48.270000 2.000000 10.000000 -3.000000 74.485774 34.641442 231.364779 1304.147425 20.727351 0.000000 0.130828
83.000000 60.440000 -2.000000 11.000000 -3.000000 113.958800 46.059592 -141.857666 251.760542 16.541899 0.000000 0.205989
84.000000 58.129000 -1.000000 11.000000 -3.000000 105.136021 41.973878 6.788433 549.403278 17.201994 0.000000 0.099965
85.000000 54.769000 0.000000 11.000000 -3.000000 95.869115 38.573642 116.615921 799.484496 18.260662 0.000000 0.079102
86.000000 50.472000 1.000000 11.000000 -3.000000 86.363513 35.718582 201.074689 1025.250929 19.818965 0.000000 0.103425
88.000000 55.725000 -2.000000 12.000000 -3.000000 113.414251 43.342306 -40.749913 300.145234 17.941537 0.000000 0.149106
89.000000 53.632000 -1.000000 12.000000 -3.000000 105.113186 39.796174 78.387185 562.681250 18.644445 0.000000 0.070504
90.000000 50.718000 0.000000 4.000000 -1.000000 96.466402 36.816128 169.356384 788.620993 6.573042 0.000000 0.071795
91.000000 47.069000 1.000000 12.000000 -3.000000 87.633540 34.289482 241.091300 994.835477 21.251465 0.000000 0.099736
93.000000 52.858000 -3.000000 13.000000 -3.000000 120.277165 44.733208 -91.317338 56.473453 18.912897 0.000000 0.217900
94.000000 51.635000 -2.000000 13.000000 -3.000000 112.852874 41.040411 38.058103 339.603063 19.363026 0.000000 0.107107
95.000000 49.739000 -1.000000 13.000000 -3.000000 105.030195 37.933839 136.106409 574.583795 20.103971 0.000000 0.051520
96.000000 47.190000 0.000000 13.000000 -3.000000 96.933887 35.298724 212.977153 780.622901 21.193351 0.000000 0.070185
98.000000 49.236000 -3.000000 14.000000 -3.000000 119.363343 42.305733 -4.549309 122.201398 20.304228 0.000000 0.165336
99.000000 48.063000 -2.000000 14.000000 -3.000000 112.297433 39.071400 101.211075 372.496374 20.802225 0.000000 0.075228
100.000000 46.343000 -1.000000 14.000000 -3.000000 104.911313 36.326197 183.625343 585.256603 21.577151 0.000000 0.042055
103.000000 46.039000 -1.000000 5.000000 -1.000000 118.488022 40.228425 64.545152 175.960847 7.238270 0.000000 0.124984
106.000000 67.172000 2.000000 5.000000 -2.000000 53.592984 35.857536 197.107889 1920.320815 14.899379 0.000000 0.235451
107.000000 82.637000 1.000000 6.000000 -2.000000 77.257798 37.681619 143.696642 1248.531583 12.106637 0.000000 0.137062
108.000000 64.873000 1.000000 3.000000 -1.000000 60.666152 33.584885 260.320992 1667.021274 7.713124 0.000000 0.169904
109.000000 46.893000 3.000000 6.000000 -2.000000 45.183872 30.389575 343.805117 2180.741750 21.345072 0.000000 0.262241
110.000000 85.535000 0.000000 7.000000 -2.000000 95.507234 39.559812 85.882782 806.398354 11.692488 0.000000 0.085844
111.000000 74.502000 1.000000 7.000000 -2.000000 80.659552 35.177448 216.392163 1157.584724 13.427804 0.000000 0.117541
112.000000 61.238000 2.000000 7.000000 -2.000000 65.950458 31.759031 308.734250 1505.894743 16.340689 0.000000 0.137836
113.000000 47.402000 3.000000 7.000000 -2.000000 51.993654 29.035996 377.516098 1902.993415 21.114553 0.000000 0.185797
114.000000 82.177000 -1.000000 8.000000 -2.000000 109.316869 41.490345 23.098559 437.348805 12.167347 0.000000 0.101091
115.000000 67.521000 1.000000 8.000000 -2.000000 83.196369 33.167793 271.556527 1094.403174 14.815744 0.000000 0.109930
116.000000 57.311000 1.000000 4.000000 -1.000000 70.020602 30.262837 347.000532 1394.039961 8.729659 0.000000 0.123346
117.000000 46.466000 3.000000 8.000000 -2.000000 57.373839 27.906325 404.979392 1720.677095 21.538781 0.000000 0.143258
118.000000 76.484000 -2.000000 9.000000 -2.000000 119.816239 43.470874 -45.325785 91.083859 13.070622 0.000000 0.189780
119.000000 73.444000 -1.000000 9.000000 -2.000000 108.811427 38.500161 118.871952 472.514179 13.614184 0.000000 0.057894
120.000000 68.390000 0.000000 9.000000 -2.000000 97.129943 34.615799 232.076216 777.410576 14.623525 0.000000 0.070699
121.000000 61.574000 1.000000 9.000000 -2.000000 85.150625 31.523099 314.849026 1048.120976 16.246046 0.000000 0.108013
122.000000 53.510000 2.000000 9.000000 -2.000000 73.238062 29.016002 378.007313 1311.701233 18.698683 0.000000 0.117796
124.000000 66.298000 -1.000000 10.000000 -2.000000 108.293692 36.102785 190.072565 500.609021 15.082035 0.000000 0.033737
125.000000 62.050000 0.000000 5.000000 -1.000000 97.604416 32.816895 280.926403 770.020005 8.058853 0.000000 0.074863
126.000000 56.499000 1.000000 10.000000 -2.000000 86.696784 30.154331 349.729738 1012.841228 17.704904 0.000000 0.108648
127.000000 49.988000 1.000000 5.000000 -1.000000 75.837957 27.961920 403.641420 1248.481334 10.007678 0.000000 0.116536
129.000000 62.850000 -2.000000 11.000000 -2.000000 117.263441 37.628265 145.295675 240.677416 15.906801 0.000000 0.079618
130.000000 60.361000 -1.000000 11.000000 -2.000000 107.794347 34.144211 245.082169 523.610329 16.565617 0.000000 0.029430
131.000000 56.746000 0.000000 11.000000 -2.000000 97.953177 31.321499 320.049533 764.981229 17.624094 0.000000 0.080438
132.000000 52.142000 1.000000 11.000000 -2.000000 87.947439 28.998662 378.433207 985.102734 19.183926 0.000000 0.110334
133.000000 46.786000 2.000000 11.000000 -2.000000 77.978308 27.059674 425.187935 1198.373149 21.384505 0.000000 0.117214
135.000000 58.947000 -3.000000 12.000000 -2.000000 124.530795 39.191504 97.461519 -14.525305 16.958075 0.000000 0.151971
136.000000 57.603000 -1.000000 6.000000 -1.000000 116.150192 35.504885 207.148286 291.862523 8.678057 0.000000 0.046338
137.000000 55.363000 -1.000000 12.000000 -2.000000 107.326066 32.517613 288.859685 542.808450 18.061283 0.000000 0.037710
138.000000 52.253000 0.000000 6.000000 -1.000000 98.215549 30.060386 352.087827 761.456483 9.569827 0.000000 0.085969
139.000000 48.375000 1.000000 12.000000 -2.000000 88.978030 28.010677 402.466898 962.747075 20.677712 0.000000 0.112377
141.000000 54.427000 -3.000000 13.000000 -2.000000 123.046776 36.898600 166.936534 65.416454 18.366823 0.000000 0.108483
142.000000 53.122000 -2.000000 13.000000 -2.000000 115.143984 33.742681 256.042007 333.475850 18.820618 0.000000 0.021296
143.000000 51.105000 -1.000000 13.000000 -2.000000 106.892910 31.147252 324.526558 559.085836 19.566432 0.000000 0.048119
144.000000 48.402000 0.000000 13.000000 -2.000000 98.416858 28.983478 378.805995 758.942051 20.662280 0.000000 0.091003
146.000000 51.188000 -2.000000 7.000000 -1.000000 128.787186 38.324863 124.235388 -161.560179 9.763727 0.000000 0.173494
147.000000 50.504000 -3.000000 14.000000 -2.000000 121.698562 34.996606 221.465650 129.590180 19.793930 0.000000 0.075216
148.000000 49.258000 -1.000000 7.000000 -1.000000 114.235888 32.259352 295.663237 368.042295 10.148715 0.000000 0.006025
149.000000 47.438000 -1.000000 14.000000 -2.000000 106.494860 29.978257 354.145677 573.068437 21.079159 0.000000 0.057624
151.000000 47.790000 -4.000000 15.000000 -2.000000 127.231637 36.279176 184.985350 -73.570010 20.916602 0.000000 0.132637
152.000000 47.075000 -3.000000 15.000000 -2.000000 120.475420 33.396710 265.403365 182.370757 21.236277 0.000000 0.049049
153.000000 45.896000 -2.000000 15.000000 -2.000000 113.415690 30.995146 328.421255 397.255074 21.784351 0.000000 0.016788
155.000000 71.849000 2.000000 4.000000 -1.000000 45.568160 25.962468 450.928668 2114.595653 13.931582 0.000000 0.224640
156.000000 71.637000 2.000000 5.000000 -1.000000 55.169059 24.580032 482.687645 1764.534031 13.971387 0.000000 0.132249
157.000000 87.795000 1.000000 6.000000 -1.000000 79.768554 26.279027 443.552367 1157.657693 11.395453 0.000000 0.118695
158.000000 67.995000 2.000000 6.000000 -1.000000 61.980880 23.521797 506.526981 1565.638904 14.718328 0.000000 0.103738
159.000000 48.429000 3.000000 6.000000 -1.000000 45.708057 21.431174 552.529212 2069.009958 20.669112 0.000000 0.195765
160.000000 90.138000 0.000000 7.000000 -1.000000 98.573945 28.053783 401.427601 757.121910 11.095233 0.000000 0.095450
161.000000 77.916000 1.000000 7.000000 -1.000000 82.588999 24.996673 473.191814 1095.464709 12.839620 0.000000 0.122208
162.000000 63.446000 2.000000 7.000000 -1.000000 67.027352 22.686214 525.080613 1435.513612 15.772482 0.000000 0.102085
163.000000 48.614000 3.000000 7.000000 -1.000000 52.476405 20.884045 564.346559 1825.695190 20.589119 0.000000 0.126510
165.000000 89.558000 -2.000000 8.000000 -1.000000 125.807100 34.559267 233.643071 -1.821010 11.161711 0.000000 0.100465
166.000000 85.898000 -1.000000 8.000000 -1.000000 112.673388 29.905846 355.957197 422.296048 11.639839 0.000000 0.029449
167.000000 79.186000 0.000000 8.000000 -1.000000 98.798064 26.531146 437.648746 754.810806 12.629685 0.000000 0.102746
168.000000 69.875000 1.000000 8.000000 -1.000000 84.705893 23.988004 496.072904 1050.161351 14.316584 0.000000 0.125440
169.000000 58.904000 2.000000 8.000000 -1.000000 70.899911 22.009969 539.931039 1343.000510 16.987661 0.000000 0.107792
170.000000 47.405000 3.000000 8.000000 -1.000000 57.796703 20.431004 574.066663 1664.370040 21.112830 0.000000 0.095656
172.000000 79.400000 -2.000000 9.000000 -1.000000 123.308626 31.836253 306.726098 108.538571 12.590115 0.000000 0.053362
173.000000 76.063000 -1.000000 9.000000 -1.000000 111.386728 28.126566 399.670909 463.050656 13.145229 0.000000 0.049341
174.000000 70.578000 0.000000 9.000000 -1.000000 98.945155 25.337785 465.369364 753.555615 14.170179 0.000000 0.108357
175.000000 63.256000 1.000000 9.000000 -1.000000 86.350706 23.174318 514.270621 1015.669331 15.814303 0.000000 0.128125
176.000000 54.683000 2.000000 9.000000 -1.000000 73.957856 21.451598 552.086363 1273.513637 18.297732 0.000000 0.114225
177.000000 45.575000 3.000000 9.000000 -1.000000 62.070928 20.049746 582.202323 1548.377816 21.958969 0.000000 0.088536
179.000000 72.608000 -3.000000 10.000000 -1.000000 131.461595 33.845417 253.247627 -203.960717 13.766330 0.000000 0.137464
180.000000 71.197000 -2.000000 10.000000 -1.000000 121.205215 29.784011 358.999251 189.809998 14.041183 0.000000 0.022254
181.000000 68.201000 -1.000000 10.000000 -1.000000 110.314469 26.736679 432.816802 494.857702 14.660958 0.000000 0.063866
182.000000 63.640000 0.000000 10.000000 -1.000000 99.045359 24.378083 487.267602 752.886276 15.714908 0.000000 0.112750
183.000000 57.735000 1.000000 10.000000 -1.000000 87.664192 22.504313 529.089380 988.520872 17.325987 0.000000 0.130309
184.000000 50.870000 2.000000 10.000000 -1.000000 76.429838 20.982836 562.219222 1219.240506 19.668415 0.000000 0.119802
186.000000 65.929000 -3.000000 11.000000 -1.000000 128.953861 31.504234 315.336618 -79.560883 15.161371 0.000000 0.092504
187.000000 64.459000 -2.000000 11.000000 -1.000000 119.420061 28.185653 398.243008 252.388392 15.509590 0.000000 0.014041
188.000000 61.782000 -1.000000 11.000000 -1.000000 109.409933 25.622181 458.813781 520.408412 16.184421 0.000000 0.074840
189.000000 57.934000 0.000000 11.000000 -1.000000 99.115645 23.589945 505.003506 752.556487 17.262722 0.000000 0.116260
190.000000 53.074000 1.000000 11.000000 -1.000000 88.736583 21.943163 541.390340 966.590918 18.847516 0.000000 0.132084
191.000000 47.462000 2.000000 11.000000 -1.000000 78.467405 20.583764 570.795611 1175.588576 21.080168 0.000000 0.124334
193.000000 60.293000 -3.000000 12.000000 -1.000000 126.777226 29.685493 361.453697 14.959678 16.579197 0.000000 0.059731
194.000000 58.838000 -2.000000 12.000000 -1.000000 117.891163 26.907440 428.789008 302.185170 16.991556 0.000000 0.028005
195.000000 56.449000 -1.000000 12.000000 -1.000000 108.638107 24.709245 479.749529 541.403075 17.713818 0.000000 0.083382
196.000000 53.161000 0.000000 12.000000 -1.000000 99.166100 22.931374 519.660820 752.429510 18.812851 0.000000 0.119117
197.000000 49.091000 1.000000 12.000000 -1.000000 89.628262 21.466419 551.764940 948.503658 20.376246 0.000000 0.133541
199.000000 56.169000 -4.000000 13.000000 -1.000000 132.787748 31.236759 322.228863 -224.140391 17.794817 0.000000 0.120194
200.000000 55.488000 -3.000000 13.000000 -1.000000 124.878248 28.234579 397.059490 89.455633 18.015437 0.000000 0.035985
201.000000 54.088000 -2.000000 13.000000 -1.000000 116.569877 25.862908 453.240362 342.826726 18.484328 0.000000 0.041669
202.000000 51.950000 -1.000000 13.000000 -1.000000 107.972621 23.948086 496.970956 558.971896 19.247871 0.000000 0.090192
203.000000 49.109000 0.000000 13.000000 -1.000000 99.202990 22.372984 531.977101 752.425932 20.364763 0.000000 0.121484
204.000000 45.653000 1.000000 13.000000 -1.000000 90.381107 21.056421 560.632831 933.328609 21.910403 0.000000 0.134747
206.000000 52.096000 -4.000000 14.000000 -1.000000 130.684918 29.604184 363.475796 -123.186423 19.186736 0.000000 0.088340
207.000000 51.353000 -3.000000 14.000000 -1.000000 123.211541 27.051563 425.380040 149.826829 19.466768 0.000000 0.021714
208.000000 50.025000 -2.000000 14.000000 -1.000000 115.418263 24.993882 473.255646 376.669517 19.985849 0.000000 0.053021
209.000000 48.108000 -1.000000 14.000000 -1.000000 107.393415 23.303972 511.385987 573.897009 20.785640 0.000000 0.095735
210.000000 45.629000 0.000000 14.000000 -1.000000 99.230355 21.893618 542.471729 752.497964 21.918076 0.000000 0.123472
213.000000 48.530000 -4.000000 15.000000 -1.000000 128.812051 28.275756 396.062561 -42.033222 20.597016 0.000000 0.063450
214.000000 47.762000 -3.000000 15.000000 -1.000000 121.739662 26.069301 448.443765 199.833483 20.930623 0.000000 0.020972
215.000000 46.515000 -2.000000 15.000000 -1.000000 114.406624 24.259873 489.941674 405.315601 21.494555 0.000000 0.062408
217.000000 45.777000 -5.000000 16.000000 -1.000000 133.570893 29.535936 365.170536 -235.832352 21.834447 0.000000 0.110101
218.000000 143.793000 1.000000 2.000000 0.000000 45.208337 12.276819 740.786020 2034.501992 6.961582 0.000000 0.164904
219.000000 135.975000 1.000000 3.000000 0.000000 61.689752 13.074588 725.041634 1536.202914 7.360333 0.000000 0.062366
221.000000 182.748000 -1.000000 4.000000 0.000000 127.680703 19.452376 594.870696 59.401268 5.469881 0.000000 0.032600
222.000000 160.096000 0.000000 4.000000 0.000000 99.223730 15.629962 673.886442 759.509697 6.246993 0.000000 0.145502
223.000000 117.709000 1.000000 4.000000 0.000000 70.633808 13.565842 715.296130 1330.166716 8.501178 0.000000 0.102682
225.000000 144.194000 -1.000000 5.000000 0.000000 122.181566 18.449258 615.936544 227.008751 6.932968 0.000000 0.057872
226.000000 101.625000 1.000000 5.000000 0.000000 76.183824 13.898719 708.669633 1213.668686 9.845635 0.000000 0.124357
227.000000 71.668000 2.000000 5.000000 0.000000 54.856247 12.729515 731.863951 1717.752480 13.966121 0.000000 0.066653
228.000000 123.155000 -2.000000 6.000000 0.000000 136.501284 21.559633 549.741874 -278.553749 8.115677 0.000000 0.071846
229.000000 118.669000 -1.000000 6.000000 0.000000 118.444563 17.862980 628.134229 328.437633 8.424795 0.000000 0.078362
230.000000 88.738000 1.000000 6.000000 0.000000 79.946988 14.139162 703.871360 1137.767687 11.274734 0.000000 0.135524
232.000000 105.099000 -2.000000 7.000000 0.000000 131.518240 20.278834 577.318609 -74.797896 9.510573 0.000000 0.037941
233.000000 100.641000 -1.000000 7.000000 0.000000 115.745779 17.478490 636.089900 396.830578 9.934402 0.000000 0.092126
234.000000 78.484000 1.000000 7.000000 0.000000 82.661074 14.320972 700.236431 1084.065491 12.747081 0.000000 0.141707
235.000000 63.411000 2.000000 7.000000 0.000000 66.750019 13.346322 719.655864 1416.247298 15.781624 0.000000 0.084679
236.000000 48.227000 3.000000 7.000000 0.000000 52.023683 12.592824 734.561252 1801.886454 20.755235 0.000000 0.087390
238.000000 87.278000 -1.000000 8.000000 0.000000 113.707668 17.206928 641.688647 446.223115 11.455771 0.000000 0.101689
239.000000 70.231000 1.000000 8.000000 0.000000 84.708931 14.463263 697.387509 1043.937896 14.244490 0.000000 0.145328
240.000000 47.097000 3.000000 8.000000 0.000000 57.382840 12.854441 729.396260 1647.478651 21.251756 0.000000 0.057223
242.000000 80.659000 -2.000000 9.000000 0.000000 124.642574 18.875146 607.023625 155.070626 12.393654 0.000000 0.044604
243.000000 77.000000 -1.000000 9.000000 0.000000 112.115114 17.004922 645.842722 483.635291 12.985326 0.000000 0.108610
244.000000 63.485000 1.000000 9.000000 0.000000 86.308084 14.577655 695.094522 1012.758424 15.757718 0.000000 0.147533
245.000000 54.628000 2.000000 9.000000 0.000000 73.702040 13.746873 711.694728 1264.968962 18.316919 0.000000 0.115388
246.000000 73.702000 -3.000000 10.000000 0.000000 133.029900 20.639688 569.596493 -132.620983 13.561789 0.000000 0.046397
247.000000 68.859000 -1.000000 10.000000 0.000000 110.836911 16.848785 649.047392 512.987253 14.520807 0.000000 0.113801
248.000000 57.885000 1.000000 10.000000 0.000000 87.590967 14.671620 693.209209 987.806268 17.281570 0.000000 0.148908
250.000000 66.747000 -3.000000 11.000000 0.000000 130.132177 19.966379 583.975999 -24.383627 14.975579 0.000000 0.032837
251.000000 65.119000 -2.000000 11.000000 0.000000 120.149570 18.122124 622.752747 283.220659 15.352271 0.000000 0.069141
252.000000 62.258000 -1.000000 11.000000 0.000000 109.788611 16.724489 651.594753 536.647600 16.060715 0.000000 0.117813
253.000000 53.172000 1.000000 11.000000 0.000000 88.642709 14.750181 691.631726 967.370344 18.812901 0.000000 0.149774
254.000000 47.405000 2.000000 11.000000 0.000000 78.230802 14.027910 706.092759 1172.138869 21.106058 0.000000 0.130802
256.000000 56.801000 -1.000000 12.000000 0.000000 108.913453 16.623196 653.668226 556.135031 17.604018 0.000000 0.120989
257.000000 49.156000 1.000000 12.000000 0.000000 89.520473 14.816839 690.292369 950.317908 20.349695 0.000000 0.150317
259.000000 56.739000 -4.000000 13.000000 0.000000 133.838051 20.841911 565.253018 -164.863527 17.616115 0.000000 0.051749
260.000000 55.971000 -3.000000 13.000000 0.000000 125.582065 19.047183 603.410465 126.356852 17.860077 0.000000 0.040053
261.000000 54.467000 -2.000000 13.000000 0.000000 116.994183 17.652632 632.490841 365.646342 18.355658 0.000000 0.085903
262.000000 52.216000 -1.000000 13.000000 0.000000 108.171901 16.539062 655.388795 572.469631 19.149982 0.000000 0.123557
263.000000 45.695000 1.000000 13.000000 0.000000 90.264045 14.874107 689.141003 935.867956 21.890603 0.000000 0.150651
264.000000 52.808000 -5.000000 14.000000 0.000000 138.930232 22.293032 533.732445 -393.867786 18.926160 0.000000 0.092187
265.000000 51.732000 -3.000000 14.000000 0.000000 123.766618 18.719586 610.284373 181.198517 19.323927 0.000000 0.049185
266.000000 48.312000 -1.000000 14.000000 0.000000 107.535584 16.468067 656.839489 586.362705 20.698069 0.000000 0.125670
267.000000 48.896000 -4.000000 15.000000 0.000000 129.481609 19.825363 586.971943 -1.510364 20.443154 0.000000 0.031617
268.000000 46.748000 -2.000000 15.000000 0.000000 114.660180 17.331948 639.113191 423.362501 21.387759 0.000000 0.097315
270.000000 46.120000 -5.000000 16.000000 0.000000 134.341029 20.971252 562.468821 -185.432073 21.671777 0.000000 0.055294
271.000000 110.528000 1.000000 2.000000 1.000000 38.734009 -12.265813 1208.997463 2314.147404 9.057236 0.000000 0.274144
272.000000 190.086000 0.000000 3.000000 1.000000 91.195881 -11.031604 1184.826583 918.109279 5.262246 0.000000 0.159245
273.000000 118.249000 1.000000 3.000000 1.000000 56.601383 -6.403625 1095.794690 1655.103435 8.464398 0.000000 0.035985
276.000000 174.647000 -1.000000 4.000000 1.000000 121.902788 -9.594023 1156.926062 261.489112 5.724139 0.000000 0.089086
277.000000 149.451000 0.000000 4.000000 1.000000 94.210788 -5.082435 1070.724124 861.445350 6.692658 0.000000 0.167038
278.000000 108.046000 1.000000 4.000000 1.000000 66.827896 -2.507057 1022.124834 1402.121518 9.262255 0.000000 0.078909
279.000000 65.451000 2.000000 4.000000 1.000000 42.669959 -0.847929 990.929402 2108.724556 15.294978 0.000000 0.189398
280.000000 145.174000 -2.000000 5.000000 1.000000 139.587754 -7.900643 1124.360488 -335.207858 6.884489 0.000000 0.021168
281.000000 139.775000 -1.000000 5.000000 1.000000 118.459820 -3.599215 1042.699884 356.443826 7.152674 0.000000 0.114534
282.000000 122.334000 0.000000 5.000000 1.000000 95.756895 -1.239145 998.280814 832.466639 8.175983 0.000000 0.168763
283.000000 95.912000 1.000000 5.000000 1.000000 73.271641 0.247130 970.357671 1264.487517 10.432871 0.000000 0.116082
284.000000 67.115000 2.000000 5.000000 1.000000 52.630951 1.267814 951.180382 1763.169478 14.914227 0.000000 0.051477
286.000000 121.577000 -2.000000 6.000000 1.000000 134.057941 -1.924618 1011.167319 -101.058616 8.221295 0.000000 0.030455
287.000000 115.985000 -1.000000 6.000000 1.000000 115.809306 0.150926 972.164873 420.481534 8.620218 0.000000 0.127131
288.000000 103.265000 0.000000 6.000000 1.000000 96.655364 1.426184 948.203775 815.375544 9.685606 0.000000 0.168442
289.000000 85.104000 1.000000 6.000000 1.000000 77.649205 2.288416 931.989518 1176.857938 11.756916 0.000000 0.135217
290.000000 64.776000 2.000000 6.000000 1.000000 59.782114 2.910052 920.287977 1568.677526 15.451278 0.000000 0.024159
293.000000 104.017000 -2.000000 7.000000 1.000000 129.715353 1.679803 943.436057 46.571615 9.609839 0.000000 0.056051
294.000000 98.879000 -1.000000 7.000000 1.000000 113.756165 2.698160 924.277889 466.755183 10.111825 0.000000 0.134123
295.000000 89.220000 0.000000 7.000000 1.000000 97.225657 3.375400 911.520068 804.305597 11.210199 0.000000 0.167423
296.000000 76.032000 1.000000 7.000000 1.000000 80.796791 3.858206 902.414329 1115.779620 13.158914 0.000000 0.145746
297.000000 61.098000 2.000000 7.000000 1.000000 65.115116 4.219752 895.588842 1441.611159 16.379962 0.000000 0.066784
298.000000 46.278000 3.000000 7.000000 1.000000 50.662751 4.500604 890.282392 1825.834153 21.629903 0.000000 0.077753
300.000000 92.066000 -3.000000 8.000000 1.000000 139.636977 3.366831 911.681593 -327.485764 10.855816 0.000000 0.012687
301.000000 90.595000 -2.000000 8.000000 1.000000 126.273447 4.073079 898.358555 149.150922 11.034111 0.000000 0.074266
302.000000 86.053000 -1.000000 8.000000 1.000000 112.135159 4.534597 889.639850 501.817932 11.619319 0.000000 0.138324
303.000000 78.480000 0.000000 8.000000 1.000000 97.611944 4.859767 883.490315 796.644359 12.744122 0.000000 0.166202
304.000000 68.496000 1.000000 8.000000 1.000000 83.160268 5.101221 878.920181 1070.610725 14.605921 0.000000 0.151828
305.000000 57.145000 2.000000 8.000000 1.000000 69.222762 5.287595 875.390230 1351.101744 17.511782 0.000000 0.093689
306.000000 45.565000 3.000000 8.000000 1.000000 56.153187 5.435804 872.581621 1666.050959 21.966858 0.000000 0.025594
308.000000 81.844000 -3.000000 9.000000 1.000000 135.611943 5.562172 870.185810 -163.735454 12.212312 0.000000 0.023577
309.000000 80.076000 -2.000000 9.000000 1.000000 123.499345 5.772399 866.197811 225.003431 12.484091 0.000000 0.087390
310.000000 76.109000 -1.000000 9.000000 1.000000 110.829274 5.918712 863.420545 529.330245 13.137852 0.000000 0.140995
311.000000 70.018000 0.000000 9.000000 1.000000 97.886893 6.026409 861.375318 791.074231 14.284253 0.000000 0.164969
312.000000 62.210000 1.000000 9.000000 1.000000 84.996063 6.108996 859.806404 1035.776279 16.081265 0.000000 0.155445
313.000000 53.332000 2.000000 9.000000 1.000000 72.472951 6.174337 858.564765 1282.896241 18.762482 0.000000 0.111386
315.000000 73.488000 -3.000000 10.000000 1.000000 132.277367 7.095802 841.020539 -45.128292 13.601489 0.000000 0.037859
316.000000 71.648000 -2.000000 10.000000 1.000000 121.224869 7.039328 842.097715 283.578872 13.953184 0.000000 0.097110
317.000000 68.187000 -1.000000 10.000000 1.000000 109.757668 6.998132 842.883302 551.506578 14.664366 0.000000 0.142767
318.000000 63.186000 0.000000 10.000000 1.000000 98.090365 6.966753 843.481584 786.867278 15.828723 0.000000 0.163801
319.000000 56.919000 1.000000 10.000000 1.000000 86.461021 6.942057 843.952413 1008.055560 17.575601 0.000000 0.157617
320.000000 49.809000 2.000000 10.000000 1.000000 75.103073 6.922113 844.332597 1229.420280 20.088744 0.000000 0.123477
322.000000 67.197000 -4.000000 11.000000 1.000000 139.176756 8.512433 813.907958 -318.754479 14.873504 0.000000 0.027572
323.000000 66.568000 -3.000000 11.000000 1.000000 129.480244 8.226227 819.400690 45.177320 15.016116 0.000000 0.051081
324.000000 64.764000 -2.000000 11.000000 1.000000 119.330536 8.019387 823.365306 330.285117 15.436874 0.000000 0.104500
325.000000 61.737000 -1.000000 11.000000 1.000000 108.863933 7.862925 826.361631 569.768623 16.196836 0.000000 0.143982
326.000000 57.558000 0.000000 11.000000 1.000000 98.245737 7.740434 828.705793 783.592280 17.376345 0.000000 0.162723
327.000000 52.421000 1.000000 11.000000 1.000000 87.656024 7.641936 830.589815 985.450678 19.083289 0.000000 0.158905
328.000000 46.611000 2.000000 11.000000 1.000000 77.271926 7.561010 832.137070 1186.239884 21.466016 0.000000 0.131988
330.000000 61.557000 -4.000000 12.000000 1.000000 136.122665 9.484355 795.192205 -193.833560 16.236817 0.000000 0.025955
331.000000 60.764000 -3.000000 12.000000 1.000000 127.105788 9.093360 802.733510 116.471524 16.450951 0.000000 0.062422
332.000000 59.047000 -2.000000 12.000000 1.000000 117.730682 8.799680 808.387003 368.458186 16.931963 0.000000 0.110244
333.000000 56.387000 -1.000000 12.000000 1.000000 108.107957 8.571015 812.782692 585.072323 17.733871 0.000000 0.144836
334.000000 52.844000 0.000000 12.000000 1.000000 98.367471 8.387932 816.298315 780.979294 18.926329 0.000000 0.161738
335.000000 48.558000 1.000000 12.000000 1.000000 88.648712 8.238041 819.174121 966.653202 20.600718 0.000000 0.159636
337.000000 56.901000 -5.000000 13.000000 1.000000 141.541598 10.818994 769.316078 -438.628425 17.564223 0.000000 0.043849
338.000000 56.713000 -4.000000 13.000000 1.000000 133.485245 10.223425 780.889775 -96.307676 17.624290 0.000000 0.030523
339.000000 55.840000 -3.000000 13.000000 1.000000 125.067975 9.779303 789.492060 174.325799 17.902098 0.000000 0.071959
340.000000 54.231000 -2.000000 13.000000 1.000000 116.362885 9.435415 796.137065 400.276153 18.436124 0.000000 0.114801
341.000000 51.880000 -1.000000 13.000000 1.000000 107.460612 9.161288 801.424566 598.084793 19.274480 0.000000 0.145448
342.000000 48.839000 0.000000 13.000000 1.000000 98.464918 8.937658 805.731995 778.851597 20.478127 0.000000 0.160842
344.000000 52.859000 -5.000000 14.000000 1.000000 138.777381 11.413142 757.724081 -312.244079 18.908162 0.000000 0.036332
345.000000 52.521000 -4.000000 14.000000 1.000000 131.188106 10.804192 769.604264 -17.826431 19.031764 0.000000 0.038447
346.000000 51.619000 -3.000000 14.000000 1.000000 123.301761 10.335326 778.718593 222.298246 19.366601 0.000000 0.079958
347.000000 50.122000 -2.000000 14.000000 1.000000 115.180839 9.963238 785.932244 427.225679 19.947623 0.000000 0.118479
348.000000 48.034000 -1.000000 14.000000 1.000000 106.900319 9.660791 791.783621 609.286053 20.817939 0.000000 0.145895
351.000000 49.297000 -5.000000 15.000000 1.000000 136.338550 11.876856 748.643247 -211.467634 20.274680 0.000000 0.030876
352.000000 48.865000 -4.000000 15.000000 1.000000 129.171533 11.272509 760.472173 46.836205 20.455983 0.000000 0.047042
353.000000 47.966000 -3.000000 15.000000 1.000000 121.757366 10.795066 769.781942 262.775231 20.842180 0.000000 0.086692
354.000000 46.580000 -2.000000 15.000000 1.000000 114.149588 10.408404 777.299851 450.358449 21.465141 0.000000 0.121492
356.000000 46.268000 -6.000000 16.000000 1.000000 140.711914 12.999907 726.519728 -409.136050 21.600889 0.000000 0.050364
357.000000 46.145000 -5.000000 16.000000 1.000000 134.173129 12.248794 741.337336 -129.027354 21.660441 0.000000 0.029680
358.000000 45.656000 -4.000000 16.000000 1.000000 127.388481 11.658103 752.930834 101.127854 21.894360 0.000000 0.055228
360.000000 155.446000 0.000000 2.000000 2.000000 62.812638 -39.942038 1876.264289 1662.069715 6.437389 0.000000 0.230202
362.000000 182.114000 -1.000000 3.000000 2.000000 104.595622 -40.878763 1906.617294 570.325112 5.490776 0.000000 0.087131
363.000000 144.874000 0.000000 3.000000 2.000000 76.622938 -29.029006 1572.312144 1233.728424 6.905993 0.000000 0.120101
364.000000 90.167000 1.000000 3.000000 2.000000 48.465855 -21.476972 1398.463970 1965.505580 11.101151 0.000000 0.178148
366.000000 150.926000 -1.000000 4.000000 2.000000 108.122499 -29.099669 1574.049565 537.858411 6.625194 0.000000 0.058822
367.000000 126.135000 0.000000 4.000000 2.000000 84.131505 -21.133238 1391.024896 1059.602775 7.931129 0.000000 0.133640
368.000000 90.593000 1.000000 4.000000 2.000000 60.175360 -15.904865 1281.689290 1582.575127 11.047580 0.000000 0.077097
369.000000 133.944000 -2.000000 5.000000 2.000000 128.056088 -29.180395 1576.037335 -24.069214 7.462719 0.000000 0.061538
370.000000 126.458000 -1.000000 5.000000 2.000000 109.124753 -20.751255 1382.798382 541.887432 7.907119 0.000000 0.104203
371.000000 109.039000 0.000000 5.000000 2.000000 88.489309 -15.358143 1270.615062 970.435904 9.174028 0.000000 0.149802
372.000000 84.884000 1.000000 5.000000 2.000000 67.961494 -11.671414 1197.329872 1385.891386 11.789188 0.000000 0.091717
373.000000 59.415000 2.000000 5.000000 2.000000 49.012157 -9.012079 1145.700878 1887.896586 16.847725 0.000000 0.113744
375.000000 114.500000 -2.000000 6.000000 2.000000 126.103728 -20.324303 1373.652413 103.930950 8.730341 0.000000 0.031604
376.000000 107.850000 -1.000000 6.000000 2.000000 109.128541 -14.760423 1258.574019 554.959679 9.271416 0.000000 0.127694
377.000000 77.841000 1.000000 6.000000 2.000000 73.379042 -8.379174 1133.533584 1265.752610 12.854784 0.000000 0.116682
378.000000 100.925000 -3.000000 7.000000 2.000000 137.909121 -19.844000 1363.423717 -325.759460 9.902978 0.000000 0.065929
379.000000 99.312000 -2.000000 7.000000 2.000000 123.944144 -14.104373 1245.433772 194.037597 10.065893 0.000000 0.065941
380.000000 93.571000 -1.000000 7.000000 2.000000 108.750418 -10.341151 1171.394476 569.605779 10.686381 0.000000 0.140337
381.000000 83.801000 0.000000 7.000000 2.000000 92.978420 -7.704373 1120.604342 884.490182 11.935948 0.000000 0.164369
382.000000 71.042000 1.000000 7.000000 2.000000 77.309537 -5.761673 1083.598641 1184.595775 14.084051 0.000000 0.133643
383.000000 56.931000 2.000000 7.000000 2.000000 62.354708 -4.274022 1055.436246 1506.329008 17.579670 0.000000 0.048884
384.000000 89.347000 -3.000000 8.000000 2.000000 134.758349 -13.381216 1231.036606 -156.036143 11.186777 0.000000 0.026394
385.000000 82.404000 -1.000000 8.000000 2.000000 108.242854 -6.983582 1106.839266 583.588569 12.134728 0.000000 0.147514
386.000000 64.936000 1.000000 8.000000 2.000000 80.264876 -3.638995 1043.450144 1126.026561 15.407469 0.000000 0.144569
388.000000 79.844000 -3.000000 9.000000 2.000000 131.876659 -8.783230 1141.296598 -35.362160 12.518810 0.000000 0.036458
389.000000 77.714000 -2.000000 9.000000 2.000000 120.071851 -6.212186 1092.154599 314.119213 12.864316 0.000000 0.104222
390.000000 73.493000 -1.000000 9.000000 2.000000 107.710913 -4.362772 1057.112904 596.285934 13.606233 0.000000 0.151736
391.000000 67.310000 0.000000 9.000000 2.000000 95.097492 -2.971227 1030.864227 844.861548 14.859858 0.000000 0.168306
392.000000 59.587000 1.000000 9.000000 2.000000 82.554444 -1.887425 1010.467873 1081.732867 16.790005 0.000000 0.151663
393.000000 50.950000 2.000000 9.000000 2.000000 70.385520 -1.020017 994.162922 1324.618466 19.640781 0.000000 0.100689
395.000000 71.977000 -3.000000 10.000000 2.000000 129.320399 -5.384975 1076.455003 55.515270 13.887522 0.000000 0.055422
396.000000 66.248000 -1.000000 10.000000 2.000000 107.197822 -2.268316 1017.632317 607.614878 15.094458 0.000000 0.154265
397.000000 54.932000 1.000000 10.000000 2.000000 84.373112 -0.420030 982.890352 1047.044389 18.212090 0.000000 0.156331
399.000000 66.234000 -4.000000 11.000000 2.000000 136.656923 -4.496048 1059.631492 -202.936875 15.090153 0.000000 0.016326
400.000000 65.400000 -3.000000 11.000000 2.000000 127.075370 -2.787918 1027.412068 126.768392 15.284779 0.000000 0.070690
401.000000 63.417000 -2.000000 11.000000 2.000000 117.047606 -1.527642 1003.703366 391.278385 15.765451 0.000000 0.121821
402.000000 60.258000 -1.000000 11.000000 2.000000 106.720007 -0.560361 985.526656 617.671085 16.595151 0.000000 0.155779
403.000000 56.012000 0.000000 11.000000 2.000000 96.260968 0.205056 971.148040 822.917349 17.856820 0.000000 0.168744
404.000000 50.880000 1.000000 11.000000 2.000000 85.848398 0.825624 959.489687 1019.132229 19.661934 0.000000 0.159424
406.000000 59.843000 -3.000000 12.000000 2.000000 125.106290 -0.746346 989.020808 184.326975 16.704685 0.000000 0.082521
407.000000 55.232000 -1.000000 12.000000 2.000000 106.282077 0.856689 958.905999 626.599821 18.105389 0.000000 0.156663
408.000000 47.339000 1.000000 12.000000 2.000000 87.066626 1.895315 939.383748 996.181464 21.132008 0.000000 0.161471
410.000000 56.399000 -5.000000 13.000000 2.000000 139.788302 -1.004582 993.872885 -332.290653 17.720925 0.000000 0.001932
411.000000 56.090000 -4.000000 13.000000 2.000000 131.756765 0.078692 973.521782 -19.858619 17.820567 0.000000 0.044293
412.000000 55.101000 -3.000000 13.000000 2.000000 123.374865 0.896872 958.150984 231.905052 18.142864 0.000000 0.091782
413.000000 53.389000 -2.000000 13.000000 2.000000 114.719614 1.536419 946.131634 445.335272 18.727258 0.000000 0.131098
414.000000 50.960000 -1.000000 13.000000 2.000000 105.883476 2.049957 936.475358 634.548950 19.623095 0.000000 0.157147
415.000000 47.871000 0.000000 13.000000 2.000000 96.970126 2.471325 928.547641 809.294793 20.892931 0.000000 0.167979
417.000000 52.441000 -5.000000 14.000000 2.000000 137.300316 0.950878 957.136238 -225.542484 19.058940 0.000000 0.014053
418.000000 51.016000 -3.000000 14.000000 2.000000 121.845954 2.245898 932.789452 271.959653 19.595997 0.000000 0.099147
419.000000 47.289000 -1.000000 14.000000 2.000000 105.521519 3.067744 917.317662 641.652843 21.146755 0.000000 0.157370
421.000000 49.025000 -6.000000 15.000000 2.000000 141.968542 1.873931 939.785873 -435.772237 20.385736 0.000000 0.010678
422.000000 48.947000 -5.000000 15.000000 2.000000 135.072421 2.502223 927.966139 -139.048363 20.420193 0.000000 0.025539
423.000000 48.439000 -4.000000 15.000000 2.000000 127.898033 2.986891 918.840736 102.047375 20.636475 0.000000 0.065932
424.000000 47.467000 -3.000000 15.000000 2.000000 120.489226 3.372080 911.582656 306.187689 21.061526 0.000000 0.105094
425.000000 46.018000 -2.000000 15.000000 2.000000 112.899967 3.685540 905.671937 485.414014 21.727888 0.000000 0.136472
427.000000 45.848000 -5.000000 16.000000 2.000000 133.072097 3.761279 904.243162 -67.367660 21.801241 0.000000 0.035964
429.000000 134.118000 -1.000000 3.000000 3.000000 85.026633 -50.477838 2279.620881 1088.176123 7.458033 0.000000 0.291353
432.000000 122.154000 -1.000000 4.000000 3.000000 93.047440 -40.550909 1895.897329 865.588484 8.187640 0.000000 0.104852
433.000000 100.212000 0.000000 4.000000 3.000000 72.947081 -32.283965 1654.983480 1331.512243 9.984276 0.000000 0.130187
434.000000 72.040000 1.000000 4.000000 3.000000 52.774101 -26.179726 1504.129472 1852.194176 13.893487 0.000000 0.170347
435.000000 117.448000 -2.000000 5.000000 3.000000 114.186320 -41.223842 1918.015804 298.305148 8.512569 0.000000 0.117394
436.000000 108.632000 -1.000000 5.000000 3.000000 97.666759 -32.481923 1660.197776 769.246066 9.206272 0.000000 0.078628
437.000000 92.492000 0.000000 5.000000 3.000000 79.622887 -26.109417 1502.490504 1160.490423 10.816719 0.000000 0.121426
438.000000 71.818000 1.000000 5.000000 3.000000 61.571430 -21.366285 1396.064680 1566.644229 13.935092 0.000000 0.100859
439.000000 50.556000 2.000000 5.000000 3.000000 44.725843 -17.744257 1319.405587 2081.921699 19.800081 0.000000 0.202939
440.000000 103.620000 -2.000000 6.000000 3.000000 115.561720 -32.698861 1665.938428 329.262890 9.648497 0.000000 0.012786
441.000000 96.293000 -1.000000 6.000000 3.000000 100.320086 -26.033349 1500.719505 722.884054 10.385631 0.000000 0.103511
442.000000 68.628000 1.000000 6.000000 3.000000 67.975998 -17.429144 1312.891505 1397.326494 14.581490 0.000000 0.098401
443.000000 52.207000 2.000000 6.000000 3.000000 52.667244 -14.553010 1254.411277 1789.100160 19.172489 0.000000 0.100057
444.000000 94.378000 -3.000000 7.000000 3.000000 128.529155 -32.937639 1672.289371 -80.155269 10.591261 0.000000 0.101084
445.000000 91.865000 -2.000000 7.000000 3.000000 115.819983 -25.950785 1498.799853 361.839195 10.883179 0.000000 0.045570
446.000000 85.741000 -1.000000 7.000000 3.000000 101.846441 -20.883217 1385.635631 699.366637 11.663566 0.000000 0.124098
447.000000 76.266000 0.000000 7.000000 3.000000 87.272351 -17.094225 1305.992609 994.647300 13.116463 0.000000 0.145241
448.000000 64.425000 1.000000 7.000000 3.000000 72.749628 -14.177661 1246.897854 1285.705331 15.531638 0.000000 0.113727
449.000000 51.609000 2.000000 7.000000 3.000000 58.838535 -11.874355 1201.307692 1606.069721 19.393256 0.000000 0.058987
451.000000 84.612000 -3.000000 8.000000 3.000000 127.466966 -25.860855 1496.712010 24.315361 11.813869 0.000000 0.034560
452.000000 82.046000 -2.000000 8.000000 3.000000 115.516072 -20.614309 1379.859226 392.119391 12.185830 0.000000 0.079412
453.000000 76.889000 -1.000000 8.000000 3.000000 102.718625 -16.737599 1298.673765 687.331966 13.006312 0.000000 0.137657
454.000000 69.356000 0.000000 8.000000 3.000000 89.528645 -13.781141 1238.987632 950.116993 14.422889 0.000000 0.153586
455.000000 60.073000 1.000000 8.000000 3.000000 76.394995 -11.463433 1193.259295 1206.784455 16.655857 0.000000 0.128106
456.000000 49.917000 2.000000 8.000000 3.000000 63.714924 -9.603294 1157.105195 1480.144316 20.049310 0.000000 0.066959
457.000000 76.993000 -4.000000 9.000000 3.000000 136.368663 -25.762528 1494.432861 -312.585618 12.981488 0.000000 0.095588
458.000000 73.857000 -2.000000 9.000000 3.000000 114.946495 -16.357113 1290.895422 419.219808 13.537258 0.000000 0.100899
459.000000 69.476000 -1.000000 9.000000 3.000000 103.203728 -13.361651 1230.648324 681.457976 14.393942 0.000000 0.146461
460.000000 55.929000 1.000000 9.000000 3.000000 79.242643 -9.173105 1148.803198 1148.133024 17.889092 0.000000 0.139009
461.000000 47.749000 2.000000 9.000000 3.000000 67.633756 -7.659124 1119.738875 1387.861493 20.958304 0.000000 0.086760
463.000000 70.238000 -4.000000 10.000000 3.000000 134.413928 -20.010630 1366.965224 -181.249019 14.230250 0.000000 0.046206
464.000000 69.315000 -3.000000 10.000000 3.000000 124.659875 -15.950330 1282.612906 167.056512 14.422008 0.000000 0.055653
465.000000 66.991000 -2.000000 10.000000 3.000000 114.266795 -12.917184 1221.844045 443.187675 14.924873 0.000000 0.115190
466.000000 63.238000 -1.000000 10.000000 3.000000 103.455381 -10.577283 1175.981358 679.039733 15.813942 0.000000 0.152233
467.000000 58.186000 0.000000 10.000000 3.000000 92.459186 -8.723056 1140.139450 894.235177 17.190598 0.000000 0.163006
468.000000 52.121000 1.000000 10.000000 3.000000 81.513004 -7.220432 1111.357542 1102.887305 19.195110 0.000000 0.146939
470.000000 64.392000 -4.000000 11.000000 3.000000 132.456715 -15.514470 1273.775557 -80.985331 15.522619 0.000000 0.027502
471.000000 63.338000 -3.000000 11.000000 3.000000 123.243245 -12.445498 1212.534792 218.555568 15.783384 0.000000 0.074821
472.000000 61.190000 -2.000000 11.000000 3.000000 113.557600 -10.098730 1166.692590 464.341966 16.340076 0.000000 0.125045
473.000000 57.946000 -1.000000 11.000000 3.000000 103.564040 -8.251801 1131.089779 678.615446 17.258053 0.000000 0.156053
474.000000 53.709000 0.000000 11.000000 3.000000 93.437822 -6.763258 1102.640373 875.890234 18.623448 0.000000 0.165466
475.000000 48.678000 1.000000 11.000000 3.000000 83.356114 -5.539552 1079.385266 1066.955237 20.552138 0.000000 0.152665
476.000000 59.617000 -5.000000 12.000000 3.000000 138.797593 -15.046356 1264.325689 -331.979549 16.764608 0.000000 0.046085
477.000000 59.321000 -4.000000 12.000000 3.000000 130.587012 -11.944085 1202.675836 -1.477248 16.850074 0.000000 0.037394
478.000000 56.245000 -2.000000 12.000000 3.000000 112.859868 -7.757871 1121.627812 483.052200 17.776792 0.000000 0.132037
479.000000 53.419000 -1.000000 12.000000 3.000000 103.584237 -6.286471 1093.566770 679.357133 18.720605 0.000000 0.158589
480.000000 45.585000 1.000000 12.000000 3.000000 84.876373 -4.079785 1051.768047 1037.749261 21.946296 0.000000 0.156804
482.000000 55.351000 -5.000000 13.000000 3.000000 136.658490 -11.410129 1192.217008 -222.473823 18.057282 0.000000 0.025082
483.000000 54.904000 -4.000000 13.000000 3.000000 128.842203 -9.061044 1146.643938 63.379395 18.206179 0.000000 0.052503
484.000000 53.796000 -3.000000 13.000000 3.000000 120.657374 -7.239669 1111.724715 297.898753 18.583752 0.000000 0.099835
485.000000 51.994000 -2.000000 13.000000 3.000000 112.193469 -5.788852 1084.114415 499.664889 19.230608 0.000000 0.137112
486.000000 49.513000 -1.000000 13.000000 3.000000 103.549575 -4.607358 1061.735700 680.778569 20.197576 0.000000 0.160263
487.000000 46.416000 0.000000 13.000000 3.000000 94.831803 -3.627340 1043.230332 849.836763 21.549133 0.000000 0.167996
489.000000 51.613000 -6.000000 14.000000 3.000000 141.734033 -10.840456 1181.101840 -448.282684 19.363803 0.000000 0.039639
490.000000 51.576000 -5.000000 14.000000 3.000000 134.662019 -8.497450 1135.804284 -134.476859 19.379490 0.000000 0.024087
491.000000 51.038000 -4.000000 14.000000 3.000000 127.233058 -6.695452 1101.348905 117.452298 19.585983 0.000000 0.065665
492.000000 49.954000 -3.000000 14.000000 3.000000 119.510846 -5.269084 1074.259088 329.207817 20.013330 0.000000 0.108086
493.000000 48.308000 -2.000000 14.000000 3.000000 111.567026 -4.113312 1052.401084 514.482653 20.698241 0.000000 0.140864
494.000000 46.115000 -1.000000 14.000000 3.000000 103.481162 -3.158528 1034.392743 682.586296 21.686036 0.000000 0.161347
496.000000 48.225000 -5.000000 15.000000 3.000000 132.817219 -6.123317 1090.465705 -61.982810 20.726624 0.000000 0.034662
497.000000 47.635000 -4.000000 15.000000 3.000000 125.757378 -4.725748 1063.974458 163.324820 20.985611 0.000000 0.076483
498.000000 45.495000 -6.000000 16.000000 3.000000 137.595669 -5.521183 1079.036966 -243.006697 21.968938 0.000000 0.014068
503.000000 95.944000 -1.000000 4.000000 4.000000 79.685671 -47.553338 2151.766537 1231.225001 10.426516 0.000000 0.248467
505.000000 99.583000 -2.000000 5.000000 4.000000 100.882512 -48.368832 2185.931973 629.528239 10.041726 0.000000 0.220071
506.000000 90.438000 -1.000000 5.000000 4.000000 86.427989 -40.393050 1890.773143 1029.216076 11.060356 0.000000 0.126361
507.000000 76.273000 0.000000 5.000000 4.000000 70.801365 -34.048638 1702.299748 1393.321390 13.118309 0.000000 0.142836
508.000000 59.250000 1.000000 5.000000 4.000000 55.138695 -28.996878 1571.522986 1798.207460 16.891825 0.000000 0.174574
510.000000 83.558000 -1.000000 6.000000 4.000000 91.017885 -34.261049 1708.126509 917.862312 11.970258 0.000000 0.093679
511.000000 59.040000 1.000000 6.000000 4.000000 62.215641 -24.853400 1473.535570 1565.971146 16.950561 0.000000 0.116581
513.000000 86.102000 -3.000000 7.000000 4.000000 118.359378 -41.403262 1923.989970 166.456690 11.610826 0.000000 0.143510
514.000000 82.870000 -2.000000 7.000000 4.000000 106.832676 -34.488767 1714.405911 545.941058 12.066211 0.000000 0.036415
515.000000 76.648000 -1.000000 7.000000 4.000000 94.155735 -29.063201 1573.152613 851.532474 13.048979 0.000000 0.102662
516.000000 67.786000 0.000000 7.000000 4.000000 80.915018 -24.763989 1471.497130 1130.534484 14.758863 0.000000 0.123986
517.000000 57.146000 1.000000 7.000000 4.000000 67.682800 -21.309520 1394.835624 1415.219968 17.511037 0.000000 0.104389
518.000000 45.842000 2.000000 7.000000 4.000000 54.946170 -18.492164 1334.959351 1737.250061 21.833582 0.000000 0.105938
519.000000 78.470000 -3.000000 8.000000 4.000000 119.106535 -34.733498 1721.192829 211.856130 12.740132 0.000000 0.053584
520.000000 70.243000 -1.000000 8.000000 4.000000 96.322149 -24.669296 1469.341452 809.778517 14.238454 0.000000 0.118159
521.000000 54.506000 1.000000 8.000000 4.000000 71.962982 -18.265846 1330.238684 1310.074942 18.357950 0.000000 0.111552
523.000000 72.805000 -4.000000 9.000000 4.000000 128.704058 -34.997214 1728.551383 -111.759526 13.729440 0.000000 0.126215
524.000000 71.691000 -3.000000 9.000000 4.000000 119.203837 -29.138645 1575.008892 252.214998 13.944950 0.000000 0.006941
525.000000 68.932000 -2.000000 9.000000 4.000000 108.812450 -24.568839 1467.058122 537.837127 14.505884 0.000000 0.085103
526.000000 64.506000 -1.000000 9.000000 4.000000 97.835341 -20.947414 1387.017682 782.408131 15.504509 0.000000 0.131066
527.000000 58.606000 0.000000 9.000000 4.000000 86.584955 -18.028562 1325.302477 1008.543503 17.069157 0.000000 0.142644
528.000000 51.619000 1.000000 9.000000 4.000000 75.364003 -15.637468 1276.265601 1232.879328 19.383769 0.000000 0.122569
530.000000 65.742000 -3.000000 10.000000 4.000000 118.918154 -24.462076 1464.635456 287.771977 15.207088 0.000000 0.040667
531.000000 59.440000 -1.000000 10.000000 4.000000 98.904180 -17.779503 1320.135622 763.918734 16.825718 0.000000 0.140686
532.000000 48.738000 1.000000 10.000000 4.000000 78.106814 -13.353908 1230.494658 1173.976304 20.528800 0.000000 0.132605
534.000000 62.132000 -5.000000 11.000000 4.000000 135.210850 -29.225229 1577.142642 -301.392849 16.086464 0.000000 0.116559
535.000000 61.809000 -4.000000 11.000000 4.000000 127.143135 -24.348393 1462.060298 46.137344 16.172519 0.000000 0.026742
536.000000 60.541000 -3.000000 11.000000 4.000000 118.416873 -20.543879 1378.349702 319.088924 16.513766 0.000000 0.066261
537.000000 58.261000 -2.000000 11.000000 4.000000 109.200319 -17.517782 1314.721567 547.960175 17.162849 0.000000 0.117835
538.000000 54.987000 -1.000000 11.000000 4.000000 99.666414 -15.066086 1264.723136 751.149119 18.187966 0.000000 0.147686
539.000000 50.831000 0.000000 11.000000 4.000000 89.991991 -13.046315 1224.398682 941.154435 19.679060 0.000000 0.155220
540.000000 45.984000 1.000000 11.000000 4.000000 80.350188 -11.357495 1191.188202 1127.659428 21.757248 0.000000 0.140757
541.000000 57.739000 -5.000000 12.000000 4.000000 133.902581 -24.227097 1459.317781 -194.875449 17.310805 0.000000 0.066964
542.000000 55.991000 -3.000000 12.000000 4.000000 117.802920 -17.242420 1309.042137 346.758610 17.855738 0.000000 0.084698
543.000000 51.073000 -1.000000 12.000000 4.000000 100.213915 -12.725808 1218.062856 742.190555 19.581575 0.000000 0.152760
546.000000 53.812000 -5.000000 13.000000 4.000000 132.513899 -20.091422 1368.685077 -109.659584 18.574415 0.000000 0.036693
547.000000 53.223000 -4.000000 13.000000 4.000000 125.021189 -16.952334 1303.077330 152.515804 18.782373 0.000000 0.049954
548.000000 52.001000 -3.000000 13.000000 4.000000 117.138738 -14.440201 1252.150493 371.316638 19.226154 0.000000 0.098319
549.000000 50.128000 -2.000000 13.000000 4.000000 108.966395 -12.391575 1211.472741 562.285537 19.947736 0.000000 0.134938
550.000000 47.624000 -1.000000 13.000000 4.000000 100.608836 -10.693064 1178.232982 735.842693 20.999691 0.000000 0.156440
552.000000 50.303000 -5.000000 14.000000 4.000000 131.118478 -16.646327 1296.805082 -39.619293 19.870814 0.000000 0.028126
553.000000 48.487000 -3.000000 14.000000 4.000000 116.461719 -12.042742 1204.612715 393.221656 20.619826 0.000000 0.108608
556.000000 47.423000 -6.000000 15.000000 4.000000 136.309021 -16.323072 1290.200995 -232.952124 21.075893 0.000000 0.039784
557.000000 47.161000 -5.000000 15.000000 4.000000 129.758340 -13.751797 1238.403312 19.165709 21.194875 0.000000 0.037248
558.000000 46.488000 -4.000000 15.000000 4.000000 122.899889 -11.678356 1197.465849 229.998763 21.504381 0.000000 0.078788
565.000000 74.216000 -1.000000 5.000000 5.000000 76.389722 -45.895045 2085.457362 1315.420635 13.479848 0.000000 0.234877
566.000000 48.395000 1.000000 5.000000 5.000000 49.215432 -34.962066 1727.567896 2073.996623 20.681398 0.000000 0.282335
568.000000 78.530000 -2.000000 6.000000 5.000000 94.280652 -46.476549 2108.248199 824.015588 12.735405 0.000000 0.182250
569.000000 71.286000 -1.000000 6.000000 5.000000 82.163512 -40.300192 1887.770139 1135.229561 14.032851 0.000000 0.141593
570.000000 61.460000 0.000000 6.000000 5.000000 69.400914 -35.153884 1732.945475 1435.775661 16.280389 0.000000 0.153739
571.000000 50.101000 1.000000 6.000000 5.000000 56.617590 -30.864734 1618.249411 1767.219892 19.975916 0.000000 0.179928
573.000000 77.118000 -3.000000 7.000000 5.000000 108.425210 -47.095582 2133.051493 414.305770 12.965448 0.000000 0.207272
574.000000 73.428000 -2.000000 7.000000 5.000000 97.924928 -40.680066 1900.107814 743.435189 13.619584 0.000000 0.092494
575.000000 67.367000 -1.000000 7.000000 5.000000 86.458920 -35.356458 1738.652176 1022.665289 14.848320 0.000000 0.106173
576.000000 59.307000 0.000000 7.000000 5.000000 74.509093 -30.939382 1620.154020 1288.784553 16.870421 0.000000 0.124147
577.000000 49.958000 1.000000 7.000000 5.000000 62.548393 -27.256486 1529.482141 1569.965416 20.031836 0.000000 0.128397
579.000000 71.578000 -3.000000 8.000000 5.000000 110.561667 -41.083659 1913.370903 405.371005 13.968651 0.000000 0.100523
580.000000 68.282000 -2.000000 8.000000 5.000000 100.477355 -35.570712 1744.719165 696.298967 14.645628 0.000000 0.060119
581.000000 63.165000 -1.000000 8.000000 5.000000 89.664765 -31.017973 1622.162444 948.348163 15.835611 0.000000 0.104160
582.000000 56.495000 0.000000 8.000000 5.000000 78.494172 -27.239359 1529.075083 1187.415496 17.708940 0.000000 0.120080
583.000000 48.764000 1.000000 8.000000 5.000000 67.323756 -24.078663 1455.968763 1433.558820 20.520751 0.000000 0.110630
585.000000 67.855000 -4.000000 9.000000 5.000000 120.688038 -41.513221 1927.667583 87.967800 14.732701 0.000000 0.160674
586.000000 66.347000 -3.000000 9.000000 5.000000 111.881864 -35.797680 1751.181675 408.046616 15.069689 0.000000 0.034630
587.000000 63.400000 -2.000000 9.000000 5.000000 102.252074 -31.100827 1624.283407 668.037008 15.773205 0.000000 0.069587
588.000000 59.040000 -1.000000 9.000000 5.000000 92.074335 -27.221384 1528.648026 897.161539 16.941510 0.000000 0.113720
589.000000 53.466000 0.000000 9.000000 5.000000 81.632623 -23.990781 1453.989592 1114.276366 18.711437 0.000000 0.125795
590.000000 47.023000 1.000000 9.000000 5.000000 71.199997 -21.274991 1394.088500 1334.197019 21.279377 0.000000 0.111193
591.000000 63.046000 -4.000000 10.000000 5.000000 121.168848 -36.038521 1758.079688 135.892383 15.856429 0.000000 0.082822
592.000000 61.547000 -3.000000 10.000000 5.000000 112.637588 -31.188301 1626.526641 416.321509 16.244929 0.000000 0.022220
593.000000 58.907000 -2.000000 10.000000 5.000000 103.476588 -27.202499 1528.199459 650.994004 16.975948 0.000000 0.088152
594.000000 55.160000 -1.000000 10.000000 5.000000 93.901605 -23.898840 1451.921911 860.711580 18.132720 0.000000 0.124597
596.000000 59.245000 -5.000000 11.000000 5.000000 128.784120 -36.294537 1765.458759 -132.062268 16.871854 0.000000 0.143378
597.000000 58.662000 -4.000000 11.000000 5.000000 121.220394 -31.280790 1628.903033 177.689034 17.041489 0.000000 0.031103
598.000000 57.206000 -3.000000 11.000000 5.000000 113.008428 -27.182630 1527.727714 427.207469 17.477779 0.000000 0.050282
599.000000 54.837000 -2.000000 11.000000 5.000000 104.312186 -23.802554 1449.759646 640.884956 18.235892 0.000000 0.104306
600.000000 51.589000 -1.000000 11.000000 5.000000 95.300601 -20.985379 1387.835569 834.050018 19.387342 0.000000 0.133996
601.000000 47.576000 0.000000 11.000000 5.000000 86.143911 -18.612060 1337.465263 1017.549150 21.026523 0.000000 0.140984
603.000000 55.378000 -5.000000 12.000000 5.000000 128.357299 -31.378740 1631.424803 -56.670286 18.050305 0.000000 0.083693
604.000000 54.701000 -4.000000 12.000000 5.000000 120.991423 -27.161700 1527.230948 214.386770 18.275842 0.000000 0.014509
605.000000 53.307000 -3.000000 12.000000 5.000000 113.119760 -23.701607 1447.496154 439.152650 18.756252 0.000000 0.072760
606.000000 51.176000 -2.000000 12.000000 5.000000 104.872215 -20.831013 1384.512618 635.189226 19.540376 0.000000 0.116953
607.000000 48.339000 -1.000000 12.000000 5.000000 96.381926 -18.422421 1333.503301 814.115503 20.690382 0.000000 0.141536
609.000000 52.043000 -6.000000 13.000000 5.000000 134.341696 -31.482648 1634.105710 -292.400394 19.205433 0.000000 0.132086
610.000000 51.864000 -5.000000 13.000000 5.000000 127.713412 -27.139621 1526.707115 5.771852 19.273457 0.000000 0.043784
611.000000 51.135000 -4.000000 13.000000 5.000000 120.584966 -23.595653 1445.124158 246.824616 19.550406 0.000000 0.038218
612.000000 49.814000 -3.000000 13.000000 5.000000 113.058109 -20.669703 1381.047466 451.331848 20.071472 0.000000 0.089696
613.000000 47.892000 -2.000000 13.000000 5.000000 105.236229 -18.225010 1329.388222 632.363856 20.880217 0.000000 0.126674
615.000000 48.967000 -6.000000 14.000000 5.000000 133.414402 -27.116296 1526.153942 -203.065513 20.411887 0.000000 0.084553
616.000000 48.681000 -5.000000 14.000000 5.000000 126.942063 -23.484310 1442.635663 58.566497 20.533921 0.000000 0.024525
617.000000 47.930000 -4.000000 14.000000 5.000000 120.071153 -20.500974 1377.430785 275.680615 20.858203 0.000000 0.058410
618.000000 46.686000 -3.000000 14.000000 5.000000 112.882864 -18.019343 1325.110972 463.304858 21.416723 0.000000 0.102590
621.000000 46.160000 -6.000000 15.000000 5.000000 132.389051 -23.367159 1440.021871 -129.189283 21.653844 0.000000 0.051542
627.000000 60.337000 -1.000000 6.000000 6.000000 74.162405 -44.828634 2044.875277 1371.506942 16.581126 0.000000 0.229503
628.000000 68.218000 -3.000000 7.000000 6.000000 99.192501 -51.112520 2309.462713 663.556521 14.658963 0.000000 0.289180
629.000000 64.330000 -2.000000 7.000000 6.000000 89.581367 -45.276257 2061.723563 952.175553 15.547964 0.000000 0.172145
630.000000 58.615000 -1.000000 7.000000 6.000000 79.194660 -40.239042 1885.797069 1210.098650 17.067401 0.000000 0.152723
631.000000 51.422000 0.000000 7.000000 6.000000 68.416487 -35.910620 1754.411208 1466.693944 19.458559 0.000000 0.162601
632.000000 64.504000 -3.000000 8.000000 6.000000 102.326065 -45.747506 2079.750768 603.975410 15.502550 0.000000 0.165344
633.000000 56.192000 -1.000000 8.000000 6.000000 83.151500 -36.098252 1759.796989 1100.979194 17.802315 0.000000 0.116808
635.000000 62.513000 -4.000000 9.000000 6.000000 112.791941 -46.244232 2099.085117 287.061855 15.993510 0.000000 0.206396
636.000000 57.670000 -2.000000 9.000000 6.000000 95.675692 -36.294897 1765.469162 808.283094 17.342268 0.000000 0.077478
637.000000 53.468000 -1.000000 9.000000 6.000000 86.269259 -32.380730 1657.529464 1024.102504 18.708577 0.000000 0.107623
639.000000 57.016000 -3.000000 10.000000 6.000000 106.214044 -36.501215 1771.451194 551.647847 17.537722 0.000000 0.043007
640.000000 50.678000 -1.000000 10.000000 6.000000 88.737488 -29.051561 1572.866450 968.133870 19.737926 0.000000 0.111541
642.000000 55.956000 -5.000000 11.000000 6.000000 122.172600 -41.587513 1930.159389 35.770226 17.864928 0.000000 0.172465
643.000000 55.141000 -4.000000 11.000000 6.000000 115.063025 -36.717933 1777.769189 313.088889 18.131179 0.000000 0.056070
644.000000 53.537000 -3.000000 11.000000 6.000000 107.347555 -32.587853 1662.997449 541.970937 18.677298 0.000000 0.040176
645.000000 51.125000 -2.000000 11.000000 6.000000 99.175694 -29.075093 1573.445046 742.079651 19.561353 0.000000 0.090565
646.000000 47.954000 -1.000000 11.000000 6.000000 90.703694 -26.072147 1501.622486 926.282932 20.858666 0.000000 0.119587
647.000000 52.657000 -5.000000 12.000000 6.000000 122.514863 -36.945851 1784.452267 82.561184 18.984394 0.000000 0.103953
649.000000 49.937000 -6.000000 13.000000 6.000000 128.825748 -37.185852 1791.533013 -146.212348 20.016505 0.000000 0.155812
650.000000 49.598000 -5.000000 13.000000 6.000000 122.551310 -32.815319 1669.031688 123.516526 20.155548 0.000000 0.055253
651.000000 48.742000 -4.000000 13.000000 6.000000 115.787927 -29.125358 1574.681789 345.708240 20.511546 0.000000 0.021256
652.000000 47.342000 -3.000000 13.000000 6.000000 108.633373 -25.992930 1499.779406 537.248720 21.121124 0.000000 0.077173
654.000000 46.780000 -5.000000 14.000000 6.000000 122.373188 -29.152239 1575.343667 159.700797 21.369830 0.000000 0.021896
660.000000 50.989000 -1.000000 6.000000 7.000000 67.115682 -48.310056 2183.433144 1624.051978 19.622968 0.000000 0.336189
662.000000 56.021000 -2.000000 7.000000 7.000000 82.000460 -48.781812 2203.653847 1170.546199 17.856101 0.000000 0.263297
663.000000 50.755000 -1.000000 7.000000 7.000000 72.559339 -44.085682 2017.480297 1411.735211 19.712139 0.000000 0.227098
665.000000 57.659000 -3.000000 8.000000 7.000000 94.643452 -49.274926 2225.200452 807.011459 17.345000 0.000000 0.241367
666.000000 54.235000 -2.000000 8.000000 7.000000 86.081155 -44.447721 2030.742735 1044.279302 18.443133 0.000000 0.171267
667.000000 49.666000 -1.000000 8.000000 7.000000 77.011545 -40.195728 1884.401643 1266.005681 20.143170 0.000000 0.161244
669.000000 57.092000 -4.000000 9.000000 7.000000 105.269406 -49.790805 2248.207790 485.869639 17.514131 0.000000 0.263787
670.000000 55.083000 -3.000000 9.000000 7.000000 97.612025 -44.825913 2044.773667 738.197285 18.155494 0.000000 0.148723
671.000000 52.051000 -2.000000 9.000000 7.000000 89.338185 -40.460224 1892.950704 957.340355 19.216167 0.000000 0.116497
672.000000 48.074000 -1.000000 9.000000 7.000000 80.647505 -36.633698 1775.309253 1161.897217 20.809398 0.000000 0.125941
674.000000 54.243000 -4.000000 10.000000 7.000000 107.373717 -45.221330 2059.641881 462.915959 18.433494 0.000000 0.164174
675.000000 52.391000 -3.000000 10.000000 7.000000 99.907371 -40.736220 1901.943530 692.906227 19.087686 0.000000 0.089108
676.000000 49.695000 -2.000000 10.000000 7.000000 91.933878 -36.813441 1780.564842 895.606699 20.126599 0.000000 0.090831
677.000000 46.218000 -1.000000 10.000000 7.000000 83.620847 -33.384004 1684.254269 1085.106593 21.644351 0.000000 0.112236
679.000000 52.433000 -5.000000 11.000000 7.000000 115.630401 -45.635135 2075.424628 202.502217 19.067162 0.000000 0.208181
680.000000 51.425000 -4.000000 11.000000 7.000000 108.924369 -41.024468 1911.415593 451.876118 19.443257 0.000000 0.094978
681.000000 49.717000 -3.000000 11.000000 7.000000 101.671419 -37.000733 1786.067498 662.610041 20.114218 0.000000 0.057780
682.000000 47.308000 -2.000000 11.000000 7.000000 94.003455 -33.491411 1687.151650 850.676385 21.141402 0.000000 0.086549
684.000000 49.703000 -5.000000 12.000000 7.000000 116.617273 -41.325787 1921.406250 222.760824 20.114372 0.000000 0.131830
685.000000 48.713000 -4.000000 12.000000 7.000000 110.043789 -37.196056 1791.835060 448.048817 20.525592 0.000000 0.046758
686.000000 47.135000 -3.000000 12.000000 7.000000 103.019572 -33.603150 1690.173494 642.198055 21.215364 0.000000 0.054417
688.000000 47.596000 -6.000000 13.000000 7.000000 123.201277 -41.641070 1931.959290 -1.487302 21.002608 0.000000 0.180996
689.000000 47.109000 -5.000000 13.000000 7.000000 117.246331 -37.399933 1797.887130 243.328697 21.221841 0.000000 0.076216
690.000000 46.146000 -4.000000 13.000000 7.000000 110.830550 -33.719485 1693.327995 448.670460 21.667070 0.000000 0.021719
695.000000 51.295000 -3.000000 8.000000 8.000000 87.610394 -52.016980 2353.435688 1013.980946 19.499213 0.000000 0.325110
698.000000 49.705000 -3.000000 9.000000 8.000000 91.069742 -47.953110 2168.380386 910.992301 20.121853 0.000000 0.217312
699.000000 46.748000 -2.000000 9.000000 8.000000 83.379296 -43.841621 2008.630982 1114.205397 21.398034 0.000000 0.173380
701.000000 47.860000 -3.000000 10.000000 8.000000 93.873907 -44.156377 2020.057232 839.414013 20.897062 0.000000 0.144115
703.000000 48.821000 -5.000000 11.000000 8.000000 109.310101 -48.801431 2204.502997 368.443873 20.480052 0.000000 0.251586
704.000000 47.664000 -4.000000 11.000000 8.000000 102.965299 -44.483512 2032.062786 593.680813 20.979406 0.000000 0.142299
705.000000 45.896000 -3.000000 11.000000 8.000000 96.137883 -40.631328 1898.517045 788.489604 21.790454 0.000000 0.096476
706.000000 46.631000 -5.000000 12.000000 8.000000 110.822835 -44.823749 2044.692844 363.882979 21.441551 0.000000 0.167870
712.000000 45.506000 -4.000000 10.000000 9.000000 94.790535 -50.897233 2299.249126 797.987456 21.976984 0.000000 0.282614
#UB matrix in q= (UB) B0 G* 
#[[ 0.642768509 -0.76120496  -0.076654278]
# [ 0.089797269  0.174592179 -0.980689722]
# [ 0.760779268  0.624128942  0.180767181]]
#B0 matrix in q= UB (B0) G*
#[[ 0.19670273 -0.          0.03056101]
# [ 0.          0.19187965 -0.        ]
# [ 0.          0.          0.18806537]]
#UBB0 matrix in q= (UB B0) G* i.e. recip. basis vectors are columns in LT frame: astar = UBB0[:,0], bstar = UBB0[:,1], cstar = UBB0[:,2]. (abcstar as columns on xyzlab1, xlab1 = ui, ui = unit vector along incident beam)
#[[ 0.12643432 -0.14605974  0.00522764]
# [ 0.01766337  0.03350069 -0.18168948]
# [ 0.14964736  0.11975764  0.05724623]]
#Euler angles phi theta psi (deg)
#[129.331  79.594 175.521]
#deviatoric strain in direct crystal frame (10-3 unit)
#[[ 0.72 -0.61 -0.12]
# [-0.61  0.97 -0.14]
# [-0.12 -0.14 -1.69]]
#deviatoric strain in sample2 frame (10-3 unit)
#[[ 0.93  0.13 -0.66]
# [ 0.13 -1.54  0.56]
# [-0.66  0.56  0.61]]
#new lattice parameters
#[ 5.1505     5.2128915  5.3163466 89.9971726 99.2392018 90.0696752]
#CCDLabel
#sCMOS
#DetectorParameters
#[79.0, 975.0, 941.0, 0.0, 0.0]
#pixelsize
#0.0734
#Frame dimensions
#[2018, 2016]
#
