#Strain and Orientation Refinement from experimental file: /home/micha/LaueProjects/DepthEffects/testZrO2_172.cor
#File created at Wed Jun 28 14:28:35 2023 with indexingSpotsSet.py
#Number of indexed spots: 514
#Element
#ZrO2
#grainIndex
#G_0
#Mean Deviation(pixel): 0.118
##spot_index intensity h k l 2theta Chi Xexp Yexp Energy GrainIndex PixDev
7.000000 196.900000 1.000000 -1.000000 2.000000 74.289809 37.674775 143.901885 1323.491545 5.085031 0.000000 0.140545
8.000000 184.708000 3.000000 -1.000000 2.000000 125.412620 34.546067 234.008617 11.939951 5.415996 0.000000 0.089346
10.000000 191.980000 3.000000 0.000000 2.000000 127.011826 2.617555 925.795301 128.758251 5.210857 0.000000 0.075622
11.000000 162.837000 4.000000 0.000000 2.000000 138.892962 -0.753908 989.162896 -292.580203 6.142429 0.000000 0.005779
13.000000 174.938000 1.000000 1.000000 2.000000 64.887752 -18.424616 1333.549112 1472.708910 5.724831 0.000000 0.092184
14.000000 193.186000 2.000000 1.000000 2.000000 95.961613 -21.406635 1396.938904 820.277722 5.181079 0.000000 0.136122
15.000000 175.784000 3.000000 1.000000 2.000000 115.499199 -24.412955 1463.522196 377.247450 5.691925 0.000000 0.060327
16.000000 153.160000 4.000000 1.000000 2.000000 128.142354 -27.427208 1533.546552 -11.243254 6.531399 0.000000 0.050244
19.000000 112.976000 1.000000 2.000000 2.000000 49.337970 -36.012588 1757.334921 2083.950664 8.865748 0.000000 0.278431
20.000000 144.683000 2.000000 2.000000 2.000000 78.276987 -38.263942 1823.906746 1225.450205 6.919814 0.000000 0.135695
21.000000 144.777000 3.000000 2.000000 2.000000 98.524575 -40.477036 1893.496352 728.915853 6.912795 0.000000 0.084752
22.000000 133.705000 4.000000 2.000000 2.000000 112.612893 -42.646416 1966.313695 331.519808 7.483357 0.000000 0.133059
27.000000 112.066000 3.000000 3.000000 2.000000 82.278624 -49.723010 2245.156380 1166.728285 8.932792 0.000000 0.276047
28.000000 110.798000 4.000000 3.000000 2.000000 97.145914 -51.303436 2318.599981 725.170829 9.032668 0.000000 0.289098
42.000000 127.556000 2.000000 -2.000000 3.000000 82.898052 45.163067 -107.438157 1131.183400 7.848056 0.000000 0.175812
43.000000 129.983000 3.000000 -2.000000 3.000000 102.010364 44.493979 -82.449129 620.000192 7.698975 0.000000 0.127269
44.000000 123.229000 4.000000 -2.000000 3.000000 116.359376 43.778079 -56.338944 202.346495 8.119052 0.000000 0.164175
48.000000 125.894000 1.000000 -1.000000 3.000000 62.213562 29.379723 369.041072 1591.847149 7.954915 0.000000 0.129984
49.000000 146.865000 2.000000 -1.000000 3.000000 88.778368 28.083228 400.717202 967.014510 6.815972 0.000000 0.119818
50.000000 144.214000 3.000000 -1.000000 3.000000 108.093178 26.700847 433.660437 547.380969 6.938810 0.000000 0.082462
51.000000 132.922000 4.000000 -1.000000 3.000000 122.014231 25.225535 467.948357 197.149248 7.526523 0.000000 0.029628
52.000000 119.988000 5.000000 -1.000000 3.000000 132.227546 23.649760 503.665009 -125.431965 8.336572 0.000000 0.050072
55.000000 113.630000 1.000000 1.000000 3.000000 55.588806 -9.324225 1151.717254 1688.134631 8.815082 0.000000 0.045061
56.000000 137.761000 2.000000 1.000000 3.000000 82.014688 -11.388445 1191.793121 1095.014330 7.267712 0.000000 0.152626
57.000000 137.659000 3.000000 1.000000 3.000000 101.191635 -13.491736 1233.231217 722.007893 7.270383 0.000000 0.155633
58.000000 128.152000 4.000000 1.000000 3.000000 114.976638 -15.629401 1276.102199 420.400466 7.807708 0.000000 0.107886
59.000000 116.431000 5.000000 1.000000 3.000000 125.056448 -17.796207 1320.481697 147.836102 8.592219 0.000000 0.049205
60.000000 105.169000 6.000000 1.000000 3.000000 132.610873 -19.986446 1366.450757 -112.530818 9.511213 0.000000 0.039229
61.000000 95.154000 7.000000 1.000000 3.000000 138.413490 -22.194012 1414.096338 -368.883661 10.511461 0.000000 0.087555
64.000000 85.860000 1.000000 2.000000 3.000000 46.438620 -24.413331 1463.530724 2065.064081 11.666686 0.000000 0.204406
65.000000 112.217000 2.000000 2.000000 3.000000 71.230391 -26.247112 1505.702152 1348.810847 8.923411 0.000000 0.115468
66.000000 118.428000 3.000000 2.000000 3.000000 90.160668 -28.080082 1549.206871 937.579196 8.452433 0.000000 0.114585
67.000000 114.540000 4.000000 2.000000 3.000000 104.329753 -29.908499 1594.109127 623.819513 8.737014 0.000000 0.070242
68.000000 106.843000 5.000000 2.000000 3.000000 115.001760 -31.728679 1640.477362 350.881009 9.364615 0.000000 0.005387
69.000000 98.303000 6.000000 2.000000 3.000000 123.175608 -33.537035 1688.384557 96.814467 10.176785 0.000000 0.067813
70.000000 90.122000 7.000000 2.000000 3.000000 129.558987 -35.330121 1737.908625 -148.794599 11.099640 0.000000 0.139015
74.000000 85.837000 2.000000 3.000000 3.000000 60.071079 -36.766926 1779.202426 1714.483424 11.667176 0.000000 0.201477
75.000000 97.815000 4.000000 3.000000 3.000000 92.586427 -39.743940 1869.951936 877.769225 10.232774 0.000000 0.095546
76.000000 94.462000 5.000000 3.000000 3.000000 103.783987 -41.205268 1917.399241 590.042619 10.593802 0.000000 0.087822
77.000000 83.252000 7.000000 3.000000 3.000000 119.662774 -44.066013 2016.764417 87.906449 12.017069 0.000000 0.200898
80.000000 76.381000 3.000000 4.000000 3.000000 67.369397 -45.360464 2064.922738 1579.577372 13.109556 0.000000 0.267775
81.000000 81.201000 4.000000 4.000000 3.000000 81.421468 -46.558393 2111.494990 1177.123030 12.328472 0.000000 0.215516
82.000000 81.362000 5.000000 4.000000 3.000000 92.849463 -47.737685 2159.395978 861.343598 12.301711 0.000000 0.204439
83.000000 78.975000 6.000000 4.000000 3.000000 102.142029 -48.897794 2208.683389 588.760996 12.671435 0.000000 0.231047
106.000000 85.179000 2.000000 -3.000000 4.000000 69.423116 48.945338 -260.751888 1556.210101 11.754769 0.000000 0.308877
107.000000 92.983000 3.000000 -3.000000 4.000000 86.175593 48.567138 -244.405622 1049.725023 10.765402 0.000000 0.223598
108.000000 94.074000 4.000000 -3.000000 4.000000 99.919532 48.170145 -227.508013 658.775299 10.638059 0.000000 0.198500
109.000000 91.363000 5.000000 -3.000000 4.000000 111.095928 47.752962 -210.030687 323.415746 10.951698 0.000000 0.220295
113.000000 79.584000 1.000000 -2.000000 4.000000 52.887534 38.363239 123.063439 1979.606848 12.584818 0.000000 0.260067
114.000000 104.804000 3.000000 -2.000000 4.000000 91.736305 36.951407 165.384322 900.173561 9.550619 0.000000 0.086168
115.000000 103.577000 4.000000 -2.000000 4.000000 105.621623 36.190660 187.541071 568.108349 9.661418 0.000000 0.036386
116.000000 98.662000 5.000000 -2.000000 4.000000 116.628586 35.389850 210.404387 279.052353 10.140768 0.000000 0.038426
117.000000 85.815000 7.000000 -2.000000 4.000000 132.503563 33.656152 258.390368 -243.995922 11.656197 0.000000 0.136575
120.000000 88.247000 1.000000 -1.000000 4.000000 54.658815 25.003612 473.033122 1783.145871 11.350031 0.000000 0.130939
121.000000 107.875000 2.000000 -1.000000 4.000000 77.099699 23.922424 497.547994 1210.676745 9.281666 0.000000 0.126441
122.000000 112.810000 3.000000 -1.000000 4.000000 94.916078 22.790748 522.772033 840.584944 8.872699 0.000000 0.135811
123.000000 109.701000 4.000000 -1.000000 4.000000 108.764122 21.605913 548.736464 547.718920 9.121819 0.000000 0.109446
124.000000 103.160000 5.000000 -1.000000 4.000000 119.532056 20.365169 575.474369 290.613596 9.698423 0.000000 0.069160
125.000000 95.622000 6.000000 -1.000000 4.000000 127.995128 19.065714 603.020835 51.457896 10.461590 0.000000 0.034620
126.000000 88.198000 7.000000 -1.000000 4.000000 134.743922 17.704714 631.413102 -178.751636 11.341111 0.000000 0.037262
127.000000 81.329000 8.000000 -1.000000 4.000000 140.207612 16.279342 660.690730 -405.128664 12.298078 0.000000 0.058297
130.000000 89.088000 1.000000 0.000000 4.000000 53.641684 10.163442 782.052982 1745.935302 11.243721 0.000000 0.055780
131.000000 109.418000 2.000000 0.000000 4.000000 76.423133 8.754335 809.259096 1203.986843 9.151244 0.000000 0.139760
132.000000 114.176000 3.000000 0.000000 4.000000 94.315308 7.295736 837.204933 859.120935 8.766953 0.000000 0.174385
133.000000 110.672000 4.000000 0.000000 4.000000 108.089138 5.786982 865.921077 587.637762 9.042125 0.000000 0.157383
134.000000 103.781000 5.000000 0.000000 4.000000 118.714784 4.227642 895.439825 349.776389 9.640669 0.000000 0.119301
135.000000 88.397000 7.000000 0.000000 4.000000 133.591834 0.956873 957.023594 -83.791647 11.315834 0.000000 0.035275
138.000000 80.616000 1.000000 1.000000 4.000000 49.593838 -4.352195 1056.913056 1859.847412 12.426028 0.000000 0.078927
139.000000 101.686000 2.000000 1.000000 4.000000 71.950748 -5.892227 1086.076625 1293.595208 9.847961 0.000000 0.119432
140.000000 107.968000 3.000000 1.000000 4.000000 89.683390 -7.462916 1115.988189 946.998348 9.271857 0.000000 0.170449
141.000000 105.940000 4.000000 1.000000 4.000000 103.448300 -9.062755 1146.676898 680.378040 9.446820 0.000000 0.161703
142.000000 100.215000 5.000000 1.000000 4.000000 114.133975 -10.690004 1178.173439 450.267611 9.984452 0.000000 0.126838
143.000000 93.284000 6.000000 1.000000 4.000000 122.515953 -12.342682 1210.510133 238.670335 10.724782 0.000000 0.082722
144.000000 86.312000 7.000000 1.000000 4.000000 129.185150 -14.018580 1243.721052 36.728514 11.589862 0.000000 0.041795
145.000000 79.784000 8.000000 1.000000 4.000000 134.571115 -15.715266 1277.842133 -160.474114 12.537169 0.000000 0.033746
146.000000 73.862000 9.000000 1.000000 4.000000 138.982638 -17.430104 1312.911311 -355.928417 13.541536 0.000000 0.062722
150.000000 66.391000 1.000000 2.000000 4.000000 43.615337 -16.947633 1302.980831 2121.899287 15.088898 0.000000 0.197659
151.000000 95.996000 3.000000 2.000000 4.000000 82.204828 -19.911590 1364.859354 1097.709802 10.429415 0.000000 0.138282
152.000000 93.109000 5.000000 2.000000 4.000000 106.841186 -22.907768 1429.816467 587.308509 10.747728 0.000000 0.104778
153.000000 82.184000 7.000000 2.000000 4.000000 122.465752 -25.920129 1498.087782 179.639388 12.173109 0.000000 0.020633
154.000000 71.337000 9.000000 2.000000 4.000000 132.826330 -28.932109 1569.933581 -198.837630 14.021908 0.000000 0.097799
157.000000 71.315000 2.000000 3.000000 4.000000 56.946376 -28.365296 1556.107914 1736.951398 14.044273 0.000000 0.147762
158.000000 81.502000 3.000000 3.000000 4.000000 73.562300 -29.679110 1588.387444 1306.487907 12.285575 0.000000 0.119648
159.000000 84.717000 4.000000 3.000000 4.000000 87.170727 -30.988906 1621.419243 1003.046934 11.816328 0.000000 0.108153
160.000000 83.756000 5.000000 3.000000 4.000000 98.212820 -32.293341 1655.229919 757.233523 11.949539 0.000000 0.077523
161.000000 80.618000 6.000000 3.000000 4.000000 107.183506 -33.591104 1689.847351 541.448537 12.412639 0.000000 0.035352
162.000000 76.518000 7.000000 3.000000 4.000000 114.521232 -34.880927 1725.300760 342.497013 13.075935 0.000000 0.029677
163.000000 72.131000 8.000000 3.000000 4.000000 120.579664 -36.161588 1761.620800 153.239595 13.869841 0.000000 0.080396
164.000000 67.805000 9.000000 3.000000 4.000000 125.632980 -37.431920 1798.839640 -30.554825 14.753672 0.000000 0.134779
168.000000 67.250000 3.000000 4.000000 4.000000 65.023687 -37.142681 1790.256014 1569.931187 14.890701 0.000000 0.178655
169.000000 73.547000 5.000000 4.000000 4.000000 89.332444 -39.375629 1858.311645 957.223118 13.610100 0.000000 0.104201
170.000000 69.932000 7.000000 4.000000 4.000000 106.187432 -41.567503 1929.487682 523.401733 14.309166 0.000000 0.095113
171.000000 63.548000 9.000000 4.000000 4.000000 118.040802 -43.713203 2004.003769 147.899468 15.743561 0.000000 0.183098
173.000000 54.725000 3.000000 5.000000 4.000000 57.238399 -42.851782 1973.467748 1885.740416 18.300117 0.000000 0.299760
174.000000 60.814000 4.000000 5.000000 4.000000 69.958098 -43.809799 2007.482513 1485.079748 16.464673 0.000000 0.228394
175.000000 63.559000 5.000000 5.000000 4.000000 80.850779 -44.757545 2042.223624 1185.113042 15.750886 0.000000 0.189324
176.000000 64.007000 6.000000 5.000000 4.000000 90.118368 -45.694673 2077.714598 937.816617 15.637900 0.000000 0.171877
177.000000 63.006000 7.000000 5.000000 4.000000 97.996204 -46.620868 2113.979976 720.869610 15.884120 0.000000 0.177349
178.000000 61.158000 8.000000 5.000000 4.000000 104.710334 -47.535845 2151.045386 522.460605 16.362175 0.000000 0.204093
179.000000 58.863000 9.000000 5.000000 4.000000 110.459510 -48.439349 2188.937595 335.730669 16.998548 0.000000 0.245425
183.000000 54.429000 5.000000 6.000000 4.000000 73.079504 -48.917903 2209.557795 1439.255966 18.394733 0.000000 0.301661
184.000000 56.192000 7.000000 6.000000 4.000000 90.245753 -50.518228 2281.495982 933.739504 17.812644 0.000000 0.272849
200.000000 69.269000 3.000000 -4.000000 5.000000 75.331282 50.760394 -342.806238 1386.381280 14.453183 0.000000 0.316962
201.000000 72.924000 4.000000 -4.000000 5.000000 87.874549 50.498903 -330.598419 1003.796904 13.726037 0.000000 0.262931
202.000000 73.560000 5.000000 -4.000000 5.000000 98.603847 50.227200 -318.056209 686.448356 13.604909 0.000000 0.247206
203.000000 72.270000 6.000000 -4.000000 5.000000 107.734365 49.944687 -305.165676 406.133832 13.845729 0.000000 0.261143
208.000000 70.058000 2.000000 -3.000000 5.000000 64.595975 42.721507 -18.924062 1636.770508 14.293488 0.000000 0.232791
209.000000 77.849000 3.000000 -3.000000 5.000000 79.815199 42.274349 -3.471977 1202.322774 12.859845 0.000000 0.153718
210.000000 80.599000 4.000000 -3.000000 5.000000 92.728688 41.809103 12.374116 872.179337 12.418267 0.000000 0.103899
211.000000 80.051000 5.000000 -3.000000 5.000000 103.562041 41.324715 28.629481 595.280361 12.501073 0.000000 0.079740
212.000000 77.596000 6.000000 -3.000000 5.000000 112.626260 40.820052 45.310182 348.218696 12.894626 0.000000 0.092963
213.000000 74.176000 7.000000 -3.000000 5.000000 120.230953 40.293898 62.433133 118.702520 13.487464 0.000000 0.128832
214.000000 70.369000 8.000000 -3.000000 5.000000 126.647749 39.744944 80.016159 -100.385118 14.215739 0.000000 0.169285
218.000000 62.271000 1.000000 -2.000000 5.000000 48.986155 33.446461 264.061788 2062.840471 16.085017 0.000000 0.241137
219.000000 77.735000 2.000000 -2.000000 5.000000 67.511779 32.781715 281.861712 1470.957853 12.882010 0.000000 0.135055
220.000000 85.203000 3.000000 -2.000000 5.000000 83.299658 32.090666 300.086172 1090.245484 11.749792 0.000000 0.112967
221.000000 86.946000 4.000000 -2.000000 5.000000 96.438263 31.371937 318.750538 798.750327 11.511446 0.000000 0.091020
222.000000 85.238000 5.000000 -2.000000 5.000000 107.270603 30.624068 337.870934 552.142695 11.739860 0.000000 0.058114
223.000000 81.725000 6.000000 -2.000000 5.000000 116.201177 29.845524 357.464280 330.384332 12.242649 0.000000 0.020934
224.000000 77.429000 7.000000 -2.000000 5.000000 123.602400 29.034683 377.548343 123.052066 12.920384 0.000000 0.026530
225.000000 72.928000 8.000000 -2.000000 5.000000 129.784348 28.189839 398.141791 -75.847695 13.716500 0.000000 0.062779
226.000000 68.527000 9.000000 -2.000000 5.000000 134.993755 27.309199 419.264254 -270.037578 14.596444 0.000000 0.094909
230.000000 66.287000 1.000000 -1.000000 5.000000 49.626784 22.329559 532.930749 1930.316012 15.111164 0.000000 0.149552
231.000000 82.572000 2.000000 -1.000000 5.000000 68.830280 21.415869 552.860963 1388.726164 12.127763 0.000000 0.109398
232.000000 89.767000 3.000000 -1.000000 5.000000 84.956857 20.469511 573.242718 1042.381633 11.152487 0.000000 0.144022
233.000000 90.780000 4.000000 -1.000000 5.000000 98.187479 19.489246 594.091535 776.731819 11.025307 0.000000 0.144488
234.000000 88.279000 5.000000 -1.000000 5.000000 108.960209 18.473824 615.423655 551.148433 11.335411 0.000000 0.123012
235.000000 84.074000 6.000000 -1.000000 5.000000 117.748918 17.421992 637.256080 347.535219 11.900427 0.000000 0.091588
236.000000 79.227000 7.000000 -1.000000 5.000000 124.969352 16.332504 659.606619 156.573487 12.627018 0.000000 0.058702
237.000000 74.304000 8.000000 -1.000000 5.000000 130.956385 15.204133 682.493938 -27.055169 13.462459 0.000000 0.033355
238.000000 69.584000 9.000000 -1.000000 5.000000 135.970084 14.035683 705.937608 -206.634180 14.374714 0.000000 0.030210
239.000000 65.188000 10.000000 -1.000000 5.000000 140.209746 12.826005 729.958165 -384.323987 15.343194 0.000000 0.042039
243.000000 61.134000 1.000000 1.000000 5.000000 45.540803 -1.262614 998.721884 1997.422343 16.386534 0.000000 0.129652
244.000000 78.163000 2.000000 1.000000 5.000000 64.688715 -2.479359 1021.603551 1450.498318 12.813261 0.000000 0.075245
245.000000 86.117000 3.000000 1.000000 5.000000 80.759723 -3.718851 1044.956434 1116.467648 11.626436 0.000000 0.155730
246.000000 87.800000 4.000000 1.000000 5.000000 93.934995 -4.980542 1068.795242 866.684561 11.400714 0.000000 0.175324
247.000000 85.849000 5.000000 1.000000 5.000000 104.652734 -6.263777 1093.135300 657.898201 11.657371 0.000000 0.163748
248.000000 82.082000 6.000000 1.000000 5.000000 113.386933 -7.567793 1117.992585 471.447348 12.190346 0.000000 0.136353
249.000000 77.579000 7.000000 1.000000 5.000000 120.553467 -8.891716 1143.383762 297.932361 12.896315 0.000000 0.101942
250.000000 72.926000 8.000000 1.000000 5.000000 126.487360 -10.234561 1169.326217 132.080479 13.717761 0.000000 0.066440
251.000000 68.420000 9.000000 1.000000 5.000000 131.448840 -11.595230 1195.838101 -29.315033 14.620119 0.000000 0.036496
252.000000 64.195000 10.000000 1.000000 5.000000 135.637383 -12.972516 1222.938371 -188.334024 15.581369 0.000000 0.029841
253.000000 60.301000 11.000000 1.000000 5.000000 139.205677 -14.365107 1250.646833 -346.400022 16.586814 0.000000 0.048980
258.000000 52.951000 1.000000 2.000000 5.000000 41.284964 -11.898813 1201.787496 2193.684771 18.919214 0.000000 0.213237
259.000000 69.650000 2.000000 2.000000 5.000000 59.717075 -13.110180 1225.663114 1586.325347 14.380277 0.000000 0.062646
260.000000 78.413000 3.000000 2.000000 5.000000 75.411507 -14.333238 1250.009012 1230.122567 12.769900 0.000000 0.129726
261.000000 81.330000 4.000000 2.000000 5.000000 88.457035 -15.567029 1274.839223 971.095408 12.308771 0.000000 0.155533
262.000000 80.609000 5.000000 2.000000 5.000000 99.196852 -16.810535 1300.168344 758.959804 12.416234 0.000000 0.148764
263.000000 77.897000 6.000000 2.000000 5.000000 108.035599 -18.062687 1326.011564 572.385185 12.846419 0.000000 0.124015
264.000000 74.240000 7.000000 2.000000 5.000000 115.345833 -19.322369 1352.384695 400.753165 13.477355 0.000000 0.090262
265.000000 70.249000 8.000000 2.000000 5.000000 121.437788 -20.588421 1379.304205 238.162672 14.241659 0.000000 0.054124
266.000000 66.254000 9.000000 2.000000 5.000000 126.558375 -21.859647 1406.787251 81.054687 15.099068 0.000000 0.028240
267.000000 62.426000 10.000000 2.000000 5.000000 130.900396 -23.134821 1434.851716 -72.860053 16.024047 0.000000 0.043307
268.000000 58.840000 11.000000 2.000000 5.000000 134.613560 -24.412692 1463.516246 -225.134471 16.999614 0.000000 0.075914
273.000000 59.406000 2.000000 3.000000 5.000000 53.881911 -22.137360 1412.855532 1788.870262 16.860990 0.000000 0.122842
274.000000 68.725000 3.000000 3.000000 5.000000 68.992118 -23.274258 1437.952403 1390.934421 14.571155 0.000000 0.109387
275.000000 72.914000 4.000000 3.000000 5.000000 81.797067 -24.413189 1463.527499 1111.387181 13.730793 0.000000 0.127595
276.000000 73.617000 5.000000 3.000000 5.000000 92.522529 -25.553257 1489.594621 888.443082 13.596899 0.000000 0.122568
277.000000 72.207000 6.000000 3.000000 5.000000 101.479609 -26.693562 1516.168105 696.349979 13.860184 0.000000 0.099634
278.000000 69.641000 7.000000 3.000000 5.000000 108.977998 -27.833199 1543.262851 522.441633 14.368906 0.000000 0.065986
279.000000 66.526000 8.000000 3.000000 5.000000 115.289412 -28.971270 1570.894347 359.744601 15.039891 0.000000 0.026971
280.000000 63.225000 9.000000 3.000000 5.000000 120.638546 -30.106882 1599.078704 204.087637 15.823730 0.000000 0.018045
281.000000 59.942000 10.000000 3.000000 5.000000 125.206040 -31.239154 1627.832681 52.809237 16.689228 0.000000 0.059640
282.000000 56.786000 11.000000 3.000000 5.000000 129.135386 -32.367222 1657.173723 -95.880586 17.615714 0.000000 0.101418
283.000000 53.810000 12.000000 3.000000 5.000000 132.540220 -33.490239 1687.119995 -243.240637 18.588953 0.000000 0.141858
287.000000 49.247000 2.000000 4.000000 5.000000 47.946355 -29.550427 1585.189107 2057.106955 20.339800 0.000000 0.227657
288.000000 58.652000 3.000000 4.000000 5.000000 62.313626 -30.573312 1610.842184 1596.928451 17.074832 0.000000 0.140556
289.000000 63.798000 4.000000 4.000000 5.000000 74.749123 -31.593190 1636.964329 1285.509176 15.694339 0.000000 0.121453
290.000000 65.782000 5.000000 4.000000 5.000000 85.371364 -32.609430 1663.568527 1044.444637 15.218060 0.000000 0.107357
291.000000 65.654000 6.000000 4.000000 5.000000 94.395608 -33.621416 1690.668245 841.646190 15.245149 0.000000 0.083787
292.000000 64.229000 7.000000 4.000000 5.000000 102.060888 -34.628549 1718.277457 661.522334 15.581187 0.000000 0.053430
293.000000 62.073000 8.000000 4.000000 5.000000 108.591910 -35.630244 1746.410668 495.568374 16.120456 0.000000 0.030263
294.000000 59.555000 9.000000 4.000000 5.000000 114.183996 -36.625939 1775.082939 338.737159 16.800536 0.000000 0.049328
295.000000 56.903000 10.000000 4.000000 5.000000 119.000255 -37.615092 1804.309913 187.832276 17.582193 0.000000 0.089202
296.000000 54.253000 11.000000 4.000000 5.000000 123.174169 -38.597184 1834.107844 40.720523 18.439530 0.000000 0.132455
297.000000 51.685000 12.000000 4.000000 5.000000 126.813991 -39.571720 1864.493628 -104.085559 19.354765 0.000000 0.176000
300.000000 49.265000 3.000000 5.000000 5.000000 55.910201 -36.465636 1770.417327 1846.762699 20.329695 0.000000 0.226084
301.000000 54.932000 4.000000 5.000000 5.000000 67.864077 -37.367664 1796.927020 1491.890288 18.228973 0.000000 0.167886
302.000000 58.830000 6.000000 5.000000 5.000000 87.281540 -39.154092 1851.369118 1006.902714 17.015516 0.000000 0.109986
303.000000 58.446000 7.000000 5.000000 5.000000 95.049243 -40.037750 1879.327203 816.792651 17.124869 0.000000 0.089931
304.000000 57.213000 8.000000 5.000000 5.000000 101.755739 -40.914571 1907.794546 644.604774 17.491667 0.000000 0.084690
305.000000 55.480000 9.000000 5.000000 5.000000 107.563092 -41.784229 1936.785189 484.145688 18.036142 0.000000 0.101048
306.000000 51.372000 11.000000 5.000000 5.000000 117.025196 -43.500841 1996.395173 184.144904 19.475607 0.000000 0.172608
307.000000 49.245000 12.000000 5.000000 5.000000 120.900173 -44.347236 2027.045303 40.233374 20.315321 0.000000 0.215344
309.000000 46.869000 4.000000 6.000000 5.000000 61.448042 -42.024314 1944.927048 1729.363709 21.366452 0.000000 0.255490
310.000000 50.410000 5.000000 6.000000 5.000000 71.558159 -42.814111 1972.151926 1430.267935 19.862344 0.000000 0.206428
311.000000 52.179000 6.000000 6.000000 5.000000 80.450721 -43.597323 1999.845311 1191.014684 19.186218 0.000000 0.175331
312.000000 52.652000 7.000000 6.000000 5.000000 88.239816 -44.373742 2028.019401 987.272459 19.011104 0.000000 0.156932
313.000000 52.231000 8.000000 6.000000 5.000000 95.055456 -45.143175 2056.686822 806.010253 19.162166 0.000000 0.152672
314.000000 51.222000 9.000000 6.000000 5.000000 101.026216 -45.905442 2085.860646 639.608650 19.537442 0.000000 0.163981
315.000000 49.850000 10.000000 6.000000 5.000000 106.270333 -46.660377 2115.554411 483.305439 20.073455 0.000000 0.188650
316.000000 48.271000 11.000000 6.000000 5.000000 110.892148 -47.407826 2145.782141 333.962865 20.728625 0.000000 0.222449
318.000000 45.984000 6.000000 7.000000 5.000000 74.072299 -47.203650 2137.440627 1393.098326 21.772969 0.000000 0.261530
319.000000 47.106000 7.000000 7.000000 5.000000 81.804485 -47.889598 2165.723814 1172.165099 21.251547 0.000000 0.238614
320.000000 47.347000 8.000000 7.000000 5.000000 88.658356 -48.568960 2194.483789 979.093612 21.140940 0.000000 0.230305
321.000000 46.963000 9.000000 7.000000 5.000000 94.731667 -49.241645 2223.732712 804.546541 21.311575 0.000000 0.235837
322.000000 46.154000 10.000000 7.000000 5.000000 100.119605 -49.907566 2253.483158 642.722915 21.683187 0.000000 0.253636
328.000000 59.919000 5.000000 -5.000000 6.000000 88.908363 51.741074 -389.835372 974.120495 16.704838 0.000000 0.293293
329.000000 60.341000 6.000000 -5.000000 6.000000 97.707408 51.538599 -379.959966 706.811284 16.585488 0.000000 0.282225
335.000000 59.851000 3.000000 -4.000000 6.000000 71.177051 45.481414 -119.534564 1464.263930 16.729040 0.000000 0.234661
336.000000 65.244000 5.000000 -4.000000 6.000000 93.132246 44.834094 -95.079226 857.946440 15.340749 0.000000 0.139886
337.000000 63.632000 7.000000 -4.000000 6.000000 109.696978 44.142169 -69.538845 404.074672 15.724970 0.000000 0.138007
338.000000 59.249000 9.000000 -4.000000 6.000000 122.151725 43.401087 -42.839571 9.884378 16.885027 0.000000 0.196786
342.000000 58.353000 2.000000 -3.000000 6.000000 60.456903 38.137485 129.939830 1716.566428 17.161989 0.000000 0.203780
343.000000 69.178000 4.000000 -3.000000 6.000000 86.346556 37.196557 158.150122 1027.273645 14.470361 0.000000 0.103039
344.000000 70.006000 5.000000 -3.000000 6.000000 96.728364 36.702106 172.693430 782.627514 14.296584 0.000000 0.069244
345.000000 67.026000 7.000000 -3.000000 6.000000 113.236707 35.661413 202.702699 372.224368 14.927939 0.000000 0.025877
346.000000 64.426000 8.000000 -3.000000 6.000000 119.774597 35.113515 218.188380 188.242784 15.528820 0.000000 0.054869
347.000000 58.653000 10.000000 -3.000000 6.000000 130.300857 33.958122 250.174368 -159.483353 17.054812 0.000000 0.121745
351.000000 50.367000 1.000000 -2.000000 6.000000 45.979047 29.997831 353.655543 2142.008045 19.887685 0.000000 0.240375
352.000000 70.287000 3.000000 -2.000000 6.000000 76.491283 28.741790 384.725362 1235.901762 14.245152 0.000000 0.120637
353.000000 73.673000 5.000000 -2.000000 6.000000 99.232667 27.403202 417.025726 743.935941 13.584924 0.000000 0.106098
354.000000 69.530000 7.000000 -2.000000 6.000000 115.610697 25.975267 450.631217 367.106185 14.390132 0.000000 0.054392
355.000000 63.220000 9.000000 -2.000000 6.000000 127.499362 24.450694 485.622567 33.788671 15.823393 0.000000 0.028989
356.000000 56.886000 11.000000 -2.000000 6.000000 136.329870 22.821722 522.087310 -282.211483 17.583244 0.000000 0.072072
359.000000 52.343000 1.000000 -1.000000 6.000000 46.071360 20.533465 571.873387 2048.115674 19.137545 0.000000 0.175472
360.000000 65.543000 2.000000 -1.000000 6.000000 62.760979 19.746533 588.644382 1529.683758 15.280201 0.000000 0.091564
361.000000 72.947000 3.000000 -1.000000 6.000000 77.310594 18.936894 605.727640 1197.211326 13.726083 0.000000 0.133627
362.000000 75.841000 4.000000 -1.000000 6.000000 89.719969 18.103888 623.131963 946.534378 13.199147 0.000000 0.153297
363.000000 75.712000 5.000000 -1.000000 6.000000 100.190921 17.246856 640.866490 738.410979 13.219020 0.000000 0.149201
364.000000 73.772000 6.000000 -1.000000 6.000000 109.000727 16.365145 658.940708 554.737688 13.564470 0.000000 0.130918
365.000000 70.863000 7.000000 -1.000000 6.000000 116.428122 15.458108 677.364470 385.987009 14.119424 0.000000 0.105346
366.000000 67.519000 8.000000 -1.000000 6.000000 122.720650 14.525113 696.148015 226.651291 14.817127 0.000000 0.077331
367.000000 64.058000 9.000000 -1.000000 6.000000 128.085472 13.565547 715.301986 73.311496 15.616458 0.000000 0.050838
368.000000 60.658000 10.000000 -1.000000 6.000000 132.690964 12.578819 734.837451 -76.278940 16.490710 0.000000 0.030829
369.000000 57.413000 11.000000 -1.000000 6.000000 136.672171 11.564371 754.765921 -223.667524 17.421777 0.000000 0.025496
370.000000 54.367000 12.000000 -1.000000 6.000000 140.136950 10.521680 775.099375 -369.964437 18.396955 0.000000 0.032315
374.000000 51.807000 1.000000 0.000000 6.000000 44.959811 10.622289 773.143607 2037.596832 19.336634 0.000000 0.150095
375.000000 65.372000 2.000000 0.000000 6.000000 61.795220 9.699190 791.041316 1526.590050 15.320890 0.000000 0.063461
376.000000 75.889000 4.000000 0.000000 6.000000 88.856908 7.787480 827.805608 962.675595 13.191420 0.000000 0.170812
377.000000 75.750000 5.000000 0.000000 6.000000 99.315120 6.798417 846.689833 763.208308 13.212834 0.000000 0.172484
378.000000 70.842000 7.000000 0.000000 6.000000 115.467720 4.753058 885.508997 426.609147 14.124012 0.000000 0.133196
379.000000 67.473000 8.000000 0.000000 6.000000 121.704902 3.696584 905.463607 274.753735 14.827630 0.000000 0.104833
380.000000 60.581000 10.000000 0.000000 6.000000 131.559203 1.516032 946.514871 -13.543315 16.512003 0.000000 0.047947
381.000000 57.328000 11.000000 0.000000 6.000000 135.483397 0.392143 967.633521 -153.635980 17.447804 0.000000 0.023667
382.000000 51.446000 13.000000 0.000000 6.000000 141.874451 -1.921841 1011.115093 -431.160990 19.441307 0.000000 0.012624
384.000000 48.648000 1.000000 1.000000 6.000000 42.652169 0.832168 959.366725 2109.447612 20.593056 0.000000 0.172368
385.000000 62.271000 2.000000 1.000000 6.000000 59.302482 -0.169171 978.177871 1579.996512 16.084708 0.000000 0.031253
386.000000 70.130000 3.000000 1.000000 6.000000 73.812747 -1.187627 997.312631 1253.499880 14.278809 0.000000 0.129667
387.000000 73.454000 4.000000 1.000000 6.000000 86.182849 -2.222983 1016.779428 1012.865079 13.629484 0.000000 0.169432
388.000000 73.700000 5.000000 1.000000 6.000000 96.614690 -3.274969 1036.586980 815.984681 13.581090 0.000000 0.176309
389.000000 72.076000 6.000000 1.000000 6.000000 105.385611 -4.343263 1056.744314 643.976966 13.884777 0.000000 0.164370
390.000000 69.428000 7.000000 1.000000 6.000000 112.774411 -5.427489 1077.260776 487.098081 14.412431 0.000000 0.141840
391.000000 66.297000 8.000000 1.000000 6.000000 119.028700 -6.527210 1098.146051 339.798371 15.091370 0.000000 0.113904
392.000000 63.009000 9.000000 1.000000 6.000000 124.355712 -7.641936 1119.410174 198.674271 15.877292 0.000000 0.084136
393.000000 59.752000 10.000000 1.000000 6.000000 128.923904 -8.771112 1141.063547 61.513095 16.741655 0.000000 0.055531
394.000000 56.625000 11.000000 1.000000 6.000000 132.868409 -9.914130 1163.116958 -73.194139 17.665239 0.000000 0.032535
395.000000 53.677000 12.000000 1.000000 6.000000 136.297175 -11.070319 1185.581595 -206.519202 18.634631 0.000000 0.026853
396.000000 50.926000 13.000000 1.000000 6.000000 139.296511 -12.238951 1208.469068 -339.250946 19.640183 0.000000 0.040334
399.000000 64.961000 3.000000 2.000000 6.000000 69.796994 -10.351180 1171.589142 1343.615899 15.415782 0.000000 0.107573
400.000000 69.808000 5.000000 2.000000 6.000000 92.399870 -12.435487 1212.337586 894.808655 14.339329 0.000000 0.164266
401.000000 66.741000 7.000000 2.000000 6.000000 108.640859 -14.556587 1254.482992 565.891263 14.993573 0.000000 0.135054
402.000000 61.167000 9.000000 2.000000 6.000000 120.394648 -16.709508 1298.098451 281.844048 16.356378 0.000000 0.077974
403.000000 55.334000 11.000000 2.000000 6.000000 129.093242 -18.888771 1343.262242 16.758658 18.078106 0.000000 0.030679
404.000000 49.996000 13.000000 2.000000 6.000000 135.694648 -21.088457 1390.058302 -240.868015 20.006664 0.000000 0.062487
405.000000 50.029000 2.000000 3.000000 6.000000 51.141412 -17.438735 1313.089452 1849.953719 20.022249 0.000000 0.114801
406.000000 62.844000 4.000000 3.000000 6.000000 76.858137 -19.414939 1354.338505 1207.441579 15.932810 0.000000 0.128525
407.000000 64.570000 5.000000 3.000000 6.000000 87.153930 -20.409138 1375.465670 998.090897 15.503961 0.000000 0.142160
408.000000 63.034000 7.000000 3.000000 6.000000 103.491629 -22.406839 1418.766781 661.682594 15.876704 0.000000 0.117323
409.000000 60.989000 8.000000 3.000000 6.000000 109.945025 -23.409148 1440.958159 515.399339 16.407098 0.000000 0.090810
410.000000 56.064000 10.000000 3.000000 6.000000 120.304311 -25.417645 1486.468358 244.540708 17.845273 0.000000 0.030371
411.000000 53.524000 11.000000 3.000000 6.000000 124.484723 -26.422603 1509.806434 115.467723 18.690543 0.000000 0.023063
412.000000 48.691000 13.000000 3.000000 6.000000 131.360405 -28.430846 1557.699191 -136.516647 20.543792 0.000000 0.082001
413.000000 46.459000 14.000000 3.000000 6.000000 134.206813 -29.432901 1582.275198 -261.045340 21.530183 0.000000 0.113359
414.000000 51.113000 3.000000 4.000000 6.000000 59.601049 -25.330088 1484.453637 1639.596040 19.594781 0.000000 0.117664
415.000000 58.574000 5.000000 4.000000 6.000000 81.373326 -27.163933 1527.283929 1124.529327 17.092333 0.000000 0.121291
416.000000 58.628000 7.000000 4.000000 6.000000 97.757035 -28.995092 1571.479132 773.378725 17.071489 0.000000 0.096426
417.000000 55.462000 9.000000 4.000000 6.000000 110.033026 -30.819846 1617.105547 484.025376 18.041630 0.000000 0.038939
418.000000 51.288000 11.000000 4.000000 6.000000 119.350631 -32.634554 1664.233840 222.297019 19.506804 0.000000 0.031595
419.000000 47.065000 13.000000 4.000000 6.000000 126.556392 -34.435696 1712.939409 -26.620998 21.254687 0.000000 0.103780
420.000000 49.320000 4.000000 5.000000 6.000000 65.543628 -31.979176 1646.999506 1518.084064 20.304391 0.000000 0.139258
421.000000 52.359000 5.000000 5.000000 6.000000 75.463148 -32.811463 1668.929138 1273.065663 19.122792 0.000000 0.122736
422.000000 53.710000 6.000000 5.000000 6.000000 84.173969 -33.640810 1691.193731 1072.911710 18.638945 0.000000 0.108466
423.000000 53.849000 7.000000 5.000000 6.000000 91.796044 -34.466884 1713.801017 900.064365 18.588005 0.000000 0.089099
424.000000 53.167000 8.000000 5.000000 6.000000 98.461536 -35.289366 1736.758970 744.839910 18.824109 0.000000 0.065556
425.000000 51.958000 9.000000 5.000000 6.000000 104.298960 -36.107941 1760.075813 601.452560 19.260306 0.000000 0.043636
426.000000 50.431000 10.000000 5.000000 6.000000 109.425339 -36.922306 1783.760028 466.226401 19.841543 0.000000 0.040112
427.000000 48.733000 11.000000 5.000000 6.000000 113.943326 -37.732167 1807.820366 336.708639 20.531267 0.000000 0.062770
428.000000 46.962000 12.000000 5.000000 6.000000 117.941035 -38.537239 1832.265858 211.195178 21.304255 0.000000 0.095578
429.000000 46.326000 5.000000 6.000000 6.000000 69.703812 -37.517453 1801.390665 1442.850816 21.614758 0.000000 0.161557
430.000000 48.982000 7.000000 6.000000 6.000000 85.871492 -39.006175 1846.757990 1040.974532 20.436772 0.000000 0.114016
431.000000 45.967000 11.000000 6.000000 6.000000 108.453829 -41.928454 1941.668854 458.246478 21.768434 0.000000 0.105559
444.000000 47.559000 3.000000 -5.000000 7.000000 64.760327 47.612652 -204.215458 1693.628151 21.054650 0.000000 0.312096
445.000000 51.568000 4.000000 -5.000000 7.000000 75.340246 47.377877 -194.554564 1356.784386 19.414722 0.000000 0.244761
446.000000 53.828000 5.000000 -5.000000 7.000000 84.843365 47.136540 -184.712878 1083.783759 18.596556 0.000000 0.200323
447.000000 54.719000 6.000000 -5.000000 7.000000 93.314143 46.888369 -174.685277 849.804071 18.291115 0.000000 0.174389
448.000000 54.605000 7.000000 -5.000000 7.000000 100.833255 46.633082 -164.466444 641.056433 18.327061 0.000000 0.166453
449.000000 53.793000 8.000000 -5.000000 7.000000 107.497438 46.370376 -154.050856 449.254507 18.601746 0.000000 0.174713
450.000000 52.522000 9.000000 -5.000000 7.000000 113.406202 46.099937 -143.432773 269.106876 19.049923 0.000000 0.194505
451.000000 50.971000 10.000000 -5.000000 7.000000 118.654163 45.821429 -132.606234 97.065617 19.628139 0.000000 0.220665
455.000000 45.604000 2.000000 -4.000000 7.000000 55.254665 41.667619 17.147354 1940.341504 21.960872 0.000000 0.284030
456.000000 51.962000 3.000000 -4.000000 7.000000 67.415849 41.334608 28.299911 1537.203825 19.270401 0.000000 0.199933
457.000000 55.901000 4.000000 -4.000000 7.000000 78.353215 40.992132 39.651100 1234.915779 17.909632 0.000000 0.148056
458.000000 57.862000 5.000000 -4.000000 7.000000 88.072046 40.639810 51.206275 988.745332 17.299776 0.000000 0.110036
459.000000 58.340000 6.000000 -4.000000 7.000000 96.646609 40.277236 62.970985 776.607945 17.155392 0.000000 0.080134
460.000000 57.780000 7.000000 -4.000000 7.000000 104.186510 39.903989 74.950980 586.329909 17.319441 0.000000 0.062624
461.000000 56.536000 8.000000 -4.000000 7.000000 110.812994 39.519622 87.152226 410.637518 17.698385 0.000000 0.066510
462.000000 54.873000 9.000000 -4.000000 7.000000 116.644730 39.123667 99.580907 244.906620 18.233036 0.000000 0.087931
463.000000 52.977000 10.000000 -4.000000 7.000000 121.790549 38.715633 112.243444 86.047613 18.884113 0.000000 0.116006
464.000000 50.975000 11.000000 -4.000000 7.000000 126.346593 38.295000 125.146499 -68.090652 19.624524 0.000000 0.145040
467.000000 49.330000 2.000000 -3.000000 7.000000 56.976034 34.661666 230.803365 1791.544522 20.302676 0.000000 0.190880
468.000000 55.911000 3.000000 -3.000000 7.000000 69.586753 34.207246 243.352153 1425.339713 17.909542 0.000000 0.136782
469.000000 59.723000 4.000000 -3.000000 7.000000 80.813693 33.739958 256.115976 1150.312868 16.763213 0.000000 0.114851
470.000000 61.356000 5.000000 -3.000000 7.000000 90.689866 33.259312 269.100409 925.501657 16.314190 0.000000 0.096814
471.000000 61.421000 6.000000 -3.000000 7.000000 99.321496 32.764797 282.311220 730.909920 16.294517 0.000000 0.074601
472.000000 60.435000 7.000000 -3.000000 7.000000 106.847207 32.255882 295.754382 555.602516 16.557940 0.000000 0.048054
473.000000 58.795000 8.000000 -3.000000 7.000000 113.411550 31.732013 309.436079 393.084410 17.017859 0.000000 0.018995
474.000000 56.782000 9.000000 -3.000000 7.000000 119.150574 31.192611 323.362717 239.245410 17.619726 0.000000 0.012325
475.000000 54.585000 10.000000 -3.000000 7.000000 124.185473 30.637075 337.540933 91.349375 18.327474 0.000000 0.041508
476.000000 52.329000 11.000000 -3.000000 7.000000 128.620876 30.064781 351.977607 -52.503045 19.116301 0.000000 0.069296
477.000000 50.093000 12.000000 -3.000000 7.000000 132.545531 29.475078 366.679869 -193.678218 19.968590 0.000000 0.094455
478.000000 47.924000 13.000000 -3.000000 7.000000 136.034001 28.867289 381.655118 -333.190267 20.871483 0.000000 0.116379
480.000000 52.172000 2.000000 -2.000000 7.000000 58.024787 26.893466 429.119072 1694.374137 19.197095 0.000000 0.127934
481.000000 58.921000 3.000000 -2.000000 7.000000 70.979240 26.309618 442.837422 1354.910216 16.994992 0.000000 0.116939
482.000000 62.605000 4.000000 -2.000000 7.000000 82.413402 25.710039 456.782269 1100.103134 15.991487 0.000000 0.128495
483.000000 63.953000 5.000000 -2.000000 7.000000 92.387790 25.094222 470.959270 891.441960 15.651632 0.000000 0.128853
484.000000 63.675000 6.000000 -2.000000 7.000000 101.037942 24.461647 485.374270 710.346006 15.717588 0.000000 0.117546
485.000000 62.348000 7.000000 -2.000000 7.000000 108.527697 23.811780 500.033313 546.737400 16.049771 0.000000 0.098519
486.000000 60.398000 8.000000 -2.000000 7.000000 115.020969 23.144077 514.942650 394.666891 16.566026 0.000000 0.075518
487.000000 58.117000 9.000000 -2.000000 7.000000 120.667695 22.457983 530.108746 250.387647 17.214848 0.000000 0.052103
488.000000 55.694000 10.000000 -2.000000 7.000000 125.598581 21.752931 545.538292 111.415046 17.962310 0.000000 0.033572
489.000000 53.251000 11.000000 -2.000000 7.000000 129.924563 21.028349 561.238212 -23.970101 18.785150 0.000000 0.030348
490.000000 50.861000 12.000000 -2.000000 7.000000 133.738445 20.283655 577.215676 -157.001127 19.666888 0.000000 0.042489
491.000000 48.565000 13.000000 -2.000000 7.000000 137.117316 19.518261 593.478108 -288.591170 20.595522 0.000000 0.057823
493.000000 53.610000 2.000000 -1.000000 7.000000 58.152148 18.556838 613.689351 1646.242501 18.682973 0.000000 0.083636
494.000000 60.502000 3.000000 -1.000000 7.000000 71.317411 17.850792 628.386946 1323.347993 16.551358 0.000000 0.116227
495.000000 64.131000 4.000000 -1.000000 7.000000 82.869536 17.127715 643.318662 1081.889053 15.611448 0.000000 0.148404
496.000000 65.319000 5.000000 -1.000000 7.000000 92.889709 16.387224 658.490139 884.370640 15.324543 0.000000 0.158090
497.000000 64.845000 6.000000 -1.000000 7.000000 101.534350 15.628937 673.907199 712.920531 15.434111 0.000000 0.151960
498.000000 63.324000 7.000000 -1.000000 7.000000 108.984584 14.852481 689.575851 557.927210 15.802432 0.000000 0.136016
499.000000 61.201000 8.000000 -1.000000 7.000000 115.417175 14.057491 705.502307 413.752731 16.348952 0.000000 0.114535
500.000000 58.770000 9.000000 -1.000000 7.000000 120.991013 13.243612 721.692981 276.864065 17.023411 0.000000 0.090603
501.000000 56.225000 10.000000 -1.000000 7.000000 125.842776 12.410503 738.154504 144.928009 17.792825 0.000000 0.066623
502.000000 53.681000 11.000000 -1.000000 7.000000 130.087251 11.557840 754.893729 16.335835 18.634652 0.000000 0.044822
503.000000 51.210000 12.000000 -1.000000 7.000000 133.819648 10.685317 771.917743 -110.062916 19.532960 0.000000 0.028250
504.000000 48.849000 13.000000 -1.000000 7.000000 137.118509 9.792650 789.233876 -235.117542 20.476173 0.000000 0.022062
505.000000 46.617000 14.000000 -1.000000 7.000000 140.048542 8.879584 806.849713 -359.473019 21.455675 0.000000 0.025893
506.000000 51.096000 2.000000 1.000000 7.000000 55.185580 1.493451 946.939349 1689.700139 19.603578 0.000000 0.010939
507.000000 58.277000 3.000000 1.000000 7.000000 68.321599 0.631412 963.138530 1368.865570 17.184644 0.000000 0.099866
508.000000 62.191000 4.000000 1.000000 7.000000 79.844499 -0.243747 979.578778 1133.794799 16.099696 0.000000 0.153862
509.000000 63.641000 5.000000 1.000000 7.000000 89.835522 -1.131908 996.265514 944.090312 15.729822 0.000000 0.175004
510.000000 63.397000 6.000000 1.000000 7.000000 98.451130 -2.032927 1013.204322 780.984427 15.787696 0.000000 0.175964
511.000000 62.075000 7.000000 1.000000 7.000000 105.872483 -2.946631 1030.400958 634.563134 16.121743 0.000000 0.164430
512.000000 60.118000 8.000000 1.000000 7.000000 112.276379 -3.872815 1047.861354 499.088680 16.644439 0.000000 0.145314
513.000000 57.828000 9.000000 1.000000 7.000000 117.821747 -4.811242 1065.591625 371.003805 17.301710 0.000000 0.121929
514.000000 55.401000 10.000000 1.000000 7.000000 122.645303 -5.761643 1083.598077 247.980383 18.058345 0.000000 0.096643
515.000000 52.957000 11.000000 1.000000 7.000000 126.861879 -6.723717 1101.887213 128.425970 18.890432 0.000000 0.071321
516.000000 50.570000 12.000000 1.000000 7.000000 130.566733 -7.697127 1120.465742 11.210209 19.781162 0.000000 0.047830
517.000000 48.280000 13.000000 1.000000 7.000000 133.838456 -8.681503 1139.340589 -104.495302 20.718374 0.000000 0.029468
518.000000 46.109000 14.000000 1.000000 7.000000 136.741810 -9.676441 1158.518900 -219.315032 21.693051 0.000000 0.024494
519.000000 47.392000 2.000000 2.000000 7.000000 52.279243 -6.512831 1097.872401 1778.885071 21.136534 0.000000 0.054758
520.000000 54.666000 3.000000 2.000000 7.000000 65.180379 -7.392289 1114.638933 1442.936983 18.320712 0.000000 0.080318
521.000000 58.875000 4.000000 2.000000 7.000000 76.561264 -8.280852 1131.647027 1200.888140 17.007516 0.000000 0.138720
522.000000 60.709000 5.000000 2.000000 7.000000 86.482511 -9.178228 1148.901944 1008.016768 16.490484 0.000000 0.164331
523.000000 60.863000 6.000000 2.000000 7.000000 95.079724 -10.084101 1166.409095 843.826027 16.446012 0.000000 0.168662
524.000000 59.911000 7.000000 2.000000 7.000000 102.516798 -10.998135 1184.174052 697.589593 16.704945 0.000000 0.159483
525.000000 58.280000 8.000000 2.000000 7.000000 108.957698 -11.919967 1202.202551 563.143083 17.170255 0.000000 0.141840
526.000000 56.268000 9.000000 2.000000 7.000000 114.552414 -12.849217 1220.500501 436.686191 17.782300 0.000000 0.119164
527.000000 54.074000 10.000000 2.000000 7.000000 119.431711 -13.785478 1239.073987 315.743597 18.502401 0.000000 0.093959
528.000000 51.824000 11.000000 2.000000 7.000000 123.706588 -14.728324 1257.929282 198.629463 19.304375 0.000000 0.068369
529.000000 49.597000 12.000000 2.000000 7.000000 127.469918 -15.677311 1277.072847 84.152046 20.169866 0.000000 0.045167
530.000000 47.441000 13.000000 2.000000 7.000000 130.798863 -16.631973 1296.511345 -28.558453 21.085624 0.000000 0.031044
531.000000 49.962000 3.000000 3.000000 7.000000 61.314172 -14.674728 1256.853176 1549.766145 20.046406 0.000000 0.072165
532.000000 54.463000 4.000000 3.000000 7.000000 72.471845 -15.541832 1274.329238 1293.837301 18.386277 0.000000 0.118175
533.000000 56.746000 5.000000 3.000000 7.000000 82.278932 -16.413736 1292.051032 1093.123301 17.643300 0.000000 0.145404
534.000000 57.397000 6.000000 3.000000 7.000000 90.841735 -17.290073 1310.023776 924.438603 17.440341 0.000000 0.152373
535.000000 56.926000 7.000000 3.000000 7.000000 98.298933 -18.170463 1328.252840 775.766406 17.582112 0.000000 0.145382
536.000000 55.729000 8.000000 3.000000 7.000000 104.795123 -19.054518 1346.743745 640.250218 17.957359 0.000000 0.129223
537.000000 54.095000 9.000000 3.000000 7.000000 110.466406 -19.941835 1365.502175 513.687224 18.498051 0.000000 0.107287
538.000000 52.220000 10.000000 3.000000 7.000000 115.434024 -20.832006 1384.533978 393.353211 19.160248 0.000000 0.082111
539.000000 50.239000 11.000000 3.000000 7.000000 119.802666 -21.724613 1403.845172 277.400926 19.914304 0.000000 0.056015
540.000000 48.237000 12.000000 3.000000 7.000000 123.661141 -22.619230 1423.441957 164.529943 20.739492 0.000000 0.033048
541.000000 46.268000 13.000000 3.000000 7.000000 127.084079 -23.515428 1443.330715 53.795086 21.620886 0.000000 0.027211
542.000000 49.431000 4.000000 4.000000 7.000000 67.917047 -21.936693 1408.468390 1411.748292 20.259082 0.000000 0.105618
543.000000 52.137000 5.000000 4.000000 7.000000 77.558963 -22.761001 1426.570664 1198.499216 19.204410 0.000000 0.125429
544.000000 53.299000 6.000000 4.000000 7.000000 86.056907 -23.586592 1444.921497 1021.950579 18.782593 0.000000 0.132226
545.000000 53.349000 7.000000 4.000000 7.000000 93.520533 -24.413125 1463.526044 868.282076 18.762396 0.000000 0.126371
546.000000 52.639000 8.000000 4.000000 7.000000 100.071124 -25.240256 1482.389603 729.665825 19.013005 0.000000 0.111259
547.000000 51.438000 9.000000 4.000000 7.000000 105.827380 -26.067642 1501.517621 601.331341 19.454853 0.000000 0.089827
548.000000 49.940000 10.000000 4.000000 7.000000 110.898168 -26.894938 1520.915699 480.201492 20.036763 0.000000 0.064346
549.000000 48.279000 11.000000 4.000000 7.000000 115.379667 -27.721799 1540.589597 364.198750 20.724324 0.000000 0.036783
550.000000 46.548000 12.000000 4.000000 7.000000 119.354993 -28.547881 1560.545240 251.866550 21.493543 0.000000 0.012619
551.000000 47.253000 5.000000 5.000000 7.000000 72.620836 -28.246057 1553.218323 1323.394685 21.190852 0.000000 0.118156
552.000000 48.873000 6.000000 5.000000 7.000000 81.013571 -29.011110 1571.872519 1135.627732 20.485251 0.000000 0.117868
553.000000 49.421000 7.000000 5.000000 7.000000 88.455007 -29.775037 1590.776976 974.444863 20.255332 0.000000 0.110256
554.000000 49.197000 8.000000 5.000000 7.000000 95.041908 -30.537570 1609.936764 830.751214 20.344713 0.000000 0.095075
555.000000 48.444000 9.000000 5.000000 7.000000 100.873801 -31.298442 1629.357090 699.036500 20.658788 0.000000 0.074022
556.000000 47.344000 10.000000 5.000000 7.000000 106.045322 -32.057392 1649.043306 575.763603 21.136969 0.000000 0.048974
557.000000 46.029000 11.000000 5.000000 7.000000 110.642456 -32.814162 1669.000910 458.554592 21.738652 0.000000 0.022463
558.000000 45.582000 8.000000 6.000000 7.000000 89.914640 -35.052124 1730.089500 942.958730 21.960289 0.000000 0.093566
559.000000 47.083000 7.000000 -6.000000 8.000000 93.399473 48.371075 -236.027464 844.758271 21.257592 0.000000 0.204141
560.000000 46.523000 9.000000 -6.000000 8.000000 105.797159 47.964170 -218.843663 486.243261 21.508821 0.000000 0.204883
561.000000 46.018000 4.000000 -5.000000 8.000000 72.014590 43.640234 -51.383327 1423.813735 21.757931 0.000000 0.204058
562.000000 48.380000 5.000000 -5.000000 8.000000 81.023344 43.374679 -41.900277 1174.902684 20.692350 0.000000 0.160430
563.000000 49.587000 6.000000 -5.000000 8.000000 89.152096 43.102473 -32.265513 962.816484 20.185989 0.000000 0.127961
564.000000 49.901000 7.000000 -5.000000 8.000000 96.452877 42.823375 -22.475365 775.029321 20.056474 0.000000 0.105742
565.000000 49.558000 8.000000 -5.000000 8.000000 102.994777 42.537134 -12.526044 603.913245 20.192955 0.000000 0.096464
566.000000 48.754000 9.000000 -5.000000 8.000000 108.853330 42.243487 -2.413637 444.550701 20.524178 0.000000 0.101773
567.000000 47.640000 10.000000 -5.000000 8.000000 114.103647 41.942159 7.865900 293.622996 21.002251 0.000000 0.118416
568.000000 46.331000 11.000000 -5.000000 8.000000 118.816474 41.632862 18.316744 148.804056 21.593796 0.000000 0.141165
569.000000 51.440000 5.000000 -4.000000 8.000000 83.495404 37.317604 154.560753 1095.303606 19.461131 0.000000 0.111638
570.000000 52.427000 7.000000 -4.000000 8.000000 99.083080 36.575868 176.376438 726.736297 19.089570 0.000000 0.060754
571.000000 50.702000 9.000000 -4.000000 8.000000 111.441430 35.795439 198.882312 419.870989 19.734920 0.000000 0.023449
572.000000 47.795000 11.000000 -4.000000 8.000000 121.262137 34.973522 222.111655 143.575295 20.931908 0.000000 0.063496
573.000000 48.171000 3.000000 -3.000000 8.000000 65.601012 31.517815 314.985595 1513.690460 20.788921 0.000000 0.133260
574.000000 51.958000 4.000000 -3.000000 8.000000 76.053107 31.071080 326.478504 1253.063384 19.270269 0.000000 0.120197
575.000000 54.016000 5.000000 -3.000000 8.000000 85.409208 30.613387 338.141864 1041.418527 18.532882 0.000000 0.114140
576.000000 54.741000 6.000000 -3.000000 8.000000 93.725573 30.144389 349.979493 859.956675 18.284828 0.000000 0.103671
577.000000 54.499000 7.000000 -3.000000 8.000000 101.090961 29.663727 361.995328 698.194963 18.363512 0.000000 0.087584
578.000000 53.595000 8.000000 -3.000000 8.000000 107.607046 29.171030 374.193423 549.819733 18.671192 0.000000 0.067338
579.000000 52.262000 9.000000 -3.000000 8.000000 113.375956 28.665918 386.577957 410.795765 19.145576 0.000000 0.045023
580.000000 50.671000 10.000000 -3.000000 8.000000 118.493381 28.147995 399.153237 278.418702 19.745087 0.000000 0.024241
581.000000 48.942000 11.000000 -3.000000 8.000000 123.045404 27.616856 411.923704 150.803869 20.440913 0.000000 0.019656
582.000000 47.159000 12.000000 -3.000000 8.000000 127.107587 27.072084 424.893938 26.593721 21.212456 0.000000 0.037012
583.000000 50.159000 3.000000 -2.000000 8.000000 66.470410 24.469165 485.203794 1455.892579 19.965086 0.000000 0.109237
584.000000 55.868000 5.000000 -2.000000 8.000000 86.557378 23.363062 510.069458 1011.529882 17.918759 0.000000 0.136976
585.000000 55.956000 7.000000 -2.000000 8.000000 102.280097 22.205146 535.659677 687.954828 17.885184 0.000000 0.125611
586.000000 53.333000 9.000000 -2.000000 8.000000 114.480388 20.992704 562.006588 416.110280 18.760816 0.000000 0.089894
587.000000 49.712000 11.000000 -2.000000 8.000000 124.010544 19.722957 589.144257 169.481298 20.124183 0.000000 0.049548
588.000000 45.929000 13.000000 -2.000000 8.000000 131.553684 18.393084 617.108827 -64.385010 21.779453 0.000000 0.030302
589.000000 51.111000 3.000000 -1.000000 8.000000 66.522833 17.041416 645.092906 1429.944135 19.593867 0.000000 0.097796
590.000000 54.909000 4.000000 -1.000000 8.000000 77.255497 16.403154 658.164996 1194.760441 18.235149 0.000000 0.136517
591.000000 56.783000 5.000000 -1.000000 8.000000 86.767078 15.751706 671.419029 1004.166676 17.630468 0.000000 0.156612
592.000000 57.223000 6.000000 -1.000000 8.000000 95.141655 15.086834 684.858829 840.697339 17.491956 0.000000 0.160662
593.000000 56.665000 7.000000 -1.000000 8.000000 102.494062 14.408303 698.488331 694.763472 17.661735 0.000000 0.153682
594.000000 55.452000 8.000000 -1.000000 8.000000 108.947589 13.715885 712.311578 560.656989 18.045987 0.000000 0.139541
595.000000 53.837000 9.000000 -1.000000 8.000000 114.621009 13.009357 726.332732 434.763118 18.585456 0.000000 0.121062
596.000000 51.998000 10.000000 -1.000000 8.000000 119.622222 12.288506 740.556073 314.677363 19.240872 0.000000 0.100345
597.000000 50.058000 11.000000 -1.000000 8.000000 124.045969 11.553125 754.986007 198.734536 19.985184 0.000000 0.079020
598.000000 48.096000 12.000000 -1.000000 8.000000 127.973797 10.803021 769.627068 85.741705 20.799148 0.000000 0.058471
599.000000 46.164000 13.000000 -1.000000 8.000000 131.475096 10.038013 784.483922 -25.181028 21.668700 0.000000 0.040098
600.000000 50.839000 3.000000 0.000000 8.000000 65.663690 9.465026 795.565421 1434.505359 19.699502 0.000000 0.086451
601.000000 56.624000 5.000000 0.000000 8.000000 85.944268 8.031269 823.137676 1018.069836 17.680306 0.000000 0.166445
602.000000 56.542000 7.000000 0.000000 8.000000 101.654829 6.547661 851.464739 717.537386 17.700590 0.000000 0.169918
603.000000 53.725000 9.000000 0.000000 8.000000 113.739280 5.013652 880.578038 465.841518 18.624464 0.000000 0.139792
604.000000 49.953000 11.000000 0.000000 8.000000 123.111527 3.428940 910.510764 237.805097 20.027473 0.000000 0.097504
605.000000 46.066000 13.000000 0.000000 8.000000 130.485585 1.793516 941.298010 21.775722 21.715018 0.000000 0.054615
606.000000 49.318000 3.000000 1.000000 8.000000 63.904220 1.999232 937.429423 1468.493922 20.307995 0.000000 0.069889
607.000000 53.311000 4.000000 1.000000 8.000000 74.614327 1.242676 951.652821 1237.240980 18.783128 0.000000 0.133652
608.000000 55.371000 5.000000 1.000000 8.000000 84.103385 0.475759 966.062712 1052.163755 18.081199 0.000000 0.165724
609.000000 55.982000 6.000000 1.000000 8.000000 92.455502 -0.301452 980.662787 894.844787 17.881072 0.000000 0.177192
610.000000 55.575000 7.000000 1.000000 8.000000 99.785534 -1.088874 995.456838 755.338001 18.009468 0.000000 0.175153
611.000000 54.493000 8.000000 1.000000 8.000000 106.216792 -1.886408 1010.448755 627.795769 18.364652 0.000000 0.164256
612.000000 52.992000 9.000000 1.000000 8.000000 111.868071 -2.693933 1025.642535 508.551113 18.882968 0.000000 0.147664
613.000000 51.251000 10.000000 1.000000 8.000000 116.847291 -3.511313 1041.042283 395.184502 19.522542 0.000000 0.127624
614.000000 49.395000 11.000000 1.000000 8.000000 121.249219 -4.338389 1056.652215 286.031974 20.254702 0.000000 0.105796
615.000000 47.505000 12.000000 1.000000 8.000000 125.155427 -5.174984 1072.476665 179.908884 21.059157 0.000000 0.083483
616.000000 45.634000 13.000000 1.000000 8.000000 128.635331 -6.020902 1088.520084 75.946500 21.921140 0.000000 0.061825
617.000000 46.700000 3.000000 2.000000 8.000000 61.363448 -5.118294 1071.403106 1531.058511 21.447272 0.000000 0.051960
618.000000 53.125000 5.000000 2.000000 8.000000 81.366502 -6.673828 1100.937121 1105.532807 18.846736 0.000000 0.155704
619.000000 53.823000 7.000000 2.000000 8.000000 97.005749 -8.259295 1131.233520 807.351861 18.596391 0.000000 0.170855
620.000000 51.672000 9.000000 2.000000 8.000000 109.123310 -9.873072 1162.322209 562.199203 19.366259 0.000000 0.146256
621.000000 48.403000 11.000000 2.000000 8.000000 118.571750 -11.513297 1194.234680 342.837557 20.670622 0.000000 0.105185
622.000000 47.550000 4.000000 3.000000 8.000000 68.632064 -12.478318 1213.181419 1372.288405 21.060895 0.000000 0.101856
623.000000 50.086000 5.000000 3.000000 8.000000 77.931979 -13.249436 1228.422480 1177.401907 19.991219 0.000000 0.139119
624.000000 51.254000 6.000000 3.000000 8.000000 86.192309 -14.025222 1243.853606 1014.833539 19.532561 0.000000 0.156313
625.000000 51.412000 7.000000 3.000000 8.000000 93.501858 -14.805432 1259.478376 872.874153 19.469705 0.000000 0.158945
626.000000 50.862000 8.000000 3.000000 8.000000 99.962336 -15.589811 1275.300458 744.728978 19.677889 0.000000 0.151522
627.000000 49.838000 9.000000 3.000000 8.000000 105.675905 -16.378098 1291.323613 626.180864 20.079801 0.000000 0.137275
628.000000 48.516000 10.000000 3.000000 8.000000 110.738290 -17.170020 1307.551698 514.470961 20.624979 0.000000 0.118544
629.000000 47.021000 11.000000 3.000000 8.000000 115.235611 -17.965299 1323.988671 407.715971 21.279087 0.000000 0.097108
630.000000 46.509000 5.000000 4.000000 8.000000 74.028548 -19.166973 1349.109809 1267.120365 21.529709 0.000000 0.121235
631.000000 48.505000 7.000000 4.000000 8.000000 89.487208 -20.658226 1380.801204 951.294946 20.638091 0.000000 0.142195
632.000000 47.591000 9.000000 4.000000 8.000000 101.717568 -22.156567 1413.276084 699.967350 21.029235 0.000000 0.122913
633.000000 45.601000 7.000000 -5.000000 9.000000 92.349879 39.696719 81.547391 883.598282 21.949473 0.000000 0.090207
634.000000 45.620000 8.000000 -5.000000 9.000000 98.743140 39.401049 90.888904 726.788896 21.937931 0.000000 0.068523
635.000000 45.912000 5.000000 -4.000000 9.000000 79.400180 34.637843 231.464640 1185.809198 21.806475 0.000000 0.117766
636.000000 47.173000 6.000000 -4.000000 9.000000 87.294760 34.277845 241.411515 1002.544737 21.220459 0.000000 0.101806
637.000000 47.610000 7.000000 -4.000000 9.000000 94.417893 33.909793 251.493197 840.803902 21.022845 0.000000 0.084604
638.000000 47.429000 8.000000 -4.000000 9.000000 100.829136 33.533447 261.712445 694.010537 21.100896 0.000000 0.064946
639.000000 46.801000 9.000000 -4.000000 9.000000 106.594841 33.148558 272.072093 557.901046 21.381654 0.000000 0.043115
640.000000 45.866000 10.000000 -4.000000 9.000000 111.782011 32.754865 282.575056 429.586684 21.815821 0.000000 0.019848
641.000000 45.580000 4.000000 -3.000000 9.000000 71.956742 28.956686 379.463534 1341.701068 21.968745 0.000000 0.119872
642.000000 47.825000 5.000000 -3.000000 9.000000 80.803089 28.524602 390.021360 1139.337909 20.934221 0.000000 0.121538
643.000000 49.228000 7.000000 -3.000000 9.000000 95.937519 27.632315 411.553786 814.652514 20.332036 0.000000 0.112032
644.000000 48.871000 8.000000 -3.000000 9.000000 102.350669 27.171608 422.533907 676.098889 20.478162 0.000000 0.099057
645.000000 46.976000 10.000000 -3.000000 9.000000 113.239302 26.219764 444.936323 425.816217 21.299782 0.000000 0.063878
646.000000 45.695000 11.000000 -3.000000 9.000000 117.858601 25.728086 456.364592 309.525133 21.895372 0.000000 0.045161
647.000000 46.957000 4.000000 -2.000000 9.000000 72.627937 22.529954 528.524951 1305.535524 21.324584 0.000000 0.119002
648.000000 49.155000 5.000000 -2.000000 9.000000 81.569619 22.019207 539.729127 1113.067417 20.367708 0.000000 0.136457
649.000000 50.188000 6.000000 -2.000000 9.000000 89.596368 21.498191 551.075657 949.149244 19.945753 0.000000 0.143367
650.000000 50.338000 7.000000 -2.000000 9.000000 96.772687 20.966682 562.567271 804.116797 19.883621 0.000000 0.140841
651.000000 49.852000 8.000000 -2.000000 9.000000 103.177335 20.424454 574.206769 672.101817 20.075118 0.000000 0.131382
652.000000 48.928000 9.000000 -2.000000 9.000000 108.892850 19.871279 585.997025 549.331687 20.452095 0.000000 0.117235
653.000000 47.718000 10.000000 -2.000000 9.000000 113.999144 19.306929 597.940986 433.267807 20.968809 0.000000 0.100224
654.000000 46.334000 11.000000 -2.000000 9.000000 118.570075 18.731174 610.041678 322.136690 21.593419 0.000000 0.081869
655.000000 47.577000 4.000000 -1.000000 9.000000 72.593889 15.844194 669.542578 1291.741732 21.047130 0.000000 0.121440
656.000000 49.767000 5.000000 -1.000000 9.000000 81.588585 15.262877 681.308614 1105.971253 20.117973 0.000000 0.148994
657.000000 50.757000 6.000000 -1.000000 9.000000 89.640350 14.671080 693.220059 947.983770 19.722517 0.000000 0.161278
658.000000 50.848000 7.000000 -1.000000 9.000000 96.820095 14.068646 705.279624 808.296389 19.684425 0.000000 0.162073
659.000000 50.298000 8.000000 -1.000000 9.000000 103.212254 13.455422 717.490091 681.182930 19.897335 0.000000 0.154813
660.000000 49.311000 9.000000 -1.000000 9.000000 108.904002 12.831261 729.854309 562.978272 20.293286 0.000000 0.142109
661.000000 48.043000 10.000000 -1.000000 9.000000 113.978848 12.196020 742.375200 451.224989 20.826819 0.000000 0.125920
662.000000 46.608000 11.000000 -1.000000 9.000000 118.513343 11.549560 755.055763 344.211468 21.466379 0.000000 0.107737
663.000000 46.243000 4.000000 1.000000 9.000000 70.250818 2.398532 929.917520 1327.750626 21.655790 0.000000 0.111536
664.000000 48.568000 5.000000 1.000000 9.000000 79.227609 1.724574 942.594300 1145.869457 20.615719 0.000000 0.151899
665.000000 49.686000 6.000000 1.000000 9.000000 87.261503 1.042233 955.419628 992.490065 20.148895 0.000000 0.171851
666.000000 49.893000 7.000000 1.000000 9.000000 94.423427 0.351548 968.396132 857.739411 20.062290 0.000000 0.177835
667.000000 49.447000 8.000000 1.000000 9.000000 100.797829 -0.347429 981.526499 735.724378 20.240796 0.000000 0.174207
668.000000 48.552000 9.000000 1.000000 9.000000 106.471897 -1.054638 994.813484 622.707344 20.611508 0.000000 0.163988
669.000000 47.365000 10.000000 1.000000 9.000000 111.529153 -1.770005 1008.259904 516.200990 21.126010 0.000000 0.149336
670.000000 46.001000 11.000000 1.000000 9.000000 116.046162 -2.493445 1021.868648 414.483855 21.750887 0.000000 0.131845
671.000000 46.816000 5.000000 2.000000 9.000000 76.943593 -4.695302 1063.398658 1191.438881 21.388102 0.000000 0.142153
672.000000 48.092000 6.000000 2.000000 9.000000 84.936587 -5.392105 1076.590131 1036.787848 20.817518 0.000000 0.165266
673.000000 48.465000 7.000000 2.000000 9.000000 92.079242 -6.095288 1089.933147 901.702381 20.654342 0.000000 0.173674
674.000000 48.180000 8.000000 2.000000 9.000000 98.450341 -6.804724 1103.430332 779.965927 20.774164 0.000000 0.171879
675.000000 47.434000 9.000000 2.000000 9.000000 104.132446 -7.520278 1117.084375 667.654370 21.098550 0.000000 0.162999
676.000000 46.380000 10.000000 2.000000 9.000000 109.205490 -8.241803 1130.898024 562.166418 21.575597 0.000000 0.149260
677.000000 46.506000 7.000000 3.000000 9.000000 89.127724 -12.085421 1205.451069 957.758277 21.525622 0.000000 0.163172
678.000000 46.432000 8.000000 3.000000 9.000000 95.494912 -12.786576 1219.262896 834.828189 21.557063 0.000000 0.163149
679.000000 45.794000 7.000000 -1.000000 10.000000 91.841397 13.800517 710.626469 905.369074 21.858823 0.000000 0.163992
680.000000 45.717000 8.000000 -1.000000 10.000000 98.117531 13.250268 721.561025 783.286003 21.893037 0.000000 0.162843
681.000000 45.637000 7.000000 0.000000 10.000000 91.097680 7.591450 831.555143 920.195337 21.934703 0.000000 0.173000
682.000000 45.575000 8.000000 0.000000 10.000000 97.367820 6.998015 842.885529 800.783870 21.961807 0.000000 0.173807
#UB matrix in q= (UB) B0 G* 
#[[-0.99382739   0.086807817 -0.068867455]
# [-0.099759822 -0.972764929  0.213490698]
# [-0.048529343  0.219126239  0.975760793]]
#B0 matrix in q= UB (B0) G*
#[[ 0.19670273 -0.          0.03056101]
# [ 0.          0.19187965 -0.        ]
# [ 0.          0.          0.18806537]]
#UBB0 matrix in q= (UB B0) G* i.e. recip. basis vectors are columns in LT frame: astar = UBB0[:,0], bstar = UBB0[:,1], cstar = UBB0[:,2]. (abcstar as columns on xyzlab1, xlab1 = ui, ui = unit vector along incident beam)
#[[-0.19548856  0.01665665 -0.04332395]
# [-0.01962303 -0.1866538   0.03710145]
# [-0.00954585  0.04204587  0.18202371]]
#Euler angles phi theta psi (deg)
#[192.498  12.959  17.922]
#deviatoric strain in direct crystal frame (10-3 unit)
#[[-2.55 -0.05  0.55]
# [-0.05 -3.39 -0.17]
# [ 0.55 -0.17  5.94]]
#deviatoric strain in sample2 frame (10-3 unit)
#[[-0.31  1.13  3.64]
# [ 1.13 -2.92  1.71]
# [ 3.63  1.71  3.24]]
#new lattice parameters
#[ 5.1505     5.2071886  5.3111914 90.0091663 99.207373  90.0062643]
#CCDLabel
#sCMOS
#DetectorParameters
#[79.0, 975.0, 941.0, 0.0, 0.0]
#pixelsize
#0.0734
#Frame dimensions
#[2018, 2016]
#
