#Strain and Orientation Refinement from experimental file: /home/micha/LaueProjects/DepthEffects/testZrO2_177.cor
#File created at Wed Jun 28 14:28:49 2023 with indexingSpotsSet.py
#Number of indexed spots: 546
#Element
#ZrO2
#grainIndex
#G_0
#Mean Deviation(pixel): 0.117
##spot_index intensity h k l 2theta Chi Xexp Yexp Energy GrainIndex PixDev
25.000000 49.497000 7.000000 10.000000 -10.000000 125.119666 -41.792256 1937.056415 -74.314848 20.199427 0.000000 0.198193
26.000000 49.151000 4.000000 5.000000 -5.000000 129.700507 -35.732784 1749.330113 -159.798711 10.170245 0.000000 0.144063
27.000000 48.436000 9.000000 10.000000 -10.000000 133.498875 -29.043813 1572.676016 -227.231578 20.639992 0.000000 0.102864
28.000000 47.428000 3.000000 3.000000 -3.000000 136.475475 -21.830082 1406.142614 -279.744378 6.323437 0.000000 0.070836
29.000000 46.199000 11.000000 10.000000 -10.000000 138.625942 -14.277025 1248.884392 -319.873550 21.638252 0.000000 0.044570
30.000000 45.993000 6.000000 11.000000 -10.000000 115.061255 -44.621713 2037.175123 233.899427 21.741609 0.000000 0.182727
31.000000 46.225000 7.000000 11.000000 -10.000000 120.054464 -39.710604 1868.893272 131.460439 21.631168 0.000000 0.126440
32.000000 46.064000 8.000000 11.000000 -10.000000 124.430561 -34.307236 1709.397377 47.811867 21.705668 0.000000 0.085217
33.000000 45.566000 9.000000 11.000000 -10.000000 128.139813 -28.443922 1558.016874 -20.158347 21.941422 0.000000 0.057031
49.000000 54.736000 7.000000 9.000000 -9.000000 128.748198 -37.135861 1790.054434 -142.486050 18.265214 0.000000 0.154836
50.000000 53.924000 8.000000 9.000000 -9.000000 133.116970 -29.815571 1591.788031 -220.527432 18.539582 0.000000 0.106923
51.000000 51.168000 10.000000 9.000000 -9.000000 138.815051 -13.427239 1231.950243 -323.661667 19.536647 0.000000 0.041876
52.000000 49.435000 11.000000 9.000000 -9.000000 140.188003 -4.948181 1068.182769 -355.089038 20.221348 0.000000 0.016188
53.000000 47.579000 4.000000 3.000000 -3.000000 140.704121 3.247455 913.931536 -376.282921 7.003326 0.000000 0.009218
54.000000 45.666000 13.000000 9.000000 -9.000000 140.512248 10.866523 768.390502 -389.067586 21.890359 0.000000 0.035623
57.000000 50.425000 5.000000 10.000000 -9.000000 112.169553 -46.376788 2104.303876 305.324781 19.831624 0.000000 0.204869
58.000000 50.930000 6.000000 10.000000 -9.000000 117.925816 -41.183124 1916.664601 182.984053 19.633561 0.000000 0.136426
59.000000 50.880000 7.000000 10.000000 -9.000000 122.957809 -35.397230 1739.804217 84.933703 19.651358 0.000000 0.087261
60.000000 50.357000 8.000000 10.000000 -9.000000 127.192352 -29.049666 1572.819871 6.744435 19.854211 0.000000 0.054856
61.000000 49.452000 9.000000 10.000000 -9.000000 130.586747 -22.230990 1414.906801 -55.108658 20.216909 0.000000 0.037003
62.000000 48.253000 10.000000 10.000000 -9.000000 133.134858 -15.096968 1265.345372 -103.455152 20.718625 0.000000 0.029363
63.000000 46.842000 11.000000 10.000000 -9.000000 134.870378 -7.855179 1123.490105 -140.584247 21.341996 0.000000 0.025333
64.000000 46.509000 5.000000 11.000000 -9.000000 107.473564 -43.993648 2014.134739 470.051331 21.503010 0.000000 0.139612
65.000000 47.119000 6.000000 11.000000 -9.000000 112.874945 -39.258079 1854.622410 354.550354 21.223271 0.000000 0.080404
66.000000 47.250000 7.000000 11.000000 -9.000000 117.658987 -34.075804 1703.043334 259.982545 21.162904 0.000000 0.036971
67.000000 46.962000 8.000000 11.000000 -9.000000 121.768337 -28.476968 1558.820038 182.751005 21.291223 0.000000 0.015416
68.000000 46.325000 9.000000 11.000000 -9.000000 125.169652 -22.527897 1421.429767 119.960355 21.583008 0.000000 0.027161
81.000000 61.719000 3.000000 4.000000 -4.000000 127.504296 -38.844668 1841.745182 -119.536299 8.099509 0.000000 0.169265
82.000000 60.806000 7.000000 8.000000 -8.000000 132.625326 -30.770743 1615.855489 -211.883138 16.441124 0.000000 0.112163
83.000000 57.331000 9.000000 8.000000 -8.000000 139.037785 -12.363955 1210.928905 -328.222100 17.436517 0.000000 0.038554
84.000000 55.102000 5.000000 4.000000 -4.000000 140.392022 -2.859550 1028.760936 -361.269047 9.070788 0.000000 0.009946
85.000000 52.724000 11.000000 8.000000 -8.000000 140.706456 6.184414 858.373259 -381.976309 18.959966 0.000000 0.018895
86.000000 50.291000 6.000000 4.000000 -4.000000 140.201548 14.399782 698.658968 -392.781428 9.938516 0.000000 0.049593
87.000000 47.875000 13.000000 8.000000 -8.000000 139.103742 21.610093 548.645621 -395.620987 20.880539 0.000000 0.083117
91.000000 55.614000 4.000000 9.000000 -8.000000 108.468875 -48.403651 2187.415036 399.525948 17.982416 0.000000 0.236446
92.000000 56.598000 5.000000 9.000000 -8.000000 115.207608 -42.908003 1975.434549 249.291722 17.667776 0.000000 0.150779
93.000000 56.774000 6.000000 9.000000 -8.000000 121.090222 -36.691213 1776.988283 131.624532 17.611620 0.000000 0.090439
94.000000 56.257000 7.000000 9.000000 -8.000000 126.004815 -29.776769 1590.820164 39.915209 17.772309 0.000000 0.052093
95.000000 55.185000 8.000000 9.000000 -8.000000 129.884455 -22.272855 1415.824887 -30.942909 18.116691 0.000000 0.033791
96.000000 53.697000 9.000000 9.000000 -8.000000 132.717339 -14.384045 1251.025951 -84.939787 18.618043 0.000000 0.029126
97.000000 51.921000 10.000000 9.000000 -8.000000 134.552114 -6.391151 1095.557427 -125.223951 19.254587 0.000000 0.027027
98.000000 49.964000 11.000000 9.000000 -8.000000 135.492909 1.402511 948.648740 -154.302060 20.008395 0.000000 0.023364
99.000000 47.914000 12.000000 9.000000 -8.000000 135.682554 8.735989 809.611894 -174.185688 20.864576 0.000000 0.022695
100.000000 45.836000 13.000000 9.000000 -8.000000 135.279192 15.435049 677.830700 -186.500702 21.810654 0.000000 0.032879
102.000000 48.927000 3.000000 10.000000 -8.000000 96.646219 -50.107126 2262.558895 745.458422 20.443817 0.000000 0.258263
103.000000 50.718000 2.000000 5.000000 -4.000000 103.500790 -45.630878 2075.261081 571.460248 9.859891 0.000000 0.162707
104.000000 51.787000 5.000000 10.000000 -8.000000 109.751953 -40.629256 1898.449489 431.775160 19.310997 0.000000 0.090080
105.000000 52.177000 3.000000 5.000000 -4.000000 115.284822 -35.094126 1731.267463 319.626493 9.582528 0.000000 0.036567
106.000000 51.969000 7.000000 10.000000 -8.000000 120.013071 -29.054926 1572.949184 229.768534 19.240560 0.000000 0.009276
107.000000 51.264000 4.000000 5.000000 -4.000000 123.885309 -22.590466 1422.807944 158.091447 9.752184 0.000000 0.030617
108.000000 50.168000 9.000000 10.000000 -8.000000 126.889773 -15.832801 1280.226181 101.340735 19.929641 0.000000 0.045813
109.000000 48.784000 5.000000 5.000000 -4.000000 129.055825 -8.957345 1144.646996 56.914547 10.247204 0.000000 0.052690
110.000000 47.203000 11.000000 10.000000 -8.000000 130.450446 -2.158528 1015.566880 22.714962 21.180508 0.000000 0.052657
111.000000 45.500000 6.000000 5.000000 -4.000000 131.169223 4.381700 892.529466 -2.962670 10.986403 0.000000 0.047260
112.000000 46.319000 4.000000 11.000000 -8.000000 98.986869 -43.413579 1993.284201 706.676402 21.594732 0.000000 0.123557
113.000000 47.426000 5.000000 11.000000 -8.000000 104.817699 -38.842399 1841.674919 575.440344 21.088499 0.000000 0.062483
114.000000 47.966000 6.000000 11.000000 -8.000000 110.043726 -33.864220 1697.264527 468.109527 20.849626 0.000000 0.024407
115.000000 47.992000 7.000000 11.000000 -8.000000 114.595614 -28.507074 1559.552176 380.360750 20.836920 0.000000 0.033155
116.000000 47.578000 8.000000 11.000000 -8.000000 118.431004 -22.829399 1428.082427 308.770766 21.017236 0.000000 0.054150
117.000000 46.804000 9.000000 11.000000 -8.000000 121.536931 -16.921295 1302.440213 250.600871 21.363604 0.000000 0.068832
118.000000 45.753000 10.000000 11.000000 -8.000000 123.930043 -10.899223 1182.246469 203.639735 21.853855 0.000000 0.076635
130.000000 70.676000 5.000000 7.000000 -7.000000 125.819713 -40.967020 1909.521204 -87.770047 14.146319 0.000000 0.189518
131.000000 69.690000 6.000000 7.000000 -7.000000 131.970049 -31.982748 1647.092768 -200.326031 14.345509 0.000000 0.119186
132.000000 65.173000 8.000000 7.000000 -7.000000 139.302129 -10.996264 1184.137591 -333.807521 15.338459 0.000000 0.034344
133.000000 62.209000 9.000000 7.000000 -7.000000 140.578895 -0.209094 978.927825 -368.327199 16.068963 0.000000 0.002208
134.000000 59.066000 10.000000 7.000000 -7.000000 140.576854 9.821442 788.676876 -387.696603 16.923965 0.000000 0.031731
135.000000 55.891000 11.000000 7.000000 -7.000000 139.633209 18.646865 611.806622 -395.272296 17.885507 0.000000 0.068389
141.000000 61.634000 3.000000 8.000000 -7.000000 103.601052 -50.764258 2292.987665 529.302406 16.227078 0.000000 0.283678
142.000000 63.494000 4.000000 8.000000 -7.000000 111.633627 -44.952086 2049.495660 337.824627 15.749918 0.000000 0.172465
143.000000 64.125000 5.000000 8.000000 -7.000000 118.651118 -38.250577 1823.499562 192.174099 15.593345 0.000000 0.095756
144.000000 63.692000 6.000000 8.000000 -7.000000 124.474069 -30.665441 1613.179042 81.858067 15.698074 0.000000 0.048553
145.000000 62.414000 7.000000 8.000000 -7.000000 128.992246 -22.324483 1416.957827 -0.924387 16.018589 0.000000 0.030294
146.000000 60.520000 8.000000 8.000000 -7.000000 132.182676 -13.503460 1233.464131 -62.060003 16.519367 0.000000 0.030408
147.000000 58.217000 9.000000 8.000000 -7.000000 134.118731 -4.594814 1061.498532 -106.049292 17.172273 0.000000 0.030039
148.000000 55.679000 10.000000 8.000000 -7.000000 134.959317 3.985720 900.007730 -136.372622 17.954741 0.000000 0.025851
149.000000 53.039000 11.000000 8.000000 -7.000000 134.916271 11.906436 748.062946 -155.748860 18.848456 0.000000 0.025943
150.000000 50.393000 12.000000 8.000000 -7.000000 134.212965 18.979062 604.842057 -166.321174 19.838400 0.000000 0.040336
151.000000 47.806000 13.000000 8.000000 -7.000000 133.051294 25.152896 469.614705 -169.792508 20.912142 0.000000 0.065539
153.000000 52.534000 2.000000 9.000000 -7.000000 90.396184 -52.178025 2361.451912 928.863244 19.042022 0.000000 0.320138
154.000000 55.413000 3.000000 9.000000 -7.000000 98.399308 -47.511738 2150.052310 705.716002 18.050711 0.000000 0.197596
155.000000 57.272000 4.000000 9.000000 -7.000000 105.743594 -42.224710 1951.770204 531.262787 17.462799 0.000000 0.106327
156.000000 58.138000 5.000000 9.000000 -7.000000 112.252361 -36.293245 1765.421408 394.627242 17.200939 0.000000 0.039953
157.000000 58.115000 6.000000 9.000000 -7.000000 117.789955 -29.742265 1589.960111 287.715635 17.206375 0.000000 0.006453
158.000000 57.354000 7.000000 9.000000 -7.000000 122.273481 -22.665358 1424.459235 204.405779 17.433664 0.000000 0.036735
159.000000 56.023000 8.000000 9.000000 -7.000000 125.681029 -15.233278 1268.094053 140.000489 17.847114 0.000000 0.053976
160.000000 54.284000 9.000000 9.000000 -7.000000 128.053881 -7.679493 1120.128443 90.850684 18.418300 0.000000 0.060676
161.000000 52.278000 10.000000 9.000000 -7.000000 129.489606 -0.261022 979.903300 54.090150 19.124302 0.000000 0.058957
162.000000 50.123000 11.000000 9.000000 -7.000000 130.125554 6.791232 846.826720 27.445477 19.946436 0.000000 0.050833
163.000000 47.907000 12.000000 9.000000 -7.000000 130.116948 13.310545 720.365649 9.097680 20.869318 0.000000 0.038921
164.000000 45.693000 13.000000 9.000000 -7.000000 129.616286 19.207403 600.038744 -2.420034 21.880167 0.000000 0.029233
165.000000 47.323000 2.000000 10.000000 -7.000000 86.411872 -49.288204 2225.786571 1044.473118 21.140853 0.000000 0.255376
166.000000 49.941000 3.000000 10.000000 -7.000000 93.725650 -44.945314 2049.241698 841.979758 20.030195 0.000000 0.154871
167.000000 51.752000 4.000000 10.000000 -7.000000 100.488008 -40.123548 1882.080213 680.430281 19.327421 0.000000 0.080967
168.000000 52.760000 5.000000 10.000000 -7.000000 106.560321 -34.818998 1723.573390 551.156579 18.956390 0.000000 0.037434
169.000000 53.028000 6.000000 10.000000 -7.000000 111.835985 -29.059680 1573.066055 447.619062 18.858804 0.000000 0.042829
170.000000 52.661000 7.000000 10.000000 -7.000000 116.248049 -22.914591 1429.967540 364.806385 18.989267 0.000000 0.064164
171.000000 51.778000 8.000000 10.000000 -7.000000 119.773564 -16.496625 1293.743930 298.825585 19.311906 0.000000 0.079424
172.000000 50.505000 9.000000 10.000000 -7.000000 122.433831 -9.955164 1163.911408 246.615971 19.797996 0.000000 0.086897
173.000000 48.955000 10.000000 10.000000 -7.000000 124.289752 -3.457651 1040.030515 205.745466 20.424266 0.000000 0.087352
174.000000 47.226000 11.000000 10.000000 -7.000000 125.432385 2.835010 921.701180 174.263109 21.171661 0.000000 0.081827
175.000000 46.894000 4.000000 11.000000 -7.000000 95.808346 -38.459278 1829.874879 801.182202 21.331325 0.000000 0.082320
176.000000 47.976000 5.000000 11.000000 -7.000000 101.498081 -33.670040 1691.986225 677.931758 20.848293 0.000000 0.060956
177.000000 48.445000 6.000000 11.000000 -7.000000 106.528332 -28.534615 1560.222313 577.446821 20.644881 0.000000 0.070120
178.000000 48.370000 7.000000 11.000000 -7.000000 110.842807 -23.104752 1434.183934 495.499692 20.675732 0.000000 0.086767
179.000000 47.837000 8.000000 11.000000 -7.000000 114.417697 -17.458908 1313.505837 428.773300 20.904798 0.000000 0.099971
180.000000 46.941000 9.000000 11.000000 -7.000000 117.261507 -11.698130 1197.853191 374.634770 21.303064 0.000000 0.107545
181.000000 45.771000 10.000000 11.000000 -7.000000 119.411922 -5.936567 1086.918483 330.972685 21.846915 0.000000 0.109517
189.000000 81.583000 5.000000 6.000000 -6.000000 131.056143 -33.569569 1689.264513 -184.113520 12.254263 0.000000 0.129085
190.000000 75.483000 7.000000 6.000000 -6.000000 139.616689 -9.174120 1148.822773 -340.784184 13.243442 0.000000 0.028820
197.000000 71.902000 3.000000 7.000000 -6.000000 106.761468 -47.406024 2145.708252 462.035094 13.909174 0.000000 0.207226
198.000000 73.481000 4.000000 7.000000 -6.000000 115.344639 -40.163073 1883.350773 273.922875 13.608584 0.000000 0.105339
199.000000 73.329000 5.000000 7.000000 -6.000000 122.429044 -31.775650 1641.697647 136.636571 13.635497 0.000000 0.044083
200.000000 71.806000 6.000000 7.000000 -6.000000 127.821212 -22.389740 1418.391036 37.382293 13.923632 0.000000 0.027044
201.000000 69.315000 7.000000 7.000000 -6.000000 131.474596 -12.388797 1211.418025 -33.055959 14.423461 0.000000 0.034082
202.000000 66.219000 8.000000 7.000000 -6.000000 133.506059 -2.343651 1019.049778 -81.436711 15.097234 0.000000 0.034484
203.000000 62.814000 9.000000 7.000000 -6.000000 134.170572 7.160136 839.793128 -112.793243 15.915672 0.000000 0.028453
204.000000 59.311000 10.000000 7.000000 -6.000000 133.793754 15.705702 672.351748 -130.924395 16.855717 0.000000 0.029907
205.000000 55.854000 11.000000 7.000000 -6.000000 132.696408 23.114719 515.594745 -138.730904 17.898968 0.000000 0.050896
206.000000 52.534000 12.000000 7.000000 -6.000000 131.145847 29.400334 368.531087 -138.450416 19.030553 0.000000 0.083797
207.000000 49.400000 13.000000 7.000000 -6.000000 129.341120 34.680201 230.288632 -131.824563 20.238331 0.000000 0.123115
208.000000 46.475000 14.000000 7.000000 -6.000000 127.419588 39.107134 100.096818 -120.219578 21.512285 0.000000 0.166618
211.000000 60.375000 1.000000 4.000000 -3.000000 91.667962 -49.689857 2243.667270 892.553388 8.284436 0.000000 0.252297
212.000000 63.642000 3.000000 8.000000 -6.000000 100.442429 -44.101159 2018.043942 664.774449 15.716343 0.000000 0.133448
213.000000 65.413000 2.000000 4.000000 -3.000000 108.257055 -37.724605 1807.593283 492.108532 7.644443 0.000000 0.050155
214.000000 65.802000 5.000000 8.000000 -6.000000 114.887302 -30.573013 1610.834589 361.069810 15.196993 0.000000 0.014740
215.000000 65.037000 3.000000 4.000000 -3.000000 120.191597 -22.756614 1426.473754 261.931915 7.687320 0.000000 0.045980
216.000000 63.395000 7.000000 8.000000 -6.000000 124.127403 -14.501305 1253.374775 187.539217 15.772057 0.000000 0.064681
217.000000 61.148000 4.000000 4.000000 -3.000000 126.754709 -6.127034 1090.536324 132.536957 8.175508 0.000000 0.070535
218.000000 58.531000 9.000000 8.000000 -6.000000 128.221536 2.018216 937.072365 92.858551 17.081669 0.000000 0.066164
219.000000 55.729000 5.000000 4.000000 -3.000000 128.731986 9.639454 792.196022 65.375781 8.970187 0.000000 0.054106
220.000000 52.877000 11.000000 8.000000 -6.000000 128.507200 16.547999 655.206091 47.654999 18.908155 0.000000 0.037734
221.000000 50.066000 6.000000 4.000000 -3.000000 127.752920 22.668308 525.475682 37.784014 9.984806 0.000000 0.026831
222.000000 47.357000 13.000000 8.000000 -6.000000 126.641212 28.011683 402.442634 34.247088 21.112115 0.000000 0.040171
223.000000 49.449000 1.000000 9.000000 -6.000000 78.444941 -51.224617 2314.818501 1292.369568 20.234171 0.000000 0.332842
224.000000 53.531000 2.000000 9.000000 -6.000000 86.951942 -46.696322 2116.988860 1024.560859 18.689073 0.000000 0.201815
225.000000 56.523000 1.000000 3.000000 -2.000000 94.899871 -41.605070 1930.749117 817.603347 5.899227 0.000000 0.108352
226.000000 58.360000 4.000000 9.000000 -6.000000 102.073389 -35.935007 1755.109761 656.673141 17.138487 0.000000 0.054434
227.000000 59.098000 5.000000 9.000000 -6.000000 108.301289 -29.711381 1589.190807 531.139774 16.923118 0.000000 0.054720
228.000000 58.875000 2.000000 3.000000 -2.000000 113.472401 -23.015661 1432.207050 433.209106 5.661917 0.000000 0.076251
229.000000 57.881000 7.000000 9.000000 -6.000000 117.544433 -15.991796 1283.455637 357.057484 17.276363 0.000000 0.092093
230.000000 56.314000 8.000000 9.000000 -6.000000 120.544430 -8.835681 1142.305548 298.262091 17.756248 0.000000 0.098995
231.000000 54.357000 3.000000 3.000000 -2.000000 122.559871 -1.766215 1008.188648 253.416066 6.131665 0.000000 0.097695
232.000000 52.163000 10.000000 9.000000 -6.000000 123.721374 5.012912 880.592043 219.862370 19.168374 0.000000 0.089434
233.000000 49.852000 11.000000 9.000000 -6.000000 124.180987 11.345227 759.051527 195.505972 20.056849 0.000000 0.075434
234.000000 47.512000 4.000000 3.000000 -2.000000 124.091741 17.136112 643.145936 178.678888 7.014829 0.000000 0.056880
235.000000 47.713000 1.000000 5.000000 -3.000000 82.794064 -44.313232 2025.796970 1131.181561 10.484892 0.000000 0.180016
236.000000 50.434000 3.000000 10.000000 -6.000000 90.050297 -39.660050 1867.289731 939.772706 19.836264 0.000000 0.107976
237.000000 52.257000 2.000000 5.000000 -3.000000 96.677047 -34.568153 1716.603093 787.987521 9.571054 0.000000 0.076077
238.000000 53.203000 5.000000 10.000000 -6.000000 102.540185 -29.063997 1573.172197 667.110386 18.799996 0.000000 0.081457
239.000000 53.357000 3.000000 5.000000 -3.000000 107.548973 -23.208319 1436.485306 570.665915 9.372156 0.000000 0.098453
240.000000 52.845000 7.000000 10.000000 -6.000000 111.661718 -17.098363 1306.077699 493.755697 18.924792 0.000000 0.112344
241.000000 51.809000 4.000000 5.000000 -3.000000 114.885816 -10.862256 1181.526393 432.615976 9.651140 0.000000 0.119842
242.000000 50.388000 9.000000 10.000000 -6.000000 117.272234 -4.644901 1062.445562 384.315152 19.845828 0.000000 0.120855
243.000000 48.706000 5.000000 5.000000 -3.000000 118.905346 1.411353 948.482545 346.542254 10.265322 0.000000 0.116036
244.000000 46.865000 11.000000 10.000000 -6.000000 119.890018 7.185226 839.314354 317.456122 21.336636 0.000000 0.106165
245.000000 46.998000 4.000000 11.000000 -6.000000 91.954626 -33.491206 1687.146104 896.955671 21.286250 0.000000 0.093345
246.000000 48.057000 5.000000 11.000000 -6.000000 97.484317 -28.559905 1560.838003 780.013698 20.815269 0.000000 0.098959
247.000000 48.464000 6.000000 11.000000 -6.000000 102.314652 -23.357208 1439.800056 685.068210 20.638965 0.000000 0.113365
248.000000 48.302000 7.000000 11.000000 -6.000000 106.405555 -17.951834 1323.709162 607.899284 20.706876 0.000000 0.126177
249.000000 47.671000 8.000000 11.000000 -6.000000 109.752745 -12.431960 1212.268101 545.232839 20.979443 0.000000 0.134267
250.000000 46.678000 9.000000 11.000000 -6.000000 112.384372 -6.897748 1105.202996 494.495138 21.425210 0.000000 0.137130
253.000000 89.629000 6.000000 5.000000 -5.000000 139.986190 -6.632355 1100.147463 -349.687558 11.153148 0.000000 0.021210
254.000000 83.582000 7.000000 5.000000 -5.000000 140.663588 7.902213 825.609448 -384.861136 11.959942 0.000000 0.024829
255.000000 77.367000 8.000000 5.000000 -5.000000 139.360642 20.250899 577.914898 -395.611145 12.920900 0.000000 0.076176
261.000000 81.954000 2.000000 6.000000 -5.000000 99.812237 -50.394415 2275.758089 649.007370 12.204460 0.000000 0.267222
262.000000 85.617000 3.000000 6.000000 -5.000000 110.640253 -42.557814 1963.241759 390.608695 11.680485 0.000000 0.123918
263.000000 86.260000 4.000000 6.000000 -5.000000 119.564939 -33.200776 1679.328070 211.338379 11.591927 0.000000 0.039010
264.000000 84.490000 5.000000 6.000000 -5.000000 126.216864 -22.474842 1420.262123 87.997379 11.833641 0.000000 0.025827
265.000000 81.073000 6.000000 6.000000 -5.000000 130.494795 -10.933726 1182.918715 4.934763 12.331813 0.000000 0.041124
266.000000 76.708000 7.000000 6.000000 -5.000000 132.598241 0.549593 964.675645 -48.687865 13.033100 0.000000 0.040331
267.000000 71.934000 8.000000 6.000000 -5.000000 132.962357 11.126808 763.316436 -80.541914 13.897994 0.000000 0.030469
268.000000 67.112000 9.000000 6.000000 -5.000000 132.107580 20.295873 576.954781 -96.158260 14.896609 0.000000 0.035543
269.000000 62.462000 10.000000 6.000000 -5.000000 130.499528 27.948053 403.975277 -99.587565 16.005919 0.000000 0.067101
270.000000 58.100000 11.000000 6.000000 -5.000000 128.485693 34.220558 242.986476 -93.836498 17.207901 0.000000 0.110888
271.000000 54.078000 12.000000 6.000000 -5.000000 126.296985 39.340779 92.783373 -81.162621 18.488239 0.000000 0.161017
277.000000 70.715000 2.000000 7.000000 -5.000000 93.171518 -46.334677 2102.643215 854.624493 14.146014 0.000000 0.179494
278.000000 74.289000 3.000000 7.000000 -5.000000 102.783409 -39.460467 1860.981987 624.704242 13.463450 0.000000 0.070825
279.000000 75.605000 4.000000 7.000000 -5.000000 110.946647 -31.596788 1637.057487 457.292193 13.227489 0.000000 0.028888
280.000000 74.995000 5.000000 7.000000 -5.000000 117.401199 -22.870254 1428.986158 335.471222 13.333844 0.000000 0.058912
281.000000 72.941000 6.000000 7.000000 -5.000000 122.058951 -13.587881 1235.142023 247.505500 13.708353 0.000000 0.078596
282.000000 69.936000 7.000000 7.000000 -5.000000 125.010230 -4.204024 1054.114110 185.050204 14.296833 0.000000 0.082696
283.000000 66.396000 8.000000 7.000000 -5.000000 126.490986 4.797303 884.672055 142.047232 15.058778 0.000000 0.074264
284.000000 62.633000 9.000000 7.000000 -5.000000 126.816558 13.039405 725.738097 114.020223 15.963299 0.000000 0.056488
285.000000 58.860000 10.000000 7.000000 -5.000000 126.309272 20.323528 576.364133 97.611066 16.986431 0.000000 0.033750
286.000000 55.211000 11.000000 7.000000 -5.000000 125.248093 26.613584 435.712784 90.267341 18.109292 0.000000 0.024760
287.000000 51.761000 12.000000 7.000000 -5.000000 123.848725 31.977597 303.041698 90.026816 19.316810 0.000000 0.052043
288.000000 48.545000 13.000000 7.000000 -5.000000 122.265523 36.530730 177.690435 95.365946 20.596800 0.000000 0.091179
289.000000 45.575000 14.000000 7.000000 -5.000000 120.603054 40.397910 59.069475 105.091508 21.939313 0.000000 0.134557
291.000000 56.387000 1.000000 8.000000 -5.000000 78.010185 -48.713221 2200.690355 1287.413542 17.744853 0.000000 0.276031
292.000000 61.410000 2.000000 8.000000 -5.000000 87.472449 -43.335423 1990.505480 1006.320195 16.291334 0.000000 0.150197
293.000000 64.770000 3.000000 8.000000 -5.000000 96.106734 -37.255746 1793.603545 796.327736 15.444036 0.000000 0.077440
294.000000 66.437000 4.000000 8.000000 -5.000000 103.624554 -30.491233 1608.763966 638.262131 15.054755 0.000000 0.069005
295.000000 66.585000 5.000000 8.000000 -5.000000 109.829915 -23.137501 1434.911263 518.925539 15.019957 0.000000 0.090543
296.000000 65.511000 6.000000 8.000000 -5.000000 114.640343 -15.381853 1271.094118 428.976035 15.265126 0.000000 0.107133
297.000000 63.550000 7.000000 8.000000 -5.000000 118.088696 -7.488024 1116.467960 361.644568 15.735262 0.000000 0.113223
298.000000 61.013000 8.000000 8.000000 -5.000000 120.305165 0.251243 970.280404 311.928197 16.388889 0.000000 0.109535
299.000000 58.155000 9.000000 8.000000 -5.000000 121.483602 7.575556 831.859004 276.066034 17.194134 0.000000 0.097632
300.000000 55.164000 10.000000 8.000000 -5.000000 121.842226 14.302755 700.600911 251.189143 18.126103 0.000000 0.079031
301.000000 52.173000 11.000000 8.000000 -5.000000 121.590431 20.342252 575.964099 235.080921 19.165068 0.000000 0.055104
302.000000 49.268000 12.000000 8.000000 -5.000000 120.908496 25.680748 457.459881 226.009542 20.295195 0.000000 0.027444
303.000000 46.500000 13.000000 8.000000 -5.000000 119.940120 30.356235 344.646504 222.608584 21.503628 0.000000 0.011946
304.000000 49.425000 1.000000 9.000000 -5.000000 74.108917 -45.948258 2087.522989 1381.681732 20.246001 0.000000 0.244190
305.000000 53.746000 2.000000 9.000000 -5.000000 82.595508 -41.040712 1911.951843 1126.446854 18.616178 0.000000 0.144924
306.000000 56.840000 3.000000 9.000000 -5.000000 90.425356 -35.610857 1745.859532 931.171580 17.600744 0.000000 0.095200
307.000000 58.654000 4.000000 9.000000 -5.000000 97.381706 -29.683577 1588.498610 780.501560 17.054514 0.000000 0.093609
308.000000 59.273000 5.000000 9.000000 -5.000000 103.311131 -23.330199 1439.198204 663.679698 16.874710 0.000000 0.110881
309.000000 58.879000 6.000000 9.000000 -5.000000 108.137067 -16.673169 1297.354452 572.968811 16.986528 0.000000 0.125890
310.000000 57.694000 7.000000 9.000000 -5.000000 111.861268 -9.878245 1162.422342 502.679083 17.334228 0.000000 0.133480
311.000000 55.945000 8.000000 9.000000 -5.000000 114.553843 -3.132839 1033.908713 448.546458 17.875423 0.000000 0.133387
312.000000 53.829000 9.000000 9.000000 -5.000000 116.334603 3.383561 911.366230 407.322909 18.577311 0.000000 0.126447
313.000000 51.508000 10.000000 9.000000 -5.000000 117.350416 9.525990 794.388184 376.499098 19.414104 0.000000 0.113672
314.000000 49.102000 11.000000 9.000000 -5.000000 117.753924 15.198678 682.603984 354.112234 20.365255 0.000000 0.096009
315.000000 46.697000 12.000000 9.000000 -5.000000 117.687642 20.355771 575.675228 338.610212 21.414186 0.000000 0.074290
316.000000 47.423000 2.000000 10.000000 -5.000000 78.410690 -39.233742 1853.860143 1225.960175 21.100007 0.000000 0.146920
317.000000 50.239000 3.000000 10.000000 -5.000000 85.566798 -34.338522 1710.259031 1042.055843 19.915085 0.000000 0.108620
318.000000 52.078000 4.000000 10.000000 -5.000000 92.028966 -29.067935 1573.269022 897.375417 19.210039 0.000000 0.108038
319.000000 52.975000 2.000000 4.000000 -2.000000 97.674330 -23.475720 1442.443845 782.882770 7.553163 0.000000 0.122722
320.000000 53.039000 6.000000 10.000000 -5.000000 102.433225 -17.646220 1317.376513 691.990167 18.858707 0.000000 0.136981
321.000000 52.418000 7.000000 10.000000 -5.000000 106.290882 -11.690059 1197.695091 619.792956 19.081058 0.000000 0.145882
322.000000 51.271000 8.000000 10.000000 -5.000000 109.282024 -5.733234 1083.059004 562.573183 19.506756 0.000000 0.148606
323.000000 49.751000 9.000000 10.000000 -5.000000 111.480072 0.098175 973.155798 517.468148 20.102133 0.000000 0.145537
324.000000 47.987000 4.000000 4.000000 -2.000000 112.983478 5.693319 867.698297 482.243436 8.336226 0.000000 0.137368
325.000000 46.084000 11.000000 10.000000 -5.000000 113.901946 10.967551 766.422100 455.134002 21.700722 0.000000 0.124818
326.000000 46.521000 4.000000 11.000000 -5.000000 87.409224 -28.583211 1561.405623 996.459874 21.506696 0.000000 0.115951
327.000000 47.569000 5.000000 11.000000 -5.000000 92.774393 -23.589498 1444.986498 884.086704 21.031126 0.000000 0.128674
328.000000 47.934000 6.000000 11.000000 -5.000000 97.417863 -18.405356 1333.147202 793.318109 20.869321 0.000000 0.142488
329.000000 47.713000 7.000000 11.000000 -5.000000 101.316643 -13.108139 1225.622698 719.847641 20.964382 0.000000 0.152495
330.000000 47.020000 8.000000 11.000000 -5.000000 104.484318 -7.786102 1122.168013 660.378521 21.272386 0.000000 0.157483
331.000000 45.967000 9.000000 11.000000 -5.000000 106.964674 -2.529985 1022.556373 612.348948 21.758882 0.000000 0.157505
335.000000 83.918000 7.000000 5.000000 -4.000000 131.027629 16.167901 662.961362 -34.084700 11.913535 0.000000 0.030555
336.000000 76.975000 8.000000 5.000000 -4.000000 129.496633 25.871244 453.046948 -44.935886 12.988395 0.000000 0.045917
337.000000 70.500000 9.000000 5.000000 -4.000000 127.249140 33.583224 260.365950 -41.384042 14.181484 0.000000 0.094018
338.000000 64.627000 10.000000 5.000000 -4.000000 124.715807 39.654700 82.879820 -27.563031 15.470665 0.000000 0.153287
345.000000 77.426000 1.000000 6.000000 -4.000000 82.753699 -49.028703 2214.388362 1149.716357 12.922077 0.000000 0.262265
346.000000 88.289000 3.000000 6.000000 -4.000000 105.314038 -32.888754 1670.986375 590.023512 11.328249 0.000000 0.048445
347.000000 85.736000 5.000000 6.000000 -4.000000 119.174216 -12.416689 1211.967314 325.723420 11.663142 0.000000 0.096641
348.000000 76.524000 7.000000 6.000000 -4.000000 124.029168 8.242320 819.092045 206.647465 13.066197 0.000000 0.083078
349.000000 66.118000 9.000000 6.000000 -4.000000 123.227482 24.741084 479.024616 164.697050 15.122525 0.000000 0.024748
350.000000 61.263000 5.000000 3.000000 -2.000000 121.813094 31.106362 325.574778 161.201214 8.160597 0.000000 0.029825
351.000000 56.789000 11.000000 6.000000 -4.000000 120.111443 36.389619 181.788375 165.605974 17.607472 0.000000 0.074522
352.000000 52.719000 6.000000 3.000000 -2.000000 118.292170 40.775198 46.780446 175.976885 9.483557 0.000000 0.125305
353.000000 49.044000 13.000000 6.000000 -4.000000 116.458684 44.433783 -80.229112 190.850400 20.388800 0.000000 0.179100
354.000000 45.737000 7.000000 3.000000 -2.000000 114.670809 47.508783 -199.930631 209.108734 10.931715 0.000000 0.234788
357.000000 65.345000 1.000000 7.000000 -4.000000 77.261094 -45.378919 2065.625172 1287.407018 15.312702 0.000000 0.219405
358.000000 71.598000 2.000000 7.000000 -4.000000 87.856350 -38.841354 1841.642569 992.723919 13.973217 0.000000 0.111166
359.000000 75.196000 3.000000 7.000000 -4.000000 97.176879 -31.440758 1633.024184 782.151500 13.302814 0.000000 0.085748
360.000000 76.252000 4.000000 7.000000 -4.000000 104.851908 -23.287246 1438.241563 630.273894 13.116860 0.000000 0.106709
361.000000 75.235000 5.000000 7.000000 -4.000000 110.707887 -14.630347 1255.962483 520.498416 13.292933 0.000000 0.124613
362.000000 72.747000 6.000000 7.000000 -4.000000 114.778168 -5.836589 1085.020437 441.590851 13.746654 0.000000 0.129755
363.000000 69.357000 7.000000 7.000000 -4.000000 117.264448 2.692224 924.389648 385.715679 14.417976 0.000000 0.122898
364.000000 65.516000 8.000000 7.000000 -4.000000 118.466112 10.621217 773.164464 347.271624 15.263003 0.000000 0.106163
365.000000 61.540000 9.000000 7.000000 -4.000000 118.705199 17.746775 630.542278 322.170904 16.248901 0.000000 0.081562
366.000000 57.632000 10.000000 7.000000 -4.000000 118.271910 23.999717 495.809273 307.377441 17.350623 0.000000 0.050780
367.000000 53.910000 11.000000 7.000000 -4.000000 117.399109 29.408519 368.328480 300.602128 18.548725 0.000000 0.015180
368.000000 50.433000 12.000000 7.000000 -4.000000 116.259419 34.054870 247.529701 300.096546 19.827886 0.000000 0.024151
369.000000 47.223000 13.000000 7.000000 -4.000000 114.973932 38.039837 132.900989 304.510192 21.175867 0.000000 0.066328
371.000000 55.875000 1.000000 8.000000 -4.000000 72.687276 -42.642931 1966.192711 1397.083816 17.909706 0.000000 0.204332
372.000000 61.190000 1.000000 4.000000 -2.000000 82.065935 -36.835231 1781.203645 1128.415567 8.175927 0.000000 0.122208
373.000000 64.637000 3.000000 8.000000 -4.000000 90.486064 -30.418362 1606.921845 930.411665 15.477944 0.000000 0.105817
374.000000 66.177000 5.000000 8.000000 -4.000000 103.481553 -16.164287 1286.965042 672.350677 15.114448 0.000000 0.139777
375.000000 64.875000 3.000000 4.000000 -2.000000 107.890933 -8.703660 1139.766533 589.506791 7.708313 0.000000 0.148005
376.000000 62.698000 7.000000 8.000000 -4.000000 110.999822 -1.341473 1000.204004 527.739899 15.951151 0.000000 0.146812
377.000000 56.995000 9.000000 8.000000 -4.000000 114.053123 12.228963 741.727381 449.452983 17.546144 0.000000 0.121077
378.000000 53.922000 5.000000 4.000000 -2.000000 114.420008 18.166988 621.819473 426.680106 9.272897 0.000000 0.099242
379.000000 50.890000 11.000000 8.000000 -4.000000 114.272088 23.476124 507.547138 411.867214 19.650747 0.000000 0.073036
380.000000 47.975000 3.000000 2.000000 -1.000000 113.763627 28.174105 398.522199 403.419403 5.211158 0.000000 0.043758
381.000000 48.386000 1.000000 9.000000 -4.000000 68.860375 -40.524649 1895.043226 1488.491503 20.682976 0.000000 0.199230
382.000000 52.923000 2.000000 9.000000 -4.000000 77.262515 -35.316167 1737.514859 1239.163017 18.907679 0.000000 0.130508
383.000000 56.116000 3.000000 9.000000 -4.000000 84.928096 -29.658413 1587.872479 1050.926054 17.829833 0.000000 0.115642
384.000000 57.926000 4.000000 9.000000 -4.000000 91.649898 -23.614168 1445.538379 907.165081 17.270907 0.000000 0.129480
385.000000 58.471000 5.000000 9.000000 -4.000000 97.301192 -17.288430 1309.989935 796.575796 17.108511 0.000000 0.146167
386.000000 57.967000 6.000000 9.000000 -4.000000 101.843007 -10.822552 1180.753193 711.220141 17.255938 0.000000 0.156795
387.000000 56.669000 7.000000 9.000000 -4.000000 105.315914 -4.377826 1057.397336 645.375338 17.650044 0.000000 0.159876
388.000000 54.822000 8.000000 9.000000 -4.000000 107.820686 1.887544 939.529882 594.823189 18.243753 0.000000 0.155930
389.000000 52.635000 9.000000 9.000000 -4.000000 109.494025 7.840415 826.792512 556.395172 19.001250 0.000000 0.145930
390.000000 50.270000 10.000000 9.000000 -4.000000 110.485420 13.386554 718.857436 527.672169 19.894804 0.000000 0.130877
391.000000 47.845000 11.000000 9.000000 -4.000000 110.939311 18.473797 615.424206 506.780931 20.902613 0.000000 0.111708
392.000000 46.291000 1.000000 5.000000 -2.000000 73.235317 -34.127529 1704.460440 1332.679418 10.809233 0.000000 0.136030
393.000000 49.200000 3.000000 10.000000 -4.000000 80.260684 -29.071542 1573.357706 1152.363468 20.338303 0.000000 0.119789
394.000000 51.068000 2.000000 5.000000 -2.000000 86.547959 -23.720172 1447.912170 1011.915637 9.796128 0.000000 0.130619
395.000000 51.949000 5.000000 10.000000 -4.000000 91.990267 -18.147035 1327.765396 901.640300 19.258419 0.000000 0.146824
396.000000 51.969000 3.000000 5.000000 -2.000000 96.540522 -12.448230 1212.588602 814.629799 9.624678 0.000000 0.159229
397.000000 51.296000 7.000000 10.000000 -4.000000 100.208160 -6.733821 1102.079655 745.839557 19.500733 0.000000 0.165592
398.000000 50.103000 4.000000 5.000000 -2.000000 103.048669 -1.115673 995.960425 691.507439 9.982075 0.000000 0.165910
399.000000 48.548000 9.000000 10.000000 -4.000000 105.149224 4.305218 893.974450 648.776727 20.602504 0.000000 0.160812
400.000000 46.766000 5.000000 5.000000 -2.000000 106.613786 9.448480 795.884861 615.444110 10.693434 0.000000 0.151066
401.000000 46.430000 5.000000 11.000000 -4.000000 87.399029 -18.823968 1341.902943 992.655337 21.549557 0.000000 0.143872
402.000000 46.787000 6.000000 11.000000 -4.000000 91.884061 -13.733037 1238.029822 904.553453 21.383424 0.000000 0.157451
403.000000 46.550000 7.000000 11.000000 -4.000000 95.635706 -8.609221 1137.951392 833.580842 21.490812 0.000000 0.166314
404.000000 45.841000 8.000000 11.000000 -4.000000 98.681738 -3.533648 1041.463443 776.341849 21.822195 0.000000 0.169985
406.000000 89.570000 7.000000 4.000000 -3.000000 125.305451 32.640775 285.601369 35.833331 11.162601 0.000000 0.069270
407.000000 80.215000 8.000000 4.000000 -3.000000 122.324467 40.098815 68.714116 50.664602 12.464792 0.000000 0.142100
408.000000 72.122000 9.000000 4.000000 -3.000000 119.287133 45.710892 -128.339253 76.488513 13.863985 0.000000 0.223660
414.000000 89.892000 6.000000 5.000000 -3.000000 120.338578 12.588597 734.644622 295.575981 11.123677 0.000000 0.091988
415.000000 82.194000 7.000000 5.000000 -3.000000 120.052752 22.110504 537.732349 268.849039 12.165404 0.000000 0.053310
416.000000 74.911000 8.000000 5.000000 -3.000000 118.773390 29.911627 355.812686 259.124115 13.348341 0.000000 0.006694
417.000000 68.292000 9.000000 5.000000 -3.000000 116.998342 36.201231 187.236153 261.451446 14.642331 0.000000 0.053047
418.000000 62.400000 10.000000 5.000000 -3.000000 115.030385 41.265902 30.586680 272.371262 16.025233 0.000000 0.114410
419.000000 57.207000 11.000000 5.000000 -3.000000 113.039472 45.371908 -115.358273 289.421630 17.480428 0.000000 0.179156
420.000000 52.646000 12.000000 5.000000 -3.000000 111.114569 48.735677 -251.659683 310.824724 18.995191 0.000000 0.245939
423.000000 77.123000 1.000000 6.000000 -3.000000 75.898944 -40.777034 1903.279701 1298.035407 12.974813 0.000000 0.169505
424.000000 84.934000 2.000000 6.000000 -3.000000 87.805050 -32.621346 1663.884025 989.978308 11.779476 0.000000 0.105194
425.000000 87.819000 4.000000 6.000000 -3.000000 105.103909 -13.681901 1237.012095 642.031170 11.389463 0.000000 0.143599
426.000000 84.665000 5.000000 6.000000 -3.000000 110.098344 -3.769577 1045.913403 546.313597 11.812681 0.000000 0.148195
427.000000 74.630000 7.000000 6.000000 -3.000000 114.243591 14.277486 701.106379 440.861673 13.399865 0.000000 0.114355
428.000000 69.187000 8.000000 6.000000 -3.000000 114.368339 21.775973 545.036460 416.026909 14.453861 0.000000 0.082186
429.000000 59.123000 10.000000 6.000000 -3.000000 112.726963 33.570434 260.712071 399.935106 16.914350 0.000000 0.014426
430.000000 54.713000 11.000000 6.000000 -3.000000 111.459709 38.107406 130.852807 403.303234 18.278043 0.000000 0.053735
431.000000 50.738000 4.000000 2.000000 -1.000000 110.091009 41.930090 8.275620 411.837299 6.570111 0.000000 0.104125
432.000000 47.173000 13.000000 6.000000 -3.000000 108.700352 45.167755 -107.615317 424.268639 21.200081 0.000000 0.157010
433.000000 54.562000 0.000000 7.000000 -3.000000 59.167727 -44.521457 2033.464039 1842.028049 18.344026 0.000000 0.317219
434.000000 63.739000 1.000000 7.000000 -3.000000 70.491674 -38.291808 1824.756155 1426.831094 15.700793 0.000000 0.170593
435.000000 70.345000 2.000000 7.000000 -3.000000 80.891587 -31.303452 1629.485993 1142.955687 14.224299 0.000000 0.117848
436.000000 73.994000 3.000000 7.000000 -3.000000 89.856598 -23.652496 1446.396244 943.940845 13.521076 0.000000 0.130345
437.000000 74.896000 4.000000 7.000000 -3.000000 97.075139 -15.544425 1274.381705 802.343023 13.356702 0.000000 0.151411
438.000000 73.642000 5.000000 7.000000 -3.000000 102.473614 -7.278551 1112.466960 700.977153 13.582813 0.000000 0.161815
439.000000 70.931000 6.000000 7.000000 -3.000000 106.185060 0.809753 959.787866 628.580709 14.100933 0.000000 0.160055
440.000000 67.381000 7.000000 7.000000 -3.000000 108.473896 8.425556 815.576131 577.498905 14.843130 0.000000 0.147939
441.000000 63.455000 8.000000 7.000000 -3.000000 109.652874 15.369951 679.146377 542.372202 15.761028 0.000000 0.127613
442.000000 59.462000 9.000000 7.000000 -3.000000 110.019929 21.553030 549.885256 519.354607 16.819242 0.000000 0.101080
443.000000 55.588000 10.000000 7.000000 -3.000000 109.824616 26.972880 427.242222 505.628661 17.991289 0.000000 0.070455
444.000000 51.934000 11.000000 7.000000 -3.000000 109.259053 31.682479 310.721700 499.093924 19.256958 0.000000 0.040030
445.000000 48.547000 12.000000 7.000000 -3.000000 108.462925 35.760609 199.876387 498.160895 20.600554 0.000000 0.031464
446.000000 46.448000 0.000000 8.000000 -3.000000 56.276515 -42.013830 1944.570234 1907.961996 21.549999 0.000000 0.300439
447.000000 53.745000 1.000000 8.000000 -3.000000 66.180933 -36.455988 1770.137143 1531.727639 18.621802 0.000000 0.173748
448.000000 59.321000 2.000000 8.000000 -3.000000 75.398203 -30.353020 1605.272380 1265.928165 16.869373 0.000000 0.122763
449.000000 62.874000 3.000000 8.000000 -3.000000 83.568274 -23.778041 1449.209672 1073.583725 15.914243 0.000000 0.129480
450.000000 64.445000 4.000000 8.000000 -3.000000 90.449163 -16.863892 1301.262440 932.183193 15.524636 0.000000 0.150058
451.000000 64.331000 5.000000 8.000000 -3.000000 95.944274 -9.795110 1160.813703 827.277376 15.550679 0.000000 0.164430
452.000000 62.948000 6.000000 8.000000 -3.000000 100.092876 -2.782363 1027.307474 749.194750 15.891158 0.000000 0.169157
453.000000 60.713000 7.000000 8.000000 -3.000000 103.034324 3.973340 900.241407 691.238327 16.475253 0.000000 0.164947
454.000000 57.977000 8.000000 8.000000 -3.000000 104.962526 10.312558 779.160479 648.639326 17.251927 0.000000 0.153282
455.000000 55.005000 9.000000 8.000000 -3.000000 106.085126 16.134003 663.651549 617.921654 18.183469 0.000000 0.135670
456.000000 51.980000 10.000000 8.000000 -3.000000 106.595318 21.393827 553.338641 596.500821 19.241409 0.000000 0.113539
457.000000 49.018000 11.000000 8.000000 -3.000000 106.657331 26.093560 447.878863 582.422437 20.403855 0.000000 0.088420
458.000000 46.188000 12.000000 8.000000 -3.000000 106.402392 30.264493 346.958845 574.186857 21.653694 0.000000 0.062720
459.000000 46.112000 1.000000 9.000000 -3.000000 62.684091 -35.047110 1729.948973 1620.014164 21.705798 0.000000 0.177822
460.000000 50.839000 2.000000 9.000000 -3.000000 70.950638 -29.635531 1587.303388 1368.565892 19.685561 0.000000 0.124960
461.000000 54.141000 1.000000 3.000000 -1.000000 78.429432 -23.871805 1451.314455 1181.969554 6.160963 0.000000 0.124849
462.000000 55.994000 4.000000 9.000000 -3.000000 84.931094 -17.846633 1321.526844 1041.294100 17.869499 0.000000 0.143746
463.000000 56.542000 5.000000 9.000000 -3.000000 90.358458 -11.681418 1197.525824 934.123900 17.694859 0.000000 0.160561
464.000000 56.028000 2.000000 3.000000 -1.000000 94.705544 -5.515691 1078.932841 851.995550 5.951895 0.000000 0.169966
465.000000 54.728000 7.000000 9.000000 -3.000000 98.040512 0.510948 965.401655 788.954528 18.278752 0.000000 0.171672
466.000000 52.896000 8.000000 9.000000 -3.000000 100.480440 6.276913 856.614966 740.699888 18.910703 0.000000 0.166603
467.000000 50.745000 3.000000 3.000000 -1.000000 102.165707 11.691257 752.281451 704.055439 6.570578 0.000000 0.155899
468.000000 48.434000 10.000000 9.000000 -3.000000 103.239279 16.698197 652.133157 676.630841 20.651551 0.000000 0.140666
469.000000 46.079000 11.000000 9.000000 -3.000000 103.833030 21.274450 555.923210 656.597643 21.706691 0.000000 0.121965
470.000000 47.195000 3.000000 10.000000 -3.000000 74.167321 -23.944499 1452.948385 1274.965077 21.205060 0.000000 0.119241
471.000000 49.122000 4.000000 10.000000 -3.000000 80.288677 -18.606549 1337.350012 1135.351665 20.371135 0.000000 0.135085
472.000000 50.037000 5.000000 10.000000 -3.000000 85.562931 -13.144963 1226.352057 1026.764029 19.996916 0.000000 0.152991
473.000000 50.081000 6.000000 10.000000 -3.000000 89.963260 -7.656320 1119.685258 941.696367 19.977672 0.000000 0.165683
474.000000 49.433000 7.000000 10.000000 -3.000000 93.517355 -2.240073 1017.100962 874.793191 20.238238 0.000000 0.171857
475.000000 48.274000 8.000000 10.000000 -3.000000 96.293378 3.011924 918.369192 822.137724 20.723274 0.000000 0.171915
476.000000 46.764000 9.000000 10.000000 -3.000000 98.384039 8.024000 823.276929 780.804670 21.391129 0.000000 0.166679
480.000000 85.294000 7.000000 4.000000 -2.000000 112.112683 35.937032 194.832215 400.879452 11.724544 0.000000 0.030595
481.000000 68.300000 9.000000 4.000000 -2.000000 108.012396 46.601830 -163.222102 431.634783 14.642441 0.000000 0.184025
482.000000 61.688000 5.000000 2.000000 -1.000000 106.020622 50.300235 -321.413547 457.188475 8.106089 0.000000 0.266403
487.000000 75.347000 0.000000 5.000000 -2.000000 57.650455 -43.186784 1985.240523 1875.965823 13.284085 0.000000 0.307331
488.000000 85.825000 6.000000 5.000000 -2.000000 108.061190 18.707639 610.534541 570.442047 11.653325 0.000000 0.120585
489.000000 78.169000 7.000000 5.000000 -2.000000 108.158873 26.501617 438.341530 546.539067 12.794406 0.000000 0.080282
490.000000 71.074000 8.000000 5.000000 -2.000000 107.476631 32.928555 277.952871 537.268422 14.071649 0.000000 0.040882
491.000000 64.717000 9.000000 5.000000 -2.000000 106.386398 38.194903 128.194953 538.292003 15.453807 0.000000 0.050226
492.000000 59.115000 10.000000 5.000000 -2.000000 105.113087 42.520632 -11.955246 546.621664 16.918511 0.000000 0.102663
493.000000 54.211000 11.000000 5.000000 -2.000000 103.785987 46.098933 -143.393564 560.154417 18.449332 0.000000 0.163237
494.000000 49.924000 12.000000 5.000000 -2.000000 102.476213 49.086298 -266.907825 577.384036 20.033927 0.000000 0.226484
495.000000 46.170000 13.000000 5.000000 -2.000000 101.220724 51.605098 -383.193640 597.216166 21.662848 0.000000 0.290852
496.000000 60.283000 0.000000 3.000000 -1.000000 53.892154 -40.051010 1879.752238 1966.606699 8.302429 0.000000 0.292504
497.000000 72.966000 1.000000 6.000000 -2.000000 66.900784 -32.389631 1657.763920 1484.637457 13.716593 0.000000 0.143505
498.000000 84.626000 3.000000 6.000000 -2.000000 87.781436 -14.773039 1258.827470 984.121756 11.823101 0.000000 0.152947
499.000000 80.796000 5.000000 6.000000 -2.000000 99.363854 3.433010 910.434033 763.199113 12.380911 0.000000 0.169914
500.000000 70.885000 7.000000 6.000000 -2.000000 103.588555 19.040520 603.550554 665.787166 14.110640 0.000000 0.131683
501.000000 65.634000 4.000000 3.000000 -1.000000 104.060712 25.422330 463.423773 642.537294 7.619565 0.000000 0.100933
502.000000 60.650000 9.000000 6.000000 -2.000000 103.915228 30.887287 331.175473 630.272813 16.491281 0.000000 0.068798
503.000000 56.060000 5.000000 3.000000 -1.000000 103.389546 35.539757 206.159381 626.144334 8.920750 0.000000 0.049481
504.000000 51.902000 11.000000 6.000000 -2.000000 102.643979 39.499158 87.798030 628.095364 19.270803 0.000000 0.066411
505.000000 48.168000 6.000000 3.000000 -1.000000 101.782978 42.879191 -24.426161 634.614980 10.382403 0.000000 0.106582
506.000000 49.770000 0.000000 7.000000 -2.000000 51.027064 -37.800813 1809.883870 2042.978785 20.113247 0.000000 0.289003
507.000000 59.441000 1.000000 7.000000 -2.000000 62.174488 -31.181692 1626.357021 1605.007539 16.839109 0.000000 0.150935
508.000000 66.372000 2.000000 7.000000 -2.000000 72.301074 -23.975047 1453.635540 1316.898685 15.078557 0.000000 0.116625
509.000000 70.182000 3.000000 7.000000 -2.000000 80.926136 -16.352066 1290.792447 1120.137002 14.258271 0.000000 0.139646
510.000000 71.153000 4.000000 7.000000 -2.000000 87.810053 -8.559903 1137.003846 982.621565 14.062022 0.000000 0.162295
511.000000 69.957000 5.000000 7.000000 -2.000000 92.960556 -0.880159 991.534984 885.330202 14.301092 0.000000 0.172048
512.000000 67.339000 6.000000 7.000000 -2.000000 96.566895 6.428689 853.728515 816.314641 14.855888 0.000000 0.169528
513.000000 63.931000 7.000000 7.000000 -2.000000 98.908995 13.177942 722.994562 767.720684 15.646950 0.000000 0.157245
514.000000 60.188000 8.000000 7.000000 -2.000000 100.280845 19.266080 598.802283 734.193986 16.619418 0.000000 0.137724
515.000000 56.403000 9.000000 7.000000 -2.000000 100.944258 24.668676 480.672665 711.974367 17.734196 0.000000 0.113443
516.000000 52.748000 10.000000 7.000000 -2.000000 101.110455 29.414827 368.172344 698.355379 18.962670 0.000000 0.087495
517.000000 49.313000 11.000000 7.000000 -2.000000 100.939379 33.563181 260.908302 691.348374 20.283414 0.000000 0.065761
518.000000 46.136000 12.000000 7.000000 -2.000000 100.547204 37.183950 158.523273 689.466342 21.680070 0.000000 0.060432
519.000000 49.717000 1.000000 8.000000 -2.000000 58.529080 -30.294097 1603.786850 1703.991133 20.133635 0.000000 0.160083
520.000000 55.524000 1.000000 4.000000 -1.000000 67.536181 -24.049875 1455.320148 1428.323685 9.013016 0.000000 0.111094
521.000000 59.238000 3.000000 8.000000 -2.000000 75.463352 -17.492978 1314.209272 1233.615572 16.894091 0.000000 0.124696
522.000000 60.925000 2.000000 4.000000 -1.000000 82.106299 -10.779794 1179.920767 1092.908245 8.212285 0.000000 0.149238
523.000000 60.916000 5.000000 8.000000 -2.000000 87.413149 -4.090563 1051.971544 989.750910 16.425355 0.000000 0.165378
524.000000 59.652000 3.000000 4.000000 -1.000000 91.459146 2.398237 929.923071 913.560155 8.386037 0.000000 0.171067
525.000000 57.560000 7.000000 8.000000 -2.000000 94.400983 8.540111 813.376353 857.236326 17.380654 0.000000 0.167695
526.000000 54.989000 4.000000 4.000000 -1.000000 96.430458 14.234421 701.967574 815.852575 9.096112 0.000000 0.157112
527.000000 52.198000 9.000000 8.000000 -2.000000 97.739397 19.429010 595.364305 785.892965 19.164332 0.000000 0.141103
528.000000 49.360000 5.000000 4.000000 -1.000000 98.499067 24.112779 493.262188 764.789042 10.132794 0.000000 0.121419
529.000000 46.585000 11.000000 8.000000 -2.000000 98.851665 28.303846 395.382036 750.626972 21.472288 0.000000 0.100117
530.000000 47.364000 2.000000 9.000000 -2.000000 63.737456 -24.106601 1456.598509 1522.803304 21.133096 0.000000 0.110217
531.000000 50.801000 3.000000 9.000000 -2.000000 71.031754 -18.355271 1332.102481 1330.760958 19.701446 0.000000 0.111142
532.000000 52.769000 4.000000 9.000000 -2.000000 77.354169 -12.465600 1212.930819 1188.314622 18.964820 0.000000 0.134240
533.000000 53.426000 5.000000 9.000000 -2.000000 82.633640 -6.558897 1098.749110 1081.060377 18.729588 0.000000 0.154152
534.000000 53.031000 6.000000 9.000000 -2.000000 86.887294 -0.758564 989.250373 999.534537 18.867933 0.000000 0.165680
535.000000 51.861000 7.000000 9.000000 -2.000000 90.197603 4.824778 884.152300 937.274841 19.292082 0.000000 0.169026
536.000000 50.174000 8.000000 9.000000 -2.000000 92.685176 10.104538 783.194828 889.727060 19.939759 0.000000 0.165455
537.000000 48.176000 9.000000 9.000000 -2.000000 94.484665 15.023333 686.137991 853.596217 20.765558 0.000000 0.156343
538.000000 46.025000 10.000000 9.000000 -2.000000 95.727459 19.552214 592.760013 826.444983 21.735590 0.000000 0.142996
539.000000 46.204000 2.000000 5.000000 -1.000000 73.357269 -13.787254 1239.109373 1272.276451 10.830296 0.000000 0.119353
540.000000 47.219000 5.000000 10.000000 -2.000000 78.511657 -8.509102 1136.028060 1162.181203 21.193333 0.000000 0.140827
541.000000 47.369000 3.000000 5.000000 -1.000000 82.828620 -3.283786 1036.753143 1076.644132 10.562359 0.000000 0.156357
542.000000 46.835000 7.000000 10.000000 -2.000000 86.346729 1.805237 941.077609 1009.753538 21.364094 0.000000 0.164759
543.000000 45.798000 4.000000 5.000000 -1.000000 89.139008 6.687150 848.809191 957.285649 10.923179 0.000000 0.166697
545.000000 83.682000 7.000000 3.000000 -1.000000 99.954757 48.282845 -232.278257 657.128284 11.952469 0.000000 0.204642
551.000000 87.874000 6.000000 4.000000 -1.000000 98.909648 32.037864 301.467283 741.956330 11.383097 0.000000 0.080374
552.000000 78.264000 7.000000 4.000000 -1.000000 98.464155 38.312666 124.607611 736.874456 12.780762 0.000000 0.070504
553.000000 70.025000 8.000000 4.000000 -1.000000 97.617953 43.292881 -38.995981 743.225716 14.284365 0.000000 0.116049
554.000000 63.042000 9.000000 4.000000 -1.000000 96.613740 47.285578 -190.780020 757.032949 15.866677 0.000000 0.183445
555.000000 57.129000 10.000000 4.000000 -1.000000 95.575922 50.528658 -331.980709 775.707833 17.509065 0.000000 0.257282
559.000000 82.132000 1.000000 5.000000 -1.000000 60.644412 -24.151083 1457.601763 1604.432388 12.187482 0.000000 0.113945
560.000000 85.656000 5.000000 5.000000 -1.000000 92.918262 15.634686 673.790751 884.025258 11.679773 0.000000 0.155315
561.000000 78.760000 6.000000 5.000000 -1.000000 94.915319 23.347839 510.408754 840.183897 12.701613 0.000000 0.130307
562.000000 71.916000 7.000000 5.000000 -1.000000 95.758811 29.842490 357.540031 815.861946 13.909882 0.000000 0.100142
563.000000 65.577000 8.000000 5.000000 -1.000000 95.897165 35.255288 214.201454 804.859950 15.254176 0.000000 0.078595
564.000000 59.896000 9.000000 5.000000 -1.000000 95.623840 39.760280 79.528769 803.130864 16.700761 0.000000 0.086513
565.000000 54.883000 10.000000 5.000000 -1.000000 95.122140 43.524519 -47.240840 807.944385 18.226204 0.000000 0.123634
566.000000 50.486000 11.000000 5.000000 -1.000000 94.503624 46.691172 -166.783217 817.409204 19.813721 0.000000 0.174236
567.000000 46.632000 12.000000 5.000000 -1.000000 93.835045 49.376659 -279.699275 830.186807 21.450978 0.000000 0.230370
569.000000 64.196000 1.000000 6.000000 -1.000000 55.922939 -24.216360 1459.075265 1739.328208 15.593612 0.000000 0.130587
570.000000 72.935000 2.000000 6.000000 -1.000000 67.049833 -15.723065 1278.000230 1414.471467 13.723505 0.000000 0.095042
571.000000 76.811000 3.000000 6.000000 -1.000000 76.048562 -7.048416 1108.075609 1210.417614 13.029130 0.000000 0.132578
572.000000 76.729000 4.000000 6.000000 -1.000000 82.783319 1.420946 948.302219 1077.327879 13.041464 0.000000 0.156974
573.000000 74.051000 5.000000 6.000000 -1.000000 87.483909 9.349414 797.796798 988.931595 13.511674 0.000000 0.162223
574.000000 69.986000 6.000000 6.000000 -1.000000 90.554951 16.520134 655.775664 930.126116 14.295477 0.000000 0.153103
575.000000 65.373000 7.000000 6.000000 -1.000000 92.419450 22.846422 521.541071 891.652521 15.303446 0.000000 0.134595
576.000000 60.714000 8.000000 6.000000 -1.000000 93.437393 28.341480 394.469739 867.546863 16.477207 0.000000 0.111731
577.000000 56.273000 9.000000 6.000000 -1.000000 93.883148 33.076436 274.003183 853.814670 17.777035 0.000000 0.091318
578.000000 52.170000 10.000000 6.000000 -1.000000 93.952917 37.146215 159.639502 847.695060 19.174956 0.000000 0.084003
579.000000 48.441000 11.000000 6.000000 -1.000000 93.781870 40.648388 50.926393 847.229984 20.650703 0.000000 0.098118
580.000000 52.217000 1.000000 7.000000 -1.000000 52.496738 -24.261955 1460.105392 1846.987111 19.171797 0.000000 0.152097
581.000000 59.466000 2.000000 7.000000 -1.000000 62.329468 -17.070568 1305.506238 1531.370583 16.833012 0.000000 0.083515
582.000000 63.616000 3.000000 7.000000 -1.000000 70.694582 -9.704972 1159.070485 1323.501192 15.733137 0.000000 0.108111
583.000000 64.966000 4.000000 7.000000 -1.000000 77.412244 -2.403087 1020.168180 1181.550344 15.404329 0.000000 0.139353
584.000000 64.194000 5.000000 7.000000 -1.000000 82.534314 4.609037 888.232560 1082.498704 15.587969 0.000000 0.155678
585.000000 62.034000 6.000000 7.000000 -1.000000 86.262259 11.155717 762.752323 1012.666931 16.129461 0.000000 0.158439
586.000000 59.095000 7.000000 7.000000 -1.000000 88.858588 17.130324 643.265006 963.439613 16.930714 0.000000 0.151049
587.000000 55.809000 8.000000 7.000000 -1.000000 90.583386 22.492412 529.351290 929.138473 17.926486 0.000000 0.136780
588.000000 52.456000 9.000000 7.000000 -1.000000 91.661494 27.251764 420.630086 905.882327 19.071694 0.000000 0.118883
589.000000 49.198000 10.000000 7.000000 -1.000000 92.272325 31.449342 316.754270 890.938287 20.334188 0.000000 0.101332
590.000000 46.121000 11.000000 7.000000 -1.000000 92.552132 35.141340 217.406986 882.333994 21.690425 0.000000 0.089812
591.000000 49.765000 2.000000 8.000000 -1.000000 58.681407 -18.061566 1325.988272 1629.817903 20.115604 0.000000 0.086245
592.000000 53.718000 3.000000 8.000000 -1.000000 66.406484 -11.672143 1197.344162 1421.002193 18.633417 0.000000 0.087411
593.000000 55.681000 4.000000 8.000000 -1.000000 72.905912 -5.282401 1074.511363 1273.401493 17.974591 0.000000 0.119232
594.000000 55.984000 5.000000 8.000000 -1.000000 78.156077 0.952551 957.104798 1166.742013 17.875466 0.000000 0.142530
595.000000 55.060000 6.000000 8.000000 -1.000000 82.245910 6.899025 844.772673 1088.624372 18.174101 0.000000 0.153908
596.000000 53.321000 7.000000 8.000000 -1.000000 85.329263 12.459317 737.192965 1031.054953 18.765531 0.000000 0.155347
597.000000 51.103000 8.000000 8.000000 -1.000000 87.582700 17.576249 634.070330 988.660645 19.578738 0.000000 0.149261
598.000000 48.653000 9.000000 8.000000 -1.000000 89.176853 22.229156 535.133403 957.705355 20.563954 0.000000 0.137907
599.000000 46.135000 10.000000 8.000000 -1.000000 90.261356 26.425213 440.132408 935.517609 21.685265 0.000000 0.123519
600.000000 46.133000 3.000000 9.000000 -1.000000 62.916661 -13.184173 1227.128901 1506.272208 21.697924 0.000000 0.073824
601.000000 48.301000 4.000000 9.000000 -1.000000 69.115104 -7.518172 1117.044118 1355.232749 20.722237 0.000000 0.099557
602.000000 49.188000 5.000000 9.000000 -1.000000 74.328150 -1.931907 1011.304396 1243.133911 20.346727 0.000000 0.126453
603.000000 49.045000 6.000000 9.000000 -1.000000 78.584404 3.474200 909.657464 1158.724023 20.404563 0.000000 0.143901
604.000000 48.143000 7.000000 9.000000 -1.000000 81.968667 8.618505 811.870207 1094.597972 20.785504 0.000000 0.152130
605.000000 46.727000 8.000000 9.000000 -1.000000 84.595635 13.443499 717.726886 1045.691070 21.413778 0.000000 0.152826
608.000000 195.968000 1.000000 2.000000 0.000000 63.178241 -0.377408 982.089660 1485.200300 5.108025 0.000000 0.058330
609.000000 185.951000 2.000000 2.000000 0.000000 78.612112 20.439495 573.885013 1172.347537 5.381529 0.000000 0.131910
610.000000 153.151000 3.000000 2.000000 0.000000 83.863729 34.875110 224.861602 1082.043143 6.533082 0.000000 0.113414
611.000000 124.758000 4.000000 2.000000 0.000000 85.217325 44.345479 -76.980768 1066.921432 8.019358 0.000000 0.163166
612.000000 103.474000 5.000000 2.000000 0.000000 85.243262 50.713422 -340.603317 1082.441363 9.668651 0.000000 0.279456
614.000000 121.074000 1.000000 3.000000 0.000000 54.326678 -8.402774 1133.986567 1722.020300 8.268789 0.000000 0.050995
615.000000 132.733000 2.000000 3.000000 0.000000 70.009114 7.225688 838.542130 1335.679586 7.540644 0.000000 0.105404
616.000000 109.390000 4.000000 3.000000 0.000000 82.760154 30.719756 335.441167 1100.046062 9.146896 0.000000 0.118261
617.000000 95.244000 5.000000 3.000000 0.000000 84.566559 38.479682 119.499873 1071.773917 10.504762 0.000000 0.118329
618.000000 73.243000 7.000000 3.000000 0.000000 85.308746 48.847926 -256.518022 1075.215903 13.659372 0.000000 0.237315
619.000000 65.127000 8.000000 3.000000 0.000000 85.134043 52.372562 -421.212951 1091.078828 15.361452 0.000000 0.323299
622.000000 84.687000 1.000000 4.000000 0.000000 49.154019 -12.484185 1213.297038 1894.075424 11.822233 0.000000 0.115169
623.000000 98.801000 3.000000 4.000000 0.000000 72.728050 10.799934 769.687167 1281.684777 10.129819 0.000000 0.118989
624.000000 84.844000 5.000000 4.000000 0.000000 82.007461 28.409867 392.810284 1112.812305 11.793440 0.000000 0.122466
625.000000 69.012000 7.000000 4.000000 0.000000 84.806965 40.100449 68.661633 1068.881348 14.497626 0.000000 0.125432
626.000000 56.656000 9.000000 4.000000 0.000000 85.318940 47.826739 -213.100989 1072.266932 17.658685 0.000000 0.217205
628.000000 64.146000 1.000000 5.000000 0.000000 45.834863 -14.931667 1262.016826 2022.908921 15.608254 0.000000 0.164469
629.000000 75.563000 2.000000 5.000000 0.000000 58.113093 -5.159309 1072.179794 1613.316881 13.248331 0.000000 0.028302
630.000000 79.586000 3.000000 5.000000 0.000000 67.509988 4.250728 895.003765 1387.824999 12.576875 0.000000 0.089957
631.000000 78.394000 4.000000 5.000000 0.000000 74.159925 12.861184 729.262994 1254.232135 12.766270 0.000000 0.124515
632.000000 69.221000 6.000000 5.000000 0.000000 81.476990 26.943902 427.927397 1121.935642 14.455494 0.000000 0.125058
633.000000 63.861000 7.000000 5.000000 0.000000 83.259260 32.453260 290.558637 1091.754926 15.667963 0.000000 0.115503
634.000000 58.755000 8.000000 5.000000 0.000000 84.324859 37.098738 161.042286 1075.098812 17.028742 0.000000 0.114915
635.000000 54.087000 9.000000 5.000000 0.000000 84.922735 41.020246 38.723751 1067.744946 18.497821 0.000000 0.131149
636.000000 46.186000 11.000000 5.000000 0.000000 85.316044 47.182829 -186.593599 1070.747134 21.661829 0.000000 0.205547
637.000000 51.231000 1.000000 6.000000 0.000000 43.541581 -16.557255 1294.983126 2122.521582 19.543371 0.000000 0.201598
638.000000 64.888000 5.000000 6.000000 0.000000 75.037487 14.199085 702.673975 1237.702032 15.423224 0.000000 0.127251
639.000000 58.427000 7.000000 6.000000 0.000000 81.086568 25.932022 451.636017 1128.700611 17.126115 0.000000 0.126700
640.000000 50.013000 2.000000 7.000000 0.000000 51.428356 -10.733618 1179.022037 1814.607571 20.017989 0.000000 0.084702
641.000000 54.681000 3.000000 7.000000 0.000000 59.636032 -3.780749 1046.124181 1572.923878 18.307443 0.000000 0.033152
642.000000 56.708000 4.000000 7.000000 0.000000 66.345427 2.947233 919.587699 1413.067135 17.651187 0.000000 0.081955
643.000000 56.698000 5.000000 7.000000 0.000000 71.615560 9.288777 798.966521 1303.463698 17.652309 0.000000 0.113883
644.000000 55.319000 6.000000 7.000000 0.000000 75.628551 15.136624 683.855331 1226.685392 18.090916 0.000000 0.128783
645.000000 50.532000 8.000000 7.000000 0.000000 80.788346 25.191965 468.718702 1133.892971 19.801967 0.000000 0.127797
646.000000 47.795000 9.000000 7.000000 0.000000 82.348991 29.419836 368.048336 1106.989006 20.935075 0.000000 0.120610
647.000000 46.606000 3.000000 8.000000 0.000000 56.731094 -6.371835 1095.190036 1651.546705 21.479975 0.000000 0.031546
648.000000 49.793000 5.000000 8.000000 0.000000 68.482396 5.377631 873.684167 1367.221595 20.101709 0.000000 0.096266
649.000000 48.195000 7.000000 8.000000 0.000000 76.053037 15.829781 669.835103 1218.828594 20.764930 0.000000 0.129719
653.000000 101.877000 2.000000 2.000000 1.000000 44.685984 28.572746 388.849296 2180.061515 9.827035 0.000000 0.244471
654.000000 99.742000 3.000000 2.000000 1.000000 55.537444 38.735014 111.645274 1887.968957 10.035616 0.000000 0.247817
655.000000 89.760000 4.000000 2.000000 1.000000 61.752788 45.863616 -134.239194 1771.373768 11.150271 0.000000 0.304911
661.000000 82.857000 2.000000 3.000000 1.000000 44.626582 16.098064 664.383021 2075.917516 12.083559 0.000000 0.174960
662.000000 86.442000 3.000000 3.000000 1.000000 55.373459 26.327658 442.415618 1770.236433 11.580518 0.000000 0.140678
663.000000 81.871000 4.000000 3.000000 1.000000 62.161778 34.341213 239.666844 1629.371690 12.225369 0.000000 0.167976
664.000000 74.866000 5.000000 3.000000 1.000000 66.477019 40.561923 53.744257 1557.687162 13.367940 0.000000 0.203245
665.000000 67.750000 6.000000 3.000000 1.000000 69.295263 45.424535 -117.363304 1520.611753 14.771092 0.000000 0.250379
666.000000 61.288000 7.000000 3.000000 1.000000 71.196695 49.278513 -275.358769 1502.740471 16.327687 0.000000 0.309897
671.000000 66.700000 2.000000 4.000000 1.000000 43.525586 7.795029 827.661154 2084.732163 15.011166 0.000000 0.167498
672.000000 72.658000 3.000000 4.000000 1.000000 53.814671 17.127296 643.327273 1764.840179 13.778364 0.000000 0.093144
673.000000 72.015000 4.000000 4.000000 1.000000 60.995135 25.051800 471.930588 1599.684671 13.899506 0.000000 0.115091
674.000000 68.251000 5.000000 4.000000 1.000000 65.897342 31.627181 312.155306 1506.498421 14.664565 0.000000 0.139004
675.000000 63.397000 6.000000 4.000000 1.000000 69.245323 37.037191 162.858217 1451.960977 15.786105 0.000000 0.160793
676.000000 58.434000 7.000000 4.000000 1.000000 71.558340 41.492055 23.041292 1420.148251 17.125609 0.000000 0.188728
677.000000 53.776000 8.000000 4.000000 1.000000 73.182222 45.182446 -108.170648 1402.539486 18.608096 0.000000 0.226150
678.000000 49.563000 9.000000 4.000000 1.000000 74.341955 48.265631 -231.548274 1394.195710 20.189437 0.000000 0.272143
679.000000 45.812000 10.000000 4.000000 1.000000 75.183903 50.865950 -347.772896 1392.079216 21.841971 0.000000 0.324367
680.000000 54.599000 2.000000 5.000000 1.000000 42.279960 2.092484 935.675465 2125.453195 18.338351 0.000000 0.181574
681.000000 60.940000 3.000000 5.000000 1.000000 51.879918 10.356645 778.304774 1799.519034 16.428722 0.000000 0.073638
682.000000 62.469000 4.000000 5.000000 1.000000 59.133692 17.762333 630.220061 1616.490052 16.024542 0.000000 0.082019
683.000000 61.066000 5.000000 5.000000 1.000000 64.442153 24.229720 490.622973 1505.421965 16.390819 0.000000 0.109794
684.000000 58.175000 6.000000 5.000000 1.000000 68.273354 29.791835 358.804125 1435.205480 17.204046 0.000000 0.127459
685.000000 54.688000 7.000000 5.000000 1.000000 71.031948 34.541645 234.131041 1390.095864 18.299597 0.000000 0.141182
686.000000 51.096000 8.000000 5.000000 1.000000 73.026655 38.592442 116.038008 1361.301401 19.584853 0.000000 0.157903
687.000000 47.643000 9.000000 5.000000 1.000000 74.479787 42.055305 4.017491 1343.548594 21.003714 0.000000 0.181447
688.000000 45.673000 2.000000 6.000000 1.000000 41.144540 -1.991346 1012.422255 2173.589273 21.922668 0.000000 0.200909
689.000000 51.593000 3.000000 6.000000 1.000000 49.994574 5.296054 875.229959 1848.164480 19.405583 0.000000 0.077977
690.000000 54.120000 4.000000 6.000000 1.000000 57.088048 12.061395 745.020917 1653.329732 18.497462 0.000000 0.055755
691.000000 54.214000 5.000000 6.000000 1.000000 62.587443 18.193143 621.275177 1528.570228 18.463489 0.000000 0.087485
692.000000 52.798000 6.000000 6.000000 1.000000 66.766637 23.656096 503.523158 1445.429389 18.957185 0.000000 0.109905
693.000000 50.562000 7.000000 6.000000 1.000000 69.910780 28.470398 391.339690 1388.792644 19.793812 0.000000 0.122709
694.000000 47.962000 8.000000 6.000000 1.000000 72.268269 32.688405 284.338888 1349.909206 20.865854 0.000000 0.131612
695.000000 47.124000 4.000000 7.000000 1.000000 55.102808 7.563436 832.090697 1698.343951 21.244410 0.000000 0.038732
696.000000 48.081000 5.000000 7.000000 1.000000 60.623374 13.275635 721.058038 1563.518087 20.819548 0.000000 0.065918
697.000000 47.682000 6.000000 7.000000 1.000000 65.006306 18.504565 614.781612 1470.095146 20.992167 0.000000 0.094317
698.000000 46.416000 7.000000 7.000000 1.000000 68.438410 23.233158 512.962217 1403.833062 21.562951 0.000000 0.111392
712.000000 51.355000 5.000000 4.000000 2.000000 50.892247 34.111829 245.969883 1997.740398 19.492915 0.000000 0.233777
713.000000 47.526000 7.000000 4.000000 2.000000 59.052528 42.604822 -14.870518 1817.800876 21.060118 0.000000 0.272722
714.000000 46.155000 4.000000 5.000000 2.000000 44.890262 21.693944 546.822253 2103.783020 21.691625 0.000000 0.197678
715.000000 47.335000 5.000000 5.000000 2.000000 51.003229 27.271315 420.165324 1921.445155 21.149328 0.000000 0.175139
716.000000 46.734000 6.000000 5.000000 2.000000 55.725897 32.092547 300.036959 1806.785304 21.419233 0.000000 0.181458
#UB matrix in q= (UB) B0 G* 
#[[-0.62118625  -0.270064174  0.734885682]
# [ 0.767505101 -0.399704463  0.501864561]
# [ 0.158314761  0.876569237  0.456026795]]
#B0 matrix in q= UB (B0) G*
#[[ 0.19670273 -0.          0.03056101]
# [ 0.          0.19187965 -0.        ]
# [ 0.          0.          0.18806537]]
#UBB0 matrix in q= (UB B0) G* i.e. recip. basis vectors are columns in LT frame: astar = UBB0[:,0], bstar = UBB0[:,1], cstar = UBB0[:,2]. (abcstar as columns on xyzlab1, xlab1 = ui, ui = unit vector along incident beam)
#[[-0.12218903 -0.05181982  0.11922247]
# [ 0.15097035 -0.07669515  0.11783907]
# [ 0.03114095  0.1681958   0.09060111]]
#Euler angles phi theta psi (deg)
#[169.757  62.914  55.718]
#deviatoric strain in direct crystal frame (10-3 unit)
#[[ 5.1   0.17 -0.81]
# [ 0.17  4.42 -0.59]
# [-0.81 -0.59 -9.51]]
#deviatoric strain in sample2 frame (10-3 unit)
#[[-5.59 -6.38  0.53]
# [-6.39  0.82  0.8 ]
# [ 0.51  0.79  4.77]]
#new lattice parameters
#[ 5.1505     5.2080759  5.3168581 90.0386832 99.2795694 89.9801299]
#CCDLabel
#sCMOS
#DetectorParameters
#[79.0, 975.0, 941.0, 0.0, 0.0]
#pixelsize
#0.0734
#Frame dimensions
#[2018, 2016]
#
