#Strain and Orientation Refinement from experimental file: /home/micha/LaueProjects/DepthEffects/testZrO2_100.cor
#File created at Wed Jun 28 14:24:28 2023 with indexingSpotsSet.py
#Number of indexed spots: 511
#Element
#ZrO2
#grainIndex
#G_0
#Mean Deviation(pixel): 0.113
##spot_index intensity h k l 2theta Chi Xexp Yexp Energy GrainIndex PixDev
4.000000 156.988000 0.000000 0.000000 2.000000 43.531493 2.507568 927.865543 2075.015598 6.379063 0.000000 0.170513
5.000000 167.869000 3.000000 0.000000 2.000000 102.992953 -51.183105 2312.832087 544.814013 5.958956 0.000000 0.294644
7.000000 135.817000 2.000000 1.000000 2.000000 62.973185 -46.234755 2098.712971 1734.739806 7.370211 0.000000 0.313105
12.000000 136.840000 0.000000 -3.000000 3.000000 86.961078 50.675298 -338.818590 1031.165817 7.312195 0.000000 0.299785
13.000000 155.696000 1.000000 -3.000000 3.000000 111.423532 42.949073 -26.873573 364.048590 6.424069 0.000000 0.145541
14.000000 156.103000 2.000000 -3.000000 3.000000 131.100249 31.222229 322.602161 -156.941960 6.405472 0.000000 0.112371
18.000000 150.704000 0.000000 -2.000000 3.000000 80.053184 36.192196 187.496781 1174.878865 6.640733 0.000000 0.125253
19.000000 173.997000 1.000000 -2.000000 3.000000 106.065117 24.474026 485.093570 600.455115 5.749190 0.000000 0.086333
20.000000 170.538000 2.000000 -2.000000 3.000000 124.512314 8.527278 813.622853 192.670307 5.863979 0.000000 0.071791
21.000000 154.315000 3.000000 -2.000000 3.000000 134.650998 -10.689916 1178.171739 -141.039901 6.479472 0.000000 0.023452
24.000000 145.276000 0.000000 -1.000000 3.000000 65.769037 19.289766 598.302922 1454.217129 6.891114 0.000000 0.090137
25.000000 175.364000 1.000000 -1.000000 3.000000 92.051448 5.055528 879.785295 902.296763 5.706114 0.000000 0.160601
26.000000 170.906000 2.000000 -1.000000 3.000000 108.987709 -11.144098 1187.020933 563.543150 5.852952 0.000000 0.133982
27.000000 152.395000 3.000000 -1.000000 3.000000 117.612437 -27.013279 1523.713578 309.088722 6.562754 0.000000 0.026216
28.000000 132.230000 4.000000 -1.000000 3.000000 120.947099 -40.502179 1894.312941 92.279618 7.562967 0.000000 0.147456
30.000000 90.403000 1.000000 1.000000 3.000000 43.553384 -23.745776 1448.486102 2177.766407 11.076636 0.000000 0.232183
31.000000 107.838000 2.000000 1.000000 3.000000 61.812489 -34.594577 1717.335337 1641.690991 9.283258 0.000000 0.178529
32.000000 106.980000 3.000000 1.000000 3.000000 73.809198 -43.790563 2006.788869 1373.907891 9.355439 0.000000 0.212169
33.000000 99.185000 4.000000 1.000000 3.000000 81.484856 -51.318199 2319.309716 1198.832742 10.089125 0.000000 0.318855
46.000000 114.679000 1.000000 -4.000000 4.000000 105.672043 45.181431 -108.132262 512.596756 8.722550 0.000000 0.169825
47.000000 118.354000 2.000000 -4.000000 4.000000 121.978934 37.712770 142.761996 91.544751 8.449552 0.000000 0.120792
48.000000 115.623000 3.000000 -4.000000 4.000000 135.075321 27.419337 416.641109 -274.699437 8.647594 0.000000 0.107610
52.000000 111.215000 0.000000 -3.000000 4.000000 82.359607 40.106466 68.468448 1129.770242 8.998142 0.000000 0.142089
53.000000 125.626000 1.000000 -3.000000 4.000000 102.216016 32.409302 291.717747 664.991113 7.963218 0.000000 0.056052
54.000000 128.571000 2.000000 -3.000000 4.000000 118.532160 22.348652 532.511533 308.314653 7.778742 0.000000 0.047594
55.000000 123.582000 3.000000 -3.000000 4.000000 130.447405 9.597718 793.002546 10.439848 8.091298 0.000000 0.038646
56.000000 114.667000 4.000000 -3.000000 4.000000 137.881716 -5.345701 1075.710740 -254.594614 8.719466 0.000000 0.013135
59.000000 81.788000 -1.000000 -2.000000 4.000000 50.909270 35.618111 203.934272 2016.622517 12.241773 0.000000 0.270950
60.000000 113.761000 0.000000 -2.000000 4.000000 73.984629 27.912788 404.823924 1290.607891 8.798534 0.000000 0.114597
61.000000 131.158000 1.000000 -2.000000 4.000000 94.430096 18.276674 619.535742 853.184965 7.628833 0.000000 0.135379
62.000000 133.728000 2.000000 -2.000000 4.000000 110.214735 6.648398 849.547096 542.003390 7.480008 0.000000 0.136134
63.000000 126.966000 3.000000 -2.000000 4.000000 120.809843 -6.443523 1096.553682 295.068827 7.876856 0.000000 0.095777
64.000000 116.284000 4.000000 -2.000000 4.000000 126.862957 -19.801018 1362.511389 83.269469 8.599493 0.000000 0.029101
65.000000 104.901000 5.000000 -2.000000 4.000000 129.581298 -32.082045 1649.688205 -109.169533 9.532185 0.000000 0.103299
67.000000 103.960000 0.000000 -1.000000 4.000000 60.853931 14.965948 687.293307 1562.265348 9.630680 0.000000 0.067705
68.000000 125.291000 1.000000 -1.000000 4.000000 81.359357 4.347379 893.177935 1105.027163 7.988271 0.000000 0.142775
69.000000 129.298000 2.000000 -1.000000 4.000000 96.656369 -7.279305 1112.481363 814.374764 7.738367 0.000000 0.161063
70.000000 122.827000 3.000000 -1.000000 4.000000 106.684326 -19.045762 1346.559666 599.735756 8.144285 0.000000 0.116627
71.000000 112.243000 4.000000 -1.000000 4.000000 112.560384 -30.022322 1596.958008 424.564995 8.911082 0.000000 0.029256
72.000000 101.048000 5.000000 -1.000000 4.000000 115.621436 -39.601793 1865.444798 271.079802 9.897621 0.000000 0.100264
75.000000 104.312000 1.000000 0.000000 4.000000 63.782354 -7.936605 1125.049098 1476.140113 9.597878 0.000000 0.064797
76.000000 112.636000 2.000000 0.000000 4.000000 79.101487 -18.449764 1334.074001 1159.461216 8.885886 0.000000 0.130775
77.000000 109.693000 3.000000 0.000000 4.000000 89.569359 -28.362493 1556.039924 950.193247 9.122150 0.000000 0.113610
78.000000 101.838000 4.000000 0.000000 4.000000 96.294656 -37.207944 1792.187052 791.934813 9.824220 0.000000 0.077157
79.000000 92.718000 5.000000 0.000000 4.000000 100.465486 -44.803024 2043.919269 660.803496 10.789469 0.000000 0.145561
81.000000 72.429000 1.000000 1.000000 4.000000 44.272766 -17.967550 1324.035417 2101.568372 13.825786 0.000000 0.194107
82.000000 86.426000 2.000000 1.000000 4.000000 59.905324 -26.998536 1523.364675 1641.066972 11.583977 0.000000 0.134014
83.000000 89.284000 3.000000 1.000000 4.000000 71.340785 -35.195285 1734.109459 1385.756750 11.210722 0.000000 0.148135
84.000000 86.186000 4.000000 1.000000 4.000000 79.382961 -42.385122 1957.279324 1214.146484 11.611662 0.000000 0.170690
85.000000 80.648000 5.000000 1.000000 4.000000 84.974560 -48.557832 2194.006482 1083.997877 12.407432 0.000000 0.242314
88.000000 65.951000 3.000000 2.000000 4.000000 53.699205 -40.286883 1887.340408 1977.474528 15.180492 0.000000 0.290486
104.000000 90.375000 1.000000 -5.000000 5.000000 102.088573 46.414809 -155.805435 606.648145 11.068925 0.000000 0.188849
105.000000 94.239000 2.000000 -5.000000 5.000000 115.805832 40.987242 39.812329 251.548787 10.612780 0.000000 0.132322
106.000000 94.303000 3.000000 -5.000000 5.000000 127.634436 33.987084 249.383313 -59.875033 10.603684 0.000000 0.115207
107.000000 91.638000 4.000000 -5.000000 5.000000 137.264603 24.941383 474.455634 -343.739322 10.910687 0.000000 0.103353
110.000000 72.815000 -1.000000 -4.000000 5.000000 66.488958 46.892774 -174.862434 1626.186005 13.746527 0.000000 0.316273
111.000000 87.841000 0.000000 -4.000000 5.000000 83.537908 42.366905 -6.652293 1105.996736 11.392077 0.000000 0.160090
112.000000 97.475000 1.000000 -4.000000 5.000000 99.493820 36.730636 171.859374 716.420527 10.263475 0.000000 0.064544
113.000000 101.355000 2.000000 -4.000000 5.000000 113.494638 29.677654 361.648787 402.495138 9.868242 0.000000 0.019677
114.000000 100.539000 3.000000 -4.000000 5.000000 124.976914 20.908531 563.819542 134.938694 9.946546 0.000000 0.028936
115.000000 96.624000 4.000000 -4.000000 5.000000 133.675874 10.288668 779.624077 -103.456898 10.348333 0.000000 0.026341
116.000000 91.051000 5.000000 -4.000000 5.000000 139.584618 -1.888583 1010.489650 -323.640784 10.980893 0.000000 0.003957
120.000000 72.936000 -1.000000 -3.000000 5.000000 59.847977 38.673424 113.545033 1741.814650 13.725756 0.000000 0.236134
121.000000 91.086000 0.000000 -3.000000 5.000000 77.870989 32.943106 277.564819 1216.625056 10.987885 0.000000 0.119702
122.000000 102.335000 1.000000 -3.000000 5.000000 94.392150 25.964393 450.883947 849.051287 9.777254 0.000000 0.107092
123.000000 106.311000 2.000000 -3.000000 5.000000 108.355166 17.564346 634.316349 566.437078 9.409330 0.000000 0.112283
124.000000 104.665000 3.000000 -3.000000 5.000000 119.210303 7.736880 828.773800 333.697001 9.555496 0.000000 0.099725
125.000000 99.618000 4.000000 -3.000000 5.000000 126.898376 -3.205672 1035.281074 131.676686 10.038342 0.000000 0.066853
126.000000 92.984000 5.000000 -3.000000 5.000000 131.735459 -14.582069 1254.994007 -51.096116 10.753667 0.000000 0.027707
127.000000 85.928000 6.000000 -3.000000 5.000000 134.275570 -25.537073 1489.221147 -222.037161 11.636248 0.000000 0.081880
130.000000 67.911000 -1.000000 -2.000000 5.000000 50.672308 29.579220 364.095965 1954.949676 14.743832 0.000000 0.213019
131.000000 89.331000 0.000000 -2.000000 5.000000 69.319127 22.757068 523.516235 1381.585304 11.205975 0.000000 0.103613
132.000000 102.526000 1.000000 -2.000000 5.000000 86.093054 14.764178 691.350559 1017.015267 9.760987 0.000000 0.140938
133.000000 107.026000 2.000000 -2.000000 5.000000 99.821896 5.662491 868.283118 753.754405 9.348119 0.000000 0.158359
134.000000 105.074000 3.000000 -2.000000 5.000000 110.087704 -4.254863 1055.074344 546.306296 9.519855 0.000000 0.140664
135.000000 99.471000 4.000000 -2.000000 5.000000 117.108603 -14.461234 1252.571836 372.000755 10.054729 0.000000 0.094540
136.000000 92.337000 5.000000 -2.000000 5.000000 121.463464 -24.333497 1461.723224 218.175844 10.830594 0.000000 0.027112
137.000000 84.930000 6.000000 -2.000000 5.000000 123.838096 -33.359393 1683.591374 77.110681 11.774563 0.000000 0.072833
138.000000 77.878000 7.000000 -2.000000 5.000000 124.856245 -41.264672 1919.372451 -56.260871 12.840450 0.000000 0.189534
141.000000 80.063000 0.000000 -1.000000 5.000000 57.667776 12.395883 738.442422 1638.513183 12.505924 0.000000 0.057149
142.000000 95.533000 1.000000 -1.000000 5.000000 74.430878 3.947186 900.735066 1241.594630 10.478018 0.000000 0.117341
143.000000 101.451000 2.000000 -1.000000 5.000000 87.961289 -5.109815 1071.242551 979.465985 9.864147 0.000000 0.158498
144.000000 100.313000 3.000000 -1.000000 5.000000 97.990784 -14.363007 1250.604795 785.038438 9.973959 0.000000 0.148608
145.000000 95.240000 4.000000 -1.000000 5.000000 104.918960 -23.345088 1439.529951 628.669875 10.503589 0.000000 0.102753
146.000000 88.531000 5.000000 -1.000000 5.000000 109.421236 -31.664181 1638.803753 495.160598 11.298406 0.000000 0.034407
147.000000 81.506000 6.000000 -1.000000 5.000000 112.174324 -39.087809 1849.300435 375.841538 12.271413 0.000000 0.077140
148.000000 74.806000 7.000000 -1.000000 5.000000 113.732637 -45.545744 2071.995562 265.339850 13.369918 0.000000 0.196482
150.000000 59.836000 1.000000 1.000000 5.000000 44.521261 -14.212999 1247.604151 2069.991153 16.735769 0.000000 0.176536
151.000000 70.912000 2.000000 1.000000 5.000000 58.074307 -21.819425 1405.910324 1663.353498 14.119043 0.000000 0.109696
152.000000 75.031000 3.000000 1.000000 5.000000 68.728629 -28.994051 1571.453592 1420.049427 13.341263 0.000000 0.127571
153.000000 74.597000 4.000000 1.000000 5.000000 76.785011 -35.571511 1744.741839 1251.723752 13.416652 0.000000 0.134503
154.000000 71.698000 5.000000 1.000000 5.000000 82.757848 -41.473319 1926.331609 1123.541906 13.957198 0.000000 0.148412
155.000000 67.704000 6.000000 1.000000 5.000000 87.155996 -46.692446 2116.834079 1018.951702 14.779200 0.000000 0.199938
156.000000 63.387000 7.000000 1.000000 5.000000 90.398293 -51.268493 2316.921931 929.041649 15.784436 0.000000 0.292957
160.000000 58.038000 3.000000 2.000000 5.000000 53.833178 -34.136319 1704.701422 1891.546192 17.250637 0.000000 0.220093
161.000000 60.567000 4.000000 2.000000 5.000000 62.590337 -39.774578 1870.925847 1667.192956 16.527964 0.000000 0.223393
162.000000 60.273000 5.000000 2.000000 5.000000 69.416205 -44.822426 2044.643464 1510.868820 16.606443 0.000000 0.249529
163.000000 58.411000 6.000000 2.000000 5.000000 74.713601 -49.301474 2226.372633 1392.120569 17.133776 0.000000 0.301752
182.000000 74.422000 1.000000 -6.000000 6.000000 99.649545 47.196487 -187.149140 671.680350 13.442067 0.000000 0.203435
186.000000 62.645000 -1.000000 -5.000000 6.000000 70.222310 47.504856 -199.768985 1513.909789 15.977259 0.000000 0.304412
187.000000 72.501000 0.000000 -5.000000 6.000000 84.244789 43.834596 -58.377367 1091.380806 13.802170 0.000000 0.175849
188.000000 79.350000 1.000000 -5.000000 6.000000 97.549053 39.420073 90.290262 756.362707 12.608108 0.000000 0.086887
189.000000 82.958000 2.000000 -5.000000 6.000000 109.642515 34.081147 246.810370 477.186258 12.057399 0.000000 0.026624
190.000000 83.679000 3.000000 -5.000000 6.000000 120.162520 27.621108 411.821974 235.071279 11.951389 0.000000 0.011023
191.000000 82.196000 4.000000 -5.000000 6.000000 128.884057 19.869474 586.035359 18.093110 12.165579 0.000000 0.028564
192.000000 79.241000 5.000000 -5.000000 6.000000 135.701600 10.771417 770.242300 -181.763740 12.617977 0.000000 0.026335
193.000000 75.443000 6.000000 -5.000000 6.000000 140.617364 0.514863 965.328093 -370.164933 13.252384 0.000000 0.004850
197.000000 63.793000 -1.000000 -4.000000 6.000000 65.321266 40.708462 48.964265 1593.416015 15.691439 0.000000 0.226712
198.000000 83.174000 1.000000 -4.000000 6.000000 93.834237 30.827156 332.708236 856.998655 12.029610 0.000000 0.088839
199.000000 87.381000 3.000000 -4.000000 6.000000 116.350941 17.036309 645.197863 383.403321 11.445995 0.000000 0.084467
200.000000 81.610000 5.000000 -4.000000 6.000000 130.557759 -0.853522 991.034490 19.777580 12.252597 0.000000 0.046763
201.000000 72.427000 7.000000 -4.000000 6.000000 137.075604 -20.427429 1375.856867 -293.898624 13.804877 0.000000 0.067199
204.000000 62.436000 -1.000000 -3.000000 6.000000 58.717181 33.246484 269.444976 1722.943959 16.034800 0.000000 0.187050
205.000000 84.785000 1.000000 -3.000000 6.000000 88.062721 21.716001 546.342279 980.186521 11.802778 0.000000 0.126279
206.000000 88.961000 2.000000 -3.000000 6.000000 100.266064 14.610916 694.427364 739.547921 11.246169 0.000000 0.140498
207.000000 86.588000 4.000000 -3.000000 6.000000 117.832302 -1.980322 1012.214935 372.419118 11.550716 0.000000 0.113315
208.000000 82.424000 5.000000 -3.000000 6.000000 123.278197 -10.937669 1182.995553 221.523068 12.132986 0.000000 0.074683
209.000000 72.438000 7.000000 -3.000000 6.000000 128.965904 -28.172965 1551.450224 -46.498525 13.804116 0.000000 0.063104
210.000000 67.489000 8.000000 -3.000000 6.000000 129.964776 -35.776393 1750.573994 -170.778456 14.816030 0.000000 0.149249
212.000000 57.421000 -1.000000 -2.000000 6.000000 50.205289 25.300432 466.228087 1932.689849 17.438013 0.000000 0.183188
213.000000 82.860000 1.000000 -2.000000 6.000000 79.961598 12.518247 736.031660 1136.163223 12.079056 0.000000 0.131861
214.000000 88.059000 3.000000 -2.000000 6.000000 101.713093 -2.923643 1029.968001 717.562836 11.361215 0.000000 0.159541
215.000000 81.186000 5.000000 -2.000000 6.000000 114.157006 -19.276935 1351.426553 429.591960 12.319915 0.000000 0.088551
216.000000 71.068000 7.000000 -2.000000 6.000000 119.756975 -34.127610 1704.462664 197.663349 14.072235 0.000000 0.052981
218.000000 48.051000 -1.000000 -1.000000 6.000000 39.867847 17.146155 642.939328 2289.641689 20.840987 0.000000 0.262467
219.000000 64.752000 0.000000 -1.000000 6.000000 55.453813 10.698821 771.655024 1695.103570 15.463518 0.000000 0.057032
220.000000 76.352000 1.000000 -1.000000 6.000000 69.609361 3.689967 905.588417 1341.901199 13.111428 0.000000 0.092589
221.000000 82.243000 2.000000 -1.000000 6.000000 81.596457 -3.724518 1045.063334 1100.337852 12.169446 0.000000 0.145511
222.000000 83.399000 3.000000 -1.000000 6.000000 91.145720 -11.318742 1190.430961 919.047970 11.998450 0.000000 0.156128
223.000000 81.375000 4.000000 -1.000000 6.000000 98.375238 -18.832068 1342.072802 773.579730 12.294861 0.000000 0.135792
224.000000 77.573000 5.000000 -1.000000 6.000000 103.621415 -26.019788 1500.404019 650.774665 12.895988 0.000000 0.092886
225.000000 72.978000 6.000000 -1.000000 6.000000 107.290176 -32.696554 1665.877228 542.891070 13.706795 0.000000 0.039240
226.000000 68.192000 7.000000 -1.000000 6.000000 109.765412 -38.755482 1838.986818 445.047446 14.668045 0.000000 0.065568
227.000000 63.541000 8.000000 -1.000000 6.000000 111.368194 -44.162313 2020.273890 353.985490 15.740894 0.000000 0.157374
230.000000 65.201000 1.000000 0.000000 6.000000 57.529553 -4.412693 1058.056187 1627.931130 15.356640 0.000000 0.023925
231.000000 72.535000 2.000000 0.000000 6.000000 69.468113 -11.468414 1193.356719 1352.304735 13.801225 0.000000 0.099341
232.000000 74.320000 4.000000 0.000000 6.000000 86.558617 -25.159642 1480.539964 1012.508004 13.464774 0.000000 0.125406
233.000000 71.591000 5.000000 0.000000 6.000000 92.164339 -31.444247 1633.114230 893.322244 13.976418 0.000000 0.098643
234.000000 63.847000 7.000000 0.000000 6.000000 99.296114 -42.411346 1958.182651 702.384533 15.668855 0.000000 0.109491
235.000000 59.808000 8.000000 0.000000 6.000000 101.454801 -47.058832 2131.562994 620.865788 16.726242 0.000000 0.189568
237.000000 50.750000 1.000000 1.000000 6.000000 44.592329 -11.598112 1195.894528 2055.475924 19.732082 0.000000 0.167630
238.000000 59.575000 2.000000 1.000000 6.000000 56.497651 -18.117718 1327.155621 1690.613200 16.806570 0.000000 0.094112
239.000000 63.885000 3.000000 1.000000 6.000000 66.328522 -24.408004 1463.410042 1459.128531 15.669847 0.000000 0.113727
240.000000 64.835000 4.000000 1.000000 6.000000 74.170588 -30.340169 1604.948243 1294.583652 15.437915 0.000000 0.125891
241.000000 63.635000 5.000000 1.000000 6.000000 80.292359 -35.829256 1752.083648 1168.096729 15.726878 0.000000 0.125728
242.000000 61.229000 6.000000 1.000000 6.000000 85.015455 -40.834230 1905.154972 1065.068782 16.343108 0.000000 0.134591
243.000000 58.247000 7.000000 1.000000 6.000000 88.641968 -45.350109 2064.528821 977.306532 17.178365 0.000000 0.173471
244.000000 55.073000 8.000000 1.000000 6.000000 91.425769 -49.397036 2230.602626 899.838543 18.167401 0.000000 0.244517
248.000000 51.167000 3.000000 2.000000 6.000000 53.569444 -29.360165 1580.475175 1852.473178 19.567842 0.000000 0.180879
249.000000 54.416000 5.000000 2.000000 6.000000 68.473873 -39.408366 1859.341309 1490.454026 18.394526 0.000000 0.189609
250.000000 51.748000 7.000000 2.000000 6.000000 78.072181 -47.752149 2159.996905 1279.157702 19.338988 0.000000 0.253956
267.000000 63.191000 1.000000 -7.000000 7.000000 97.884646 47.736013 -209.326561 719.373708 15.831683 0.000000 0.214794
268.000000 66.109000 2.000000 -7.000000 7.000000 108.172332 44.252941 -73.587135 447.759135 15.130470 0.000000 0.158304
269.000000 67.470000 3.000000 -7.000000 7.000000 117.620091 40.094178 68.862975 204.838723 14.822977 0.000000 0.128139
270.000000 67.491000 4.000000 -7.000000 7.000000 126.073508 35.101200 218.534027 -17.378137 14.816480 0.000000 0.116487
271.000000 66.458000 5.000000 -7.000000 7.000000 133.421120 29.098087 375.989353 -224.674224 15.045249 0.000000 0.109933
276.000000 54.745000 -1.000000 -6.000000 7.000000 72.811037 47.946566 -218.106359 1438.058715 18.282082 0.000000 0.298145
277.000000 61.690000 0.000000 -6.000000 7.000000 84.713408 44.863112 -96.163690 1081.507329 16.220823 0.000000 0.188985
278.000000 66.794000 1.000000 -6.000000 7.000000 96.109233 41.247754 31.189881 787.783672 14.978578 0.000000 0.108484
279.000000 69.908000 2.000000 -6.000000 7.000000 106.692283 36.987483 164.322667 536.945038 14.308756 0.000000 0.050545
280.000000 71.161000 3.000000 -6.000000 7.000000 116.220844 31.954782 303.637186 316.238540 14.054729 0.000000 0.017071
281.000000 70.862000 4.000000 -6.000000 7.000000 124.524619 26.020724 449.574226 117.086698 14.112237 0.000000 0.025363
282.000000 69.395000 5.000000 -6.000000 7.000000 131.497891 19.084892 602.617499 -66.533019 14.409188 0.000000 0.034661
283.000000 67.130000 6.000000 -6.000000 7.000000 137.090088 11.127702 763.299004 -239.013711 14.894140 0.000000 0.030277
284.000000 64.381000 7.000000 -6.000000 7.000000 141.303713 2.276952 932.205200 -403.674979 15.529402 0.000000 0.011185
289.000000 56.083000 -1.000000 -5.000000 7.000000 68.988565 42.157803 0.519374 1498.665763 17.847385 0.000000 0.224391
290.000000 64.048000 0.000000 -5.000000 7.000000 81.425744 38.450470 120.394939 1148.214988 15.624987 0.000000 0.133085
291.000000 69.781000 1.000000 -5.000000 7.000000 93.213339 34.136352 245.297660 867.996225 14.338376 0.000000 0.082971
292.000000 73.115000 2.000000 -5.000000 7.000000 103.984015 29.115919 375.550542 634.200537 13.682066 0.000000 0.066232
293.000000 74.252000 3.000000 -5.000000 7.000000 113.465767 23.298634 511.504866 432.296573 13.470491 0.000000 0.064854
294.000000 73.619000 4.000000 -5.000000 7.000000 121.491819 16.629299 653.543355 252.877597 13.584418 0.000000 0.062266
295.000000 71.715000 5.000000 -5.000000 7.000000 127.992548 9.127082 802.083770 89.551937 13.943737 0.000000 0.052023
296.000000 68.994000 6.000000 -5.000000 7.000000 132.983363 0.927100 957.583015 -62.207832 14.492635 0.000000 0.032797
297.000000 65.819000 7.000000 -5.000000 7.000000 136.555683 -7.701105 1120.541831 -205.730105 15.191032 0.000000 0.018314
298.000000 62.452000 8.000000 -5.000000 7.000000 138.867453 -16.387239 1291.510181 -343.547826 16.009402 0.000000 0.055567
302.000000 56.068000 -1.000000 -4.000000 7.000000 63.962496 35.852239 197.259375 1589.731161 17.854277 0.000000 0.182489
303.000000 65.148000 0.000000 -4.000000 7.000000 76.837730 31.522974 314.852255 1236.267340 15.363021 0.000000 0.118285
304.000000 71.590000 1.000000 -4.000000 7.000000 88.909467 26.553677 437.119917 963.904019 13.977758 0.000000 0.111422
305.000000 75.199000 2.000000 -4.000000 7.000000 99.754390 20.884035 564.346778 742.963698 13.304225 0.000000 0.119732
306.000000 76.268000 3.000000 -4.000000 7.000000 109.087698 14.490548 696.840802 556.321440 13.115654 0.000000 0.121103
307.000000 75.357000 4.000000 -4.000000 7.000000 116.773382 7.414542 834.935992 393.373077 13.272360 0.000000 0.111080
308.000000 73.085000 5.000000 -4.000000 7.000000 122.807430 -0.212681 978.995199 247.173337 13.683607 0.000000 0.089818
309.000000 69.989000 6.000000 -4.000000 7.000000 127.291059 -8.164374 1129.413310 112.956429 14.287890 0.000000 0.058844
310.000000 66.476000 7.000000 -4.000000 7.000000 130.401880 -16.147384 1286.620859 -12.682396 15.042042 0.000000 0.028635
311.000000 62.828000 8.000000 -4.000000 7.000000 132.363274 -23.861729 1451.088142 -132.265394 15.914874 0.000000 0.057252
312.000000 59.223000 9.000000 -4.000000 7.000000 133.412798 -31.063598 1623.329920 -247.725467 16.883290 0.000000 0.123453
315.000000 54.049000 -1.000000 -3.000000 7.000000 57.554157 29.128400 375.243332 1724.310124 18.523729 0.000000 0.159375
316.000000 64.281000 0.000000 -3.000000 7.000000 70.733131 24.238378 490.427379 1353.585711 15.572377 0.000000 0.107782
317.000000 71.514000 1.000000 -3.000000 7.000000 82.968923 18.734886 609.963933 1081.171968 13.994496 0.000000 0.129150
318.000000 75.512000 2.000000 -3.000000 7.000000 93.797241 12.615984 734.104448 867.797249 13.250868 0.000000 0.150100
319.000000 76.650000 3.000000 -3.000000 7.000000 102.942439 5.934533 863.120131 692.323788 13.051872 0.000000 0.153978
320.000000 75.619000 4.000000 -3.000000 7.000000 110.320727 -1.187164 997.303915 542.338399 13.228041 0.000000 0.141244
321.000000 73.147000 5.000000 -3.000000 7.000000 116.004110 -8.558281 1136.972683 410.048493 13.673612 0.000000 0.114186
322.000000 69.843000 6.000000 -3.000000 7.000000 120.170515 -15.943285 1282.469763 290.292988 14.319159 0.000000 0.074868
323.000000 66.153000 7.000000 -3.000000 7.000000 123.055093 -23.104024 1434.167748 179.496860 15.117225 0.000000 0.027797
324.000000 62.367000 8.000000 -3.000000 7.000000 124.909128 -29.842960 1592.471682 75.085008 16.034268 0.000000 0.047084
325.000000 58.664000 9.000000 -3.000000 7.000000 125.969812 -36.029574 1757.822671 -24.864266 17.045911 0.000000 0.120297
329.000000 49.439000 -1.000000 -2.000000 7.000000 49.701353 22.142527 537.031349 1926.393876 20.253654 0.000000 0.166175
330.000000 60.758000 0.000000 -2.000000 7.000000 63.023249 16.814849 649.743215 1513.319089 16.477963 0.000000 0.077643
331.000000 68.852000 1.000000 -2.000000 7.000000 75.309335 10.962866 766.513412 1228.418290 14.537968 0.000000 0.117901
332.000000 73.415000 2.000000 -2.000000 7.000000 86.074736 4.644335 887.565144 1015.094473 13.631739 0.000000 0.153715
333.000000 74.866000 3.000000 -2.000000 7.000000 95.067870 -2.029416 1013.138293 845.491716 13.365072 0.000000 0.164272
334.000000 73.988000 4.000000 -2.000000 7.000000 102.259231 -8.897288 1143.491000 704.283664 13.521589 0.000000 0.153378
335.000000 71.592000 5.000000 -2.000000 7.000000 107.781800 -15.767507 1278.901436 582.320496 13.972628 0.000000 0.125130
336.000000 68.337000 6.000000 -2.000000 7.000000 111.860879 -22.447913 1419.669789 473.783504 14.636883 0.000000 0.082412
337.000000 64.692000 7.000000 -2.000000 7.000000 114.755179 -28.776395 1566.120478 374.778050 15.460455 0.000000 0.027169
338.000000 60.960000 8.000000 -2.000000 7.000000 116.716336 -34.640341 1718.604658 282.582293 16.406198 0.000000 0.040741
339.000000 57.320000 9.000000 -2.000000 7.000000 117.966172 -39.980779 1877.503021 195.220585 17.447682 0.000000 0.119516
340.000000 53.867000 10.000000 -2.000000 7.000000 118.687702 -44.784518 2043.228979 111.208591 18.565589 0.000000 0.210425
343.000000 54.199000 0.000000 -1.000000 7.000000 53.831908 9.496465 794.958372 1738.740646 18.474846 0.000000 0.062392
344.000000 63.170000 1.000000 -1.000000 7.000000 66.072260 3.510723 908.968835 1419.469443 15.848379 0.000000 0.070500
345.000000 68.500000 2.000000 -1.000000 7.000000 76.771552 -2.764343 1026.968177 1194.301148 14.612356 0.000000 0.129202
346.000000 70.583000 3.000000 -1.000000 7.000000 85.702217 -9.192106 1149.169462 1022.937303 14.178693 0.000000 0.152552
347.000000 70.219000 4.000000 -1.000000 7.000000 92.870315 -15.614540 1275.801205 884.968449 14.249965 0.000000 0.148854
348.000000 68.248000 5.000000 -1.000000 7.000000 98.438786 -21.874390 1407.108797 768.933876 14.659584 0.000000 0.124868
349.000000 65.355000 6.000000 -1.000000 7.000000 102.647102 -27.837081 1543.356091 667.885445 15.306982 0.000000 0.085989
350.000000 62.024000 7.000000 -1.000000 7.000000 105.751330 -33.405263 1684.827172 577.350822 16.127853 0.000000 0.043320
351.000000 58.567000 8.000000 -1.000000 7.000000 107.988672 -38.522986 1831.828337 494.307054 17.079165 0.000000 0.060011
352.000000 55.167000 9.000000 -1.000000 7.000000 109.561375 -43.171209 1984.690305 416.624269 18.131028 0.000000 0.132253
353.000000 51.926000 10.000000 -1.000000 7.000000 110.633038 -47.358736 2143.770701 342.745916 19.262039 0.000000 0.221614
356.000000 51.089000 2.000000 1.000000 7.000000 55.176878 -15.361324 1270.679327 1717.426629 19.598841 0.000000 0.084394
357.000000 55.172000 3.000000 1.000000 7.000000 64.227007 -20.920030 1386.428009 1497.350011 18.145670 0.000000 0.101099
358.000000 56.782000 4.000000 1.000000 7.000000 71.737472 -26.260267 1506.009386 1337.043890 17.628448 0.000000 0.120112
359.000000 56.625000 5.000000 1.000000 7.000000 77.841494 -31.308544 1629.617027 1212.409579 17.675012 0.000000 0.123125
360.000000 55.328000 6.000000 1.000000 7.000000 82.736004 -36.016867 1757.457759 1110.611348 18.087421 0.000000 0.119331
361.000000 53.366000 7.000000 1.000000 7.000000 86.630093 -40.361529 1889.752820 1024.174024 18.750685 0.000000 0.125210
362.000000 51.067000 8.000000 1.000000 7.000000 89.716756 -44.338900 2026.739141 948.439327 19.593436 0.000000 0.155590
363.000000 48.642000 9.000000 1.000000 7.000000 92.161250 -47.960042 2168.670757 880.344180 20.569032 0.000000 0.211887
364.000000 46.220000 10.000000 1.000000 7.000000 94.099049 -51.245526 2315.820384 817.783233 21.645704 0.000000 0.288375
365.000000 48.145000 4.000000 2.000000 7.000000 60.876007 -30.412224 1606.766807 1636.320297 20.794206 0.000000 0.152073
366.000000 49.120000 5.000000 2.000000 7.000000 67.323557 -34.933913 1726.780747 1489.544292 20.378891 0.000000 0.159336
367.000000 48.860000 6.000000 2.000000 7.000000 72.634488 -39.133574 1850.728352 1374.916378 20.484751 0.000000 0.169344
368.000000 47.809000 7.000000 2.000000 7.000000 76.984860 -43.004145 1978.806242 1281.189003 20.933514 0.000000 0.187783
369.000000 46.287000 8.000000 2.000000 7.000000 80.542620 -46.551581 2111.224364 1201.704709 21.619893 0.000000 0.221796
377.000000 55.685000 3.000000 -9.000000 8.000000 114.589338 47.948665 -218.194265 205.666234 17.960513 0.000000 0.266823
385.000000 54.872000 1.000000 -8.000000 8.000000 96.549253 48.130755 -225.845692 755.864469 18.232157 0.000000 0.223831
386.000000 58.739000 3.000000 -8.000000 8.000000 114.186459 41.742418 14.626477 293.136924 17.027138 0.000000 0.136681
387.000000 58.810000 5.000000 -8.000000 8.000000 128.963316 32.977935 276.635458 -96.604043 17.002959 0.000000 0.114159
390.000000 48.519000 -1.000000 -7.000000 8.000000 74.709483 48.280310 -232.170707 1383.156452 20.627209 0.000000 0.294625
391.000000 53.670000 0.000000 -7.000000 8.000000 85.045871 45.623470 -124.976520 1074.398993 18.644556 0.000000 0.199858
392.000000 57.614000 1.000000 -7.000000 8.000000 95.006387 42.568207 -13.601656 812.978335 17.365410 0.000000 0.127015
393.000000 60.255000 2.000000 -7.000000 8.000000 104.388249 39.039548 102.203326 585.513873 16.601538 0.000000 0.072455
394.000000 61.640000 3.000000 -7.000000 8.000000 113.023944 34.952196 222.708110 382.954822 16.226363 0.000000 0.036647
395.000000 61.918000 4.000000 -7.000000 8.000000 120.786211 30.214991 348.204727 198.936447 16.151627 0.000000 0.028135
396.000000 61.296000 5.000000 -7.000000 8.000000 127.585902 24.741729 479.009913 28.829687 16.313912 0.000000 0.036636
397.000000 59.994000 6.000000 -7.000000 8.000000 133.366634 18.471711 615.467777 -130.834997 16.666476 0.000000 0.040717
398.000000 58.217000 7.000000 -7.000000 8.000000 138.100778 11.401441 757.952828 -282.731230 17.174109 0.000000 0.034473
399.000000 56.137000 8.000000 -7.000000 8.000000 141.790064 3.621840 906.873406 -428.974342 17.809783 0.000000 0.016563
403.000000 49.801000 -1.000000 -6.000000 8.000000 71.607397 43.241214 -37.165507 1432.273725 20.097801 0.000000 0.224859
404.000000 59.981000 1.000000 -6.000000 8.000000 92.642367 36.519328 178.022102 879.192769 16.681168 0.000000 0.086688
405.000000 64.180000 3.000000 -6.000000 8.000000 110.890502 27.705761 409.794810 477.009659 15.585113 0.000000 0.047030
406.000000 63.399000 5.000000 -6.000000 8.000000 125.061487 16.306016 660.146858 153.991217 15.773522 0.000000 0.046344
407.000000 59.704000 7.000000 -6.000000 8.000000 134.702657 2.319452 931.405558 -125.054151 16.747193 0.000000 0.023283
408.000000 54.826000 9.000000 -6.000000 8.000000 140.078628 -13.142530 1226.303864 -379.854784 18.235938 0.000000 0.045865
410.000000 50.288000 -1.000000 -5.000000 8.000000 67.616708 37.791728 140.389425 1501.902255 19.905256 0.000000 0.182804
411.000000 56.810000 0.000000 -5.000000 8.000000 78.726171 34.172656 244.301803 1200.326708 17.616906 0.000000 0.121277
412.000000 61.660000 1.000000 -5.000000 8.000000 89.263427 30.068220 351.891372 956.988828 16.228357 0.000000 0.100657
413.000000 64.712000 2.000000 -5.000000 8.000000 98.952839 25.425236 463.356836 753.256054 15.460283 0.000000 0.100950
414.000000 66.080000 3.000000 -5.000000 8.000000 107.588409 20.204188 578.911481 577.448856 15.138131 0.000000 0.103332
415.000000 66.031000 4.000000 -5.000000 8.000000 115.042127 14.393511 698.784533 421.856759 15.147209 0.000000 0.100124
416.000000 64.903000 5.000000 -5.000000 8.000000 121.259966 8.026832 823.222675 281.167921 15.409052 0.000000 0.089400
417.000000 63.020000 6.000000 -5.000000 8.000000 126.252348 1.198037 952.491747 151.588011 15.868163 0.000000 0.071072
418.000000 60.661000 7.000000 -5.000000 8.000000 130.083683 -5.934469 1086.878637 30.319275 16.484185 0.000000 0.046376
419.000000 58.043000 8.000000 -5.000000 8.000000 132.861682 -13.162194 1226.693407 -84.761240 17.227066 0.000000 0.026477
420.000000 55.321000 9.000000 -5.000000 8.000000 134.724900 -20.259641 1372.271683 -195.308018 18.073968 0.000000 0.052026
421.000000 52.604000 10.000000 -5.000000 8.000000 135.827833 -27.024423 1523.977344 -302.643771 19.007224 0.000000 0.104992
424.000000 49.603000 -1.000000 -4.000000 8.000000 62.599089 31.989301 302.736111 1598.810099 20.182413 0.000000 0.156939
425.000000 62.255000 1.000000 -4.000000 8.000000 84.696981 23.349828 510.364411 1049.813616 16.075104 0.000000 0.121087
426.000000 67.003000 3.000000 -4.000000 8.000000 102.972387 12.695848 732.528561 686.850345 14.931041 0.000000 0.141247
427.000000 65.565000 5.000000 -4.000000 8.000000 116.140973 0.223030 970.810393 412.770137 15.254866 0.000000 0.120616
428.000000 60.931000 7.000000 -4.000000 8.000000 124.334625 -13.179177 1227.029899 185.962012 16.412494 0.000000 0.063037
429.000000 55.280000 9.000000 -4.000000 8.000000 128.557857 -26.143802 1503.291799 -14.673024 18.089080 0.000000 0.045887
431.000000 47.356000 -1.000000 -3.000000 8.000000 56.466569 25.927189 451.748270 1734.113698 21.142525 0.000000 0.141770
432.000000 55.389000 0.000000 -3.000000 8.000000 68.028753 21.457827 551.951279 1407.561705 18.073316 0.000000 0.099179
433.000000 61.332000 1.000000 -3.000000 8.000000 78.834451 16.538537 655.399532 1162.607802 16.319187 0.000000 0.124387
434.000000 65.006000 2.000000 -3.000000 8.000000 88.556716 11.181287 762.253278 968.642352 15.394008 0.000000 0.150046
435.000000 66.592000 3.000000 -3.000000 8.000000 96.988981 5.430429 872.683495 808.462942 15.024964 0.000000 0.160617
436.000000 66.485000 4.000000 -3.000000 8.000000 104.049544 -0.632015 986.872799 671.644565 15.047124 0.000000 0.156264
437.000000 65.145000 5.000000 -3.000000 8.000000 109.762775 -6.887961 1105.016453 551.488658 15.354904 0.000000 0.139001
438.000000 62.995000 6.000000 -3.000000 8.000000 114.230026 -13.193992 1227.323485 443.483021 15.877580 0.000000 0.110629
439.000000 60.373000 7.000000 -3.000000 8.000000 117.599667 -19.399757 1354.017919 344.466137 16.565998 0.000000 0.072516
440.000000 57.526000 8.000000 -3.000000 8.000000 120.041048 -25.368630 1485.340143 252.146527 17.384933 0.000000 0.026592
441.000000 54.622000 9.000000 -3.000000 8.000000 121.724334 -30.993960 1621.548434 164.812676 18.308482 0.000000 0.034545
442.000000 51.769000 10.000000 -3.000000 8.000000 122.806800 -36.206666 1762.920653 81.150730 19.317169 0.000000 0.098762
443.000000 49.030000 11.000000 -3.000000 8.000000 123.425217 -40.974150 1909.756137 0.125845 20.396072 0.000000 0.173422
445.000000 58.519000 1.000000 -2.000000 8.000000 71.677675 9.823531 788.636442 1302.719159 17.106133 0.000000 0.102809
446.000000 64.546000 3.000000 -2.000000 8.000000 89.703852 -1.387633 1001.071621 946.564782 15.503717 0.000000 0.161402
447.000000 63.454000 5.000000 -2.000000 8.000000 102.273457 -13.207031 1227.581881 700.490895 15.766260 0.000000 0.145239
448.000000 58.884000 7.000000 -2.000000 8.000000 110.054922 -24.681276 1469.613987 508.589092 16.987078 0.000000 0.077200
449.000000 53.299000 9.000000 -2.000000 8.000000 114.366854 -35.006810 1728.820018 345.849509 18.765259 0.000000 0.034127
450.000000 47.861000 11.000000 -2.000000 8.000000 116.448242 -43.799058 2007.095134 199.204233 20.896159 0.000000 0.176514
451.000000 46.524000 0.000000 -1.000000 8.000000 52.594834 8.600742 812.211535 1773.403740 21.523173 0.000000 0.069501
452.000000 53.647000 1.000000 -1.000000 8.000000 63.371471 3.378666 911.458504 1481.578109 18.662418 0.000000 0.051359
453.000000 58.324000 2.000000 -1.000000 8.000000 73.003416 -2.059993 1013.713401 1270.198767 17.163073 0.000000 0.112393
454.000000 60.712000 3.000000 -1.000000 8.000000 81.307050 -7.626503 1119.115076 1107.029290 16.485411 0.000000 0.143824
455.000000 61.237000 4.000000 -1.000000 8.000000 88.245383 -13.218593 1227.811056 974.867909 16.341701 0.000000 0.151423
456.000000 60.405000 5.000000 -1.000000 8.000000 93.891686 -18.731170 1339.958237 863.687737 16.564512 0.000000 0.140738
457.000000 58.680000 6.000000 -1.000000 8.000000 98.385437 -24.067785 1455.723638 767.240157 17.049789 0.000000 0.115965
458.000000 56.426000 7.000000 -1.000000 8.000000 101.894543 -29.149866 1575.285234 681.420140 17.729460 0.000000 0.081162
459.000000 53.906000 8.000000 -1.000000 8.000000 104.588886 -33.921747 1698.832865 603.411963 18.557122 0.000000 0.046700
460.000000 51.297000 9.000000 -1.000000 8.000000 106.624785 -38.351216 1826.569245 531.212649 19.500049 0.000000 0.057627
461.000000 48.711000 10.000000 -1.000000 8.000000 108.137740 -42.426677 1958.711069 463.351568 20.534504 0.000000 0.115305
462.000000 46.215000 11.000000 -1.000000 8.000000 109.240606 -46.152549 2095.490243 398.717989 21.642848 0.000000 0.189014
463.000000 46.877000 1.000000 0.000000 8.000000 54.203119 -2.661978 1025.040944 1717.997294 21.360844 0.000000 0.035990
464.000000 55.177000 3.000000 0.000000 8.000000 72.092583 -13.228917 1228.015701 1298.268087 18.142006 0.000000 0.111538
465.000000 56.058000 5.000000 0.000000 8.000000 84.882352 -23.516979 1443.365367 1046.122125 17.851854 0.000000 0.129374
466.000000 53.045000 7.000000 0.000000 8.000000 93.320822 -32.936434 1672.257233 866.589064 18.862287 0.000000 0.091045
467.000000 48.651000 9.000000 0.000000 8.000000 98.634809 -41.163385 1916.010161 723.896719 20.563323 0.000000 0.095539
468.000000 48.286000 3.000000 1.000000 8.000000 62.415883 -18.196567 1328.796103 1532.893325 20.733937 0.000000 0.089443
469.000000 50.167000 4.000000 1.000000 8.000000 69.547851 -23.019805 1432.298945 1377.113573 19.953946 0.000000 0.113073
470.000000 50.627000 5.000000 1.000000 8.000000 75.529316 -27.648594 1538.835872 1254.567333 19.769946 0.000000 0.122280
471.000000 50.080000 6.000000 1.000000 8.000000 80.477849 -32.038230 1648.542281 1153.974977 19.983686 0.000000 0.119847
472.000000 48.872000 7.000000 1.000000 8.000000 84.534572 -36.159539 1761.561745 1068.548727 20.476070 0.000000 0.114403
473.000000 47.263000 8.000000 1.000000 8.000000 87.841524 -39.997767 1878.046643 993.953292 21.171233 0.000000 0.118437
482.000000 48.170000 2.000000 -10.000000 9.000000 104.303598 50.752229 -342.423019 507.260919 20.766231 0.000000 0.298919
483.000000 49.474000 3.000000 -10.000000 9.000000 111.856592 48.302101 -233.095405 291.994129 20.216204 0.000000 0.261405
484.000000 50.164000 4.000000 -10.000000 9.000000 118.956813 45.476015 -119.328281 91.694586 19.935974 0.000000 0.236350
491.000000 48.472000 1.000000 -9.000000 9.000000 95.503993 48.432071 -238.627004 784.692725 20.640166 0.000000 0.231168
492.000000 50.565000 2.000000 -9.000000 9.000000 103.692752 45.875914 -134.715687 564.351742 19.782890 0.000000 0.179973
493.000000 52.526000 4.000000 -9.000000 9.000000 118.610833 39.583728 85.126681 179.246938 19.039867 0.000000 0.126152
494.000000 52.536000 5.000000 -9.000000 9.000000 125.187122 35.702591 201.530296 6.484654 19.034436 0.000000 0.117275
495.000000 51.130000 7.000000 -9.000000 9.000000 136.309958 26.061351 448.628844 -313.190513 19.554977 0.000000 0.105409
498.000000 47.488000 0.000000 -8.000000 9.000000 85.293562 46.208257 -147.673123 1069.040817 21.071551 0.000000 0.208916
499.000000 50.624000 1.000000 -8.000000 9.000000 94.136996 43.565880 -48.719703 833.561159 19.763257 0.000000 0.142624
500.000000 52.864000 2.000000 -8.000000 9.000000 102.549706 40.562140 53.737201 625.627959 18.923296 0.000000 0.091360
501.000000 54.221000 3.000000 -8.000000 9.000000 110.411459 37.137842 159.887003 438.588231 18.447290 0.000000 0.055138
502.000000 54.772000 4.000000 -8.000000 9.000000 117.626186 33.228309 269.933027 267.594374 18.259733 0.000000 0.037815
503.000000 54.632000 5.000000 -8.000000 9.000000 124.121618 28.767630 384.093798 109.017193 18.304654 0.000000 0.039075
504.000000 53.935000 6.000000 -8.000000 9.000000 129.846593 23.697114 502.604496 -39.927427 18.539684 0.000000 0.044834
505.000000 52.814000 7.000000 -8.000000 9.000000 134.768000 17.979400 625.718570 -181.423911 18.932159 0.000000 0.045622
506.000000 51.388000 8.000000 -8.000000 9.000000 138.869242 11.618335 753.709551 -317.223003 19.456493 0.000000 0.038121
507.000000 49.759000 9.000000 -8.000000 9.000000 142.151380 4.680933 886.873076 -448.756998 20.092359 0.000000 0.021083
510.000000 49.091000 0.000000 -7.000000 9.000000 83.032221 41.370831 27.092336 1116.279351 20.384618 0.000000 0.151272
511.000000 52.534000 1.000000 -7.000000 9.000000 92.143157 38.311508 124.642944 889.668025 19.046063 0.000000 0.095474
512.000000 54.931000 2.000000 -7.000000 9.000000 100.735676 34.852432 225.494375 692.333812 18.212045 0.000000 0.056680
513.000000 56.312000 3.000000 -7.000000 9.000000 108.673497 30.940515 329.817047 516.900603 17.763255 0.000000 0.035559
514.000000 56.778000 4.000000 -7.000000 9.000000 115.852875 26.524986 437.793316 358.118858 17.615254 0.000000 0.032169
515.000000 56.480000 5.000000 -7.000000 9.000000 122.202339 21.565311 549.618537 212.139112 17.706599 0.000000 0.035564
516.000000 55.581000 6.000000 -7.000000 9.000000 127.679884 16.043048 665.502245 76.063147 17.991516 0.000000 0.036069
517.000000 54.239000 7.000000 -7.000000 9.000000 132.269987 9.976807 785.669469 -52.343710 18.435205 0.000000 0.030396
518.000000 52.595000 8.000000 -7.000000 9.000000 135.982032 3.436822 910.362182 -174.842962 19.010732 0.000000 0.017503
519.000000 50.760000 9.000000 -7.000000 9.000000 138.850265 -3.447595 1039.840935 -292.852486 19.696934 0.000000 0.008268
520.000000 48.826000 10.000000 -7.000000 9.000000 140.933773 -10.495230 1174.386671 -407.536921 20.476944 0.000000 0.037610
522.000000 54.012000 1.000000 -6.000000 9.000000 89.386944 32.718793 283.532735 954.688534 18.526006 0.000000 0.095127
523.000000 56.586000 2.000000 -6.000000 9.000000 98.107519 28.825412 382.680422 765.991783 17.680708 0.000000 0.086339
524.000000 58.387000 4.000000 -6.000000 9.000000 113.153720 19.638383 590.936203 452.302059 17.130829 0.000000 0.086048
525.000000 57.937000 5.000000 -6.000000 9.000000 119.310566 14.313621 700.383518 317.392147 17.262261 0.000000 0.081623
526.000000 55.300000 7.000000 -6.000000 9.000000 128.770457 2.348725 930.854754 75.823690 18.082485 0.000000 0.056355
527.000000 53.456000 8.000000 -6.000000 9.000000 132.127141 -4.107649 1052.294165 -34.939955 18.705365 0.000000 0.036471
528.000000 49.341000 10.000000 -6.000000 9.000000 136.431791 -17.227519 1308.735302 -243.623452 20.264160 0.000000 0.046890
529.000000 47.232000 11.000000 -6.000000 9.000000 137.573110 -23.556628 1444.251481 -343.636789 21.168633 0.000000 0.090722
530.000000 50.682000 0.000000 -5.000000 9.000000 76.237398 30.727651 335.240485 1247.673664 19.748371 0.000000 0.117562
531.000000 54.824000 1.000000 -5.000000 9.000000 85.740228 26.869311 429.689411 1030.869382 18.253191 0.000000 0.112656
532.000000 57.601000 2.000000 -5.000000 9.000000 94.535447 22.595817 527.074117 848.525255 17.370504 0.000000 0.120402
533.000000 59.073000 3.000000 -5.000000 9.000000 102.464511 17.891939 627.533644 691.000046 16.935338 0.000000 0.126150
534.000000 59.410000 4.000000 -5.000000 9.000000 109.426185 12.762331 731.215955 551.808930 16.837085 0.000000 0.125317
535.000000 58.839000 5.000000 -5.000000 9.000000 115.374590 7.239492 838.278661 426.420549 16.998814 0.000000 0.117113
536.000000 57.592000 6.000000 -5.000000 9.000000 120.312491 1.389685 948.889819 311.564467 17.365358 0.000000 0.101813
537.000000 55.880000 7.000000 -5.000000 9.000000 124.282838 -4.686321 1063.228815 204.812997 17.896128 0.000000 0.080024
538.000000 53.877000 8.000000 -5.000000 9.000000 127.359909 -10.860250 1181.487334 104.318344 18.560596 0.000000 0.053076
539.000000 51.716000 9.000000 -5.000000 9.000000 129.640232 -16.990956 1303.870431 8.641615 19.335356 0.000000 0.028950
540.000000 49.496000 10.000000 -5.000000 9.000000 131.233224 -22.943047 1430.597720 -83.361786 20.202169 0.000000 0.044879
541.000000 47.284000 11.000000 -5.000000 9.000000 132.252014 -28.603693 1561.904686 -172.621026 21.146603 0.000000 0.091273
542.000000 50.164000 0.000000 -4.000000 9.000000 71.490637 25.059012 471.765509 1338.758854 19.954154 0.000000 0.109709
543.000000 54.701000 1.000000 -4.000000 9.000000 81.104302 20.872982 564.584614 1121.292534 18.296276 0.000000 0.122773
544.000000 57.721000 2.000000 -4.000000 9.000000 89.926534 16.304585 660.176028 942.437871 17.336282 0.000000 0.141056
545.000000 59.300000 3.000000 -4.000000 9.000000 97.796050 11.364963 758.665840 790.694395 16.872156 0.000000 0.151050
546.000000 59.643000 4.000000 -4.000000 9.000000 104.622982 6.088916 860.187900 658.592077 16.772994 0.000000 0.150799
547.000000 59.013000 5.000000 -4.000000 9.000000 110.383730 0.538479 964.884431 541.059939 16.950239 0.000000 0.140934
548.000000 57.675000 6.000000 -4.000000 9.000000 115.109484 -5.197690 1072.906691 434.527053 17.341844 0.000000 0.122472
549.000000 55.864000 7.000000 -4.000000 9.000000 118.872461 -11.010530 1184.415701 336.398996 17.903036 0.000000 0.096360
550.000000 53.765000 8.000000 -4.000000 9.000000 121.772195 -16.781979 1299.583048 244.738647 18.600702 0.000000 0.063625
551.000000 51.522000 9.000000 -4.000000 9.000000 123.922973 -22.398875 1418.591768 158.063903 19.409823 0.000000 0.028171
552.000000 49.234000 10.000000 -4.000000 9.000000 125.443036 -27.765487 1541.637312 75.215169 20.311141 0.000000 0.035410
553.000000 46.970000 11.000000 -4.000000 9.000000 126.446101 -32.811444 1668.928619 -4.734008 21.289596 0.000000 0.086515
554.000000 53.379000 1.000000 -3.000000 9.000000 75.436175 14.857666 689.471617 1230.300661 18.751931 0.000000 0.116115
555.000000 56.694000 2.000000 -3.000000 9.000000 84.249839 10.101131 783.260863 1051.086558 17.652662 0.000000 0.144895
556.000000 58.892000 4.000000 -3.000000 9.000000 98.766107 -0.221791 979.166332 775.031468 16.988923 0.000000 0.162897
557.000000 58.300000 5.000000 -3.000000 9.000000 104.392877 -5.652781 1081.532689 663.447495 17.159597 0.000000 0.153476
558.000000 55.151000 7.000000 -3.000000 9.000000 112.644675 -16.596031 1295.776088 472.479536 18.136237 0.000000 0.105694
559.000000 53.045000 8.000000 -3.000000 9.000000 115.478858 -21.913050 1407.952302 388.180901 18.855116 0.000000 0.069526
560.000000 48.513000 10.000000 -3.000000 9.000000 119.164439 -31.834742 1643.234568 234.004622 20.615012 0.000000 0.025260
561.000000 46.258000 11.000000 -3.000000 9.000000 120.244066 -36.337488 1766.701460 161.986774 21.619401 0.000000 0.082628
562.000000 50.661000 1.000000 -2.000000 9.000000 68.772763 8.953638 805.424380 1364.212784 19.760750 0.000000 0.088122
563.000000 54.328000 2.000000 -2.000000 9.000000 77.556374 4.122871 897.418422 1179.114116 18.423837 0.000000 0.130241
564.000000 56.365000 3.000000 -2.000000 9.000000 85.302659 -0.904729 991.996637 1029.448246 17.755402 0.000000 0.154471
565.000000 57.013000 4.000000 -2.000000 9.000000 91.950923 -6.060353 1089.269462 904.131922 17.551132 0.000000 0.161839
566.000000 56.584000 5.000000 -2.000000 9.000000 97.518070 -11.263594 1189.353720 796.168218 17.682277 0.000000 0.155226
567.000000 55.384000 6.000000 -2.000000 9.000000 102.076753 -16.429510 1292.373084 700.916220 18.063676 0.000000 0.137044
568.000000 53.676000 7.000000 -2.000000 9.000000 105.733197 -21.476724 1398.458589 615.170835 18.636745 0.000000 0.109139
569.000000 51.668000 8.000000 -2.000000 9.000000 108.608591 -26.334705 1507.749189 536.642189 19.359864 0.000000 0.073052
570.000000 49.510000 9.000000 -2.000000 9.000000 110.825417 -30.948715 1620.392361 463.645817 20.202649 0.000000 0.031796
571.000000 47.308000 10.000000 -2.000000 9.000000 112.498593 -35.281768 1736.544773 394.910300 21.142402 0.000000 0.031574
572.000000 46.492000 1.000000 -1.000000 9.000000 61.243958 3.277331 913.368509 1532.590455 21.535395 0.000000 0.035064
573.000000 50.560000 2.000000 -1.000000 9.000000 69.986480 -1.521396 1003.585951 1333.164965 19.799819 0.000000 0.096223
574.000000 52.970000 3.000000 -1.000000 9.000000 77.702033 -6.427443 1096.247770 1177.114216 18.896232 0.000000 0.132812
575.000000 53.955000 4.000000 -1.000000 9.000000 84.339488 -11.371130 1191.454674 1049.815318 18.548574 0.000000 0.148272
576.000000 53.826000 5.000000 -1.000000 9.000000 89.925402 -16.279524 1289.312979 942.459842 18.590751 0.000000 0.147186
577.000000 52.893000 6.000000 -1.000000 9.000000 94.539355 -21.082743 1389.935007 849.419699 18.916844 0.000000 0.133064
578.000000 51.422000 7.000000 -1.000000 9.000000 98.290314 -25.719623 1493.439515 766.925654 19.456116 0.000000 0.108790
579.000000 49.625000 8.000000 -1.000000 9.000000 101.298005 -30.141668 1599.952162 692.353835 20.159530 0.000000 0.077765
580.000000 47.654000 9.000000 -1.000000 9.000000 103.680189 -34.314814 1709.606020 623.817092 20.992014 0.000000 0.049510
581.000000 45.618000 10.000000 -1.000000 9.000000 105.545140 -38.219130 1822.542127 559.919318 21.927827 0.000000 0.056895
582.000000 45.525000 5.000000 1.000000 9.000000 73.404057 -24.647771 1468.851887 1293.930198 21.987093 0.000000 0.119541
584.000000 45.479000 5.000000 -11.000000 10.000000 122.309908 43.303448 -39.370731 5.674880 21.988875 0.000000 0.215429
585.000000 46.418000 3.000000 -10.000000 10.000000 109.157834 43.869886 -59.652138 422.329719 21.548288 0.000000 0.154168
586.000000 46.620000 7.000000 -10.000000 10.000000 132.738598 29.748831 359.876266 -204.483564 21.447515 0.000000 0.110731
587.000000 47.041000 2.000000 -9.000000 10.000000 101.053230 41.735238 14.868717 659.252261 21.266114 0.000000 0.107605
588.000000 48.310000 3.000000 -9.000000 10.000000 108.250496 38.797715 109.707861 485.603773 20.704960 0.000000 0.071770
589.000000 48.979000 4.000000 -9.000000 10.000000 114.953211 35.486404 207.672039 325.940000 20.420174 0.000000 0.050179
590.000000 49.114000 5.000000 -9.000000 10.000000 121.103201 31.751948 308.918296 177.365985 20.362135 0.000000 0.044253
591.000000 48.798000 6.000000 -9.000000 10.000000 126.656518 27.546149 413.614381 37.616030 20.492433 0.000000 0.047527
592.000000 48.117000 7.000000 -9.000000 10.000000 131.581530 22.828399 521.939672 -95.116509 20.780866 0.000000 0.050862
593.000000 47.156000 8.000000 -9.000000 10.000000 135.857313 17.575481 634.086202 -222.297816 21.203364 0.000000 0.049459
594.000000 45.989000 9.000000 -9.000000 10.000000 139.473165 11.794420 750.259797 -345.138058 21.740507 0.000000 0.041167
595.000000 46.698000 1.000000 -8.000000 10.000000 91.712558 39.705851 81.257596 899.171922 21.426124 0.000000 0.106090
596.000000 50.046000 3.000000 -8.000000 10.000000 106.781331 33.401339 265.278605 552.216863 19.987847 0.000000 0.034603
597.000000 50.718000 5.000000 -8.000000 10.000000 119.573572 25.522633 461.111988 264.189815 19.718692 0.000000 0.022700
598.000000 49.435000 7.000000 -8.000000 10.000000 129.680514 15.824966 669.932820 12.885187 20.227536 0.000000 0.030696
599.000000 46.985000 9.000000 -8.000000 10.000000 136.969743 4.352701 893.077382 -215.298053 21.280215 0.000000 0.015183
600.000000 47.980000 1.000000 -7.000000 10.000000 89.398162 34.780960 227.486302 954.765169 20.854917 0.000000 0.094387
601.000000 50.160000 2.000000 -7.000000 10.000000 97.306422 31.449558 316.748688 779.238048 19.945680 0.000000 0.076964
602.000000 51.514000 3.000000 -7.000000 10.000000 104.643570 27.752330 408.678294 623.217204 19.419224 0.000000 0.071990
603.000000 52.111000 4.000000 -7.000000 10.000000 111.324880 23.661754 503.396481 482.266480 19.194454 0.000000 0.071652
604.000000 52.059000 5.000000 -7.000000 10.000000 117.292154 19.160233 601.032085 353.102819 19.211673 0.000000 0.070598
605.000000 51.481000 6.000000 -7.000000 10.000000 122.512099 14.246703 701.722004 233.238193 19.425960 0.000000 0.066322
606.000000 50.497000 7.000000 -7.000000 10.000000 126.973984 8.943900 805.611837 120.746617 19.802861 0.000000 0.057821
607.000000 49.220000 8.000000 -7.000000 10.000000 130.687505 3.304493 912.856586 14.108031 20.315516 0.000000 0.044855
608.000000 47.744000 9.000000 -7.000000 10.000000 133.681119 -2.586569 1023.621429 -87.899064 20.942669 0.000000 0.028514
609.000000 46.146000 10.000000 -7.000000 10.000000 136.000409 -8.616048 1138.082566 -186.273144 21.667281 0.000000 0.020059
610.000000 48.830000 1.000000 -6.000000 10.000000 86.396016 29.622795 363.013228 1018.982245 20.493611 0.000000 0.105972
611.000000 52.580000 3.000000 -6.000000 10.000000 101.740315 21.948150 541.281460 699.841707 19.026933 0.000000 0.111120
612.000000 53.025000 5.000000 -6.000000 10.000000 114.185224 12.818536 730.105739 445.273074 18.863104 0.000000 0.108631
613.000000 51.219000 7.000000 -6.000000 10.000000 123.437742 2.370114 930.452275 229.688524 19.525078 0.000000 0.085663
614.000000 48.206000 9.000000 -6.000000 10.000000 129.642488 -8.893023 1143.408910 38.416543 20.743372 0.000000 0.044689
615.000000 49.075000 1.000000 -5.000000 10.000000 82.624288 24.302776 488.971720 1093.869037 20.392924 0.000000 0.118172
616.000000 51.593000 2.000000 -5.000000 10.000000 90.670212 20.367731 575.419598 927.569908 19.395039 0.000000 0.130270
617.000000 53.088000 3.000000 -5.000000 10.000000 97.998275 16.103953 664.263171 783.593101 18.846243 0.000000 0.139013
618.000000 53.670000 4.000000 -5.000000 10.000000 104.526607 11.521572 755.603423 656.382906 18.639714 0.000000 0.141101
619.000000 52.719000 6.000000 -5.000000 10.000000 115.059110 1.532404 946.207107 437.583217 18.972377 0.000000 0.124502
620.000000 51.510000 7.000000 -5.000000 10.000000 119.086913 -3.758425 1045.702995 340.973774 19.416038 0.000000 0.106758
621.000000 50.003000 8.000000 -5.000000 10.000000 122.349337 -9.139805 1148.161420 250.530717 20.000068 0.000000 0.083510
622.000000 48.309000 9.000000 -5.000000 10.000000 124.914898 -14.518364 1253.716698 164.969865 20.700557 0.000000 0.055816
623.000000 48.537000 1.000000 -4.000000 10.000000 78.030241 18.907698 606.340550 1182.194128 20.621347 0.000000 0.119918
624.000000 52.880000 3.000000 -4.000000 10.000000 93.381938 10.339687 778.633938 876.346910 18.922500 0.000000 0.154360
625.000000 53.337000 5.000000 -4.000000 10.000000 105.385895 0.777407 960.395606 644.796936 18.755976 0.000000 0.153481
626.000000 51.287000 7.000000 -4.000000 10.000000 113.972728 -9.361069 1152.428090 455.957275 19.502155 0.000000 0.120777
627.000000 47.999000 9.000000 -4.000000 10.000000 119.576475 -19.475942 1355.627261 293.091859 20.835809 0.000000 0.062644
628.000000 47.054000 1.000000 -3.000000 10.000000 72.605943 13.531968 715.969395 1287.794779 21.273668 0.000000 0.106386
629.000000 50.022000 2.000000 -3.000000 10.000000 80.660750 9.259101 799.538848 1120.343804 20.008705 0.000000 0.137085
630.000000 51.811000 3.000000 -3.000000 10.000000 87.905173 4.765823 885.267555 980.505197 19.315003 0.000000 0.156638
631.000000 52.559000 4.000000 -3.000000 10.000000 94.272722 0.093676 973.240297 860.588211 19.037662 0.000000 0.164137
632.000000 52.456000 5.000000 -3.000000 10.000000 99.749558 -4.703112 1063.546352 755.442588 19.073144 0.000000 0.160947
633.000000 51.701000 6.000000 -3.000000 10.000000 104.364376 -9.560572 1156.279797 661.485495 19.349611 0.000000 0.148535
634.000000 50.481000 7.000000 -3.000000 10.000000 108.176497 -14.409710 1251.539837 576.143596 19.815657 0.000000 0.128107
635.000000 48.952000 8.000000 -3.000000 10.000000 111.264417 -19.182234 1349.431157 497.517327 20.433529 0.000000 0.100585
636.000000 47.235000 9.000000 -3.000000 10.000000 113.716032 -23.816129 1450.064305 424.170522 21.174871 0.000000 0.066627
637.000000 49.787000 3.000000 -2.000000 10.000000 81.637256 -0.528253 984.923458 1099.225003 20.102819 0.000000 0.145440
638.000000 50.779000 5.000000 -2.000000 10.000000 93.399477 -9.741369 1159.774270 876.130887 19.705261 0.000000 0.158848
639.000000 49.050000 7.000000 -2.000000 10.000000 101.802755 -18.915577 1343.824839 703.257671 20.396285 0.000000 0.129459
640.000000 45.994000 9.000000 -2.000000 10.000000 107.428985 -27.606179 1537.820846 559.702421 21.748706 0.000000 0.069855
641.000000 46.789000 3.000000 -1.000000 10.000000 74.701151 -5.480457 1078.264841 1236.769570 21.393768 0.000000 0.120970
642.000000 47.995000 4.000000 -1.000000 10.000000 81.015358 -9.905971 1162.959006 1113.747976 20.853372 0.000000 0.141981
643.000000 48.294000 5.000000 -1.000000 10.000000 86.465191 -14.320477 1249.753660 1009.617458 20.721893 0.000000 0.147965
644.000000 47.894000 6.000000 -1.000000 10.000000 91.094213 -18.672409 1338.727924 919.300680 20.892800 0.000000 0.141913
645.000000 46.988000 7.000000 -1.000000 10.000000 94.972414 -22.914474 1429.964945 839.335996 21.293609 0.000000 0.126201
646.000000 45.740000 8.000000 -1.000000 10.000000 98.183367 -27.006458 1523.552152 767.279225 21.873292 0.000000 0.103004
647.000000 45.659000 4.000000 -9.000000 11.000000 111.437010 32.128237 299.102489 441.983211 21.906492 0.000000 0.017545
648.000000 45.893000 5.000000 -9.000000 11.000000 117.214319 28.581256 388.642002 310.712707 21.792580 0.000000 0.009415
649.000000 45.731000 6.000000 -9.000000 11.000000 122.458743 24.661598 480.833654 187.704425 21.868239 0.000000 0.019807
650.000000 46.235000 3.000000 -8.000000 11.000000 103.360074 30.332922 345.234508 644.840355 21.636923 0.000000 0.061599
651.000000 46.920000 4.000000 -8.000000 11.000000 109.636089 26.817048 430.922608 510.707527 21.318640 0.000000 0.058598
652.000000 47.100000 5.000000 -8.000000 11.000000 115.354661 22.960317 519.019682 387.098535 21.235334 0.000000 0.058550
653.000000 46.850000 6.000000 -8.000000 11.000000 120.481835 18.750886 609.628767 271.964810 21.346512 0.000000 0.057674
654.000000 46.253000 7.000000 -8.000000 11.000000 124.998711 14.189834 702.858856 163.690095 21.620481 0.000000 0.054083
655.000000 45.921000 2.000000 -7.000000 11.000000 94.135919 28.647904 387.017410 852.315501 21.788582 0.000000 0.096417
656.000000 47.231000 3.000000 -7.000000 11.000000 100.952835 25.172527 469.164576 710.852014 21.181847 0.000000 0.097468
657.000000 47.913000 4.000000 -7.000000 11.000000 107.202558 21.385946 553.509396 583.138130 20.877996 0.000000 0.098920
658.000000 48.044000 5.000000 -7.000000 11.000000 112.836861 17.282063 640.141255 466.322681 20.818911 0.000000 0.097881
659.000000 47.716000 6.000000 -7.000000 11.000000 117.828000 12.866675 729.154453 358.229169 20.960451 0.000000 0.093230
660.000000 47.021000 7.000000 -7.000000 11.000000 122.166908 8.161148 820.648546 257.163739 21.268484 0.000000 0.084625
661.000000 46.049000 8.000000 -7.000000 11.000000 125.861175 3.205152 914.728716 161.784925 21.716208 0.000000 0.072071
662.000000 46.469000 2.000000 -6.000000 11.000000 91.054567 23.638361 503.920185 919.373241 21.533500 0.000000 0.119564
663.000000 47.848000 3.000000 -6.000000 11.000000 97.878241 19.926927 584.814710 782.583723 20.910273 0.000000 0.126430
664.000000 48.541000 4.000000 -6.000000 11.000000 104.079709 15.930000 667.800149 660.278390 20.609227 0.000000 0.129559
665.000000 48.640000 5.000000 -6.000000 11.000000 109.615629 11.656683 752.958630 549.340352 20.565322 0.000000 0.127740
666.000000 48.250000 6.000000 -6.000000 11.000000 114.467323 7.129554 840.376640 447.429299 20.729920 0.000000 0.120830
667.000000 47.476000 7.000000 -6.000000 11.000000 118.637926 2.386427 930.145318 352.750576 21.065921 0.000000 0.109040
668.000000 46.419000 8.000000 -6.000000 11.000000 122.149081 -2.519592 1022.360768 263.901799 21.544536 0.000000 0.092700
669.000000 46.503000 2.000000 -5.000000 11.000000 87.284382 18.572728 613.357182 994.855588 21.519220 0.000000 0.134117
670.000000 47.973000 3.000000 -5.000000 11.000000 94.093902 14.682646 692.987877 861.364891 20.857464 0.000000 0.145404
671.000000 48.702000 4.000000 -5.000000 11.000000 100.235481 10.546889 774.609452 743.316158 20.542839 0.000000 0.150296
672.000000 48.795000 5.000000 -5.000000 11.000000 105.672962 6.188399 858.297516 637.245240 20.501415 0.000000 0.148525
673.000000 48.372000 6.000000 -5.000000 11.000000 110.398456 1.642810 944.131553 540.598187 20.678864 0.000000 0.140496
674.000000 47.551000 7.000000 -5.000000 11.000000 114.427971 -3.041884 1032.195178 451.447802 21.034369 0.000000 0.126746
675.000000 46.439000 8.000000 -5.000000 11.000000 117.796500 -7.807442 1122.576405 368.309695 21.536666 0.000000 0.107783
676.000000 45.909000 2.000000 -4.000000 11.000000 82.804782 13.529348 716.021454 1080.754491 21.799976 0.000000 0.137403
677.000000 47.497000 3.000000 -4.000000 11.000000 89.587453 9.526079 794.386468 948.858148 21.068337 0.000000 0.153557
678.000000 48.297000 4.000000 -4.000000 11.000000 95.669291 5.326736 874.648626 833.690705 20.717008 0.000000 0.161107
679.000000 48.425000 5.000000 -4.000000 11.000000 101.022462 0.964639 956.877664 731.321939 20.660283 0.000000 0.160461
680.000000 48.011000 6.000000 -4.000000 11.000000 105.649942 -3.516854 1041.146778 638.912811 20.836409 0.000000 0.152457
681.000000 47.184000 7.000000 -4.000000 11.000000 109.579442 -8.066264 1127.532842 554.358678 21.199765 0.000000 0.137904
682.000000 46.060000 8.000000 -4.000000 11.000000 112.856909 -12.627192 1216.116642 476.063732 21.715919 0.000000 0.117477
683.000000 46.331000 3.000000 -3.000000 11.000000 84.382983 4.535246 889.627569 1047.186796 21.601007 0.000000 0.150361
684.000000 47.246000 4.000000 -3.000000 11.000000 90.416019 0.343805 968.541585 933.184854 21.180158 0.000000 0.161917
685.000000 47.458000 5.000000 -3.000000 11.000000 95.710532 -3.950598 1049.329333 833.115387 21.083194 0.000000 0.163685
686.000000 47.107000 6.000000 -3.000000 11.000000 100.278790 -8.302293 1132.058349 743.748546 21.238341 0.000000 0.156949
687.000000 46.328000 7.000000 -3.000000 11.000000 104.157553 -12.661799 1216.799455 662.736820 21.593576 0.000000 0.142825
688.000000 45.502000 4.000000 -2.000000 11.000000 84.546239 -4.348215 1056.837866 1044.055401 21.994645 0.000000 0.152712
689.000000 45.856000 5.000000 -2.000000 11.000000 89.814383 -8.518408 1136.206784 944.525704 21.822279 0.000000 0.158401
690.000000 45.628000 6.000000 -2.000000 11.000000 94.366858 -12.693481 1217.424711 856.750813 21.929132 0.000000 0.154332
#UB matrix in q= (UB) B0 G* 
#[[-0.757564329  0.601242532 -0.252572791]
# [-0.644732863 -0.751040085  0.145959299]
# [-0.102057941  0.273653809  0.957317879]]
#B0 matrix in q= UB (B0) G*
#[[ 0.19670273 -0.          0.03056101]
# [ 0.          0.19187965 -0.        ]
# [ 0.          0.          0.18806537]]
#UBB0 matrix in q= (UB B0) G* i.e. recip. basis vectors are columns in LT frame: astar = UBB0[:,0], bstar = UBB0[:,1], cstar = UBB0[:,2]. (abcstar as columns on xyzlab1, xlab1 = ui, ui = unit vector along incident beam)
#[[-0.14901497  0.11536621 -0.07065212]
# [-0.12682072 -0.14410931  0.0077462 ]
# [-0.02007508  0.0525086   0.17691935]]
#Euler angles phi theta psi (deg)
#[200.451  16.983  60.029]
#deviatoric strain in direct crystal frame (10-3 unit)
#[[-3.54 -0.36  0.65]
# [-0.36 -3.67 -0.58]
# [ 0.65 -0.58  7.21]]
#deviatoric strain in sample2 frame (10-3 unit)
#[[-2.05  0.59  3.38]
# [ 0.59 -3.73  1.53]
# [ 3.37  1.53  5.78]]
#new lattice parameters
#[ 5.1505     5.2109421  5.3136688 90.0283488 99.1969093 90.0413729]
#CCDLabel
#sCMOS
#DetectorParameters
#[79.0, 975.0, 941.0, 0.0, 0.0]
#pixelsize
#0.0734
#Frame dimensions
#[2018, 2016]
#
