#Strain and Orientation Refinement from experimental file: /home/micha/LaueProjects/DepthEffects/testZrO2_122.cor
#File created at Wed Jun 28 14:25:48 2023 with indexingSpotsSet.py
#Number of indexed spots: 539
#Element
#ZrO2
#grainIndex
#G_0
#Mean Deviation(pixel): 0.115
##spot_index intensity h k l 2theta Chi Xexp Yexp Energy GrainIndex PixDev
1.000000 46.037000 -7.000000 1.000000 -11.000000 100.429226 51.549957 -380.511614 622.417961 21.734483 0.000000 0.309471
2.000000 45.944000 -6.000000 1.000000 -11.000000 94.197507 49.554877 -287.625500 819.235462 21.780877 0.000000 0.256460
3.000000 46.101000 -8.000000 2.000000 -11.000000 108.587802 47.450569 -197.536572 405.738187 21.701528 0.000000 0.219950
4.000000 46.507000 -7.000000 2.000000 -11.000000 102.923616 45.454132 -118.492567 588.928353 21.513930 0.000000 0.165477
5.000000 46.460000 -6.000000 2.000000 -11.000000 96.649065 43.534219 -47.587479 767.935193 21.538134 0.000000 0.135250
6.000000 45.822000 -5.000000 2.000000 -11.000000 89.729778 41.690579 16.374200 947.797651 21.841260 0.000000 0.130248
7.000000 46.109000 -8.000000 3.000000 -11.000000 110.442763 41.073215 36.974340 408.833216 21.697549 0.000000 0.103338
8.000000 46.506000 -7.000000 3.000000 -11.000000 104.724203 39.191552 97.460039 576.054505 21.514319 0.000000 0.070577
9.000000 46.460000 -6.000000 3.000000 -11.000000 98.412658 37.395683 152.239371 740.642260 21.538061 0.000000 0.071161
10.000000 45.840000 -5.000000 3.000000 -11.000000 91.477904 35.683167 202.083489 906.813189 21.832440 0.000000 0.090211
11.000000 45.717000 -8.000000 4.000000 -11.000000 111.583361 34.626485 231.779804 423.577359 21.883200 0.000000 0.026669
12.000000 46.066000 -7.000000 4.000000 -11.000000 105.816548 32.907535 278.513193 577.832915 21.719880 0.000000 0.045115
13.000000 45.982000 -6.000000 4.000000 -11.000000 99.481332 31.277624 321.178392 730.683530 21.761770 0.000000 0.076146
20.000000 50.747000 -6.000000 1.000000 -10.000000 98.290739 50.147881 -314.421682 696.251776 19.717734 0.000000 0.269207
21.000000 50.335000 -5.000000 1.000000 -10.000000 91.110295 47.991559 -219.991799 909.831249 19.881905 0.000000 0.226219
22.000000 49.018000 -4.000000 1.000000 -10.000000 83.119768 45.915640 -136.256336 1127.669586 20.419227 0.000000 0.213538
23.000000 46.575000 -3.000000 1.000000 -10.000000 74.303370 43.920854 -61.495902 1360.915197 21.493689 0.000000 0.225672
26.000000 50.121000 -4.000000 1.000000 -5.000000 113.145933 47.827119 -213.116831 255.686890 9.979611 0.000000 0.247563
27.000000 50.928000 -7.000000 2.000000 -10.000000 107.374339 45.586610 -123.561841 459.796384 19.644982 0.000000 0.175779
28.000000 51.247000 -3.000000 1.000000 -5.000000 100.902296 43.441530 -44.279680 655.484149 9.762457 0.000000 0.129344
29.000000 50.894000 -5.000000 2.000000 -10.000000 93.677568 41.391540 26.401363 848.788736 19.662938 0.000000 0.114739
30.000000 49.660000 -2.000000 1.000000 -5.000000 85.662880 39.435360 89.808940 1046.689284 10.077247 0.000000 0.124886
31.000000 47.334000 -3.000000 2.000000 -10.000000 76.846579 37.570950 147.010830 1258.335285 21.148691 0.000000 0.144793
34.000000 48.922000 -9.000000 3.000000 -10.000000 120.274991 42.880242 -24.462932 83.569915 20.446617 0.000000 0.183580
35.000000 50.030000 -8.000000 3.000000 -10.000000 115.049681 40.673863 50.094760 277.761779 19.995364 0.000000 0.115049
36.000000 50.805000 -7.000000 3.000000 -10.000000 109.199104 38.578577 116.464237 461.582428 19.692329 0.000000 0.065083
37.000000 51.102000 -6.000000 3.000000 -10.000000 102.669826 36.591392 175.924175 639.647721 19.580273 0.000000 0.054988
38.000000 50.746000 -5.000000 3.000000 -10.000000 95.415863 34.708574 229.500187 816.872127 19.720150 0.000000 0.078015
39.000000 49.544000 -4.000000 3.000000 -10.000000 87.406287 32.925869 278.024472 999.085979 20.201943 0.000000 0.101162
40.000000 47.299000 -3.000000 3.000000 -10.000000 78.635021 31.238686 322.179361 1194.018542 21.164279 0.000000 0.115212
42.000000 47.195000 -5.000000 2.000000 -5.000000 126.183763 37.572583 146.961985 -52.285896 10.596567 0.000000 0.140326
43.000000 48.441000 -9.000000 4.000000 -10.000000 121.411867 35.447500 208.773751 134.173694 20.649558 0.000000 0.077841
44.000000 49.463000 -4.000000 2.000000 -5.000000 116.088732 33.445992 264.074435 309.402353 10.112308 0.000000 0.024231
45.000000 50.152000 -7.000000 4.000000 -10.000000 110.164648 31.562061 313.841351 477.137107 19.948763 0.000000 0.032381
46.000000 50.372000 -3.000000 2.000000 -5.000000 103.592856 29.789372 358.865542 641.134055 9.931928 0.000000 0.070783
47.000000 49.964000 -5.000000 4.000000 -10.000000 96.334643 28.121463 399.794137 805.524427 20.029038 0.000000 0.099460
48.000000 48.751000 -2.000000 2.000000 -5.000000 88.366332 26.551899 437.161653 975.315877 10.265344 0.000000 0.115168
49.000000 46.560000 -3.000000 4.000000 -10.000000 79.687983 25.074389 471.413475 1157.204504 21.500137 0.000000 0.116143
50.000000 46.458000 -4.000000 2.000000 -4.000000 126.589466 29.970785 354.332718 18.642952 8.611701 0.000000 0.056959
51.000000 47.585000 -9.000000 5.000000 -10.000000 121.707368 28.108905 400.097389 187.163646 21.020989 0.000000 0.011612
52.000000 48.481000 -8.000000 5.000000 -10.000000 116.298619 26.368782 441.453619 347.324942 20.634185 0.000000 0.039870
53.000000 49.045000 -7.000000 5.000000 -10.000000 110.319711 24.741764 479.009125 502.161791 20.399275 0.000000 0.077771
54.000000 49.151000 -6.000000 5.000000 -10.000000 103.730965 23.219554 513.264831 654.832045 20.357788 0.000000 0.107786
55.000000 48.656000 -2.000000 2.000000 -4.000000 96.501273 21.794294 544.637338 808.905820 8.227166 0.000000 0.127416
56.000000 47.405000 -4.000000 5.000000 -10.000000 88.614348 20.458613 573.475951 968.787053 21.113786 0.000000 0.134057
57.000000 46.416000 -9.000000 6.000000 -10.000000 121.238298 21.091579 559.874328 241.314937 21.550757 0.000000 0.049544
58.000000 47.161000 -4.000000 3.000000 -5.000000 115.767883 19.640893 590.883055 389.346710 10.606193 0.000000 0.083624
59.000000 47.574000 -7.000000 6.000000 -10.000000 109.762291 18.290052 619.256996 533.735177 21.030260 0.000000 0.113232
60.000000 47.545000 -3.000000 3.000000 -5.000000 103.188912 17.030449 645.318280 677.209798 10.523007 0.000000 0.135451
61.000000 46.946000 -5.000000 6.000000 -10.000000 96.024067 15.854243 669.338579 822.928332 21.317516 0.000000 0.147849
62.000000 45.646000 -2.000000 3.000000 -5.000000 88.258438 14.754319 691.548617 974.840962 10.963816 0.000000 0.147720
63.000000 45.580000 -8.000000 7.000000 -10.000000 114.619484 13.405247 718.486379 433.977206 21.948519 0.000000 0.113665
64.000000 45.834000 -7.000000 7.000000 -10.000000 108.619599 12.325448 739.829092 569.821705 21.829357 0.000000 0.137222
65.000000 45.663000 -6.000000 7.000000 -10.000000 102.095742 11.319735 759.549624 705.770257 21.914073 0.000000 0.153551
69.000000 56.345000 -6.000000 1.000000 -9.000000 102.982195 50.892222 -349.012542 547.630833 17.757527 0.000000 0.294061
70.000000 56.393000 -5.000000 1.000000 -9.000000 95.525072 48.450808 -239.426819 784.032496 17.744567 0.000000 0.228859
71.000000 55.371000 -4.000000 1.000000 -9.000000 87.095549 46.110017 -143.826667 1019.765976 18.075028 0.000000 0.201514
72.000000 52.940000 -3.000000 1.000000 -9.000000 77.652980 43.871083 -59.695377 1267.807049 18.908086 0.000000 0.207121
73.000000 48.793000 -2.000000 1.000000 -9.000000 67.207383 41.733893 14.914090 1547.060401 20.519267 0.000000 0.238049
76.000000 55.953000 -7.000000 2.000000 -9.000000 112.414200 45.754654 -130.026533 304.755144 17.879440 0.000000 0.196982
77.000000 56.798000 -6.000000 2.000000 -9.000000 105.772765 43.324573 -40.120289 523.107153 17.615228 0.000000 0.130011
78.000000 56.898000 -5.000000 2.000000 -9.000000 98.249309 41.016327 38.853054 734.191108 17.586627 0.000000 0.099417
79.000000 55.959000 -4.000000 2.000000 -9.000000 89.780764 38.827917 108.773411 946.286493 17.884736 0.000000 0.106388
80.000000 53.659000 -3.000000 2.000000 -9.000000 80.333724 36.756147 171.113057 1169.812753 18.654569 0.000000 0.127491
81.000000 49.706000 -2.000000 2.000000 -9.000000 69.923748 34.796933 227.041439 1420.020570 20.141865 0.000000 0.152244
84.000000 54.377000 -8.000000 3.000000 -9.000000 120.194560 40.163272 66.642806 121.484774 18.395343 0.000000 0.136224
85.000000 55.657000 -7.000000 3.000000 -9.000000 114.241013 37.800447 140.127120 327.658210 17.974075 0.000000 0.068991
86.000000 56.440000 -2.000000 1.000000 -3.000000 107.510056 35.577857 205.077946 523.501841 5.908992 0.000000 0.037927
87.000000 56.496000 -5.000000 3.000000 -9.000000 99.933640 33.489493 262.900161 714.983707 17.711809 0.000000 0.065553
88.000000 55.554000 -4.000000 3.000000 -9.000000 91.458902 31.528619 314.706301 908.841523 18.015061 0.000000 0.095509
89.000000 53.323000 -1.000000 1.000000 -3.000000 82.062121 29.688099 361.388847 1113.749557 6.257439 0.000000 0.111521
90.000000 49.542000 -2.000000 3.000000 -9.000000 71.765816 27.960647 403.672062 1342.439329 20.208882 0.000000 0.115377
94.000000 52.118000 -9.000000 4.000000 -9.000000 126.466215 34.174854 244.241484 -20.450544 19.191181 0.000000 0.098986
95.000000 53.582000 -8.000000 4.000000 -9.000000 121.075306 31.943770 303.924512 176.618262 18.668326 0.000000 0.036515
96.000000 54.720000 -7.000000 4.000000 -9.000000 115.010051 29.865098 356.975442 361.993986 18.281937 0.000000 0.019074
97.000000 55.364000 -6.000000 4.000000 -9.000000 108.206546 27.928680 404.441544 540.330742 18.071639 0.000000 0.065472
98.000000 55.303000 -5.000000 4.000000 -9.000000 100.607532 26.124391 447.160616 716.495180 18.094042 0.000000 0.100363
99.000000 54.295000 -4.000000 4.000000 -9.000000 92.171597 24.442387 485.810863 896.169466 18.432935 0.000000 0.120658
100.000000 52.087000 -3.000000 4.000000 -9.000000 82.885524 22.873267 520.947169 1086.800442 19.217818 0.000000 0.123071
101.000000 48.460000 -2.000000 4.000000 -9.000000 72.778748 21.408166 553.027909 1299.329648 20.660004 0.000000 0.106709
104.000000 49.529000 -10.000000 5.000000 -9.000000 131.404127 27.888208 405.415103 -132.718421 20.193050 0.000000 0.075380
105.000000 51.024000 -9.000000 5.000000 -9.000000 126.469798 25.854925 453.425543 56.971525 19.602929 0.000000 0.027179
106.000000 52.304000 -8.000000 5.000000 -9.000000 120.955193 23.976961 496.321387 234.475432 19.124700 0.000000 0.033624
107.000000 53.249000 -7.000000 5.000000 -9.000000 114.804044 22.240778 534.878596 403.608902 18.787255 0.000000 0.073958
108.000000 53.704000 -6.000000 5.000000 -9.000000 107.962222 20.633756 569.723723 568.158168 18.630369 0.000000 0.108475
109.000000 53.482000 -5.000000 5.000000 -9.000000 100.383563 19.144265 601.368215 732.236702 18.710360 0.000000 0.132662
110.000000 52.373000 -4.000000 5.000000 -9.000000 92.038126 17.761675 630.233693 900.780782 19.109687 0.000000 0.143027
111.000000 50.166000 -3.000000 5.000000 -9.000000 82.922723 16.476323 656.670837 1080.348134 19.954100 0.000000 0.135619
112.000000 46.686000 -2.000000 5.000000 -9.000000 73.072597 15.279469 680.973706 1280.568675 21.445358 0.000000 0.106815
113.000000 46.841000 -11.000000 6.000000 -9.000000 135.192112 21.439830 552.341537 -223.088884 21.350955 0.000000 0.058049
114.000000 48.280000 -10.000000 6.000000 -9.000000 130.632398 19.662584 590.423641 -39.738325 20.715650 0.000000 0.027099
115.000000 49.577000 -3.000000 2.000000 -3.000000 125.574758 18.032785 624.609789 131.397921 6.725128 0.000000 0.042780
116.000000 50.644000 -8.000000 6.000000 -9.000000 119.971081 16.535151 655.468745 293.550247 19.752254 0.000000 0.078076
117.000000 51.368000 -7.000000 6.000000 -9.000000 113.773242 15.156049 683.463701 449.813186 19.475776 0.000000 0.111084
118.000000 51.612000 -2.000000 2.000000 -3.000000 106.936779 13.883366 708.975685 603.378772 6.462099 0.000000 0.137284
119.000000 51.212000 -5.000000 6.000000 -9.000000 99.426239 12.706363 732.321004 757.828349 19.540454 0.000000 0.153588
120.000000 49.993000 -4.000000 6.000000 -9.000000 91.222329 11.615532 753.764430 917.555076 20.020334 0.000000 0.156688
121.000000 47.784000 -1.000000 2.000000 -3.000000 82.330577 10.602454 773.529281 1088.453259 6.983184 0.000000 0.142565
122.000000 45.534000 -11.000000 7.000000 -9.000000 133.765844 13.509075 716.424306 -119.231645 21.964031 0.000000 0.025003
123.000000 46.779000 -10.000000 7.000000 -9.000000 129.093241 12.158817 743.106596 46.463527 21.381167 0.000000 0.044566
124.000000 47.862000 -9.000000 7.000000 -9.000000 123.952262 10.923196 767.286470 202.962659 20.898815 0.000000 0.076583
125.000000 48.703000 -8.000000 7.000000 -9.000000 118.301337 9.789222 789.300193 352.879751 20.539835 0.000000 0.107917
126.000000 49.201000 -7.000000 7.000000 -9.000000 112.100345 8.745637 809.426369 498.813409 20.334586 0.000000 0.134865
127.000000 49.232000 -6.000000 7.000000 -9.000000 105.314051 7.782663 827.897787 643.535488 20.324278 0.000000 0.154813
128.000000 48.659000 -5.000000 7.000000 -9.000000 97.916847 6.891795 844.910467 790.239934 20.566299 0.000000 0.165132
129.000000 47.340000 -4.000000 7.000000 -9.000000 89.898749 6.065611 860.630646 942.912700 21.143008 0.000000 0.162771
130.000000 45.961000 -9.000000 8.000000 -9.000000 121.788144 4.619786 888.029328 271.803420 21.764260 0.000000 0.100175
131.000000 46.580000 -8.000000 8.000000 -9.000000 116.131095 3.805371 903.411269 411.837718 21.477240 0.000000 0.127115
132.000000 46.858000 -7.000000 8.000000 -9.000000 109.967905 3.054477 917.567600 549.387203 21.351957 0.000000 0.149145
133.000000 46.692000 -6.000000 8.000000 -9.000000 103.271836 2.360181 930.639191 686.917821 21.430685 0.000000 0.164133
134.000000 45.967000 -5.000000 8.000000 -9.000000 96.025934 1.716499 942.746120 827.333336 21.771839 0.000000 0.169740
143.000000 63.647000 -5.000000 1.000000 -8.000000 100.696781 49.041687 -264.955828 630.851610 15.720862 0.000000 0.242127
144.000000 63.179000 -4.000000 1.000000 -8.000000 91.827914 46.358877 -153.597247 891.229169 15.839850 0.000000 0.192053
145.000000 60.953000 -3.000000 1.000000 -8.000000 81.700776 43.807711 -57.407185 1158.551103 16.421389 0.000000 0.187093
146.000000 56.445000 -2.000000 1.000000 -8.000000 70.296121 41.388106 26.515970 1454.765027 17.736586 0.000000 0.214078
147.000000 49.279000 -1.000000 1.000000 -8.000000 57.697738 39.098116 100.378120 1817.811339 20.319862 0.000000 0.277276
149.000000 61.642000 -7.000000 2.000000 -8.000000 118.144363 45.974799 -138.554777 112.539590 16.227859 0.000000 0.232576
150.000000 63.235000 -3.000000 1.000000 -4.000000 111.383196 43.172385 -34.731857 363.141912 7.910385 0.000000 0.141980
151.000000 64.035000 -5.000000 2.000000 -8.000000 103.586186 40.531636 54.729570 598.773482 15.625216 0.000000 0.086891
152.000000 63.631000 -2.000000 1.000000 -4.000000 94.651241 38.049226 132.616609 829.803175 7.863450 0.000000 0.086059
153.000000 61.538000 -3.000000 2.000000 -8.000000 84.508138 35.719834 201.038999 1068.458351 16.265042 0.000000 0.110710
154.000000 57.267000 -1.000000 1.000000 -4.000000 73.148714 33.536752 261.623105 1332.111625 8.740952 0.000000 0.133516
155.000000 50.472000 -1.000000 2.000000 -8.000000 60.661903 31.492381 315.642858 1650.420333 19.839737 0.000000 0.172427
157.000000 59.160000 -8.000000 3.000000 -8.000000 125.951143 39.487573 88.163451 -70.415015 16.906767 0.000000 0.166933
158.000000 61.106000 -7.000000 3.000000 -8.000000 119.937741 36.780471 170.401032 167.104476 16.369860 0.000000 0.085340
159.000000 62.566000 -6.000000 3.000000 -8.000000 113.034726 34.262189 241.842153 387.283748 15.989618 0.000000 0.024314
160.000000 63.246000 -5.000000 3.000000 -8.000000 105.143663 31.922397 304.481949 597.811282 15.820119 0.000000 0.052609
161.000000 62.767000 -4.000000 3.000000 -8.000000 96.178950 29.749785 359.852490 806.788046 15.943561 0.000000 0.092175
162.000000 60.694000 -3.000000 3.000000 -8.000000 86.087368 27.732671 409.149761 1024.166207 16.491284 0.000000 0.112735
163.000000 56.603000 -2.000000 3.000000 -8.000000 74.874614 25.859431 453.321023 1264.290214 17.686933 0.000000 0.111996
164.000000 50.206000 -1.000000 3.000000 -8.000000 62.634538 24.118806 493.126279 1551.359429 19.944843 0.000000 0.113007
167.000000 56.058000 -9.000000 4.000000 -8.000000 132.018418 32.482878 289.777006 -208.575161 17.840930 0.000000 0.123918
168.000000 59.793000 -7.000000 4.000000 -8.000000 120.406283 27.662802 410.823923 227.868943 16.729491 0.000000 0.011182
169.000000 61.015000 -3.000000 2.000000 -4.000000 113.383052 25.541663 460.672946 425.217399 8.198184 0.000000 0.059626
170.000000 61.469000 -5.000000 4.000000 -8.000000 105.437225 23.590718 504.986212 616.682717 16.277759 0.000000 0.101162
171.000000 58.696000 -3.000000 4.000000 -8.000000 86.540025 20.137874 580.325299 1010.311561 17.052997 0.000000 0.133360
172.000000 54.751000 -1.000000 2.000000 -4.000000 75.572816 18.608175 612.615998 1233.163229 9.142793 0.000000 0.114128
173.000000 48.766000 -1.000000 4.000000 -8.000000 63.696322 17.193139 641.972490 1497.909943 20.534151 0.000000 0.080625
176.000000 52.743000 -10.000000 5.000000 -8.000000 136.581393 25.125751 470.236926 -315.280868 18.961286 0.000000 0.092446
177.000000 54.674000 -9.000000 5.000000 -8.000000 131.611494 22.907542 520.188522 -96.812923 18.292812 0.000000 0.043146
178.000000 56.425000 -8.000000 5.000000 -8.000000 126.005524 20.891396 564.188361 103.830728 17.726681 0.000000 0.028745
179.000000 57.855000 -7.000000 5.000000 -8.000000 119.691770 19.055274 603.240365 291.719519 17.290151 0.000000 0.068002
180.000000 58.777000 -6.000000 5.000000 -8.000000 112.597656 17.379402 638.134692 471.604648 17.021101 0.000000 0.106996
181.000000 58.950000 -5.000000 5.000000 -8.000000 104.656666 15.846205 669.501755 648.389605 16.973766 0.000000 0.136459
182.000000 58.088000 -4.000000 5.000000 -8.000000 95.819036 14.440144 697.850650 827.734521 17.228630 0.000000 0.151677
183.000000 55.887000 -3.000000 5.000000 -8.000000 86.066473 13.147535 723.596996 1016.999258 17.910498 0.000000 0.147461
184.000000 52.080000 -2.000000 5.000000 -8.000000 75.429732 11.956350 747.083454 1226.961051 19.223866 0.000000 0.117569
185.000000 46.514000 -1.000000 5.000000 -8.000000 64.005391 10.856020 768.595056 1475.381976 21.528620 0.000000 0.062045
188.000000 49.454000 -11.000000 6.000000 -8.000000 139.879225 17.642208 632.706475 -399.234687 20.221627 0.000000 0.065950
189.000000 51.232000 -5.000000 3.000000 -4.000000 135.280848 15.796607 670.508254 -188.556418 9.760418 0.000000 0.032774
190.000000 52.897000 -9.000000 6.000000 -8.000000 130.146099 14.132478 704.004874 4.861664 18.907903 0.000000 0.034171
191.000000 54.351000 -4.000000 3.000000 -4.000000 124.415862 12.626745 733.892169 185.332226 9.201914 0.000000 0.069117
192.000000 55.462000 -7.000000 6.000000 -8.000000 118.028752 11.259631 760.723683 356.786539 18.036884 0.000000 0.105428
193.000000 56.062000 -3.000000 3.000000 -4.000000 110.925239 10.014198 784.945274 523.092890 8.923032 0.000000 0.136037
194.000000 55.943000 -5.000000 6.000000 -8.000000 103.054147 8.875927 806.920084 688.421610 17.886693 0.000000 0.156977
195.000000 54.869000 -2.000000 3.000000 -4.000000 94.381952 7.832350 826.946872 857.748044 9.119986 0.000000 0.164242
196.000000 52.601000 -3.000000 6.000000 -8.000000 84.904760 6.872737 845.273677 1037.661153 19.030123 0.000000 0.152955
197.000000 48.941000 -1.000000 3.000000 -4.000000 74.661623 5.987825 862.108140 1237.835309 10.228611 0.000000 0.116694
199.000000 47.922000 -11.000000 7.000000 -8.000000 137.858707 8.852171 807.377195 -262.772602 20.868821 0.000000 0.020583
200.000000 49.450000 -10.000000 7.000000 -8.000000 133.119827 7.568561 831.992723 -75.735024 20.225286 0.000000 0.031481
201.000000 50.834000 -9.000000 7.000000 -8.000000 127.878021 6.411144 854.062275 98.521984 19.676066 0.000000 0.063850
202.000000 51.982000 -8.000000 7.000000 -8.000000 122.082150 5.363001 873.961423 263.342609 19.243201 0.000000 0.097724
203.000000 52.775000 -7.000000 7.000000 -8.000000 115.681139 4.409967 891.995331 421.914030 18.956182 0.000000 0.128320
204.000000 53.064000 -6.000000 7.000000 -8.000000 108.627953 3.540120 908.414512 577.508687 18.855381 0.000000 0.152414
205.000000 52.674000 -5.000000 7.000000 -8.000000 100.885406 2.743379 923.426545 733.785210 18.997590 0.000000 0.166876
206.000000 51.417000 -4.000000 7.000000 -8.000000 92.433941 2.011170 937.204889 895.222990 19.465306 0.000000 0.168153
207.000000 49.111000 -3.000000 7.000000 -8.000000 83.281002 1.336172 949.895618 1067.831825 20.383131 0.000000 0.151780
208.000000 45.617000 -2.000000 7.000000 -8.000000 73.470722 0.712099 961.622622 1260.435887 21.948566 0.000000 0.111704
209.000000 46.202000 -11.000000 8.000000 -8.000000 135.182978 1.352322 949.592069 -142.492562 21.646241 0.000000 0.024180
210.000000 47.477000 -5.000000 4.000000 -4.000000 130.358215 0.534276 964.963399 26.314614 10.533202 0.000000 0.054146
211.000000 48.584000 -9.000000 8.000000 -8.000000 125.063156 -0.206473 978.878591 185.596310 20.587989 0.000000 0.085644
212.000000 49.439000 -2.000000 2.000000 -2.000000 119.254818 -0.880171 991.535201 338.056199 5.058545 0.000000 0.115557
213.000000 49.934000 -7.000000 8.000000 -8.000000 112.892097 -1.495363 1003.096591 486.375601 20.035812 0.000000 0.141226
214.000000 49.943000 -3.000000 4.000000 -4.000000 105.939421 -2.059229 1013.699027 633.410106 10.017404 0.000000 0.160092
215.000000 49.323000 -5.000000 8.000000 -8.000000 98.371747 -2.577837 1023.457066 782.448508 20.289654 0.000000 0.169442
216.000000 47.926000 -1.000000 2.000000 -2.000000 90.180847 -3.056352 1032.467720 937.597959 5.221119 0.000000 0.166109
217.000000 45.618000 -3.000000 8.000000 -8.000000 81.382406 -3.499189 1040.813687 1104.416946 21.944834 0.000000 0.146095
218.000000 46.235000 -9.000000 9.000000 -8.000000 121.919280 -5.800129 1084.328427 267.113238 21.635097 0.000000 0.099461
219.000000 46.820000 -8.000000 9.000000 -8.000000 116.141877 -6.184581 1091.629922 409.660677 21.367049 0.000000 0.125703
220.000000 47.051000 -7.000000 9.000000 -8.000000 109.859006 -6.537647 1098.344673 549.713231 21.264675 0.000000 0.147221
221.000000 46.821000 -6.000000 9.000000 -8.000000 103.045123 -6.862996 1104.540672 689.825178 21.371535 0.000000 0.161802
222.000000 46.018000 -5.000000 9.000000 -8.000000 95.685221 -7.163749 1110.275798 833.008935 21.747929 0.000000 0.167054
227.000000 72.361000 -5.000000 1.000000 -7.000000 106.808517 49.830048 -299.977954 436.971725 13.826331 0.000000 0.273833
228.000000 72.876000 -4.000000 1.000000 -7.000000 97.533307 46.688847 -166.690395 733.504835 13.730809 0.000000 0.189447
229.000000 71.225000 -3.000000 1.000000 -7.000000 86.676294 43.724282 -54.402170 1027.491987 14.051818 0.000000 0.165739
230.000000 66.510000 -2.000000 1.000000 -7.000000 74.158339 40.936405 41.486977 1345.277115 15.051632 0.000000 0.187550
231.000000 57.976000 -1.000000 1.000000 -7.000000 60.046489 38.321925 124.325059 1731.572328 17.271213 0.000000 0.246542
233.000000 70.669000 -6.000000 2.000000 -7.000000 117.881848 42.966227 -27.475205 162.827597 14.155059 0.000000 0.170033
234.000000 72.529000 -5.000000 2.000000 -7.000000 109.866176 39.881481 75.669208 434.212712 13.793863 0.000000 0.083899
235.000000 73.050000 -4.000000 2.000000 -7.000000 100.474149 37.015447 163.499065 691.803030 13.697841 0.000000 0.063236
236.000000 71.496000 -3.000000 2.000000 -7.000000 89.574153 34.358536 239.189440 950.690390 13.998467 0.000000 0.095249
237.000000 67.045000 -2.000000 2.000000 -7.000000 77.109723 31.898901 305.094448 1231.126440 14.931332 0.000000 0.118654
238.000000 59.024000 -1.000000 2.000000 -7.000000 63.161619 29.623469 362.996475 1567.464161 16.964658 0.000000 0.144542
239.000000 47.286000 0.000000 2.000000 -7.000000 48.005630 27.518713 414.269808 2033.515470 21.180558 0.000000 0.262122
242.000000 67.167000 -7.000000 3.000000 -7.000000 126.384429 35.386242 210.506356 -31.762684 14.891399 0.000000 0.112925
243.000000 69.556000 -6.000000 3.000000 -7.000000 119.356650 32.487911 289.644132 223.294231 14.381388 0.000000 0.031129
244.000000 71.156000 -5.000000 3.000000 -7.000000 111.175064 29.837222 357.671558 460.359167 14.059938 0.000000 0.039055
245.000000 71.452000 -4.000000 3.000000 -7.000000 101.706102 27.413726 416.774881 689.779893 14.004144 0.000000 0.090522
246.000000 69.795000 -3.000000 3.000000 -7.000000 90.848238 25.197049 468.602057 923.389096 14.339765 0.000000 0.118625
247.000000 65.486000 -2.000000 3.000000 -7.000000 78.572812 23.167651 514.418813 1177.633191 15.286807 0.000000 0.116948
248.000000 57.987000 -1.000000 3.000000 -7.000000 64.974768 21.307255 555.213392 1480.327005 17.268174 0.000000 0.096246
249.000000 47.213000 0.000000 3.000000 -7.000000 50.315942 19.599065 591.768643 1888.973802 21.213647 0.000000 0.176363
252.000000 62.901000 -8.000000 4.000000 -7.000000 132.664808 27.272557 420.135795 -175.011925 15.900016 0.000000 0.079932
253.000000 65.361000 -7.000000 4.000000 -7.000000 126.393340 24.700654 479.945063 67.784238 15.302860 0.000000 0.022708
254.000000 67.358000 -6.000000 4.000000 -7.000000 119.170248 22.381449 531.791141 291.267971 14.850948 0.000000 0.052423
255.000000 68.550000 -5.000000 4.000000 -7.000000 110.879255 20.286022 577.165129 503.300695 14.594808 0.000000 0.100264
256.000000 68.484000 -4.000000 4.000000 -7.000000 101.415080 18.388344 617.207723 711.993153 14.611476 0.000000 0.133805
257.000000 66.616000 -3.000000 4.000000 -7.000000 90.707242 16.665309 652.806432 927.131344 15.024512 0.000000 0.145476
258.000000 62.392000 -2.000000 4.000000 -7.000000 78.753795 15.096595 684.662130 1162.664194 16.045359 0.000000 0.126862
259.000000 55.420000 -1.000000 4.000000 -7.000000 65.659826 13.664422 713.335670 1442.056193 18.068379 0.000000 0.075066
260.000000 45.685000 0.000000 4.000000 -7.000000 51.666626 12.353283 739.281180 1812.195151 21.923241 0.000000 0.122743
263.000000 58.486000 -9.000000 5.000000 -7.000000 137.104238 18.914637 606.194898 -283.523512 17.099516 0.000000 0.056218
264.000000 60.799000 -8.000000 5.000000 -7.000000 131.421684 16.787932 650.294951 -50.878744 16.450067 0.000000 0.026407
265.000000 62.833000 -7.000000 5.000000 -7.000000 124.957604 14.890481 688.811691 162.410910 15.919150 0.000000 0.058514
266.000000 64.363000 -6.000000 5.000000 -7.000000 117.616335 13.190672 722.742312 362.677756 15.542648 0.000000 0.101586
267.000000 65.085000 -5.000000 5.000000 -7.000000 109.304346 11.661726 752.859881 556.049329 15.372549 0.000000 0.137012
268.000000 64.615000 -4.000000 5.000000 -7.000000 99.943671 10.280995 779.772958 749.232162 15.487136 0.000000 0.158310
269.000000 62.518000 -3.000000 5.000000 -7.000000 89.492177 9.029318 803.967143 950.659343 16.010000 0.000000 0.158915
270.000000 58.381000 -2.000000 5.000000 -7.000000 77.969862 7.890452 825.834640 1172.557503 17.148383 0.000000 0.130354
271.000000 51.942000 -1.000000 5.000000 -7.000000 65.486144 6.850593 845.695676 1435.339237 19.278350 0.000000 0.063076
274.000000 54.238000 -10.000000 6.000000 -7.000000 140.074356 10.658089 772.447379 -367.639580 18.438008 0.000000 0.034323
275.000000 56.322000 -9.000000 6.000000 -7.000000 134.869971 9.044486 803.675006 -143.909308 17.756994 0.000000 0.022501
276.000000 58.229000 -8.000000 6.000000 -7.000000 129.021365 7.613473 831.134083 61.011762 17.176834 0.000000 0.055074
277.000000 59.810000 -7.000000 6.000000 -7.000000 122.451226 6.337235 855.467972 252.404592 16.724550 0.000000 0.094379
278.000000 60.861000 -6.000000 6.000000 -7.000000 115.081208 5.193035 877.181476 435.181129 16.437766 0.000000 0.129777
279.000000 61.121000 -5.000000 6.000000 -7.000000 106.839565 4.162175 896.676231 614.375014 16.370469 0.000000 0.156184
280.000000 60.275000 -4.000000 6.000000 -7.000000 97.672992 3.229188 914.275785 795.765290 16.602991 0.000000 0.168709
281.000000 57.991000 -3.000000 6.000000 -7.000000 87.562991 2.381199 930.243692 986.846137 17.260317 0.000000 0.161542
282.000000 53.977000 -2.000000 6.000000 -7.000000 76.545334 1.607424 944.796805 1198.596263 18.548107 0.000000 0.126833
283.000000 48.073000 -1.000000 6.000000 -7.000000 64.728280 0.898778 958.115177 1449.174709 20.830327 0.000000 0.053217
286.000000 50.301000 -11.000000 7.000000 -7.000000 141.915779 2.824657 921.896128 -434.098483 19.880847 0.000000 0.013824
287.000000 52.139000 -10.000000 7.000000 -7.000000 137.117332 1.729554 942.500659 -218.461666 19.181080 0.000000 0.012950
288.000000 53.859000 -9.000000 7.000000 -7.000000 131.782827 0.759619 960.729811 -20.822364 18.569763 0.000000 0.045271
289.000000 55.359000 -8.000000 7.000000 -7.000000 125.850022 -0.104976 976.971962 163.321437 18.068151 0.000000 0.081175
290.000000 57.106000 -6.000000 7.000000 -7.000000 111.935702 -1.578905 1004.667051 507.388607 17.519629 0.000000 0.144398
291.000000 56.956000 -5.000000 7.000000 -7.000000 103.840717 -2.211779 1016.568660 675.627910 17.568615 0.000000 0.163862
292.000000 55.803000 -4.000000 7.000000 -7.000000 94.937388 -2.787552 1027.405172 847.911346 17.934712 0.000000 0.169776
293.000000 53.401000 -3.000000 7.000000 -7.000000 85.225358 -3.313514 1037.313441 1031.049818 18.745053 0.000000 0.157019
294.000000 49.552000 -2.000000 7.000000 -7.000000 74.750168 -3.795784 1046.407835 1235.073213 20.205206 0.000000 0.118715
296.000000 48.327000 -11.000000 8.000000 -7.000000 138.480572 -4.978136 1068.749696 -279.301625 20.693653 0.000000 0.013747
297.000000 49.850000 -10.000000 8.000000 -7.000000 133.585905 -5.531515 1079.232871 -88.229190 20.062597 0.000000 0.033151
298.000000 51.219000 -9.000000 8.000000 -7.000000 128.189370 -6.026147 1088.619713 89.658787 19.528130 0.000000 0.064383
299.000000 52.336000 -8.000000 8.000000 -7.000000 122.238998 -6.470854 1097.073658 257.845643 19.112946 0.000000 0.096968
300.000000 53.079000 -7.000000 8.000000 -7.000000 115.683644 -6.872783 1104.727194 419.646610 18.847449 0.000000 0.126667
301.000000 53.296000 -6.000000 8.000000 -7.000000 108.477186 -7.237790 1111.688856 578.464708 18.773335 0.000000 0.150128
302.000000 52.809000 -5.000000 8.000000 -7.000000 100.584575 -7.570713 1118.048404 738.108290 18.949375 0.000000 0.164092
303.000000 51.429000 -4.000000 8.000000 -7.000000 91.989822 -7.875584 1123.880716 903.250348 19.461146 0.000000 0.164939
304.000000 48.979000 -3.000000 8.000000 -7.000000 82.705399 -8.155790 1129.248747 1080.181067 20.438279 0.000000 0.148258
305.000000 46.234000 -11.000000 9.000000 -7.000000 134.698832 -11.194724 1188.009018 -144.696021 21.631322 0.000000 0.026711
306.000000 47.459000 -10.000000 9.000000 -7.000000 129.759865 -11.376711 1191.563764 27.594845 21.074656 0.000000 0.046624
307.000000 48.502000 -9.000000 9.000000 -7.000000 124.352552 -11.541083 1194.778338 190.173799 20.623196 0.000000 0.075944
308.000000 49.276000 -8.000000 9.000000 -7.000000 118.434909 -11.690276 1197.699341 345.857185 20.301117 0.000000 0.105379
309.000000 49.674000 -7.000000 9.000000 -7.000000 111.967624 -11.826299 1200.365231 497.440940 20.140614 0.000000 0.131046
310.000000 49.570000 -6.000000 9.000000 -7.000000 104.917821 -11.950821 1202.808032 647.909211 20.185529 0.000000 0.150060
311.000000 48.824000 -5.000000 9.000000 -7.000000 97.264109 -12.065240 1205.054621 800.709756 20.497146 0.000000 0.159623
312.000000 47.294000 -4.000000 9.000000 -7.000000 89.002793 -12.170737 1207.127727 960.165062 21.163815 0.000000 0.156636
313.000000 45.788000 -9.000000 10.000000 -7.000000 120.453461 -16.033859 1284.310872 282.577708 21.846770 0.000000 0.082136
314.000000 46.266000 -8.000000 10.000000 -7.000000 114.605450 -15.980751 1283.231128 428.296338 21.623430 0.000000 0.108791
315.000000 46.377000 -7.000000 10.000000 -7.000000 108.260513 -15.931922 1282.238900 571.686528 21.573915 0.000000 0.130998
316.000000 46.020000 -6.000000 10.000000 -7.000000 101.396633 -15.886876 1281.323962 715.431005 21.744203 0.000000 0.146323
324.000000 85.015000 -4.000000 1.000000 -6.000000 104.506131 47.147259 -185.148113 531.553167 11.768802 0.000000 0.202724
325.000000 84.648000 -3.000000 1.000000 -6.000000 92.912526 43.609483 -50.280933 865.372576 11.822364 0.000000 0.144389
326.000000 80.157000 -2.000000 1.000000 -6.000000 79.111834 40.321424 61.543956 1212.542364 12.487937 0.000000 0.158072
327.000000 70.000000 -1.000000 1.000000 -6.000000 63.108685 37.276968 155.767020 1626.960096 14.303876 0.000000 0.211363
330.000000 82.601000 -5.000000 2.000000 -6.000000 117.310414 38.963994 104.553415 226.228087 12.110511 0.000000 0.100403
331.000000 84.252000 -3.000000 2.000000 -6.000000 95.810916 32.493560 289.494992 811.137022 11.877764 0.000000 0.081924
332.000000 70.523000 -1.000000 2.000000 -6.000000 66.304301 27.137053 423.353787 1471.794745 14.197832 0.000000 0.119444
333.000000 55.364000 0.000000 1.000000 -3.000000 48.892044 24.816160 477.313809 1975.721637 9.045006 0.000000 0.228958
336.000000 80.357000 -5.000000 3.000000 -6.000000 118.162779 26.935835 428.118074 294.679502 12.448760 0.000000 0.026193
337.000000 81.896000 -4.000000 3.000000 -6.000000 108.192989 24.223113 490.772213 553.128081 12.216895 0.000000 0.088781
338.000000 76.797000 -2.000000 3.000000 -6.000000 82.993080 19.614514 591.441599 1081.433280 13.034467 0.000000 0.129904
339.000000 67.989000 -1.000000 3.000000 -6.000000 67.746475 17.652772 632.487948 1403.163370 14.727239 0.000000 0.089735
340.000000 54.362000 0.000000 1.000000 -2.000000 51.099805 15.881887 668.777335 1843.932929 6.141234 0.000000 0.146353
343.000000 71.361000 -7.000000 4.000000 -6.000000 132.971560 20.531753 571.910055 -129.673665 14.015053 0.000000 0.039685
344.000000 76.585000 -5.000000 4.000000 -6.000000 116.949350 15.831574 669.798711 372.223673 13.062311 0.000000 0.095223
345.000000 76.074000 -3.000000 4.000000 -6.000000 95.411299 12.150726 743.265626 836.709690 13.155457 0.000000 0.157018
346.000000 63.518000 -1.000000 4.000000 -6.000000 67.800583 9.212548 800.436467 1385.954144 15.764206 0.000000 0.079445
347.000000 51.482000 0.000000 2.000000 -3.000000 52.131489 7.959302 824.516234 1786.063426 9.727237 0.000000 0.099710
350.000000 65.339000 -8.000000 5.000000 -6.000000 137.105580 11.136075 763.135616 -239.687686 15.306014 0.000000 0.024973
351.000000 68.099000 -7.000000 5.000000 -6.000000 130.504778 9.285646 799.026910 9.395021 14.686938 0.000000 0.043284
352.000000 70.395000 -6.000000 5.000000 -6.000000 122.926578 7.669071 830.070876 237.714956 14.209545 0.000000 0.089558
353.000000 71.852000 -5.000000 5.000000 -6.000000 114.242374 6.246803 857.187387 453.442164 13.923514 0.000000 0.131552
354.000000 71.962000 -4.000000 5.000000 -6.000000 104.335090 4.987270 881.077412 664.908663 13.904818 0.000000 0.160338
355.000000 70.108000 -3.000000 5.000000 -6.000000 93.126365 3.865087 902.284474 882.079252 14.275787 0.000000 0.167630
356.000000 65.659000 -2.000000 5.000000 -6.000000 80.615411 2.859685 921.236510 1119.103745 15.246815 0.000000 0.142819
357.000000 58.173000 -1.000000 5.000000 -6.000000 66.923171 1.954270 938.275038 1399.830922 17.213007 0.000000 0.070202
358.000000 47.662000 0.000000 5.000000 -6.000000 52.324333 1.135024 953.675931 1772.287967 21.013883 0.000000 0.080074
361.000000 59.768000 -3.000000 2.000000 -2.000000 139.579826 2.260038 932.523418 -323.723452 5.577433 0.000000 0.005458
362.000000 62.189000 -4.000000 3.000000 -3.000000 133.624330 1.070337 954.891505 -84.992068 8.041081 0.000000 0.033766
363.000000 64.318000 -7.000000 6.000000 -6.000000 126.883095 0.032526 974.389010 133.391747 15.551169 0.000000 0.075181
364.000000 66.663000 -5.000000 6.000000 -6.000000 110.641598 -1.688701 1006.731228 535.379359 15.008301 0.000000 0.148398
365.000000 66.144000 -2.000000 3.000000 -3.000000 100.963568 -2.409661 1020.291897 732.315196 7.564405 0.000000 0.167565
366.000000 59.504000 -1.000000 3.000000 -3.000000 78.321609 -3.639545 1043.460525 1163.916120 8.412271 0.000000 0.134847
367.000000 52.702000 -1.000000 6.000000 -6.000000 65.510286 -4.168051 1053.434740 1432.562323 19.000562 0.000000 0.060630
370.000000 54.776000 -10.000000 7.000000 -6.000000 140.886320 -5.762386 1083.612177 -389.456932 18.256942 0.000000 0.019711
371.000000 56.859000 -9.000000 7.000000 -6.000000 135.473991 -6.362590 1095.014207 -160.032802 17.589324 0.000000 0.023385
372.000000 58.747000 -8.000000 7.000000 -6.000000 129.419705 -6.888270 1105.022347 49.869583 17.025330 0.000000 0.056084
373.000000 60.284000 -7.000000 7.000000 -6.000000 122.644379 -7.352421 1113.877476 245.789712 16.592895 0.000000 0.093587
374.000000 61.259000 -6.000000 7.000000 -6.000000 115.069362 -7.765197 1121.767995 432.869045 16.330982 0.000000 0.127792
375.000000 61.402000 -5.000000 7.000000 -6.000000 106.624563 -8.134644 1128.843379 616.373969 16.295629 0.000000 0.153395
376.000000 60.394000 -4.000000 7.000000 -6.000000 97.260862 -8.467217 1135.223735 802.359575 16.570446 0.000000 0.165295
377.000000 57.906000 -3.000000 7.000000 -6.000000 86.966895 -8.768156 1141.006679 998.704169 17.285959 0.000000 0.157618
378.000000 53.660000 -2.000000 7.000000 -6.000000 75.788368 -9.041753 1146.272366 1217.006471 18.657872 0.000000 0.122899
379.000000 47.526000 -1.000000 7.000000 -6.000000 63.845128 -9.291564 1151.087224 1476.576916 21.070116 0.000000 0.055105
382.000000 50.366000 -11.000000 8.000000 -6.000000 141.407482 -12.784162 1219.215211 -441.892835 19.855321 0.000000 0.048215
383.000000 52.146000 -5.000000 4.000000 -3.000000 136.461528 -12.908139 1221.665205 -221.018185 9.589228 0.000000 0.029909
384.000000 53.790000 -9.000000 8.000000 -6.000000 130.981851 -13.017543 1223.829246 -18.672435 18.593901 0.000000 0.037427
385.000000 55.190000 -4.000000 4.000000 -3.000000 124.906749 -13.114801 1225.754637 169.865005 9.061980 0.000000 0.068693
386.000000 56.204000 -7.000000 8.000000 -6.000000 118.173922 -13.201829 1227.478792 348.877804 17.798754 0.000000 0.102429
387.000000 56.653000 -3.000000 4.000000 -3.000000 110.725188 -13.280160 1229.031694 522.572082 8.829985 0.000000 0.131430
388.000000 56.321000 -5.000000 8.000000 -6.000000 102.513692 -13.351035 1230.437650 695.486081 17.767011 0.000000 0.151247
389.000000 54.968000 -2.000000 4.000000 -3.000000 93.513885 -13.415470 1231.716574 873.055232 9.103752 0.000000 0.157627
390.000000 52.364000 -3.000000 8.000000 -6.000000 83.733809 -13.474304 1232.884940 1062.526275 19.116353 0.000000 0.145763
391.000000 48.338000 -1.000000 4.000000 -3.000000 73.227892 -13.528238 1233.956490 1274.637631 10.356284 0.000000 0.110467
393.000000 48.013000 -11.000000 9.000000 -6.000000 136.879347 -18.575377 1336.698188 -271.486479 20.829412 0.000000 0.052250
394.000000 49.434000 -10.000000 9.000000 -6.000000 131.886126 -18.366955 1332.346157 -76.043619 20.232098 0.000000 0.031599
395.000000 50.678000 -3.000000 3.000000 -2.000000 126.393615 -18.180149 1328.454382 105.988980 6.578925 0.000000 0.044093
396.000000 51.650000 -8.000000 9.000000 -6.000000 120.352560 -18.011763 1324.953518 278.260361 19.367533 0.000000 0.074746
397.000000 52.224000 -7.000000 9.000000 -6.000000 113.715680 -17.859204 1321.787483 444.251678 19.156693 0.000000 0.105215
398.000000 52.253000 -2.000000 3.000000 -2.000000 106.441999 -17.720343 1318.910434 607.550902 6.382887 0.000000 0.129846
399.000000 51.567000 -5.000000 9.000000 -6.000000 98.502893 -17.593416 1316.284531 772.195415 19.406144 0.000000 0.145041
400.000000 49.993000 -4.000000 9.000000 -6.000000 89.889793 -17.476948 1313.878266 943.170427 20.020684 0.000000 0.147355
401.000000 47.373000 -1.000000 3.000000 -2.000000 80.622873 -17.369699 1311.665186 1127.230370 7.043785 0.000000 0.133190
402.000000 45.620000 -11.000000 10.000000 -6.000000 132.351382 -22.999757 1431.854430 -124.846056 21.923116 0.000000 0.047603
403.000000 46.716000 -5.000000 5.000000 -3.000000 127.348943 -22.601969 1423.061471 51.297816 10.705146 0.000000 0.028521
404.000000 47.612000 -9.000000 10.000000 -6.000000 121.882931 -22.240651 1415.118607 217.698631 21.009452 0.000000 0.046773
405.000000 48.220000 -4.000000 5.000000 -3.000000 115.915135 -21.911031 1407.908243 377.309702 10.373230 0.000000 0.076827
406.000000 48.437000 -7.000000 10.000000 -6.000000 109.410957 -21.609133 1401.333518 533.075780 20.655812 0.000000 0.104383
407.000000 48.143000 -3.000000 5.000000 -3.000000 102.343177 -21.331616 1395.313926 688.158089 10.392280 0.000000 0.125349
408.000000 47.210000 -5.000000 10.000000 -6.000000 94.696821 -21.075652 1389.782008 846.233345 21.198599 0.000000 0.136936
409.000000 45.512000 -2.000000 5.000000 -3.000000 86.474904 -20.838834 1384.680808 1011.942926 10.996575 0.000000 0.136528
412.000000 87.472000 -1.000000 1.000000 -5.000000 67.254961 35.795676 198.875557 1497.298413 11.446104 0.000000 0.172257
415.000000 86.509000 -1.000000 2.000000 -5.000000 70.332825 23.682866 502.923684 1361.048991 11.573649 0.000000 0.105614
416.000000 66.305000 0.000000 2.000000 -5.000000 49.936050 21.134939 558.938367 1911.445288 15.105169 0.000000 0.190466
418.000000 86.098000 -6.000000 3.000000 -5.000000 134.816113 26.140913 446.775557 -250.257713 11.615876 0.000000 0.087179
419.000000 90.869000 -5.000000 3.000000 -5.000000 126.210772 22.651523 525.845950 87.094230 11.007328 0.000000 0.022531
420.000000 80.996000 -1.000000 3.000000 -5.000000 70.996523 12.758120 731.299115 1321.054038 12.361754 0.000000 0.097816
421.000000 63.354000 0.000000 3.000000 -5.000000 51.838584 10.997265 765.842912 1802.609413 15.808888 0.000000 0.114872
423.000000 77.637000 -7.000000 4.000000 -5.000000 140.040595 14.318537 700.285159 -384.706854 12.880939 0.000000 0.049901
424.000000 81.901000 -6.000000 4.000000 -5.000000 132.496829 11.764347 750.849287 -66.291124 12.211532 0.000000 0.028846
425.000000 85.490000 -5.000000 4.000000 -5.000000 123.556925 9.596955 793.017291 216.944330 11.700454 0.000000 0.082076
426.000000 87.633000 -4.000000 4.000000 -5.000000 112.989386 7.739686 828.720107 480.177461 11.416386 0.000000 0.133687
427.000000 87.210000 -3.000000 4.000000 -5.000000 100.584782 6.133609 859.338731 738.714883 11.474452 0.000000 0.164151
428.000000 82.839000 -2.000000 4.000000 -5.000000 86.229341 4.733074 885.886984 1012.176518 12.083447 0.000000 0.157592
429.000000 73.271000 -1.000000 4.000000 -5.000000 70.013223 3.502391 909.125937 1333.190323 13.665459 0.000000 0.091229
430.000000 58.158000 0.000000 4.000000 -5.000000 52.337182 2.413383 929.638055 1772.477122 17.221618 0.000000 0.082011
433.000000 73.493000 -7.000000 5.000000 -5.000000 136.095256 1.526253 946.322740 -177.646766 13.607962 0.000000 0.018741
434.000000 76.711000 -6.000000 5.000000 -5.000000 128.299043 0.229317 970.692286 91.016394 13.038569 0.000000 0.066752
435.000000 80.010000 -4.000000 5.000000 -5.000000 108.793193 -1.839431 1009.565362 574.553402 12.505149 0.000000 0.153529
436.000000 78.576000 -3.000000 5.000000 -5.000000 96.783313 -2.676597 1025.316153 812.837761 12.736332 0.000000 0.169903
437.000000 73.852000 -2.000000 5.000000 -5.000000 83.188960 -3.413285 1039.194112 1069.779101 13.554666 0.000000 0.151663
438.000000 65.108000 -1.000000 5.000000 -5.000000 68.138979 -4.066357 1051.514525 1373.907019 15.379326 0.000000 0.079658
439.000000 52.293000 0.000000 2.000000 -2.000000 51.983959 -4.649138 1062.525669 1785.156109 7.661238 0.000000 0.082728
442.000000 66.090000 -8.000000 6.000000 -5.000000 137.925019 -7.553620 1117.721663 -261.640778 15.132043 0.000000 0.019433
443.000000 68.831000 -7.000000 6.000000 -5.000000 131.037568 -8.095562 1128.094296 -5.278117 14.530810 0.000000 0.045105
444.000000 71.063000 -6.000000 6.000000 -5.000000 123.173937 -8.562078 1137.045627 229.461795 14.076031 0.000000 0.088755
445.000000 72.393000 -5.000000 6.000000 -5.000000 114.204487 -8.967840 1144.849053 451.205615 13.819464 0.000000 0.129079
446.000000 72.297000 -4.000000 6.000000 -5.000000 104.015495 -9.323957 1151.712079 668.743480 13.840514 0.000000 0.156814
447.000000 70.149000 -3.000000 6.000000 -5.000000 92.537836 -9.638991 1157.795035 892.612745 14.267537 0.000000 0.163304
448.000000 65.335000 -2.000000 6.000000 -5.000000 79.786677 -9.919648 1163.223769 1137.857252 15.322429 0.000000 0.138052
449.000000 57.467000 -1.000000 6.000000 -5.000000 65.904287 -10.171251 1168.098435 1430.038630 17.424833 0.000000 0.069405
450.000000 46.638000 0.000000 6.000000 -5.000000 51.187084 -10.398083 1172.499740 1821.217736 21.475539 0.000000 0.102561
453.000000 59.722000 -9.000000 7.000000 -5.000000 138.651705 -15.289836 1269.235596 -326.918356 16.745213 0.000000 0.046625
454.000000 62.018000 -8.000000 7.000000 -5.000000 132.505996 -15.253683 1268.505818 -81.470446 16.126664 0.000000 0.030407
455.000000 63.979000 -7.000000 7.000000 -5.000000 125.578849 -15.222222 1267.870991 143.053615 15.633869 0.000000 0.058566
456.000000 65.360000 -6.000000 7.000000 -5.000000 117.772519 -15.194598 1267.313717 353.661326 15.305422 0.000000 0.097908
457.000000 65.835000 -5.000000 7.000000 -5.000000 108.995940 -15.170148 1266.820602 557.110046 15.197510 0.000000 0.131276
458.000000 65.001000 -4.000000 7.000000 -5.000000 99.179912 -15.148354 1266.381169 760.804229 15.395227 0.000000 0.151224
459.000000 62.425000 -3.000000 7.000000 -5.000000 88.298935 -15.128807 1265.987105 974.111277 16.033905 0.000000 0.150870
460.000000 57.728000 -2.000000 7.000000 -5.000000 76.397765 -15.111176 1265.631728 1210.755076 17.342611 0.000000 0.122612
461.000000 50.722000 -1.000000 7.000000 -5.000000 63.616057 -15.095193 1265.309608 1493.982162 19.742299 0.000000 0.068171
464.000000 54.283000 -10.000000 8.000000 -5.000000 138.720979 -21.737939 1404.135272 -378.885433 18.423020 0.000000 0.080721
465.000000 56.201000 -9.000000 8.000000 -5.000000 133.189252 -21.295720 1394.536992 -143.370313 17.795514 0.000000 0.044492
466.000000 57.887000 -8.000000 8.000000 -5.000000 127.018479 -20.906074 1386.127555 72.214673 17.278865 0.000000 0.032469
467.000000 59.180000 -7.000000 8.000000 -5.000000 120.134811 -20.560181 1378.698966 273.716668 16.903136 0.000000 0.063993
468.000000 59.870000 -6.000000 8.000000 -5.000000 112.467152 -20.251085 1372.089077 466.580721 16.710348 0.000000 0.099687
469.000000 59.699000 -5.000000 8.000000 -5.000000 103.955597 -19.973227 1366.169615 656.418572 16.761066 0.000000 0.127380
470.000000 58.369000 -4.000000 8.000000 -5.000000 94.563702 -19.722109 1360.837771 849.736140 17.145907 0.000000 0.141484
471.000000 55.589000 -3.000000 8.000000 -5.000000 84.294239 -19.494058 1356.010186 1055.077103 18.006820 0.000000 0.136904
472.000000 51.135000 -2.000000 8.000000 -5.000000 73.206213 -19.286041 1351.618554 1285.137565 19.579426 0.000000 0.109861
476.000000 51.242000 -10.000000 9.000000 -5.000000 133.395916 -26.357798 1508.289364 -194.726872 19.517727 0.000000 0.074841
477.000000 52.681000 -9.000000 9.000000 -5.000000 127.844895 -25.724119 1493.543583 12.799074 18.985819 0.000000 0.034766
478.000000 53.844000 -8.000000 9.000000 -5.000000 121.705372 -25.155425 1480.443268 206.462730 18.577679 0.000000 0.031155
479.000000 54.589000 -7.000000 9.000000 -5.000000 114.922018 -24.642303 1468.727549 390.789526 18.326028 0.000000 0.065367
480.000000 54.745000 -6.000000 9.000000 -5.000000 107.445469 -24.177059 1458.187934 570.251029 18.276234 0.000000 0.097697
481.000000 54.112000 -5.000000 9.000000 -5.000000 99.239466 -23.753344 1448.655789 749.713183 18.493078 0.000000 0.120796
482.000000 52.477000 -4.000000 9.000000 -5.000000 90.290249 -23.365875 1439.993249 935.060575 19.072381 0.000000 0.130788
483.000000 49.650000 -3.000000 9.000000 -5.000000 80.617482 -23.010225 1432.086506 1134.215130 20.162128 0.000000 0.124562
486.000000 46.998000 -11.000000 10.000000 -5.000000 133.318222 -30.598239 1611.474006 -238.071548 21.280130 0.000000 0.109069
487.000000 48.229000 -4.000000 4.000000 -2.000000 128.281419 -29.805805 1591.544370 -37.938152 8.295357 0.000000 0.063357
488.000000 49.257000 -9.000000 10.000000 -5.000000 122.751189 -29.087346 1573.746406 148.754363 20.307302 0.000000 0.021754
489.000000 49.986000 -8.000000 10.000000 -5.000000 116.684196 -28.433162 1557.755472 325.848501 20.013135 0.000000 0.030238
490.000000 50.298000 -7.000000 10.000000 -5.000000 110.040401 -27.835148 1543.309660 497.031758 19.891196 0.000000 0.065346
491.000000 50.056000 -6.000000 10.000000 -5.000000 102.787377 -27.286481 1530.195346 666.135895 19.990072 0.000000 0.094448
492.000000 49.109000 -2.000000 4.000000 -2.000000 94.906040 -26.781386 1518.236550 837.514026 8.151408 0.000000 0.113946
493.000000 47.309000 -4.000000 10.000000 -5.000000 86.397565 -26.314939 1507.286995 1016.594402 21.157153 0.000000 0.121504
494.000000 45.989000 -9.000000 11.000000 -5.000000 117.967105 -31.711749 1640.037815 269.222425 21.751867 0.000000 0.007947
495.000000 46.368000 -8.000000 11.000000 -5.000000 112.003079 -31.022652 1622.282118 433.489071 21.576145 0.000000 0.032349
496.000000 46.347000 -7.000000 11.000000 -5.000000 105.525226 -30.386074 1606.106513 594.396125 21.588385 0.000000 0.065817
497.000000 45.819000 -6.000000 11.000000 -5.000000 98.513893 -29.796373 1591.309066 755.334355 21.840221 0.000000 0.091790
499.000000 82.283000 0.000000 1.000000 -4.000000 47.261783 29.578642 364.110311 2084.532039 12.171918 0.000000 0.290722
500.000000 74.461000 0.000000 3.000000 -4.000000 52.312057 4.411082 891.974267 1774.963300 13.450945 0.000000 0.086738
502.000000 84.612000 -1.000000 4.000000 -4.000000 72.022826 -3.910148 1048.565898 1291.050062 11.833388 0.000000 0.104098
504.000000 78.750000 -7.000000 5.000000 -4.000000 141.225405 -9.400898 1153.196697 -417.096010 12.698746 0.000000 0.033579
505.000000 83.004000 -6.000000 5.000000 -4.000000 133.254805 -9.905048 1162.941142 -86.969436 12.049177 0.000000 0.031616
506.000000 86.496000 -5.000000 5.000000 -4.000000 123.891545 -10.322808 1171.038439 206.095459 11.564355 0.000000 0.081335
507.000000 88.407000 -4.000000 5.000000 -4.000000 112.900663 -10.674594 1177.873678 478.334404 11.316453 0.000000 0.130443
508.000000 87.573000 -3.000000 5.000000 -4.000000 100.080677 -10.974872 1183.720587 746.092552 11.427002 0.000000 0.159477
509.000000 82.605000 -2.000000 5.000000 -4.000000 85.341849 -11.234167 1188.779072 1030.409257 12.117811 0.000000 0.151929
510.000000 72.341000 -1.000000 5.000000 -4.000000 68.815519 -11.460326 1193.198532 1366.617438 13.841239 0.000000 0.087794
511.000000 56.634000 0.000000 5.000000 -4.000000 50.951014 -11.659313 1197.092864 1832.484998 17.684944 0.000000 0.108818
513.000000 73.110000 -7.000000 6.000000 -4.000000 134.442079 -18.468237 1334.459684 -171.847098 13.679509 0.000000 0.039589
514.000000 77.993000 -5.000000 6.000000 -4.000000 117.111370 -17.933648 1323.331722 361.822803 12.826586 0.000000 0.090452
515.000000 76.352000 -3.000000 6.000000 -4.000000 94.280109 -17.533957 1315.055703 856.523908 13.107671 0.000000 0.148032
516.000000 61.931000 -1.000000 6.000000 -4.000000 65.633046 -17.223852 1308.659790 1451.367790 16.168391 0.000000 0.080682
517.000000 49.087000 0.000000 3.000000 -2.000000 49.681371 -17.093486 1305.977424 1896.576950 10.201884 0.000000 0.142560
520.000000 65.003000 -8.000000 7.000000 -4.000000 134.711410 -25.331716 1484.491078 -237.858411 15.385557 0.000000 0.077076
521.000000 67.384000 -7.000000 7.000000 -4.000000 127.681875 -24.593725 1467.623413 26.749729 14.843420 0.000000 0.030368
522.000000 69.173000 -6.000000 7.000000 -4.000000 119.689232 -23.951295 1453.101214 269.541977 14.461333 0.000000 0.047321
523.000000 69.982000 -5.000000 7.000000 -4.000000 110.620275 -23.387128 1440.467072 499.762449 14.296312 0.000000 0.090761
524.000000 69.317000 -4.000000 7.000000 -4.000000 100.383751 -22.887836 1429.375258 726.923891 14.436108 0.000000 0.122549
525.000000 66.623000 -3.000000 7.000000 -4.000000 88.938128 -22.442902 1419.559597 962.584191 15.023134 0.000000 0.133602
526.000000 61.400000 -2.000000 7.000000 -4.000000 76.327103 -22.043952 1410.811829 1223.483551 16.304886 0.000000 0.117481
527.000000 53.398000 -1.000000 7.000000 -4.000000 62.713940 -21.684243 1402.966674 1538.465438 18.752782 0.000000 0.089808
530.000000 58.335000 -9.000000 8.000000 -4.000000 134.505461 -30.809225 1616.835050 -290.692738 17.144323 0.000000 0.120519
531.000000 61.839000 -7.000000 8.000000 -4.000000 121.286411 -28.918116 1569.590439 193.783212 16.175780 0.000000 0.015504
532.000000 62.753000 -3.000000 4.000000 -2.000000 113.436664 -28.127587 1550.353769 411.946742 7.971190 0.000000 0.048156
533.000000 62.720000 -5.000000 8.000000 -4.000000 104.659082 -27.419354 1533.359282 623.829954 15.953058 0.000000 0.087969
534.000000 58.388000 -3.000000 8.000000 -4.000000 84.175124 -26.203859 1504.692484 1063.374750 17.143311 0.000000 0.121353
535.000000 53.446000 -1.000000 4.000000 -2.000000 72.531121 -25.678674 1492.492151 1316.829163 9.366242 0.000000 0.110209
536.000000 46.473000 -1.000000 8.000000 -4.000000 60.123852 -25.199102 1481.445030 1624.330627 21.547455 0.000000 0.111186
539.000000 54.413000 -9.000000 9.000000 -4.000000 128.489220 -34.059357 1702.593084 -91.994721 18.381397 0.000000 0.105537
540.000000 55.743000 -8.000000 9.000000 -4.000000 122.283182 -33.029387 1674.738765 129.966957 17.944281 0.000000 0.048073
541.000000 56.636000 -7.000000 9.000000 -4.000000 115.384114 -32.100610 1650.174093 338.135351 17.663422 0.000000 0.005003
542.000000 56.894000 -6.000000 9.000000 -4.000000 107.734630 -31.259235 1628.348792 538.338728 17.585725 0.000000 0.050669
543.000000 56.284000 -5.000000 9.000000 -4.000000 99.291119 -30.493797 1608.828835 736.657530 17.778955 0.000000 0.085865
544.000000 54.558000 -4.000000 9.000000 -4.000000 90.034992 -29.794698 1591.267283 940.242544 18.344788 0.000000 0.107729
545.000000 51.485000 -3.000000 9.000000 -4.000000 79.986066 -29.153856 1575.383491 1158.618721 19.443049 0.000000 0.114883
546.000000 46.917000 -2.000000 9.000000 -4.000000 69.215727 -28.564422 1560.947990 1406.122503 21.340220 0.000000 0.113689
549.000000 49.505000 -5.000000 5.000000 -2.000000 128.474267 -37.560481 1802.676181 -137.999691 10.101872 0.000000 0.148192
550.000000 50.643000 -9.000000 10.000000 -4.000000 122.904532 -36.455586 1770.125469 75.164568 19.751129 0.000000 0.090484
551.000000 51.470000 -4.000000 5.000000 -2.000000 116.762688 -35.448364 1741.250686 274.697236 9.717938 0.000000 0.038066
552.000000 51.853000 -7.000000 10.000000 -4.000000 110.003673 -34.526959 1715.462433 465.412622 19.294518 0.000000 0.020887
553.000000 51.637000 -3.000000 5.000000 -2.000000 102.590257 -33.681273 1692.290923 652.119008 9.688900 0.000000 0.056820
554.000000 50.650000 -5.000000 10.000000 -4.000000 94.499669 -32.902669 1671.357105 840.118049 19.758340 0.000000 0.086898
555.000000 48.721000 -2.000000 5.000000 -2.000000 85.731766 -32.183724 1652.351765 1035.910404 10.271918 0.000000 0.106276
556.000000 45.709000 -3.000000 10.000000 -4.000000 76.317836 -31.518038 1635.020152 1248.360487 21.901155 0.000000 0.115964
557.000000 46.338000 -10.000000 11.000000 -4.000000 123.286363 -39.335461 1857.049605 27.394297 21.586163 0.000000 0.132140
558.000000 47.086000 -9.000000 11.000000 -4.000000 117.759163 -38.289448 1824.684199 219.261601 21.245116 0.000000 0.079610
559.000000 47.513000 -8.000000 11.000000 -4.000000 111.716655 -37.324388 1795.640733 401.936085 21.056058 0.000000 0.039018
560.000000 47.513000 -7.000000 11.000000 -4.000000 105.127821 -36.431721 1769.432732 579.354669 21.058409 0.000000 0.038687
561.000000 46.966000 -6.000000 11.000000 -4.000000 97.970353 -35.603986 1745.664291 755.656506 21.306511 0.000000 0.066623
562.000000 45.747000 -5.000000 11.000000 -4.000000 90.235729 -34.834657 1724.009929 935.605088 21.877427 0.000000 0.092108
563.000000 71.964000 0.000000 4.000000 -3.000000 50.539386 -13.623665 1235.853592 1852.636618 13.917571 0.000000 0.119769
565.000000 88.785000 -6.000000 5.000000 -3.000000 136.929366 -23.439784 1441.641675 -313.890644 11.264073 0.000000 0.079792
566.000000 78.911000 -1.000000 5.000000 -3.000000 68.441459 -20.414666 1375.583879 1394.732097 12.688587 0.000000 0.095624
567.000000 59.700000 0.000000 5.000000 -3.000000 48.819571 -20.045752 1367.712662 1943.295027 16.776614 0.000000 0.165439
570.000000 82.971000 -5.000000 6.000000 -3.000000 118.768748 -28.644611 1562.902283 267.655892 12.056413 0.000000 0.019421
571.000000 83.810000 -4.000000 6.000000 -3.000000 107.691698 -27.647081 1538.799657 553.430873 11.938035 0.000000 0.075943
572.000000 75.955000 -2.000000 6.000000 -3.000000 80.389714 -26.023339 1500.486616 1143.801234 13.179336 0.000000 0.119327
573.000000 65.356000 -1.000000 6.000000 -3.000000 64.331407 -25.354259 1485.009524 1513.393410 15.320925 0.000000 0.104391
574.000000 50.241000 0.000000 2.000000 -1.000000 47.192316 -24.759506 1471.394992 2038.848761 6.645024 0.000000 0.209256
577.000000 70.241000 -7.000000 7.000000 -3.000000 128.503082 -35.301090 1737.089580 -108.123592 14.239333 0.000000 0.119812
578.000000 72.381000 -6.000000 7.000000 -3.000000 120.389418 -33.909451 1698.497469 180.455943 13.819971 0.000000 0.043812
579.000000 73.466000 -5.000000 7.000000 -3.000000 111.090112 -32.688650 1665.667604 447.790351 13.617959 0.000000 0.024238
580.000000 72.904000 -4.000000 7.000000 -3.000000 100.492656 -31.609979 1637.399085 706.936680 13.725563 0.000000 0.075912
581.000000 70.011000 -3.000000 7.000000 -3.000000 88.540310 -30.650629 1612.803039 972.879911 14.295882 0.000000 0.106640
582.000000 64.162000 -2.000000 7.000000 -3.000000 75.277843 -29.792299 1591.207459 1266.875690 15.602866 0.000000 0.114905
583.000000 55.050000 -1.000000 7.000000 -3.000000 60.897025 -29.020162 1572.094870 1626.152462 18.189904 0.000000 0.130968
586.000000 63.982000 -7.000000 8.000000 -3.000000 121.331907 -38.073575 1818.121220 108.680207 15.633943 0.000000 0.100156
587.000000 65.060000 -6.000000 8.000000 -3.000000 113.347267 -36.747935 1778.646626 361.201181 15.376693 0.000000 0.037381
588.000000 65.107000 -5.000000 8.000000 -3.000000 104.351568 -35.558630 1744.376167 602.501202 15.368153 0.000000 0.042188
589.000000 63.702000 -4.000000 8.000000 -3.000000 94.287273 -34.486540 1714.344354 843.110226 15.709789 0.000000 0.081809
590.000000 60.419000 -3.000000 8.000000 -3.000000 83.148347 -33.515803 1687.810617 1096.114923 16.566947 0.000000 0.108439
591.000000 54.923000 -2.000000 8.000000 -3.000000 71.007587 -32.633179 1664.197414 1380.877364 18.228517 0.000000 0.125001
592.000000 47.126000 -1.000000 8.000000 -3.000000 58.038909 -31.827561 1643.047707 1731.367873 21.248815 0.000000 0.164137
595.000000 57.218000 -8.000000 9.000000 -3.000000 121.886063 -41.416692 1924.438444 48.141515 17.481615 0.000000 0.154095
596.000000 58.210000 -7.000000 9.000000 -3.000000 114.905539 -40.055591 1879.899104 288.122660 17.185650 0.000000 0.088742
597.000000 58.519000 -2.000000 3.000000 -1.000000 107.119082 -38.818851 1840.945988 515.521562 5.699058 0.000000 0.049516
598.000000 57.881000 -5.000000 9.000000 -3.000000 98.476827 -37.691181 1806.590159 738.289682 17.288231 0.000000 0.063423
599.000000 56.011000 -4.000000 9.000000 -3.000000 88.956570 -36.659532 1776.063102 965.436465 17.868587 0.000000 0.094285
600.000000 52.647000 -1.000000 3.000000 -1.000000 78.579681 -35.712730 1748.758555 1208.769199 6.338043 0.000000 0.119601
601.000000 47.619000 -2.000000 9.000000 -3.000000 67.426873 -34.841181 1724.191837 1486.150178 21.025494 0.000000 0.145065
605.000000 52.571000 -8.000000 10.000000 -3.000000 116.017548 -42.785703 1971.160681 225.163573 19.028580 0.000000 0.138710
606.000000 52.985000 -7.000000 10.000000 -3.000000 109.169581 -41.539752 1928.556806 441.111120 18.882100 0.000000 0.088248
607.000000 52.754000 -6.000000 10.000000 -3.000000 101.624752 -40.392676 1890.761009 650.283166 18.967239 0.000000 0.069420
608.000000 51.687000 -5.000000 10.000000 -3.000000 93.357512 -39.333971 1857.002838 859.363755 19.361841 0.000000 0.085334
609.000000 49.592000 -4.000000 10.000000 -3.000000 84.367376 -38.354452 1826.668105 1076.363558 20.183032 0.000000 0.111416
610.000000 46.313000 -3.000000 10.000000 -3.000000 74.689143 -37.446068 1799.261182 1312.142916 21.615578 0.000000 0.137257
613.000000 47.873000 -9.000000 11.000000 -3.000000 116.833837 -45.067695 2053.840580 170.086939 20.895559 0.000000 0.186150
614.000000 48.318000 -8.000000 11.000000 -3.000000 110.731841 -43.835225 2008.400075 376.239310 20.705263 0.000000 0.131494
615.000000 48.308000 -7.000000 11.000000 -3.000000 104.053394 -42.691286 1967.872735 574.456606 20.712198 0.000000 0.096700
616.000000 47.710000 -6.000000 11.000000 -3.000000 96.774179 -41.627489 1931.502587 769.960655 20.974301 0.000000 0.090783
617.000000 46.389000 -5.000000 11.000000 -3.000000 88.884900 -40.636360 1898.681188 968.606835 21.574661 0.000000 0.107147
618.000000 83.080000 -1.000000 5.000000 -2.000000 66.328251 -30.900065 1619.150495 1490.874099 12.051722 0.000000 0.126298
619.000000 59.951000 0.000000 5.000000 -2.000000 45.115985 -29.788580 1591.114689 2176.153139 16.705895 0.000000 0.267867
620.000000 86.677000 -5.000000 6.000000 -2.000000 118.492730 -40.719542 1901.397991 170.193650 11.540793 0.000000 0.119639
621.000000 85.677000 -3.000000 6.000000 -2.000000 93.826330 -37.164092 1790.889183 850.670708 11.680520 0.000000 0.079112
622.000000 66.713000 -1.000000 6.000000 -2.000000 61.603706 -34.430996 1712.809628 1646.449455 15.009187 0.000000 0.165625
625.000000 74.616000 -6.000000 7.000000 -2.000000 119.457261 -44.635099 2037.671605 86.752938 13.406044 0.000000 0.194758
626.000000 75.832000 -5.000000 7.000000 -2.000000 110.001204 -42.734701 1969.383358 407.626683 13.193133 0.000000 0.109803
627.000000 75.220000 -4.000000 7.000000 -2.000000 99.124563 -41.045309 1912.103650 711.790424 13.302917 0.000000 0.080078
628.000000 71.980000 -3.000000 7.000000 -2.000000 86.759986 -39.536131 1863.369061 1020.002047 13.904850 0.000000 0.108387
629.000000 65.380000 -2.000000 7.000000 -2.000000 72.958587 -38.181587 1821.400151 1360.699345 15.312195 0.000000 0.147524
630.000000 55.093000 -1.000000 7.000000 -2.000000 57.946130 -36.960374 1784.879478 1784.438963 18.175691 0.000000 0.209610
633.000000 66.530000 -3.000000 4.000000 -1.000000 111.950920 -45.791907 2081.464949 318.886189 7.518578 0.000000 0.174164
634.000000 66.545000 -5.000000 8.000000 -2.000000 102.791730 -44.128850 2019.053117 600.552885 15.035966 0.000000 0.118084
635.000000 64.964000 -2.000000 4.000000 -1.000000 92.481120 -42.621322 1965.442794 877.621603 7.702382 0.000000 0.111872
636.000000 61.301000 -3.000000 8.000000 -2.000000 81.012737 -41.250302 1918.894789 1167.409665 16.328559 0.000000 0.139604
637.000000 55.190000 -1.000000 4.000000 -1.000000 68.470620 -39.999428 1878.099818 1495.272939 9.070189 0.000000 0.180774
638.000000 46.562000 -1.000000 8.000000 -2.000000 55.055119 -38.854619 1842.053396 1906.774292 21.506322 0.000000 0.251621
640.000000 59.153000 -7.000000 9.000000 -2.000000 113.335442 -48.232105 2180.127968 243.950296 16.911796 0.000000 0.234971
641.000000 59.436000 -6.000000 9.000000 -2.000000 105.448153 -46.624279 2114.115788 507.914554 16.833679 0.000000 0.168139
642.000000 58.692000 -5.000000 9.000000 -2.000000 96.651105 -45.149618 2056.930103 763.044602 17.049538 0.000000 0.136219
643.000000 56.608000 -4.000000 9.000000 -2.000000 86.920605 -43.793967 2006.911561 1021.214983 17.680418 0.000000 0.142084
644.000000 52.897000 -3.000000 9.000000 -2.000000 76.281695 -42.544827 1962.792221 1297.616352 18.924391 0.000000 0.170540
645.000000 47.385000 -2.000000 9.000000 -2.000000 64.826123 -41.391178 1923.586567 1615.297117 21.129410 0.000000 0.214535
648.000000 53.581000 -7.000000 10.000000 -2.000000 107.444737 -48.677937 2199.169053 428.781359 18.672451 0.000000 0.219370
649.000000 53.279000 -3.000000 5.000000 -1.000000 99.798315 -47.251671 2139.396727 667.161805 9.390384 0.000000 0.172898
650.000000 52.078000 -5.000000 10.000000 -2.000000 91.391451 -45.928833 2086.768477 903.413443 19.216733 0.000000 0.157906
651.000000 49.772000 -2.000000 5.000000 -1.000000 82.224746 -44.699832 2040.075724 1147.753128 10.055077 0.000000 0.170384
652.000000 46.198000 -3.000000 10.000000 -2.000000 72.337763 -43.556047 1998.367947 1413.895744 21.669841 0.000000 0.200248
656.000000 48.648000 -7.000000 11.000000 -2.000000 102.243651 -49.022426 2214.114145 584.832754 20.567725 0.000000 0.214078
657.000000 47.960000 -6.000000 11.000000 -2.000000 94.868373 -47.741393 2159.549993 804.679516 20.865296 0.000000 0.184136
658.000000 46.502000 -5.000000 11.000000 -2.000000 86.856363 -46.542955 2110.881784 1026.942515 21.522649 0.000000 0.180231
660.000000 82.563000 -1.000000 5.000000 -1.000000 61.818752 -42.489734 1960.887296 1723.006710 12.127244 0.000000 0.246866
663.000000 89.362000 -4.000000 6.000000 -1.000000 104.190344 -50.531774 2282.125606 512.853640 11.196352 0.000000 0.255935
664.000000 86.738000 -3.000000 6.000000 -1.000000 90.545078 -48.134224 2175.991995 925.657284 11.537812 0.000000 0.198678
665.000000 78.925000 -2.000000 6.000000 -1.000000 74.778900 -46.006898 2089.803894 1362.624300 12.683427 0.000000 0.221596
668.000000 75.715000 -4.000000 7.000000 -1.000000 96.011247 -50.736164 2291.669337 761.922626 13.216250 0.000000 0.250869
669.000000 71.920000 -3.000000 7.000000 -1.000000 83.356006 -48.725149 2201.205123 1131.047595 13.916667 0.000000 0.230966
670.000000 64.451000 -2.000000 7.000000 -1.000000 69.179621 -46.903916 2125.310742 1540.048091 15.533090 0.000000 0.266491
674.000000 64.844000 -4.000000 8.000000 -1.000000 89.352590 -50.879955 2298.433525 960.275826 15.433770 0.000000 0.261380
675.000000 60.696000 -3.000000 8.000000 -1.000000 77.653058 -49.148414 2219.631676 1301.179342 16.491722 0.000000 0.262942
676.000000 53.934000 -2.000000 8.000000 -1.000000 64.837947 -47.557389 2151.933624 1690.194945 18.563129 0.000000 0.306003
680.000000 56.152000 -4.000000 9.000000 -1.000000 83.861181 -50.986616 2303.478105 1124.891837 17.824412 0.000000 0.278547
681.000000 52.044000 -3.000000 9.000000 -1.000000 73.040526 -49.466477 2233.686721 1446.043146 19.234556 0.000000 0.292864
685.000000 51.706000 -5.000000 10.000000 -1.000000 88.566247 -52.516744 2378.503062 985.268196 19.355502 0.000000 0.305854
686.000000 49.144000 -4.000000 10.000000 -1.000000 79.274582 -51.068884 2307.384868 1265.422571 20.367567 0.000000 0.298011
#UB matrix in q= (UB) B0 G* 
#[[ 0.94082538  -0.276263401  0.195462025]
# [-0.086327293 -0.754868469 -0.651312304]
# [ 0.327712073  0.596181669 -0.734393286]]
#B0 matrix in q= UB (B0) G*
#[[ 0.19670273 -0.          0.03056101]
# [ 0.          0.19187965 -0.        ]
# [ 0.          0.          0.18806537]]
#UBB0 matrix in q= (UB B0) G* i.e. recip. basis vectors are columns in LT frame: astar = UBB0[:,0], bstar = UBB0[:,1], cstar = UBB0[:,2]. (abcstar as columns on xyzlab1, xlab1 = ui, ui = unit vector along incident beam)
#[[ 0.18506292 -0.05300933  0.06551221]
# [-0.01698081 -0.1448439  -0.12512754]
# [ 0.06446186  0.11439513 -0.12809874]]
#Euler angles phi theta psi (deg)
#[151.176 137.178 163.262]
#deviatoric strain in direct crystal frame (10-3 unit)
#[[-3.92 -0.32  0.75]
# [-0.32 -4.6   0.07]
# [ 0.75  0.07  8.52]]
#deviatoric strain in sample2 frame (10-3 unit)
#[[-3.21  2.5   2.09]
# [ 2.5   1.07  6.05]
# [ 2.09  6.05  2.14]]
#new lattice parameters
#[ 5.1505     5.2080536  5.3132407 89.9899696 99.1915329 90.0369844]
#CCDLabel
#sCMOS
#DetectorParameters
#[79.0, 975.0, 941.0, 0.0, 0.0]
#pixelsize
#0.0734
#Frame dimensions
#[2018, 2016]
#
