#Strain and Orientation Refinement from experimental file: /home/micha/LaueProjects/DepthEffects/testZrO2_154.cor
#File created at Wed Jun 28 14:27:33 2023 with indexingSpotsSet.py
#Number of indexed spots: 514
#Element
#ZrO2
#grainIndex
#G_0
#Mean Deviation(pixel): 0.117
##spot_index intensity h k l 2theta Chi Xexp Yexp Energy GrainIndex PixDev
4.000000 189.071000 -1.000000 -2.000000 2.000000 81.009269 -51.076629 2307.753388 1212.041056 5.292489 0.000000 0.315281
6.000000 157.331000 0.000000 -1.000000 2.000000 49.174229 -22.034159 1410.597714 1944.146935 6.364165 0.000000 0.181482
7.000000 175.139000 0.000000 0.000000 2.000000 48.872916 7.396976 835.271552 1888.694407 5.717337 0.000000 0.118542
13.000000 111.988000 -1.000000 -3.000000 3.000000 68.701181 -47.618476 2154.456236 1563.498606 8.937251 0.000000 0.306030
14.000000 174.279000 -2.000000 -2.000000 3.000000 107.414107 -42.362490 1956.500379 484.127942 5.739246 0.000000 0.108380
15.000000 148.515000 -1.000000 -2.000000 3.000000 78.921701 -34.970677 1727.808761 1198.170535 6.738455 0.000000 0.119350
16.000000 94.012000 0.000000 -2.000000 3.000000 47.306743 -29.802014 1591.449795 2085.273778 10.650304 0.000000 0.261519
18.000000 184.557000 -1.000000 -1.000000 3.000000 87.616757 -15.307226 1269.586700 987.442352 5.422005 0.000000 0.151658
19.000000 113.755000 0.000000 -1.000000 3.000000 50.319452 -13.048609 1224.444084 1857.607489 8.802252 0.000000 0.121967
20.000000 195.862000 -2.000000 1.000000 3.000000 108.383843 44.331158 -76.454880 440.941312 5.106702 0.000000 0.131954
21.000000 167.042000 -1.000000 1.000000 3.000000 77.592512 34.209946 243.277997 1227.325256 5.991209 0.000000 0.120521
30.000000 77.477000 -1.000000 -4.000000 4.000000 62.311409 -46.038599 2091.038984 1754.620323 12.919605 0.000000 0.322845
31.000000 124.673000 -3.000000 -3.000000 4.000000 109.467811 -48.593715 2195.546286 365.767443 8.022460 0.000000 0.240105
32.000000 116.329000 -2.000000 -3.000000 4.000000 90.548205 -42.166970 1949.794047 927.105770 8.600796 0.000000 0.123741
33.000000 96.043000 -1.000000 -3.000000 4.000000 68.896040 -37.167998 1791.004715 1462.282221 10.421621 0.000000 0.163908
35.000000 145.856000 -3.000000 -2.000000 4.000000 121.593341 -34.572906 1716.734759 137.059779 6.856188 0.000000 0.064325
36.000000 139.475000 -2.000000 -2.000000 4.000000 100.140773 -28.912148 1569.444125 721.082385 7.172603 0.000000 0.090432
37.000000 116.181000 -1.000000 -2.000000 4.000000 75.255115 -24.944197 1475.608662 1253.403195 8.614739 0.000000 0.113677
39.000000 161.562000 -3.000000 -1.000000 4.000000 130.403989 -11.697020 1197.831453 5.444186 6.189027 0.000000 0.041109
40.000000 157.514000 -2.000000 -1.000000 4.000000 106.819936 -9.987364 1164.534978 610.632537 6.350610 0.000000 0.152323
41.000000 132.006000 -1.000000 -1.000000 4.000000 79.309418 -8.905033 1143.640042 1146.663710 7.581753 0.000000 0.141657
42.000000 87.541000 0.000000 -1.000000 4.000000 50.485693 -8.158766 1129.305802 1837.756420 11.438160 0.000000 0.102687
44.000000 165.055000 -3.000000 0.000000 4.000000 130.026006 17.599925 633.580904 -7.341810 6.058046 0.000000 0.031756
45.000000 161.568000 -2.000000 0.000000 4.000000 106.423757 12.691795 732.608563 615.798415 6.191262 0.000000 0.150212
46.000000 134.900000 -1.000000 0.000000 4.000000 78.410761 9.558646 793.757398 1164.828429 7.419233 0.000000 0.141436
47.000000 153.756000 -3.000000 1.000000 4.000000 119.521132 41.649203 17.767122 125.368877 6.504075 0.000000 0.140474
48.000000 148.030000 -2.000000 1.000000 4.000000 97.976579 33.193487 270.867490 760.777858 6.758240 0.000000 0.078961
49.000000 121.463000 -1.000000 1.000000 4.000000 71.915539 27.089955 424.470479 1335.773729 8.240514 0.000000 0.115918
50.000000 77.158000 0.000000 1.000000 4.000000 44.157020 22.571539 527.609071 2141.388675 12.977549 0.000000 0.239145
52.000000 123.170000 -2.000000 2.000000 4.000000 85.248917 48.084231 -223.885625 1074.905133 8.123651 0.000000 0.214465
53.000000 98.334000 -1.000000 2.000000 4.000000 62.228414 41.159487 34.119021 1693.820219 10.179496 0.000000 0.231458
63.000000 70.903000 -2.000000 -5.000000 5.000000 73.713448 -48.952225 2211.051870 1419.851779 14.114810 0.000000 0.302299
66.000000 93.166000 -3.000000 -4.000000 5.000000 96.332988 -46.617280 2113.837086 767.092930 10.737982 0.000000 0.177399
67.000000 84.153000 -2.000000 -4.000000 5.000000 80.402858 -42.075613 1946.674719 1186.178297 11.891511 0.000000 0.159741
68.000000 69.569000 -1.000000 -4.000000 5.000000 63.170736 -38.299735 1824.997922 1634.654355 14.388629 0.000000 0.204804
70.000000 110.102000 -4.000000 -3.000000 5.000000 120.461105 -42.577175 1963.912288 81.371169 9.082725 0.000000 0.172867
71.000000 107.954000 -3.000000 -3.000000 5.000000 105.067105 -37.097241 1788.913496 577.736509 9.265867 0.000000 0.046638
72.000000 98.666000 -2.000000 -3.000000 5.000000 87.287162 -32.862368 1670.283643 1001.714152 10.141529 0.000000 0.101799
73.000000 81.662000 -1.000000 -3.000000 5.000000 67.908153 -29.525284 1584.565158 1443.057418 12.257564 0.000000 0.120648
74.000000 59.083000 0.000000 -3.000000 5.000000 48.113665 -26.844736 1519.730571 2022.824830 16.946662 0.000000 0.227247
76.000000 122.004000 -4.000000 -2.000000 5.000000 129.777723 -27.807573 1542.647417 -72.008781 8.195661 0.000000 0.060852
77.000000 121.584000 -3.000000 -2.000000 5.000000 112.897439 -23.630333 1445.900135 444.806696 8.226206 0.000000 0.078352
78.000000 112.395000 -2.000000 -2.000000 5.000000 93.298528 -20.669388 1381.040692 874.701563 8.902052 0.000000 0.139028
79.000000 93.106000 -1.000000 -2.000000 5.000000 71.843836 -18.471810 1334.534302 1313.127443 10.750711 0.000000 0.106645
80.000000 66.355000 0.000000 -2.000000 5.000000 49.975905 -16.780686 1299.556554 1885.092098 15.090006 0.000000 0.142958
82.000000 129.767000 -4.000000 -1.000000 5.000000 135.411449 -6.157432 1091.113972 -157.200005 7.704937 0.000000 0.022503
83.000000 130.775000 -3.000000 -1.000000 5.000000 117.507657 -5.742934 1083.243052 377.706592 7.647599 0.000000 0.122995
84.000000 121.801000 -2.000000 -1.000000 5.000000 96.662846 -5.467970 1078.028132 814.697260 8.214266 0.000000 0.172939
85.000000 100.774000 -1.000000 -1.000000 5.000000 73.754710 -5.272242 1074.318914 1255.947621 9.932627 0.000000 0.120241
86.000000 70.720000 0.000000 -1.000000 5.000000 50.427050 -5.125817 1071.545552 1834.104116 14.158895 0.000000 0.096050
87.000000 124.919000 -4.000000 1.000000 5.000000 125.917737 39.645160 83.182096 -71.473103 8.004788 0.000000 0.156174
88.000000 125.009000 -3.000000 1.000000 5.000000 109.620514 32.404741 291.837943 486.549102 8.001142 0.000000 0.037156
89.000000 115.250000 -2.000000 1.000000 5.000000 89.953855 27.001528 426.564518 941.972873 8.681928 0.000000 0.123242
90.000000 93.825000 -1.000000 1.000000 5.000000 67.935536 22.882639 520.739763 1414.525264 10.668793 0.000000 0.105051
91.000000 63.929000 0.000000 1.000000 5.000000 45.298458 19.669501 590.277095 2072.141588 15.663104 0.000000 0.208332
93.000000 111.094000 -3.000000 2.000000 5.000000 99.190254 46.038899 -141.050671 690.148182 9.004620 0.000000 0.150237
94.000000 100.621000 -2.000000 2.000000 5.000000 81.232265 39.877883 75.783990 1157.309415 9.945216 0.000000 0.129941
95.000000 80.694000 -1.000000 2.000000 5.000000 61.124551 34.836528 225.937896 1664.142660 12.405477 0.000000 0.173990
98.000000 83.557000 -2.000000 3.000000 5.000000 71.533634 49.685081 -293.452946 1496.528755 11.977535 0.000000 0.312301
108.000000 77.105000 -4.000000 -5.000000 6.000000 99.709235 -49.608126 2240.004933 656.818648 12.973816 0.000000 0.242726
109.000000 72.484000 -3.000000 -5.000000 6.000000 87.277813 -45.532856 2071.502078 1014.054183 13.804095 0.000000 0.178515
110.000000 64.695000 -2.000000 -5.000000 6.000000 73.725782 -42.022690 1944.871775 1363.955143 15.469777 0.000000 0.188984
111.000000 54.038000 -1.000000 -5.000000 6.000000 59.488977 -38.989234 1846.231115 1757.022038 18.525105 0.000000 0.238092
113.000000 82.747000 -3.000000 -4.000000 6.000000 93.840754 -38.319476 1825.600207 848.902727 12.090891 0.000000 0.085290
114.000000 61.930000 -1.000000 -4.000000 6.000000 63.187505 -32.169352 1651.974933 1583.627393 16.164075 0.000000 0.150047
115.000000 96.680000 -5.000000 -3.000000 6.000000 127.776681 -37.013164 1786.433681 -103.659920 10.342645 0.000000 0.141148
116.000000 96.918000 -4.000000 -3.000000 6.000000 114.910273 -32.441202 1659.123303 348.739495 10.319323 0.000000 0.007931
117.000000 83.920000 -2.000000 -3.000000 6.000000 83.816511 -26.125260 1502.859642 1070.878390 11.924539 0.000000 0.120302
118.000000 69.877000 -1.000000 -3.000000 6.000000 66.555974 -23.878565 1451.466319 1451.426027 14.325470 0.000000 0.101422
119.000000 103.760000 -5.000000 -2.000000 6.000000 134.839475 -22.029812 1410.502692 -213.577289 9.636095 0.000000 0.058679
120.000000 105.118000 -4.000000 -2.000000 6.000000 121.034274 -19.058617 1346.829948 255.864872 9.513548 0.000000 0.064955
121.000000 101.754000 -3.000000 -2.000000 6.000000 105.184772 -16.918301 1302.378765 635.669994 9.830859 0.000000 0.136382
122.000000 76.674000 -1.000000 -2.000000 6.000000 69.011643 -14.052521 1244.398470 1366.637569 13.055422 0.000000 0.094139
124.000000 107.992000 -5.000000 -1.000000 6.000000 138.422791 -1.911292 1010.916708 -272.906456 9.258106 0.000000 0.007492
125.000000 110.138000 -4.000000 -1.000000 6.000000 124.110080 -2.312793 1018.469152 211.423503 9.079602 0.000000 0.093114
126.000000 107.198000 -3.000000 -1.000000 6.000000 107.639749 -2.590321 1023.692053 598.407285 9.331322 0.000000 0.160520
127.000000 97.437000 -2.000000 -1.000000 6.000000 89.311462 -2.793608 1027.519215 953.950111 10.269726 0.000000 0.170858
128.000000 80.691000 -1.000000 -1.000000 6.000000 69.852045 -2.948926 1030.444176 1336.413155 12.405658 0.000000 0.098828
129.000000 59.166000 0.000000 -1.000000 6.000000 50.316971 -3.071459 1032.752321 1835.302992 16.923753 0.000000 0.094170
130.000000 108.394000 -5.000000 0.000000 6.000000 136.706876 19.900772 585.370512 -273.963743 9.223917 0.000000 0.055406
131.000000 110.656000 -4.000000 0.000000 6.000000 122.741863 15.685156 672.768174 222.151719 9.037227 0.000000 0.074668
132.000000 97.726000 -2.000000 0.000000 6.000000 88.099220 10.467591 776.150293 977.323529 10.239510 0.000000 0.164634
133.000000 80.505000 -1.000000 0.000000 6.000000 68.543955 8.754595 809.254095 1368.996532 12.434377 0.000000 0.094248
135.000000 106.307000 -4.000000 1.000000 6.000000 117.006655 31.775118 308.316204 295.731265 9.407589 0.000000 0.002515
136.000000 102.851000 -3.000000 1.000000 6.000000 101.507765 26.928885 428.282311 695.223866 9.726423 0.000000 0.104682
137.000000 92.701000 -2.000000 1.000000 6.000000 83.931089 23.144497 514.933320 1065.448046 10.795054 0.000000 0.134609
138.000000 75.796000 -1.000000 1.000000 6.000000 65.066750 20.131795 580.454849 1473.918024 13.207295 0.000000 0.093380
139.000000 54.394000 0.000000 1.000000 6.000000 46.012520 17.689137 631.735518 2031.469237 18.408896 0.000000 0.189605
141.000000 93.666000 -3.000000 2.000000 6.000000 93.973627 38.795106 109.788549 845.073866 10.681249 0.000000 0.082070
142.000000 67.646000 -1.000000 2.000000 6.000000 59.972149 30.395841 343.646921 1662.229236 14.798895 0.000000 0.146452
144.000000 72.251000 -2.000000 3.000000 6.000000 70.207880 43.305799 -39.454113 1473.253418 13.852625 0.000000 0.210556
145.000000 57.888000 -1.000000 3.000000 6.000000 54.073769 39.161407 98.402328 1946.788580 17.293946 0.000000 0.270017
155.000000 51.685000 -3.000000 -7.000000 7.000000 75.827707 -49.543697 2237.126533 1359.868880 19.362572 0.000000 0.303547
156.000000 45.920000 -2.000000 -7.000000 7.000000 65.063999 -46.704151 2117.301555 1670.726581 21.797056 0.000000 0.313992
159.000000 62.936000 -4.000000 -6.000000 7.000000 91.770589 -48.082834 2173.826802 891.197427 15.896778 0.000000 0.213144
160.000000 58.413000 -3.000000 -6.000000 7.000000 80.739300 -44.848209 2045.606594 1188.528262 17.131197 0.000000 0.193127
161.000000 51.994000 -2.000000 -6.000000 7.000000 69.027462 -41.988162 1943.697117 1496.049499 19.250111 0.000000 0.213239
163.000000 72.760000 -5.000000 -5.000000 7.000000 108.696024 -45.977442 2088.657562 416.895100 13.746575 0.000000 0.178236
164.000000 70.409000 -4.000000 -5.000000 7.000000 97.813926 -42.243045 1952.398484 741.485546 14.208336 0.000000 0.106420
165.000000 65.730000 -3.000000 -5.000000 7.000000 85.869653 -39.039886 1847.807192 1041.066927 15.223254 0.000000 0.114864
166.000000 58.641000 -2.000000 -5.000000 7.000000 73.124262 -36.278434 1764.993204 1346.017682 17.067591 0.000000 0.141303
167.000000 49.464000 -1.000000 -5.000000 7.000000 59.931365 -33.883736 1697.796345 1691.591583 20.238314 0.000000 0.181358
169.000000 79.933000 -5.000000 -4.000000 7.000000 115.532946 -38.341909 1826.285009 285.497029 12.511903 0.000000 0.076135
170.000000 78.002000 -4.000000 -4.000000 7.000000 103.841780 -34.784068 1722.600248 618.105775 12.824164 0.000000 0.047659
171.000000 73.269000 -3.000000 -4.000000 7.000000 90.937070 -31.841649 1643.414350 920.277089 13.655979 0.000000 0.097551
172.000000 65.532000 -2.000000 -4.000000 7.000000 77.111898 -29.379838 1580.961776 1223.617513 15.272218 0.000000 0.114310
173.000000 55.141000 -1.000000 -4.000000 7.000000 62.782663 -27.296992 1530.445336 1563.919356 18.154657 0.000000 0.120393
175.000000 85.377000 -6.000000 -3.000000 7.000000 132.810297 -31.944946 1646.106172 -233.958102 11.711106 0.000000 0.122182
176.000000 86.480000 -5.000000 -3.000000 7.000000 121.799074 -28.204187 1552.205192 183.788846 11.563691 0.000000 0.013003
177.000000 85.064000 -4.000000 -3.000000 7.000000 109.297855 -25.308110 1483.948382 524.121154 11.758645 0.000000 0.082631
178.000000 80.375000 -3.000000 -3.000000 7.000000 95.458636 -23.010508 1432.092800 829.257849 12.447854 0.000000 0.128503
179.000000 72.058000 -2.000000 -3.000000 7.000000 80.593646 -21.148803 1391.360993 1132.178528 13.888641 0.000000 0.127768
180.000000 60.471000 -1.000000 -3.000000 7.000000 65.176584 -19.612718 1358.520364 1469.514498 16.554461 0.000000 0.087796
181.000000 46.741000 0.000000 -3.000000 7.000000 49.778795 -18.325426 1331.480236 1899.849231 21.422134 0.000000 0.153168
183.000000 89.823000 -6.000000 -2.000000 7.000000 138.150659 -17.132146 1306.772475 -316.482531 11.130829 0.000000 0.053500
184.000000 91.621000 -5.000000 -2.000000 7.000000 126.523731 -15.110428 1265.616649 115.347277 10.914102 0.000000 0.052317
185.000000 90.703000 -4.000000 -2.000000 7.000000 113.348519 -13.627062 1235.921168 462.936011 11.027080 0.000000 0.122182
186.000000 86.107000 -3.000000 -2.000000 7.000000 98.743494 -12.493680 1213.484154 771.452667 11.618726 0.000000 0.160085
187.000000 77.317000 -2.000000 -2.000000 7.000000 83.025183 -11.600136 1195.934153 1075.417657 12.943649 0.000000 0.149673
188.000000 64.685000 -1.000000 -2.000000 7.000000 66.713229 -10.877911 1181.831311 1412.706815 15.475952 0.000000 0.080222
189.000000 49.543000 0.000000 -2.000000 7.000000 50.453047 -10.282220 1170.250819 1844.216126 20.210727 0.000000 0.109845
191.000000 92.307000 -6.000000 -1.000000 7.000000 140.390057 1.413271 948.446496 -359.952441 10.831092 0.000000 0.005619
192.000000 94.548000 -5.000000 -1.000000 7.000000 128.521858 0.498098 965.643054 84.173905 10.575999 0.000000 0.067800
193.000000 93.949000 -4.000000 -1.000000 7.000000 115.033893 -0.157311 977.955076 438.338503 10.645768 0.000000 0.137741
194.000000 89.406000 -3.000000 -1.000000 7.000000 100.026639 -0.649690 987.204873 750.692043 11.189928 0.000000 0.174199
195.000000 80.276000 -2.000000 -1.000000 7.000000 83.823776 -1.033088 994.408531 1057.490022 12.466405 0.000000 0.160603
196.000000 66.910000 -1.000000 -1.000000 7.000000 66.981591 -1.340056 1000.177373 1398.393081 14.961500 0.000000 0.079815
197.000000 50.791000 0.000000 -1.000000 7.000000 50.202439 -1.591363 1004.901250 1838.002927 19.714483 0.000000 0.094199
199.000000 91.833000 -5.000000 1.000000 7.000000 122.069006 31.260991 321.606071 152.116830 10.889509 0.000000 0.027804
200.000000 90.892000 -4.000000 1.000000 7.000000 109.392934 26.868147 429.716901 516.276822 11.004578 0.000000 0.078723
201.000000 86.050000 -3.000000 1.000000 7.000000 95.027245 23.367938 509.960776 837.860907 11.626978 0.000000 0.133734
202.000000 76.718000 -2.000000 1.000000 7.000000 79.341335 20.533054 571.882187 1157.305738 13.045341 0.000000 0.132718
203.000000 63.287000 -1.000000 1.000000 7.000000 62.923018 18.200907 621.113575 1520.201221 15.818483 0.000000 0.083414
204.000000 47.259000 0.000000 1.000000 7.000000 46.496807 16.254684 661.193357 2005.010855 21.188142 0.000000 0.177117
206.000000 86.434000 -5.000000 2.000000 7.000000 114.810727 42.886208 -24.671651 261.925688 11.570820 0.000000 0.133125
207.000000 84.895000 -4.000000 2.000000 7.000000 102.898294 37.868839 138.067472 628.781957 11.783059 0.000000 0.049937
208.000000 79.763000 -3.000000 2.000000 7.000000 89.341605 33.667537 258.081662 955.861095 12.544311 0.000000 0.099626
209.000000 70.610000 -2.000000 2.000000 7.000000 74.500068 30.133864 350.243849 1286.123168 14.174338 0.000000 0.119188
210.000000 57.865000 -1.000000 2.000000 7.000000 58.927786 27.141787 423.241500 1669.806450 17.301050 0.000000 0.130008
212.000000 77.023000 -4.000000 3.000000 7.000000 95.210242 46.678742 -166.287085 797.950705 12.988721 0.000000 0.164676
213.000000 71.653000 -3.000000 3.000000 7.000000 82.550354 42.269410 -3.302532 1131.184452 13.965318 0.000000 0.143094
214.000000 62.881000 -2.000000 3.000000 7.000000 68.719293 38.423251 121.228283 1476.090692 15.917471 0.000000 0.167562
215.000000 51.152000 -1.000000 3.000000 7.000000 54.207793 35.067542 219.478226 1889.135376 19.571666 0.000000 0.223156
218.000000 62.856000 -3.000000 4.000000 7.000000 75.404235 49.264494 -274.740190 1370.485778 15.921289 0.000000 0.281002
219.000000 54.636000 -2.000000 4.000000 7.000000 62.617320 45.376658 -115.539069 1734.637629 18.320663 0.000000 0.289899
226.000000 55.332000 -5.000000 -7.000000 8.000000 94.908437 -50.034135 2259.230607 797.101267 18.080363 0.000000 0.253391
227.000000 52.517000 -4.000000 -7.000000 8.000000 85.669330 -47.055970 2131.447123 1060.636498 19.052614 0.000000 0.209837
228.000000 48.445000 -3.000000 -7.000000 8.000000 75.827744 -44.376801 2028.131866 1321.255468 20.657821 0.000000 0.209099
230.000000 60.961000 -5.000000 -6.000000 8.000000 100.426797 -45.174561 2057.872541 660.047354 16.409560 0.000000 0.148911
231.000000 53.833000 -3.000000 -6.000000 8.000000 79.972470 -39.514750 1862.693983 1187.691724 18.589410 0.000000 0.138561
233.000000 67.765000 -6.000000 -5.000000 8.000000 115.639026 -42.488825 1960.855876 240.472315 14.758233 0.000000 0.141700
234.000000 66.720000 -5.000000 -5.000000 8.000000 106.028135 -39.095949 1849.554278 542.600248 14.991957 0.000000 0.062123
235.000000 64.015000 -4.000000 -5.000000 8.000000 95.471198 -36.193720 1762.547188 813.260067 15.628397 0.000000 0.075963
236.000000 59.462000 -3.000000 -5.000000 8.000000 84.121532 -33.694984 1692.662934 1074.191168 16.828812 0.000000 0.106889
237.000000 53.087000 -2.000000 -5.000000 8.000000 72.203276 -31.528852 1635.299716 1346.328191 18.853820 0.000000 0.121697
239.000000 72.281000 -5.000000 -4.000000 8.000000 111.387194 -31.475016 1633.908587 446.764472 13.837469 0.000000 0.029530
240.000000 65.012000 -3.000000 -4.000000 8.000000 88.013942 -26.764761 1517.844741 982.801271 15.391349 0.000000 0.118532
241.000000 49.310000 -1.000000 -4.000000 8.000000 62.188173 -23.384087 1440.399269 1559.554608 20.302073 0.000000 0.101384
243.000000 76.060000 -7.000000 -3.000000 8.000000 136.378367 -27.377838 1532.369892 -330.818340 13.145113 0.000000 0.107829
244.000000 77.420000 -6.000000 -3.000000 8.000000 126.774961 -24.372361 1462.602841 57.859369 12.915969 0.000000 0.024230
245.000000 77.191000 -5.000000 -3.000000 8.000000 115.998535 -22.031608 1410.541945 374.740323 12.956535 0.000000 0.073906
246.000000 74.848000 -4.000000 -3.000000 8.000000 104.112163 -20.162790 1370.205760 652.745572 13.364921 0.000000 0.125998
247.000000 70.004000 -3.000000 -3.000000 8.000000 91.272516 -18.639265 1338.034348 915.768611 14.293380 0.000000 0.145777
248.000000 62.586000 -2.000000 -3.000000 8.000000 77.745612 -17.375097 1311.776503 1185.949708 15.991656 0.000000 0.126878
249.000000 52.968000 -1.000000 -3.000000 8.000000 63.893006 -16.310224 1289.938969 1490.550613 18.899864 0.000000 0.075943
250.000000 78.983000 -7.000000 -2.000000 8.000000 140.416871 -12.984815 1223.181671 -394.957470 12.658118 0.000000 0.046501
251.000000 80.912000 -5.000000 -2.000000 8.000000 119.192878 -10.734136 1179.032132 328.945284 12.360155 0.000000 0.105188
252.000000 73.829000 -3.000000 -2.000000 8.000000 93.432822 -9.391474 1153.014816 875.560452 13.552388 0.000000 0.167607
253.000000 55.680000 -1.000000 -2.000000 8.000000 64.842817 -8.500476 1135.862407 1452.098177 17.979417 0.000000 0.066703
255.000000 80.523000 -7.000000 -1.000000 8.000000 141.755993 4.070321 898.410628 -428.019633 12.415872 0.000000 0.016693
256.000000 82.581000 -6.000000 -1.000000 8.000000 131.647297 2.833046 921.738164 -17.340034 12.108111 0.000000 0.047422
257.000000 82.925000 -5.000000 -1.000000 8.000000 120.287034 1.919678 938.925573 312.038105 12.059924 0.000000 0.114113
258.000000 80.874000 -4.000000 -1.000000 8.000000 107.703581 1.218075 952.115160 597.358898 12.368616 0.000000 0.161393
259.000000 75.874000 -3.000000 -1.000000 8.000000 94.044714 0.662394 962.556455 864.888980 13.187075 0.000000 0.176015
260.000000 67.761000 -2.000000 -1.000000 8.000000 79.600712 0.211478 971.027395 1138.524480 14.770069 0.000000 0.147638
261.000000 56.959000 -1.000000 -1.000000 8.000000 64.789727 -0.161705 978.037625 1447.703398 17.576064 0.000000 0.063489
263.000000 82.871000 -5.000000 0.000000 8.000000 118.876051 14.844597 689.734369 326.945960 12.068077 0.000000 0.097632
264.000000 75.701000 -3.000000 0.000000 8.000000 92.833494 10.967871 766.415868 886.738580 13.217474 0.000000 0.168079
265.000000 56.469000 -1.000000 0.000000 8.000000 63.590041 8.386481 816.326164 1481.287729 17.728679 0.000000 0.062493
267.000000 80.561000 -6.000000 1.000000 8.000000 125.741195 30.833316 332.551303 38.933882 12.412444 0.000000 0.050360
268.000000 80.672000 -5.000000 1.000000 8.000000 115.067914 26.816608 430.932991 376.895112 12.397534 0.000000 0.053700
269.000000 78.402000 -4.000000 1.000000 8.000000 103.037427 23.560832 505.654525 669.111585 12.759334 0.000000 0.118635
270.000000 73.224000 -3.000000 1.000000 8.000000 89.831065 20.884586 564.334914 944.396582 13.665068 0.000000 0.144541
271.000000 65.000000 -2.000000 1.000000 8.000000 75.762956 18.654877 611.638982 1229.227624 15.398126 0.000000 0.125656
272.000000 54.173000 -1.000000 1.000000 8.000000 61.268432 16.773892 650.582661 1557.245449 18.480129 0.000000 0.075719
274.000000 76.574000 -5.000000 2.000000 8.000000 109.420481 37.067830 161.954576 465.445606 13.061946 0.000000 0.032511
275.000000 68.760000 -3.000000 2.000000 8.000000 85.372820 29.902551 356.039576 1041.487986 14.552924 0.000000 0.116118
276.000000 50.365000 -1.000000 2.000000 8.000000 58.020197 24.669478 480.654412 1680.510545 19.877810 0.000000 0.118969
278.000000 71.066000 -5.000000 3.000000 8.000000 102.657502 45.436330 -117.813214 596.530608 14.075746 0.000000 0.140690
279.000000 68.189000 -4.000000 3.000000 8.000000 91.852370 41.348564 27.834820 894.631990 14.672536 0.000000 0.102480
280.000000 62.916000 -3.000000 3.000000 8.000000 79.961107 37.763483 141.238723 1182.014745 15.905839 0.000000 0.123890
281.000000 55.234000 -2.000000 3.000000 8.000000 67.266670 34.617145 232.038878 1488.968264 18.121990 0.000000 0.146316
282.000000 45.560000 -1.000000 3.000000 8.000000 54.146591 31.849514 306.380905 1856.634832 21.974251 0.000000 0.194050
283.000000 64.734000 -5.000000 4.000000 8.000000 95.424812 52.129549 -409.032847 774.501099 15.454212 0.000000 0.292002
284.000000 56.381000 -3.000000 4.000000 8.000000 74.099705 44.437803 -80.377255 1370.400294 17.750511 0.000000 0.204973
290.000000 49.240000 -6.000000 -8.000000 9.000000 97.212239 -51.572147 2331.590153 721.861014 20.316211 0.000000 0.293589
291.000000 47.389000 -5.000000 -8.000000 9.000000 89.295996 -48.823738 2205.469288 961.087701 21.112823 0.000000 0.234332
294.000000 53.611000 -6.000000 -7.000000 9.000000 102.253716 -47.437124 2146.984416 595.405853 18.658563 0.000000 0.194803
295.000000 51.831000 -5.000000 -7.000000 9.000000 93.870825 -44.631591 2037.541491 838.667454 19.302481 0.000000 0.146852
296.000000 49.035000 -4.000000 -7.000000 9.000000 84.899729 -42.114273 1947.993637 1070.496762 20.406215 0.000000 0.142576
298.000000 58.702000 -7.000000 -6.000000 9.000000 115.544475 -45.533337 2071.520463 206.672753 17.036892 0.000000 0.199594
299.000000 56.434000 -5.000000 -6.000000 9.000000 98.535259 -39.581685 1864.808725 731.415340 17.726734 0.000000 0.078109
300.000000 53.587000 -4.000000 -6.000000 9.000000 88.994978 -37.134078 1790.001738 964.683602 18.672070 0.000000 0.097423
302.000000 62.816000 -7.000000 -5.000000 9.000000 121.067041 -39.158339 1851.501800 104.767276 15.919927 0.000000 0.121043
303.000000 62.506000 -6.000000 -5.000000 9.000000 112.493519 -36.100189 1759.852732 389.416191 16.000983 0.000000 0.035831
304.000000 61.017000 -5.000000 -5.000000 9.000000 103.099925 -33.488083 1687.061768 640.688410 16.394207 0.000000 0.055083
305.000000 58.157000 -4.000000 -5.000000 9.000000 92.975865 -31.239882 1627.851385 875.559820 17.203923 0.000000 0.095694
306.000000 53.841000 -3.000000 -5.000000 9.000000 82.260664 -29.290165 1578.745285 1108.715008 18.586765 0.000000 0.113376
307.000000 48.147000 -2.000000 -5.000000 9.000000 71.142477 -27.586925 1537.360354 1355.761164 20.789166 0.000000 0.112248
310.000000 66.588000 -7.000000 -4.000000 9.000000 126.204909 -31.062115 1623.291962 21.244932 15.017124 0.000000 0.061410
311.000000 66.603000 -6.000000 -4.000000 9.000000 117.179688 -28.391236 1556.737393 312.780749 15.015871 0.000000 0.023860
312.000000 65.318000 -5.000000 -4.000000 9.000000 107.278185 -26.177565 1504.079071 567.958751 15.313956 0.000000 0.084674
313.000000 62.480000 -4.000000 -4.000000 9.000000 96.587195 -24.318159 1461.376209 804.610831 16.012797 0.000000 0.121417
314.000000 57.959000 -3.000000 -4.000000 9.000000 85.252939 -22.737402 1426.049401 1037.908731 17.265454 0.000000 0.130349
315.000000 51.822000 -2.000000 -4.000000 9.000000 73.481755 -21.378971 1396.339480 1283.771985 19.314310 0.000000 0.111182
317.000000 69.752000 -7.000000 -3.000000 9.000000 130.472018 -20.919883 1386.424842 -42.141545 14.335180 0.000000 0.029805
318.000000 69.003000 -5.000000 -3.000000 9.000000 110.682080 -17.561549 1315.625841 514.824323 14.495492 0.000000 0.117631
319.000000 66.209000 -4.000000 -3.000000 9.000000 99.493399 -16.332870 1290.400846 753.448788 15.110329 0.000000 0.148759
320.000000 54.984000 -2.000000 -3.000000 9.000000 75.273176 -14.438653 1252.119496 1233.125895 18.203558 0.000000 0.121548
321.000000 46.930000 -1.000000 -3.000000 9.000000 62.740282 -13.693958 1237.252023 1511.784027 21.332129 0.000000 0.065165
324.000000 72.031000 -7.000000 -2.000000 9.000000 133.253114 -8.736518 1140.398288 -83.473519 13.881075 0.000000 0.031253
325.000000 72.609000 -6.000000 -2.000000 9.000000 123.530372 -8.183704 1129.783914 220.458125 13.772618 0.000000 0.088574
326.000000 71.705000 -5.000000 -2.000000 9.000000 112.861713 -7.748735 1121.453028 483.020951 13.948807 0.000000 0.138521
327.000000 68.952000 -4.000000 -2.000000 9.000000 101.315506 -7.397597 1114.740320 723.824606 14.508821 0.000000 0.167085
328.000000 64.128000 -3.000000 -2.000000 9.000000 89.040991 -7.108205 1109.216056 959.156099 15.603968 0.000000 0.166963
329.000000 57.269000 -2.000000 -2.000000 9.000000 76.271054 -6.865599 1104.590293 1205.847529 17.477117 0.000000 0.131288
330.000000 48.730000 -1.000000 -2.000000 9.000000 63.304568 -6.659291 1100.660310 1485.888325 20.544305 0.000000 0.054225
333.000000 73.185000 -7.000000 -1.000000 9.000000 133.962346 4.797383 884.670544 -100.648447 13.662086 0.000000 0.031714
334.000000 73.903000 -6.000000 -1.000000 9.000000 124.182001 3.709030 905.228836 208.511079 13.531431 0.000000 0.092481
335.000000 73.090000 -5.000000 -1.000000 9.000000 113.410336 2.856514 921.296237 474.435624 13.684413 0.000000 0.143441
336.000000 70.346000 -4.000000 -1.000000 9.000000 101.715750 2.170953 934.199379 717.641284 14.221282 0.000000 0.172413
337.000000 65.420000 -3.000000 -1.000000 9.000000 89.252149 1.607828 944.789207 955.054623 15.295841 0.000000 0.171839
338.000000 58.339000 -2.000000 -1.000000 9.000000 76.263333 1.137114 953.636650 1204.153920 17.156723 0.000000 0.134196
339.000000 49.478000 -1.000000 -1.000000 9.000000 63.064713 0.737838 961.139043 1487.914332 20.233781 0.000000 0.049646
341.000000 71.627000 -7.000000 1.000000 9.000000 128.521043 30.472017 341.722074 -53.073147 13.960143 0.000000 0.068156
342.000000 72.179000 -6.000000 1.000000 9.000000 119.328504 26.772327 431.976966 263.703772 13.855360 0.000000 0.032963
343.000000 71.205000 -5.000000 1.000000 9.000000 109.037675 23.729041 501.889056 535.313076 14.047316 0.000000 0.099202
344.000000 68.319000 -4.000000 1.000000 9.000000 97.741985 21.195073 557.639438 784.059903 14.644006 0.000000 0.139191
345.000000 63.283000 -3.000000 1.000000 9.000000 85.613618 19.060267 603.135365 1028.347802 15.813062 0.000000 0.146265
346.000000 56.139000 -2.000000 1.000000 9.000000 72.909855 17.241938 640.967786 1287.478898 17.829518 0.000000 0.116794
347.000000 47.273000 -1.000000 1.000000 9.000000 59.956182 15.677536 672.922596 1587.549861 21.178229 0.000000 0.070201
349.000000 68.996000 -7.000000 2.000000 9.000000 123.105945 40.579210 53.181466 16.997724 14.493378 0.000000 0.148716
350.000000 69.261000 -6.000000 2.000000 9.000000 114.363116 36.368540 182.399238 335.707221 14.439961 0.000000 0.035048
351.000000 68.055000 -5.000000 2.000000 9.000000 104.520955 32.775693 282.021724 609.446904 14.698525 0.000000 0.057657
352.000000 65.034000 -4.000000 2.000000 9.000000 93.677249 29.696822 361.171707 861.369591 15.384322 0.000000 0.107078
353.000000 60.006000 -3.000000 2.000000 9.000000 82.004652 27.043464 425.571854 1110.732397 16.677343 0.000000 0.123762
354.000000 53.030000 -2.000000 2.000000 9.000000 69.754550 24.742439 478.993757 1378.094810 18.875200 0.000000 0.110883
356.000000 63.800000 -5.000000 3.000000 9.000000 99.021911 40.525365 54.933501 716.179476 15.679931 0.000000 0.075605
357.000000 60.645000 -4.000000 3.000000 9.000000 88.703284 37.170397 158.924314 971.574197 16.498843 0.000000 0.096858
358.000000 48.991000 -2.000000 3.000000 9.000000 65.925147 31.591595 313.076956 1505.546568 20.432300 0.000000 0.133462
360.000000 60.600000 -6.000000 4.000000 9.000000 101.887623 50.809465 -345.112365 582.450385 16.506772 0.000000 0.260693
361.000000 58.833000 -5.000000 4.000000 9.000000 92.994947 47.013688 -179.737276 858.411164 17.005183 0.000000 0.174155
362.000000 55.576000 -4.000000 4.000000 9.000000 83.222101 43.583815 -49.361587 1117.594660 18.004997 0.000000 0.153945
363.000000 50.739000 -3.000000 4.000000 9.000000 72.720291 40.490630 56.062216 1381.243102 19.724967 0.000000 0.167712
365.000000 53.538000 -5.000000 5.000000 9.000000 86.809768 52.395644 -422.376831 1039.311361 18.688690 0.000000 0.311401
366.000000 50.233000 -4.000000 5.000000 9.000000 77.573777 49.018910 -263.960532 1302.621707 19.921317 0.000000 0.264804
367.000000 45.586000 -3.000000 5.000000 9.000000 67.686967 45.916186 -136.277556 1575.900387 21.956080 0.000000 0.263780
369.000000 47.775000 -7.000000 -8.000000 10.000000 103.592627 -49.231085 2223.267441 542.481651 20.937386 0.000000 0.238577
372.000000 51.347000 -7.000000 -7.000000 10.000000 108.343183 -44.907454 2047.822933 437.150447 19.479501 0.000000 0.155726
373.000000 50.271000 -6.000000 -7.000000 10.000000 100.709432 -42.276503 1953.545879 665.895948 19.899124 0.000000 0.103209
374.000000 48.397000 -5.000000 -7.000000 10.000000 92.525637 -39.920647 1875.580894 879.098271 20.672886 0.000000 0.098016
375.000000 45.671000 -4.000000 -7.000000 10.000000 83.869760 -37.805720 1810.031529 1087.308259 21.910238 0.000000 0.115404
377.000000 54.903000 -7.000000 -6.000000 10.000000 113.092953 -39.654768 1867.122336 344.922818 18.216734 0.000000 0.083930
378.000000 52.147000 -5.000000 -6.000000 10.000000 96.437447 -34.848779 1724.403754 793.024413 19.185195 0.000000 0.074294
379.000000 45.531000 -3.000000 -6.000000 10.000000 77.730261 -31.098753 1624.230264 1214.362874 21.980631 0.000000 0.114762
381.000000 58.198000 -8.000000 -5.000000 10.000000 125.364127 -35.996390 1756.869958 -3.150512 17.182002 0.000000 0.108930
382.000000 58.297000 -7.000000 -5.000000 10.000000 117.642446 -33.260290 1680.925861 266.882534 17.154831 0.000000 0.024735
383.000000 57.549000 -6.000000 -5.000000 10.000000 109.217264 -30.923994 1619.761159 503.663524 17.380499 0.000000 0.044051
384.000000 52.910000 -4.000000 -5.000000 10.000000 90.499066 -27.165622 1527.324033 930.462471 18.911006 0.000000 0.115659
385.000000 48.888000 -3.000000 -5.000000 10.000000 80.415107 -25.637869 1491.548751 1142.597612 20.470907 0.000000 0.119125
387.000000 61.352000 -7.000000 -4.000000 10.000000 121.705582 -25.526573 1488.978907 204.199870 16.299763 0.000000 0.024364
388.000000 59.122000 -5.000000 -4.000000 10.000000 103.399806 -22.032354 1410.558248 664.394485 16.920125 0.000000 0.119176
389.000000 51.976000 -3.000000 -4.000000 10.000000 82.723185 -19.494395 1356.017302 1086.791443 19.254089 0.000000 0.134999
392.000000 63.288000 -8.000000 -3.000000 10.000000 133.287093 -17.814683 1320.864561 -123.849193 15.798763 0.000000 0.031891
393.000000 63.865000 -7.000000 -3.000000 10.000000 124.911432 -16.362773 1291.010899 158.139384 15.657741 0.000000 0.056379
394.000000 63.482000 -6.000000 -3.000000 10.000000 115.778787 -15.185541 1267.131035 402.383456 15.754771 0.000000 0.106882
395.000000 61.902000 -5.000000 -3.000000 10.000000 105.926725 -14.212540 1247.594990 624.168993 16.159750 0.000000 0.143602
396.000000 58.948000 -4.000000 -3.000000 10.000000 95.438307 -13.395309 1231.316345 835.668605 16.972906 0.000000 0.159857
397.000000 54.556000 -3.000000 -3.000000 10.000000 84.447529 -12.699478 1217.543095 1048.254043 18.343253 0.000000 0.151283
398.000000 48.821000 -2.000000 -3.000000 10.000000 73.136007 -12.100034 1205.738174 1274.677800 20.502393 0.000000 0.114059
400.000000 65.635000 -7.000000 -2.000000 10.000000 126.848632 -5.926852 1086.734018 130.068501 15.235228 0.000000 0.073384
401.000000 63.878000 -5.000000 -2.000000 10.000000 107.418765 -5.592817 1080.395357 601.707497 15.659505 0.000000 0.158244
402.000000 56.372000 -3.000000 -2.000000 10.000000 85.377694 -5.362508 1076.029238 1028.400845 17.752268 0.000000 0.162083
405.000000 65.647000 -8.000000 -1.000000 10.000000 135.737982 6.469167 852.958427 -170.460498 15.230416 0.000000 0.021206
406.000000 66.491000 -7.000000 -1.000000 10.000000 127.170440 5.263759 875.841801 121.466995 15.038951 0.000000 0.073583
407.000000 66.313000 -6.000000 -1.000000 10.000000 117.789098 4.303171 894.013131 372.192611 15.081651 0.000000 0.124615
408.000000 64.832000 -5.000000 -1.000000 10.000000 107.625150 3.520102 908.791982 598.412935 15.428958 0.000000 0.160833
409.000000 61.826000 -4.000000 -1.000000 10.000000 96.761857 2.869734 921.047276 813.226079 16.182713 0.000000 0.175911
410.000000 57.198000 -3.000000 -1.000000 10.000000 85.342137 2.321101 931.374533 1028.762653 17.495853 0.000000 0.164662
411.000000 51.045000 -2.000000 -1.000000 10.000000 73.565764 1.852145 940.195560 1258.635525 19.609046 0.000000 0.121212
413.000000 65.494000 -8.000000 0.000000 10.000000 134.106966 18.927345 605.928115 -161.887923 15.266367 0.000000 0.036786
414.000000 66.329000 -7.000000 0.000000 10.000000 125.727628 16.410863 658.007613 133.937487 15.075914 0.000000 0.055624
415.000000 66.135000 -6.000000 0.000000 10.000000 116.486408 14.372505 699.205067 387.370964 15.122451 0.000000 0.110377
416.000000 61.579000 -4.000000 0.000000 10.000000 95.630005 11.284461 760.238720 832.807735 16.247823 0.000000 0.167755
417.000000 56.894000 -3.000000 0.000000 10.000000 84.254330 10.090173 783.473244 1050.996252 17.589643 0.000000 0.158076
418.000000 50.671000 -2.000000 0.000000 10.000000 72.502713 9.064796 803.283785 1284.589408 19.754172 0.000000 0.116090
420.000000 64.410000 -8.000000 1.000000 10.000000 130.695973 30.162775 349.517546 -129.582908 15.523937 0.000000 0.082324
421.000000 65.133000 -7.000000 1.000000 10.000000 122.636436 26.733870 432.882952 169.217065 15.353412 0.000000 0.020765
422.000000 64.835000 -6.000000 1.000000 10.000000 113.676584 23.877014 498.568520 424.894187 15.426296 0.000000 0.079546
423.000000 63.242000 -5.000000 1.000000 10.000000 103.866566 21.471291 551.659259 655.496918 15.817649 0.000000 0.126390
424.000000 60.140000 -4.000000 1.000000 10.000000 93.303831 19.424445 595.460737 875.119187 16.636933 0.000000 0.148877
425.000000 55.443000 -3.000000 1.000000 10.000000 82.141986 17.665974 632.214830 1096.896140 18.050265 0.000000 0.143312
426.000000 49.255000 -2.000000 1.000000 10.000000 70.588941 16.141657 663.495720 1335.821514 20.322518 0.000000 0.107619
428.000000 62.980000 -7.000000 2.000000 10.000000 118.223198 35.752924 200.095593 229.190187 15.879052 0.000000 0.048002
429.000000 60.783000 -5.000000 2.000000 10.000000 100.164015 29.512659 365.748039 719.271966 16.458524 0.000000 0.093322
430.000000 52.965000 -3.000000 2.000000 10.000000 79.143159 24.808709 477.483678 1168.407517 18.895414 0.000000 0.125546
432.000000 60.030000 -7.000000 3.000000 10.000000 112.898502 43.342378 -40.752466 315.903018 16.660759 0.000000 0.131606
433.000000 59.329000 -6.000000 3.000000 10.000000 104.672739 39.785354 78.731409 574.269174 16.859941 0.000000 0.059570
434.000000 57.456000 -5.000000 3.000000 10.000000 95.619476 36.634479 174.667970 809.029376 17.412441 0.000000 0.074917
435.000000 54.255000 -4.000000 3.000000 10.000000 85.836475 33.840052 253.393721 1035.329048 18.443201 0.000000 0.106233
436.000000 49.684000 -3.000000 3.000000 10.000000 75.470758 31.356090 319.158803 1267.640678 20.143940 0.000000 0.119758
437.000000 56.488000 -7.000000 4.000000 10.000000 107.050714 49.609966 -290.087278 431.579376 17.706803 0.000000 0.242656
438.000000 53.528000 -5.000000 4.000000 10.000000 90.553413 42.804015 -21.799550 926.830220 18.691669 0.000000 0.119714
439.000000 45.878000 -3.000000 4.000000 10.000000 71.363535 37.231554 157.113536 1396.886996 21.815949 0.000000 0.148489
441.000000 51.408000 -6.000000 5.000000 10.000000 93.476389 51.287345 -367.826955 836.455347 19.460630 0.000000 0.269496
442.000000 46.071000 -4.000000 5.000000 10.000000 76.396661 45.136573 -106.437570 1310.212186 21.721932 0.000000 0.203293
446.000000 45.954000 -8.000000 -8.000000 11.000000 108.994440 -46.938727 2126.712506 398.393336 21.765124 0.000000 0.199807
448.000000 48.933000 -9.000000 -7.000000 11.000000 119.865522 -45.207100 2059.103238 63.789859 20.436891 0.000000 0.219705
449.000000 48.866000 -8.000000 -7.000000 11.000000 113.417091 -42.451992 1959.584211 309.246038 20.466975 0.000000 0.129976
450.000000 48.262000 -7.000000 -7.000000 11.000000 106.432157 -39.995378 1877.970181 526.656355 20.725427 0.000000 0.072849
451.000000 47.036000 -6.000000 -7.000000 11.000000 98.944968 -37.798952 1809.827878 726.603699 21.268441 0.000000 0.066961
453.000000 51.571000 -9.000000 -6.000000 11.000000 124.473706 -39.734884 1869.664252 -19.961576 19.390213 0.000000 0.154502
454.000000 51.694000 -8.000000 -6.000000 11.000000 117.746637 -37.057092 1787.728633 231.526302 19.346125 0.000000 0.070585
455.000000 51.237000 -7.000000 -6.000000 11.000000 110.445767 -34.716638 1720.723973 452.849651 19.521193 0.000000 0.024219
456.000000 50.092000 -6.000000 -6.000000 11.000000 102.604394 -32.660067 1664.909824 655.133952 19.969888 0.000000 0.061035
457.000000 48.179000 -5.000000 -6.000000 11.000000 94.276242 -30.843133 1617.698836 847.265327 20.766369 0.000000 0.094640
461.000000 54.007000 -9.000000 -5.000000 11.000000 128.807396 -33.008279 1674.174799 -91.196501 18.514539 0.000000 0.101067
462.000000 54.328000 -8.000000 -5.000000 11.000000 121.792937 -30.577264 1610.942323 166.098146 18.407241 0.000000 0.025549
463.000000 54.029000 -7.000000 -5.000000 11.000000 114.176171 -28.500103 1559.382614 391.206005 18.511402 0.000000 0.038415
464.000000 52.981000 -6.000000 -5.000000 11.000000 105.987137 -26.709217 1516.536593 595.806611 18.880123 0.000000 0.085864
465.000000 51.081000 -5.000000 -5.000000 11.000000 97.278925 -25.152117 1480.367430 789.125552 19.585904 0.000000 0.116469
466.000000 48.269000 -4.000000 -5.000000 11.000000 88.131364 -23.787738 1449.427220 979.374625 20.730401 0.000000 0.128618
469.000000 56.128000 -9.000000 -4.000000 11.000000 132.591252 -24.800988 1472.340307 -148.923475 17.814101 0.000000 0.060156
470.000000 56.639000 -8.000000 -4.000000 11.000000 125.300868 -22.871331 1429.009991 113.889250 17.655149 0.000000 0.026186
471.000000 56.498000 -7.000000 -4.000000 11.000000 117.389935 -21.260915 1393.784018 342.615100 17.701618 0.000000 0.071659
472.000000 55.552000 -6.000000 -4.000000 11.000000 108.882462 -19.898590 1364.583127 549.495982 18.005625 0.000000 0.113542
473.000000 53.675000 -5.000000 -4.000000 11.000000 99.828719 -18.732366 1339.983297 744.106431 18.638542 0.000000 0.140085
474.000000 50.790000 -4.000000 -4.000000 11.000000 90.309857 -17.723534 1318.976490 934.889280 19.700804 0.000000 0.148059
475.000000 46.902000 -3.000000 -4.000000 11.000000 80.438655 -16.842762 1300.829092 1130.420199 21.338366 0.000000 0.135073
478.000000 57.817000 -9.000000 -3.000000 11.000000 135.476546 -15.022576 1263.846766 -192.072713 17.293274 0.000000 0.031783
479.000000 58.494000 -8.000000 -3.000000 11.000000 127.960771 -13.917441 1241.703628 75.896262 17.094853 0.000000 0.048419
480.000000 58.492000 -7.000000 -3.000000 11.000000 119.812535 -13.013914 1223.757432 308.030131 17.097617 0.000000 0.095536
481.000000 57.640000 -6.000000 -3.000000 11.000000 111.048352 -12.261787 1208.918255 517.137478 17.353141 0.000000 0.134524
482.000000 55.788000 -5.000000 -3.000000 11.000000 101.714569 -11.626152 1196.443504 713.150035 17.932274 0.000000 0.158616
483.000000 52.843000 -4.000000 -3.000000 11.000000 91.892585 -11.082018 1185.809769 904.759299 18.935077 0.000000 0.164038
484.000000 48.801000 -3.000000 -3.000000 11.000000 81.699912 -10.611033 1176.637511 1100.747747 20.507600 0.000000 0.147428
487.000000 58.964000 -9.000000 -2.000000 11.000000 137.089443 -3.899190 1048.359101 -219.488965 16.956574 0.000000 0.014632
488.000000 59.763000 -8.000000 -2.000000 11.000000 129.452491 -3.921575 1048.781552 53.190619 16.731533 0.000000 0.059860
489.000000 59.864000 -7.000000 -2.000000 11.000000 121.167201 -3.939658 1049.122847 288.472896 16.705401 0.000000 0.107600
490.000000 59.080000 -6.000000 -2.000000 11.000000 112.245137 -3.954571 1049.404323 499.732380 16.929706 0.000000 0.145873
491.000000 57.245000 -5.000000 -2.000000 11.000000 102.730291 -3.967081 1049.640441 697.264634 17.475461 0.000000 0.169166
492.000000 54.252000 -4.000000 -2.000000 11.000000 92.704851 -3.977724 1049.841345 890.029144 18.443325 0.000000 0.173495
493.000000 50.087000 -3.000000 -2.000000 11.000000 82.290608 -3.986891 1050.014367 1087.053808 19.980885 0.000000 0.155029
496.000000 59.482000 -9.000000 -1.000000 11.000000 137.138477 7.906918 825.519371 -229.923640 16.808677 0.000000 0.017885
497.000000 60.343000 -8.000000 -1.000000 11.000000 129.527751 6.625273 849.987368 46.924928 16.570560 0.000000 0.057495
498.000000 60.495000 -7.000000 -1.000000 11.000000 121.239559 5.588297 869.690363 285.039347 16.531206 0.000000 0.106631
499.000000 59.740000 -6.000000 -1.000000 11.000000 112.287121 4.732556 885.896783 498.353023 16.742655 0.000000 0.146169
500.000000 57.903000 -5.000000 -1.000000 11.000000 102.716175 4.014654 899.461543 697.529888 17.276853 0.000000 0.170282
501.000000 54.868000 -4.000000 -1.000000 11.000000 92.611708 3.403951 910.981860 891.818611 18.236176 0.000000 0.174901
502.000000 50.618000 -3.000000 -1.000000 11.000000 82.099950 2.878216 920.887543 1090.537775 19.771412 0.000000 0.156074
504.000000 58.476000 -9.000000 1.000000 11.000000 132.442754 29.895112 356.225510 -194.333847 17.098781 0.000000 0.093740
505.000000 59.247000 -8.000000 1.000000 11.000000 125.275022 26.700160 433.676611 88.772469 16.878129 0.000000 0.023243
506.000000 59.307000 -7.000000 1.000000 11.000000 117.359005 24.008195 495.618455 331.334876 16.863080 0.000000 0.061427
507.000000 58.465000 -6.000000 1.000000 11.000000 108.722482 21.718606 546.285564 548.350500 17.108640 0.000000 0.110847
508.000000 56.549000 -5.000000 1.000000 11.000000 99.422333 19.753365 588.499510 751.222345 17.691358 0.000000 0.142256
509.000000 53.449000 -4.000000 1.000000 11.000000 89.552107 18.051888 624.212864 949.849383 18.721019 0.000000 0.152196
510.000000 49.154000 -3.000000 1.000000 11.000000 79.244661 16.566892 654.819834 1154.299357 20.360873 0.000000 0.137956
512.000000 56.985000 -9.000000 2.000000 11.000000 128.177984 38.823109 108.922241 -145.262004 17.546953 0.000000 0.162470
513.000000 57.610000 -8.000000 2.000000 11.000000 121.313795 35.206931 215.562907 139.663492 17.358433 0.000000 0.062026
514.000000 57.536000 -7.000000 2.000000 11.000000 113.690751 32.073197 300.543277 383.684170 17.382910 0.000000 0.018288
515.000000 56.584000 -6.000000 2.000000 11.000000 105.340124 29.346844 369.854223 602.280677 17.677997 0.000000 0.077643
516.000000 54.598000 -5.000000 2.000000 11.000000 96.321783 26.963510 427.463810 807.219245 18.324146 0.000000 0.115823
517.000000 51.481000 -4.000000 2.000000 11.000000 86.730661 24.869170 476.104585 1008.764665 19.437203 0.000000 0.131428
518.000000 47.231000 -3.000000 2.000000 11.000000 76.698791 23.018963 517.719721 1217.462352 21.190292 0.000000 0.123898
520.000000 55.361000 -8.000000 3.000000 11.000000 116.535768 42.453030 -9.620021 212.567924 18.064627 0.000000 0.135264
521.000000 55.113000 -7.000000 3.000000 11.000000 109.218591 39.116743 99.797003 457.412817 18.148311 0.000000 0.053890
522.000000 54.025000 -6.000000 3.000000 11.000000 101.188658 36.147925 188.772891 677.357338 18.516419 0.000000 0.055462
523.000000 51.963000 -5.000000 3.000000 11.000000 92.505539 33.502587 262.546466 884.520240 19.254545 0.000000 0.092896
524.000000 48.847000 -4.000000 3.000000 11.000000 83.262196 31.140206 324.707249 1089.562763 20.486457 0.000000 0.114662
526.000000 52.631000 -8.000000 4.000000 11.000000 111.249313 48.516172 -242.221514 309.164780 19.003163 0.000000 0.232435
527.000000 52.188000 -7.000000 4.000000 11.000000 104.226703 45.148061 -106.871315 554.090942 19.166890 0.000000 0.137390
528.000000 50.956000 -6.000000 4.000000 11.000000 96.525398 42.089395 2.855283 775.103799 19.633007 0.000000 0.095915
529.000000 48.824000 -5.000000 4.000000 11.000000 88.202495 39.314595 93.605419 984.657638 20.493645 0.000000 0.103250
530.000000 45.732000 -4.000000 4.000000 11.000000 79.346302 36.797233 169.910067 1193.843723 21.882593 0.000000 0.122364
532.000000 48.925000 -7.000000 5.000000 11.000000 98.964292 50.263588 -319.727652 675.409123 20.446569 0.000000 0.242501
533.000000 47.558000 -6.000000 5.000000 11.000000 91.584785 47.219724 -188.094973 897.157108 21.037277 0.000000 0.180687
537.000000 46.233000 -10.000000 -7.000000 12.000000 123.619709 -42.642432 1966.175393 -31.847017 21.629226 0.000000 0.196866
538.000000 46.356000 -9.000000 -7.000000 12.000000 117.670408 -40.076126 1880.557727 203.459749 21.573656 0.000000 0.113312
539.000000 46.066000 -8.000000 -7.000000 12.000000 111.246181 -37.791669 1809.608776 411.460644 21.711675 0.000000 0.052529
541.000000 47.775000 -7.000000 -6.000000 12.000000 107.747870 -30.567931 1610.705829 540.919084 20.936888 0.000000 0.053155
544.000000 50.249000 -10.000000 -5.000000 12.000000 131.597892 -30.194973 1601.291806 -164.503894 19.898434 0.000000 0.095152
545.000000 50.684000 -9.000000 -5.000000 12.000000 125.177900 -28.049270 1548.463544 81.415751 19.729757 0.000000 0.030207
546.000000 50.657000 -8.000000 -5.000000 12.000000 118.240989 -26.213198 1504.910435 296.635774 19.742277 0.000000 0.035559
547.000000 50.070000 -7.000000 -5.000000 12.000000 110.803905 -24.627321 1468.386923 491.150806 19.976460 0.000000 0.080947
548.000000 48.832000 -6.000000 -5.000000 12.000000 102.899237 -23.245762 1437.318203 672.732991 20.485797 0.000000 0.114444
549.000000 46.879000 -5.000000 -5.000000 12.000000 94.578736 -22.032762 1410.567175 848.014671 21.342494 0.000000 0.133243
551.000000 52.459000 -9.000000 -4.000000 12.000000 128.200286 -20.413569 1375.560415 37.276884 19.061226 0.000000 0.027537
552.000000 52.067000 -7.000000 -4.000000 12.000000 113.352722 -17.907543 1322.790063 452.640850 19.209656 0.000000 0.106120
553.000000 48.912000 -5.000000 -4.000000 12.000000 96.581285 -16.059489 1284.832156 811.782016 20.454766 0.000000 0.152338
555.000000 53.153000 -10.000000 -3.000000 12.000000 137.211081 -12.509907 1213.803957 -250.019596 18.810198 0.000000 0.030300
556.000000 54.062000 -8.000000 -3.000000 12.000000 123.062788 -11.026881 1184.734495 227.189559 18.497788 0.000000 0.084442
557.000000 53.651000 -7.000000 -3.000000 12.000000 115.192944 -10.465067 1173.800680 426.131846 18.641864 0.000000 0.123788
558.000000 50.532000 -5.000000 -3.000000 12.000000 97.993419 -9.576251 1156.582703 787.726910 19.798982 0.000000 0.166639
559.000000 47.690000 -4.000000 -3.000000 12.000000 88.789419 -9.218748 1149.683069 964.041605 20.982618 0.000000 0.164002
561.000000 54.784000 -9.000000 -2.000000 12.000000 131.539991 -2.132208 1015.071760 -13.225475 18.251569 0.000000 0.047957
562.000000 54.716000 -7.000000 -2.000000 12.000000 116.135443 -2.463166 1021.298803 412.414665 18.278671 0.000000 0.132308
563.000000 51.616000 -5.000000 -2.000000 12.000000 98.672482 -2.699250 1025.742631 776.650469 19.382834 0.000000 0.174345
566.000000 54.355000 -10.000000 -1.000000 12.000000 138.268606 9.155079 801.544226 -281.244186 18.394095 0.000000 0.021345
567.000000 55.185000 -9.000000 -1.000000 12.000000 131.430034 7.826196 827.064672 -17.814921 18.119078 0.000000 0.044166
568.000000 55.506000 -8.000000 -1.000000 12.000000 124.019925 6.736416 847.870914 209.435118 18.016360 0.000000 0.090146
569.000000 55.178000 -7.000000 -1.000000 12.000000 116.042666 5.827149 865.158738 412.331932 18.125878 0.000000 0.130720
570.000000 54.067000 -6.000000 -1.000000 12.000000 107.523515 5.057337 879.751035 599.831839 18.500943 0.000000 0.159999
571.000000 52.069000 -5.000000 -1.000000 12.000000 98.513800 4.397408 892.232642 779.406021 19.214355 0.000000 0.174478
572.000000 49.128000 -4.000000 -1.000000 12.000000 89.093921 3.825545 903.030622 958.060021 20.368200 0.000000 0.171188
574.000000 54.985000 -7.000000 0.000000 12.000000 114.864591 14.070194 705.248721 426.781825 18.189505 0.000000 0.118328
575.000000 51.833000 -5.000000 0.000000 12.000000 97.474152 11.502826 755.970171 796.902907 19.301944 0.000000 0.166590
577.000000 53.521000 -10.000000 1.000000 12.000000 133.875776 29.661180 362.058698 -249.914075 18.681540 0.000000 0.103053
578.000000 54.281000 -9.000000 1.000000 12.000000 127.426633 26.670369 434.377613 19.246677 18.421428 0.000000 0.033571
579.000000 54.532000 -8.000000 1.000000 12.000000 120.347337 24.125287 492.980137 250.564061 18.338868 0.000000 0.045755
580.000000 54.135000 -7.000000 1.000000 12.000000 112.653612 21.941322 541.430546 456.722192 18.475807 0.000000 0.094828
581.000000 52.960000 -6.000000 1.000000 12.000000 104.379564 20.051892 582.156629 647.257840 18.888533 0.000000 0.131206
582.000000 50.905000 -5.000000 1.000000 12.000000 95.583439 18.404569 616.869214 830.110609 19.654382 0.000000 0.150935
583.000000 47.920000 -4.000000 1.000000 12.000000 86.351078 16.957888 646.808633 1012.757426 20.882585 0.000000 0.151695
585.000000 53.005000 -9.000000 2.000000 12.000000 123.840084 34.719466 229.197384 63.079648 18.865790 0.000000 0.074775
586.000000 52.668000 -7.000000 2.000000 12.000000 109.550284 29.196767 373.559170 503.175019 18.991278 0.000000 0.061765
587.000000 49.334000 -5.000000 2.000000 12.000000 92.939219 24.924552 474.840142 880.063209 20.280856 0.000000 0.129338
589.000000 51.266000 -8.000000 3.000000 12.000000 112.942386 38.509832 118.575295 358.786194 19.509160 0.000000 0.056453
590.000000 50.666000 -7.000000 3.000000 12.000000 105.748459 35.704277 201.482281 567.231282 19.742670 0.000000 0.038214
591.000000 47.217000 -5.000000 3.000000 12.000000 89.686592 30.941593 329.789517 947.864232 21.190985 0.000000 0.108124
592.000000 49.107000 -9.000000 4.000000 12.000000 114.718313 47.515402 -200.203168 207.415792 20.365906 0.000000 0.226787
593.000000 48.239000 -7.000000 4.000000 12.000000 101.456905 41.432307 25.039840 650.056211 20.737003 0.000000 0.080167
595.000000 46.364000 -8.000000 5.000000 12.000000 103.536972 49.315639 -276.998616 543.495084 21.574330 0.000000 0.225353
596.000000 45.511000 -7.000000 5.000000 12.000000 96.870190 46.418123 -155.936416 752.895023 21.981578 0.000000 0.158231
597.000000 45.745000 -10.000000 -6.000000 13.000000 124.800155 -32.203658 1652.874642 56.948419 21.859718 0.000000 0.061903
598.000000 45.773000 -9.000000 -6.000000 13.000000 118.646662 -30.270821 1603.200521 260.225760 21.848543 0.000000 0.004187
600.000000 46.895000 -11.000000 -5.000000 13.000000 133.883018 -27.553965 1536.572398 -226.556333 21.320916 0.000000 0.090042
601.000000 47.381000 -10.000000 -5.000000 13.000000 127.968837 -25.672259 1492.343787 9.053761 21.103919 0.000000 0.034460
602.000000 47.518000 -9.000000 -5.000000 13.000000 121.608918 -24.058675 1455.518373 215.612900 21.045140 0.000000 0.033988
603.000000 47.229000 -8.000000 -5.000000 13.000000 114.811939 -22.661809 1424.380934 401.779593 21.176399 0.000000 0.075697
604.000000 46.441000 -7.000000 -5.000000 13.000000 107.597649 -21.442120 1397.708119 574.243781 21.538661 0.000000 0.110283
607.000000 48.169000 -11.000000 -4.000000 13.000000 136.659638 -19.478963 1355.691109 -268.767197 20.756747 0.000000 0.056407
608.000000 48.765000 -10.000000 -4.000000 13.000000 130.570482 -18.140136 1327.621891 -28.732117 20.504545 0.000000 0.028070
609.000000 49.002000 -9.000000 -4.000000 13.000000 124.030412 -17.012218 1304.307170 180.940449 20.407330 0.000000 0.058471
610.000000 48.795000 -8.000000 -4.000000 13.000000 117.043473 -16.049711 1284.633259 369.287531 20.496527 0.000000 0.097934
611.000000 48.060000 -7.000000 -4.000000 13.000000 109.626130 -15.219155 1267.809103 543.245952 20.812676 0.000000 0.129984
612.000000 46.728000 -6.000000 -4.000000 13.000000 101.810239 -14.495445 1253.257340 708.550217 21.408990 0.000000 0.151032
615.000000 49.145000 -11.000000 -3.000000 13.000000 138.607543 -10.245068 1169.530028 -299.925568 20.343888 0.000000 0.027999
616.000000 49.832000 -10.000000 -3.000000 13.000000 132.393565 -9.677670 1158.542658 -55.754835 20.065040 0.000000 0.034403
617.000000 50.152000 -9.000000 -3.000000 13.000000 125.723642 -9.206082 1149.438886 156.829802 19.938988 0.000000 0.073972
618.000000 50.012000 -8.000000 -3.000000 13.000000 118.597493 -8.807976 1141.772586 347.244286 19.996972 0.000000 0.112590
619.000000 49.323000 -7.000000 -3.000000 13.000000 111.028581 -8.467450 1135.228209 522.673316 20.279373 0.000000 0.143455
620.000000 48.004000 -6.000000 -3.000000 13.000000 103.047235 -8.172874 1129.576265 689.023957 20.839315 0.000000 0.163397
621.000000 46.006000 -5.000000 -3.000000 13.000000 94.702850 -7.915547 1124.645861 851.606883 21.748132 0.000000 0.170089
624.000000 49.777000 -11.000000 -2.000000 13.000000 139.502169 -0.151960 977.854562 -319.279745 20.085501 0.000000 0.001548
625.000000 50.527000 -10.000000 -2.000000 13.000000 133.244286 -0.528648 984.930874 -71.317343 19.788948 0.000000 0.037553
626.000000 50.904000 -9.000000 -2.000000 13.000000 126.519169 -0.839936 990.779224 143.941083 19.644115 0.000000 0.079824
627.000000 50.812000 -8.000000 -2.000000 13.000000 119.324781 -1.101480 995.693726 336.287825 19.682283 0.000000 0.118707
628.000000 50.152000 -7.000000 -2.000000 13.000000 111.673403 -1.324314 999.881515 513.154836 19.943967 0.000000 0.149580
629.000000 48.840000 -6.000000 -2.000000 13.000000 103.595014 -1.516434 1003.492683 680.624969 20.482598 0.000000 0.169392
630.000000 46.819000 -5.000000 -2.000000 13.000000 95.139738 -1.683777 1006.638653 844.149015 21.370106 0.000000 0.175737
633.000000 50.028000 -11.000000 -1.000000 13.000000 139.198047 10.247849 780.416010 -326.025396 19.984839 0.000000 0.027525
634.000000 50.807000 -10.000000 -1.000000 13.000000 132.994528 8.892466 806.601807 -74.676734 19.679918 0.000000 0.033693
635.000000 51.210000 -9.000000 -1.000000 13.000000 126.302945 7.767537 828.187232 142.975879 19.526834 0.000000 0.075374
636.000000 51.137000 -8.000000 -1.000000 13.000000 119.123352 6.819576 846.286697 337.094956 19.557159 0.000000 0.115590
637.000000 50.486000 -7.000000 -1.000000 13.000000 111.469558 6.010286 861.681562 515.357135 19.811868 0.000000 0.147656
638.000000 49.170000 -6.000000 -1.000000 13.000000 103.372965 5.311574 874.935904 684.023690 20.345126 0.000000 0.168333
639.000000 47.128000 -5.000000 -1.000000 13.000000 94.885386 4.702399 886.467135 848.694866 21.230054 0.000000 0.175185
641.000000 49.326000 -11.000000 1.000000 13.000000 135.072204 29.454986 367.177752 -298.184556 20.270161 0.000000 0.110744
642.000000 50.050000 -10.000000 1.000000 13.000000 129.213513 26.643851 435.001289 -41.564193 19.978193 0.000000 0.044651
643.000000 50.398000 -9.000000 1.000000 13.000000 122.817756 24.230443 490.606630 179.847642 19.842216 0.000000 0.033431
644.000000 50.270000 -8.000000 1.000000 13.000000 115.893923 22.142928 537.022566 376.917589 19.895222 0.000000 0.079447
645.000000 49.566000 -7.000000 1.000000 13.000000 108.462919 20.324039 576.353209 557.794226 20.180217 0.000000 0.118274
646.000000 48.203000 -6.000000 1.000000 13.000000 100.561787 18.728110 610.105850 729.100390 20.754324 0.000000 0.144142
647.000000 46.120000 -5.000000 1.000000 13.000000 92.246841 17.318589 639.388551 896.766345 21.695099 0.000000 0.154943
650.000000 49.033000 -10.000000 2.000000 13.000000 125.941355 34.281659 241.306581 -3.344470 20.393363 0.000000 0.085902
651.000000 49.303000 -9.000000 2.000000 13.000000 119.755639 31.505693 315.298910 219.322922 20.283810 0.000000 0.014368
652.000000 49.103000 -8.000000 2.000000 13.000000 113.032971 29.060290 376.918950 417.505906 20.368644 0.000000 0.046654
653.000000 48.341000 -7.000000 2.000000 13.000000 105.796527 26.897219 429.030441 599.574277 20.692512 0.000000 0.091907
654.000000 46.936000 -6.000000 2.000000 13.000000 98.085196 24.975469 473.676625 772.331986 21.314869 0.000000 0.122384
657.000000 47.639000 -10.000000 3.000000 13.000000 122.010886 40.919404 42.046467 50.582519 20.991329 0.000000 0.146013
658.000000 47.804000 -9.000000 3.000000 13.000000 116.041531 37.956575 135.419635 274.005560 20.920871 0.000000 0.063490
659.000000 47.511000 -8.000000 3.000000 13.000000 109.538651 35.298145 212.993486 473.009883 21.052113 0.000000 0.023958
660.000000 46.675000 -7.000000 3.000000 13.000000 102.526057 32.909335 278.465237 656.171705 21.431823 0.000000 0.064730
662.000000 45.924000 -10.000000 4.000000 13.000000 117.625156 46.596811 -163.022415 121.247439 21.776334 0.000000 0.223780
663.000000 45.967000 -9.000000 4.000000 13.000000 111.862900 43.579647 -49.212379 344.853986 21.758239 0.000000 0.131185
664.000000 45.568000 -8.000000 4.000000 13.000000 105.582247 40.826225 45.107672 544.344881 21.951209 0.000000 0.071421
665.000000 45.499000 -11.000000 -4.000000 14.000000 132.531813 -16.037448 1284.383859 -86.324013 21.976032 0.000000 0.027838
666.000000 45.783000 -9.000000 -4.000000 14.000000 120.126370 -14.315693 1249.657933 296.416458 21.843567 0.000000 0.089577
667.000000 45.672000 -12.000000 -3.000000 14.000000 139.747896 -8.199240 1130.081800 -343.404503 21.890442 0.000000 0.025280
668.000000 46.328000 -11.000000 -3.000000 14.000000 134.036928 -7.837655 1123.154651 -109.520215 21.582419 0.000000 0.028225
669.000000 46.703000 -10.000000 -3.000000 14.000000 127.932724 -7.534747 1117.360914 94.833855 21.410565 0.000000 0.064269
670.000000 46.731000 -9.000000 -3.000000 14.000000 121.432114 -7.277319 1112.443454 277.857020 21.400162 0.000000 0.101554
671.000000 46.340000 -8.000000 -3.000000 14.000000 114.541577 -7.055853 1108.217449 445.810766 21.583166 0.000000 0.133412
673.000000 46.855000 -11.000000 -2.000000 14.000000 134.657643 0.914455 957.820621 -122.643740 21.339385 0.000000 0.028556
674.000000 47.339000 -9.000000 -2.000000 14.000000 121.978667 0.145350 972.269620 269.011619 21.125358 0.000000 0.105639
675.000000 46.114000 -7.000000 -2.000000 14.000000 107.705699 -0.419831 982.886616 597.383502 21.691749 0.000000 0.161293
676.000000 46.330000 -12.000000 -1.000000 14.000000 139.974783 11.211881 761.656055 -365.465772 21.579656 0.000000 0.034111
677.000000 47.052000 -11.000000 -1.000000 14.000000 134.301997 9.844899 788.222990 -125.083740 21.250015 0.000000 0.026505
678.000000 47.490000 -10.000000 -1.000000 14.000000 128.207869 8.698100 810.340364 83.943446 21.055958 0.000000 0.062355
679.000000 47.569000 -9.000000 -1.000000 14.000000 121.690403 7.722983 829.039649 270.433681 21.023042 0.000000 0.101299
680.000000 47.214000 -8.000000 -1.000000 14.000000 114.756874 6.884139 845.056375 441.060684 21.183686 0.000000 0.134636
681.000000 46.354000 -7.000000 -1.000000 14.000000 107.426657 6.155163 858.929156 601.200927 21.579625 0.000000 0.159174
682.000000 46.189000 -12.000000 0.000000 14.000000 138.505026 20.644753 569.487851 -359.240106 21.645703 0.000000 0.070930
683.000000 46.904000 -11.000000 0.000000 14.000000 132.963175 18.532658 614.194680 -116.191291 21.317478 0.000000 0.031402
684.000000 47.333000 -10.000000 0.000000 14.000000 126.977876 16.737695 651.324269 94.752735 21.125992 0.000000 0.047720
685.000000 47.402000 -9.000000 0.000000 14.000000 120.550864 15.196273 682.652493 282.708415 21.097222 0.000000 0.088008
686.000000 47.036000 -8.000000 0.000000 14.000000 113.692279 13.860044 709.440492 454.549215 21.264172 0.000000 0.123712
688.000000 46.410000 -11.000000 1.000000 14.000000 130.720471 26.620094 435.559766 -95.276651 21.545030 0.000000 0.054862
689.000000 46.803000 -10.000000 1.000000 14.000000 124.892340 24.325400 488.459972 117.248576 21.365757 0.000000 0.025991
690.000000 46.838000 -9.000000 1.000000 14.000000 118.606651 22.326286 533.002598 306.454875 21.352030 0.000000 0.065274
691.000000 46.440000 -8.000000 1.000000 14.000000 111.876431 20.573144 571.023236 479.408364 21.537706 0.000000 0.104835
692.000000 45.539000 -7.000000 1.000000 14.000000 104.725690 19.025960 603.856607 641.777382 21.966550 0.000000 0.134453
693.000000 45.584000 -11.000000 2.000000 14.000000 127.715133 33.886332 252.132889 -61.606300 21.936018 0.000000 0.095510
694.000000 45.894000 -9.000000 2.000000 14.000000 115.956638 28.935647 379.979653 342.328171 21.791730 0.000000 0.032956
#UB matrix in q= (UB) B0 G* 
#[[ 0.826013376  0.10355897  -0.553294944]
# [-0.040372586  0.991772453  0.12536274 ]
# [ 0.562202772 -0.081271449  0.823982432]]
#B0 matrix in q= UB (B0) G*
#[[ 0.19670273 -0.          0.03056101]
# [ 0.          0.19187965 -0.        ]
# [ 0.          0.          0.18806537]]
#UBB0 matrix in q= (UB B0) G* i.e. recip. basis vectors are columns in LT frame: astar = UBB0[:,0], bstar = UBB0[:,1], cstar = UBB0[:,2]. (abcstar as columns on xyzlab1, xlab1 = ui, ui = unit vector along incident beam)
#[[ 0.16247909  0.01987086 -0.07881182]
# [-0.0079414   0.19030095  0.02234256]
# [ 0.11058682 -0.01559434  0.17214404]]
#Euler angles phi theta psi (deg)
#[81.789 34.613 77.257]
#deviatoric strain in direct crystal frame (10-3 unit)
#[[  5.92   0.1   -0.92]
# [  0.1    5.28  -0.03]
# [ -0.92  -0.03 -11.19]]
#deviatoric strain in sample2 frame (10-3 unit)
#[[  5.54  -0.26  -2.68]
# [ -0.26   5.01  -2.03]
# [ -2.67  -2.03 -10.55]]
#new lattice parameters
#[ 5.1505     5.2082452  5.3142628 90.0038143 99.2908245 89.9886256]
#CCDLabel
#sCMOS
#DetectorParameters
#[79.0, 975.0, 941.0, 0.0, 0.0]
#pixelsize
#0.0734
#Frame dimensions
#[2018, 2016]
#
