#Strain and Orientation Refinement from experimental file: /home/micha/LaueProjects/DepthEffects/testZrO2_7.cor
#File created at Wed Jun 28 14:18:03 2023 with indexingSpotsSet.py
#Number of indexed spots: 534
#Element
#ZrO2
#grainIndex
#G_0
#Mean Deviation(pixel): 0.114
##spot_index intensity h k l 2theta Chi Xexp Yexp Energy GrainIndex PixDev
9.000000 48.314000 -5.000000 -9.000000 -2.000000 75.882770 50.878931 -348.385246 1370.013020 20.698114 0.000000 0.317061
11.000000 46.723000 -3.000000 -4.000000 -1.000000 71.188226 41.771698 13.638079 1432.612703 10.702719 0.000000 0.196145
12.000000 50.469000 -5.000000 -8.000000 -2.000000 72.694529 47.484653 -198.937633 1437.222553 19.815524 0.000000 0.265552
15.000000 47.670000 -6.000000 -7.000000 -2.000000 66.971959 37.928385 136.271083 1520.986562 20.982347 0.000000 0.179987
16.000000 52.237000 -5.000000 -7.000000 -2.000000 68.702880 43.664183 -52.242683 1520.994365 19.146545 0.000000 0.230442
19.000000 47.773000 -3.000000 -3.000000 -1.000000 61.804658 33.707216 257.005095 1634.595644 10.469485 0.000000 0.169147
20.000000 53.214000 -5.000000 -6.000000 -2.000000 63.683284 39.372874 91.774960 1629.622405 18.797101 0.000000 0.208954
21.000000 58.816000 -2.000000 -3.000000 -1.000000 65.234214 46.147929 -145.309447 1657.713216 8.502814 0.000000 0.286662
23.000000 46.561000 -6.000000 -5.000000 -2.000000 55.501038 29.102374 375.883886 1787.564917 21.486800 0.000000 0.167092
24.000000 52.771000 -5.000000 -5.000000 -2.000000 57.368981 34.575696 233.187928 1777.967843 18.957015 0.000000 0.199312
25.000000 59.555000 -4.000000 -5.000000 -2.000000 59.028741 41.310013 29.119054 1800.973759 16.796616 0.000000 0.258718
28.000000 50.017000 -5.000000 -4.000000 -2.000000 49.475404 29.257294 372.066250 1995.568836 20.003592 0.000000 0.215506
29.000000 57.643000 -2.000000 -2.000000 -1.000000 50.959211 35.764824 199.756127 2016.684974 8.677935 0.000000 0.258114
37.000000 46.098000 -6.000000 -11.000000 -1.000000 88.436108 50.817226 -345.477511 987.509973 21.688597 0.000000 0.269305
39.000000 45.565000 -7.000000 -10.000000 -1.000000 84.785829 42.379981 -7.102325 1073.963404 21.944620 0.000000 0.144802
40.000000 48.633000 -6.000000 -10.000000 -1.000000 86.679416 47.685910 -207.247761 1033.761773 20.559073 0.000000 0.208804
42.000000 47.439000 -7.000000 -9.000000 -1.000000 82.210868 38.856829 107.878145 1130.062488 21.078781 0.000000 0.130020
43.000000 51.201000 -6.000000 -9.000000 -1.000000 84.449432 44.192462 -71.374995 1086.876997 19.528755 0.000000 0.165125
44.000000 54.870000 -5.000000 -9.000000 -1.000000 86.337045 50.322315 -322.430547 1048.917795 18.222006 0.000000 0.263152
46.000000 49.083000 -7.000000 -8.000000 -1.000000 79.020118 35.006430 221.190609 1195.940055 20.374341 0.000000 0.125849
47.000000 53.675000 -6.000000 -8.000000 -1.000000 81.609498 40.301100 62.200563 1149.155470 18.629984 0.000000 0.140571
48.000000 58.332000 -5.000000 -8.000000 -1.000000 83.931400 46.516456 -159.830120 1107.281706 17.141603 0.000000 0.198876
50.000000 50.288000 -7.000000 -7.000000 -1.000000 75.074163 30.820763 332.871101 1275.080265 19.888009 0.000000 0.123919
51.000000 55.835000 -6.000000 -7.000000 -1.000000 77.987609 35.982218 193.536682 1224.016416 17.910876 0.000000 0.131361
52.000000 61.718000 -5.000000 -7.000000 -1.000000 80.760976 42.187339 -0.490772 1177.282215 16.202361 0.000000 0.158807
53.000000 67.568000 -4.000000 -7.000000 -1.000000 83.093704 49.591871 -289.278020 1142.111221 14.798454 0.000000 0.257826
55.000000 50.756000 -7.000000 -6.000000 -1.000000 70.218337 26.304604 442.954626 1372.814790 19.706586 0.000000 0.115990
56.000000 57.328000 -6.000000 -6.000000 -1.000000 73.375367 31.218840 322.689212 1316.775824 17.446272 0.000000 0.126586
57.000000 64.663000 -5.000000 -6.000000 -1.000000 76.565329 37.279745 155.684628 1264.113990 15.465961 0.000000 0.140963
58.000000 72.416000 -4.000000 -6.000000 -1.000000 79.491947 44.748243 -91.877147 1222.095290 13.808915 0.000000 0.192099
60.000000 50.093000 -7.000000 -5.000000 -1.000000 64.296392 21.479776 551.475195 1497.735985 19.969976 0.000000 0.097403
61.000000 57.622000 -6.000000 -5.000000 -1.000000 67.536839 26.014794 449.712160 1436.175979 17.359279 0.000000 0.114692
62.000000 66.519000 -5.000000 -5.000000 -1.000000 71.013752 31.756909 308.789391 1376.509578 15.036147 0.000000 0.131577
63.000000 76.618000 -4.000000 -5.000000 -1.000000 74.487807 39.087222 100.717856 1325.867914 13.053045 0.000000 0.158940
64.000000 87.138000 -3.000000 -5.000000 -1.000000 77.438172 48.405808 -237.506980 1302.267383 11.476026 0.000000 0.258206
65.000000 47.826000 -7.000000 -4.000000 -1.000000 57.176828 16.388414 658.465858 1664.641345 20.919132 0.000000 0.081665
66.000000 55.991000 -6.000000 -4.000000 -1.000000 60.236858 20.403366 574.657767 1597.679497 17.867670 0.000000 0.094234
67.000000 66.239000 -5.000000 -4.000000 -1.000000 63.721350 25.617878 458.913196 1530.375872 15.101950 0.000000 0.115255
68.000000 78.849000 -4.000000 -4.000000 -1.000000 67.512571 32.524400 288.680382 1469.414190 12.685614 0.000000 0.142188
69.000000 51.585000 -6.000000 -3.000000 -1.000000 51.299689 14.453825 697.576580 1831.468015 19.396521 0.000000 0.116489
70.000000 62.345000 -5.000000 -3.000000 -1.000000 54.315854 18.917144 606.142264 1758.075990 16.047998 0.000000 0.111167
71.000000 76.739000 -4.000000 -3.000000 -1.000000 57.878499 25.041096 472.175583 1686.825370 13.036796 0.000000 0.127453
72.000000 53.239000 -5.000000 -2.000000 -1.000000 42.587792 11.779131 750.559519 2137.150639 18.795801 0.000000 0.229470
73.000000 66.892000 -4.000000 -2.000000 -1.000000 44.969408 16.735909 651.360850 2066.101010 14.958906 0.000000 0.203169
74.000000 86.891000 -3.000000 -2.000000 -1.000000 47.891734 24.126628 492.949892 2006.901105 11.515097 0.000000 0.198315
79.000000 47.316000 -7.000000 -11.000000 0.000000 95.317223 44.640239 -87.862322 800.217837 21.128308 0.000000 0.138254
80.000000 50.092000 -6.000000 -11.000000 0.000000 97.335352 50.300043 -321.404693 724.095471 19.956251 0.000000 0.247030
82.000000 46.371000 -4.000000 -5.000000 0.000000 91.008099 36.118077 189.632458 917.554986 10.780538 0.000000 0.094238
83.000000 49.840000 -7.000000 -10.000000 0.000000 93.712934 41.082042 36.682545 848.339276 20.059060 0.000000 0.102595
84.000000 53.290000 -3.000000 -5.000000 0.000000 96.170425 46.821428 -171.996323 770.949964 9.379723 0.000000 0.172812
85.000000 48.191000 -8.000000 -9.000000 0.000000 88.520466 32.287048 294.935487 973.883380 20.748069 0.000000 0.105444
86.000000 52.374000 -7.000000 -9.000000 0.000000 91.621942 37.158323 159.281453 902.759983 19.089568 0.000000 0.092874
87.000000 56.667000 -2.000000 -3.000000 0.000000 94.568620 42.905410 -25.343760 823.585894 5.880763 0.000000 0.117550
88.000000 60.858000 -5.000000 -9.000000 0.000000 97.131470 49.637032 -291.298833 733.071974 16.426178 0.000000 0.231038
90.000000 49.776000 -2.000000 -2.000000 0.000000 85.418613 28.161743 398.821014 1038.825366 5.022238 0.000000 0.118440
91.000000 54.791000 -7.000000 -8.000000 0.000000 88.910700 32.852477 279.979655 965.360868 18.248739 0.000000 0.103510
92.000000 60.124000 -3.000000 -4.000000 0.000000 92.380699 38.508096 118.628545 883.816938 8.314315 0.000000 0.093172
93.000000 65.548000 -5.000000 -8.000000 0.000000 95.589561 45.310119 -113.008894 791.222928 15.251561 0.000000 0.147878
94.000000 45.687000 -9.000000 -7.000000 0.000000 77.999096 20.148711 580.094334 1184.705510 21.890513 0.000000 0.123783
95.000000 50.941000 -8.000000 -7.000000 0.000000 81.578733 23.754536 501.317471 1115.090574 19.631372 0.000000 0.125636
96.000000 63.471000 -6.000000 -7.000000 0.000000 89.412138 33.596986 259.993404 954.258048 15.752901 0.000000 0.101023
97.000000 70.489000 -5.000000 -7.000000 0.000000 93.337554 40.327223 61.356534 858.668180 14.183138 0.000000 0.098469
98.000000 77.498000 -4.000000 -7.000000 0.000000 96.799723 48.612452 -246.351200 746.890848 12.899391 0.000000 0.208062
100.000000 45.544000 -3.000000 -2.000000 0.000000 73.191611 15.864374 669.132910 1278.998211 7.320470 0.000000 0.110383
101.000000 51.435000 -4.000000 -3.000000 0.000000 76.871685 19.092734 602.452532 1206.634750 9.722449 0.000000 0.121689
102.000000 58.353000 -7.000000 -6.000000 0.000000 80.962374 23.103312 515.848051 1127.119908 17.137879 0.000000 0.125870
103.000000 75.389000 -5.000000 -6.000000 0.000000 90.079315 34.621228 231.925621 939.189477 13.262381 0.000000 0.097857
104.000000 50.942000 -8.000000 -5.000000 0.000000 71.177439 14.220138 702.253141 1319.470129 19.635291 0.000000 0.101517
105.000000 58.754000 -7.000000 -5.000000 0.000000 75.350179 17.719743 631.101999 1236.366447 17.023087 0.000000 0.117818
106.000000 68.259000 -6.000000 -5.000000 0.000000 80.112366 22.227073 535.179079 1143.663604 14.651099 0.000000 0.125801
107.000000 49.107000 -2.000000 -1.000000 0.000000 64.407946 9.196515 800.745539 1463.202694 5.092887 0.000000 0.059693
108.000000 57.533000 -7.000000 -4.000000 0.000000 68.411187 12.081659 744.622853 1376.539049 17.386985 0.000000 0.086517
109.000000 82.139000 -5.000000 -4.000000 0.000000 78.866676 20.985578 562.160134 1167.858064 12.175768 0.000000 0.124921
110.000000 45.600000 -8.000000 -3.000000 0.000000 56.537521 4.094438 897.955279 1654.190732 21.941457 0.000000 0.031677
111.000000 54.086000 -7.000000 -3.000000 0.000000 60.043466 6.285620 856.449410 1565.062156 18.497799 0.000000 0.028306
112.000000 81.110000 -5.000000 -3.000000 0.000000 69.911490 13.225328 722.055450 1345.347199 12.332423 0.000000 0.095044
113.000000 47.944000 -7.000000 -2.000000 0.000000 50.275276 0.446131 966.619322 1835.368665 20.870183 0.000000 0.105803
114.000000 58.691000 -3.000000 -1.000000 0.000000 53.678022 2.390014 930.077812 1732.941448 8.524016 0.000000 0.060954
115.000000 74.316000 -5.000000 -2.000000 0.000000 58.197973 5.117352 878.614739 1611.054214 13.462751 0.000000 0.023514
116.000000 47.485000 -6.000000 -1.000000 0.000000 41.212323 -4.366772 1057.188486 2173.485448 21.074097 0.000000 0.260911
117.000000 60.079000 -5.000000 -1.000000 0.000000 43.821965 -3.028409 1031.941327 2064.056739 16.656129 0.000000 0.210990
118.000000 80.443000 -4.000000 -1.000000 0.000000 47.634801 -1.006411 993.907256 1922.745012 12.439127 0.000000 0.145751
121.000000 47.744000 -7.000000 -12.000000 1.000000 104.625916 47.077967 -182.337763 528.558683 20.935442 0.000000 0.182158
123.000000 47.505000 -8.000000 -11.000000 1.000000 101.049833 38.155557 129.390923 673.707189 21.042797 0.000000 0.061720
124.000000 50.588000 -7.000000 -11.000000 1.000000 103.864048 43.503804 -46.500963 574.766981 19.758912 0.000000 0.115567
125.000000 53.560000 -6.000000 -11.000000 1.000000 106.339174 49.674069 -292.958859 453.420928 18.661468 0.000000 0.246737
127.000000 46.187000 -9.000000 -10.000000 1.000000 96.059389 29.760908 359.575274 809.390073 21.645656 0.000000 0.097214
128.000000 49.837000 -8.000000 -10.000000 1.000000 99.437916 34.231985 242.672508 724.601319 20.058695 0.000000 0.067795
129.000000 53.592000 -7.000000 -10.000000 1.000000 102.739911 39.523295 87.036275 625.531940 18.652093 0.000000 0.066360
130.000000 57.312000 -6.000000 -10.000000 1.000000 105.780958 45.764490 -130.406150 504.976167 17.440030 0.000000 0.158276
132.000000 47.809000 -9.000000 -9.000000 1.000000 93.537288 25.714471 456.679704 867.154858 20.912456 0.000000 0.118621
133.000000 52.127000 -8.000000 -9.000000 1.000000 97.312813 29.971263 354.320774 781.557621 19.178777 0.000000 0.093049
134.000000 56.694000 -7.000000 -9.000000 1.000000 101.134976 35.108404 218.331854 682.044000 17.632171 0.000000 0.058655
135.000000 61.365000 -6.000000 -9.000000 1.000000 104.819554 41.317149 28.881448 561.856233 16.288585 0.000000 0.084568
136.000000 65.904000 -5.000000 -9.000000 1.000000 108.080426 48.772928 -253.269574 407.834097 15.165834 0.000000 0.230515
137.000000 49.178000 -9.000000 -8.000000 1.000000 90.403773 21.429528 552.564883 932.851730 20.331655 0.000000 0.134675
138.000000 54.247000 -8.000000 -8.000000 1.000000 94.549649 25.381192 464.370794 846.205363 18.430211 0.000000 0.118554
139.000000 59.781000 -7.000000 -8.000000 1.000000 98.899170 30.245311 347.441751 745.917519 16.722485 0.000000 0.087235
140.000000 65.648000 -6.000000 -8.000000 1.000000 103.289763 36.278623 185.001336 625.646235 15.226518 0.000000 0.048995
141.000000 71.584000 -5.000000 -8.000000 1.000000 107.426723 43.767062 -55.942030 473.177783 13.962659 0.000000 0.125756
143.000000 50.135000 -9.000000 -7.000000 1.000000 86.555834 16.936212 647.253631 1008.713025 19.945421 0.000000 0.142539
144.000000 56.014000 -8.000000 -7.000000 1.000000 91.007577 20.487548 572.856640 920.792691 17.850501 0.000000 0.137193
145.000000 62.659000 -7.000000 -7.000000 1.000000 95.849144 24.942939 474.420092 819.399324 15.955553 0.000000 0.118397
146.000000 69.998000 -6.000000 -7.000000 1.000000 100.970309 30.617124 338.047075 698.571332 14.281093 0.000000 0.078712
147.000000 77.782000 -5.000000 -7.000000 1.000000 106.109052 37.918400 136.572506 546.975657 12.850543 0.000000 0.047856
148.000000 85.490000 -4.000000 -7.000000 1.000000 110.755720 47.296753 -191.236335 339.564559 11.690761 0.000000 0.207204
149.000000 50.475000 -9.000000 -6.000000 1.000000 81.894259 12.277724 740.768202 1097.877432 19.813062 0.000000 0.139550
150.000000 57.164000 -8.000000 -6.000000 1.000000 86.538244 15.337029 679.811428 1008.512249 17.492940 0.000000 0.145116
151.000000 65.018000 -7.000000 -6.000000 1.000000 91.772940 19.241553 599.319232 905.713732 15.378081 0.000000 0.140442
152.000000 74.099000 -6.000000 -6.000000 1.000000 97.577194 24.340930 488.108581 783.859318 13.491928 0.000000 0.118044
153.000000 84.272000 -5.000000 -6.000000 1.000000 103.785812 31.150315 324.448003 632.427227 11.861633 0.000000 0.065384
154.000000 95.017000 -4.000000 -6.000000 1.000000 109.936688 40.375893 59.782355 428.546404 10.518826 0.000000 0.079305
156.000000 49.957000 -9.000000 -5.000000 1.000000 76.336829 7.509046 833.130303 1204.902605 20.020711 0.000000 0.122522
157.000000 57.358000 -8.000000 -5.000000 1.000000 81.002056 9.997570 785.267340 1114.056517 17.435878 0.000000 0.138594
158.000000 66.401000 -7.000000 -5.000000 1.000000 86.446286 13.218549 722.189824 1009.660998 15.059641 0.000000 0.147967
159.000000 77.394000 -6.000000 -5.000000 1.000000 92.770597 17.518080 635.272293 886.380936 12.918864 0.000000 0.144716
160.000000 90.509000 -5.000000 -5.000000 1.000000 99.985199 23.462552 507.850144 734.427646 11.045233 0.000000 0.117231
161.000000 105.476000 -4.000000 -5.000000 1.000000 107.827167 31.978868 303.008536 532.952886 9.476381 0.000000 0.042685
162.000000 121.028000 -3.000000 -5.000000 1.000000 115.367395 44.443811 -80.598647 226.215097 8.257364 0.000000 0.171590
163.000000 48.328000 -9.000000 -4.000000 1.000000 69.835940 2.693740 924.361106 1336.670056 20.698440 0.000000 0.087375
164.000000 56.194000 -8.000000 -4.000000 1.000000 74.293807 4.554920 889.255666 1244.617125 17.799420 0.000000 0.112940
165.000000 66.195000 -7.000000 -4.000000 1.000000 79.666395 6.987769 843.080892 1138.716621 15.108619 0.000000 0.135475
166.000000 79.008000 -6.000000 -4.000000 1.000000 86.189738 10.288808 779.621348 1013.852477 12.656777 0.000000 0.150792
167.000000 95.394000 -5.000000 -4.000000 1.000000 94.113366 14.983658 686.936819 860.873555 10.480997 0.000000 0.150388
168.000000 115.879000 -4.000000 -4.000000 1.000000 103.564910 22.061725 538.799522 660.798202 8.626485 0.000000 0.115211
169.000000 139.800000 -3.000000 -4.000000 1.000000 114.090341 33.441265 264.201982 364.295256 7.148884 0.000000 0.010511
171.000000 53.275000 -8.000000 -3.000000 1.000000 66.376440 -0.894627 991.806830 1411.805932 18.777517 0.000000 0.062566
172.000000 63.697000 -7.000000 -3.000000 1.000000 71.306305 0.689889 962.039889 1305.199903 15.703677 0.000000 0.095815
173.000000 77.739000 -6.000000 -3.000000 1.000000 77.531968 2.859727 921.235730 1179.275473 12.865597 0.000000 0.127643
174.000000 97.026000 -5.000000 -3.000000 1.000000 85.540969 6.000966 861.858570 1025.394340 10.306545 0.000000 0.152493
175.000000 123.720000 -4.000000 -3.000000 1.000000 95.975234 10.912692 767.491111 826.272613 8.081064 0.000000 0.157668
176.000000 159.696000 -3.000000 -3.000000 1.000000 109.412569 19.480120 594.284428 538.681740 6.258906 0.000000 0.109434
177.000000 48.322000 -8.000000 -2.000000 1.000000 57.316322 -6.254052 1092.950420 1635.669981 20.705022 0.000000 0.040551
178.000000 58.295000 -7.000000 -2.000000 1.000000 61.383416 -5.525180 1079.112765 1530.959842 17.161710 0.000000 0.032345
179.000000 72.293000 -6.000000 -2.000000 1.000000 66.680749 -4.525724 1060.192423 1406.405438 13.837611 0.000000 0.065710
180.000000 92.770000 -5.000000 -2.000000 1.000000 73.820318 -3.071815 1032.759019 1253.727900 10.781901 0.000000 0.109185
181.000000 124.080000 -4.000000 -2.000000 1.000000 83.840252 -0.766485 989.399181 1057.168377 8.059653 0.000000 0.149145
182.000000 173.603000 -3.000000 -2.000000 1.000000 98.518016 3.425724 910.571390 779.512177 5.758828 0.000000 0.164580
183.000000 49.772000 -7.000000 -1.000000 1.000000 50.118862 -11.518886 1194.344025 1858.805422 20.103624 0.000000 0.137246
184.000000 61.876000 -6.000000 -1.000000 1.000000 53.849750 -11.632385 1196.565545 1743.782080 16.170101 0.000000 0.094654
185.000000 80.266000 -5.000000 -1.000000 1.000000 59.023665 -11.796209 1199.775261 1601.037343 12.464512 0.000000 0.059696
186.000000 110.418000 -4.000000 -1.000000 1.000000 66.637282 -12.053354 1204.821141 1416.403834 9.059604 0.000000 0.074210
187.000000 164.961000 -3.000000 -1.000000 1.000000 78.793667 -12.515288 1213.910020 1159.425815 6.062773 0.000000 0.126721
189.000000 50.138000 -7.000000 -12.000000 2.000000 112.710342 46.139472 -144.978505 290.908328 19.933138 0.000000 0.191404
190.000000 46.868000 -9.000000 -11.000000 2.000000 105.608724 31.514213 315.078710 588.296521 21.327273 0.000000 0.055664
191.000000 50.084000 -8.000000 -11.000000 2.000000 109.089110 36.370355 182.346653 478.418167 19.956495 0.000000 0.032756
192.000000 53.292000 -7.000000 -11.000000 2.000000 112.400126 42.125271 1.630846 342.872487 18.753927 0.000000 0.115064
194.000000 48.904000 -9.000000 -10.000000 2.000000 103.863721 27.323029 418.935139 642.009707 20.440175 0.000000 0.087643
195.000000 56.658000 -7.000000 -10.000000 2.000000 111.735349 37.619538 145.556993 399.289490 17.639978 0.000000 0.048163
197.000000 46.609000 -10.000000 -9.000000 2.000000 97.348495 19.307765 597.923339 793.925457 21.449674 0.000000 0.136962
198.000000 50.841000 -9.000000 -9.000000 2.000000 101.581560 22.852733 521.401471 701.641275 19.662680 0.000000 0.116459
199.000000 55.397000 -8.000000 -9.000000 2.000000 106.032435 27.202018 421.811956 593.257909 18.043889 0.000000 0.080911
200.000000 60.186000 -7.000000 -9.000000 2.000000 110.582525 32.592751 286.872930 461.275422 16.606369 0.000000 0.025071
201.000000 65.045000 -6.000000 -9.000000 2.000000 115.015927 39.311508 93.702288 291.859333 15.364578 0.000000 0.084193
203.000000 52.560000 -9.000000 -8.000000 2.000000 98.653530 18.134015 622.505428 768.635963 19.020764 0.000000 0.139107
204.000000 63.773000 -7.000000 -8.000000 2.000000 108.770952 27.040205 425.649025 530.315478 15.673209 0.000000 0.071482
205.000000 76.024000 -5.000000 -8.000000 2.000000 119.167517 41.726999 15.146629 136.095547 13.144863 0.000000 0.146560
206.000000 48.385000 -10.000000 -7.000000 2.000000 90.200552 10.531467 774.909176 937.168088 20.665723 0.000000 0.156112
207.000000 53.900000 -9.000000 -7.000000 2.000000 94.966172 13.214302 722.274004 844.933067 18.549317 0.000000 0.153844
208.000000 60.182000 -8.000000 -7.000000 2.000000 100.267235 16.606365 654.012550 737.554382 16.611260 0.000000 0.141517
209.000000 67.231000 -7.000000 -7.000000 2.000000 106.091768 20.995184 561.953141 608.432144 14.867930 0.000000 0.113119
210.000000 74.934000 -6.000000 -7.000000 2.000000 112.332863 26.812773 431.023443 445.594874 13.337775 0.000000 0.057826
211.000000 82.990000 -5.000000 -7.000000 2.000000 118.693425 34.689980 230.016958 224.553683 12.041647 0.000000 0.046490
213.000000 54.651000 -9.000000 -6.000000 2.000000 90.411098 8.156717 820.733479 933.198525 18.296323 0.000000 0.158862
214.000000 70.256000 -7.000000 -6.000000 2.000000 102.305459 14.539942 695.850743 698.454432 14.228953 0.000000 0.144051
215.000000 90.419000 -5.000000 -6.000000 2.000000 117.143551 26.469673 439.090592 324.580668 11.052758 0.000000 0.038011
216.000000 101.328000 -4.000000 -6.000000 2.000000 124.962632 36.706650 172.560617 2.272482 9.861448 0.000000 0.115573
217.000000 47.905000 -10.000000 -5.000000 2.000000 80.086151 1.447519 947.802740 1129.171565 20.877229 0.000000 0.137542
218.000000 54.557000 -9.000000 -5.000000 2.000000 84.899501 3.036330 917.909454 1037.201199 18.329639 0.000000 0.151941
219.000000 62.621000 -8.000000 -5.000000 2.000000 90.536843 5.082529 879.274081 930.875365 15.967554 0.000000 0.161233
220.000000 72.385000 -7.000000 -5.000000 2.000000 97.163295 7.808414 827.405007 804.466907 13.811802 0.000000 0.161570
221.000000 84.097000 -6.000000 -5.000000 2.000000 104.940262 11.598508 754.097721 647.823700 11.886449 0.000000 0.146178
222.000000 97.798000 -5.000000 -5.000000 2.000000 113.948443 17.162698 642.598979 440.684195 10.219455 0.000000 0.102507
223.000000 112.995000 -4.000000 -5.000000 2.000000 123.967563 25.892633 452.550583 135.005994 8.843497 0.000000 0.024791
225.000000 53.345000 -9.000000 -4.000000 2.000000 78.380870 -2.066025 1013.826861 1162.449957 18.748475 0.000000 0.130451
226.000000 72.987000 -7.000000 -4.000000 2.000000 90.447301 0.975323 956.676914 932.596123 13.699815 0.000000 0.162285
227.000000 104.060000 -5.000000 -4.000000 2.000000 108.417719 7.109386 840.761410 579.817950 9.605567 0.000000 0.146132
228.000000 124.876000 -4.000000 -4.000000 2.000000 120.440168 13.195808 722.640528 291.374227 8.002603 0.000000 0.088248
229.000000 147.892000 -3.000000 -4.000000 2.000000 134.298662 24.719064 479.525993 -215.206820 6.755729 0.000000 0.077832
230.000000 50.766000 -9.000000 -3.000000 2.000000 70.863535 -7.071191 1108.509995 1317.329982 19.703858 0.000000 0.092834
231.000000 59.680000 -8.000000 -3.000000 2.000000 75.849081 -6.514440 1097.903021 1214.127027 16.759292 0.000000 0.118237
232.000000 71.311000 -7.000000 -3.000000 2.000000 82.029114 -5.768350 1083.725350 1092.472639 14.024053 0.000000 0.141949
233.000000 86.724000 -6.000000 -3.000000 2.000000 89.833679 -4.717002 1063.809037 944.134948 11.529902 0.000000 0.159704
234.000000 107.319000 -5.000000 -3.000000 2.000000 99.877095 -3.126315 1033.785803 753.320607 9.315366 0.000000 0.163571
235.000000 134.561000 -4.000000 -3.000000 2.000000 113.000334 -0.444306 983.346403 484.119033 7.427643 0.000000 0.137593
236.000000 168.633000 -3.000000 -3.000000 2.000000 130.159605 4.994650 880.937723 29.298865 5.925187 0.000000 0.054545
237.000000 46.667000 -9.000000 -2.000000 2.000000 62.432175 -11.908754 1201.982526 1515.263289 21.437555 0.000000 0.058646
238.000000 66.669000 -7.000000 -2.000000 2.000000 71.938517 -12.245973 1208.607190 1300.158831 15.003163 0.000000 0.099459
239.000000 104.908000 -5.000000 -2.000000 2.000000 87.923113 -12.918468 1221.869433 981.044731 9.531630 0.000000 0.147828
240.000000 137.341000 -4.000000 -2.000000 2.000000 100.481166 -13.588228 1235.148923 736.152761 7.278928 0.000000 0.147862
241.000000 183.652000 -3.000000 -2.000000 2.000000 118.278328 -14.918891 1261.759781 341.802057 5.441623 0.000000 0.092522
242.000000 48.556000 -8.000000 -1.000000 2.000000 56.410561 -17.298045 1310.188052 1689.663641 20.604914 0.000000 0.103123
243.000000 58.741000 -7.000000 -1.000000 2.000000 60.417767 -18.320492 1331.377388 1584.601001 17.031227 0.000000 0.089465
244.000000 73.119000 -6.000000 -1.000000 2.000000 65.654294 -19.728331 1360.969670 1458.366987 13.681049 0.000000 0.091518
245.000000 94.300000 -5.000000 -1.000000 2.000000 72.735367 -21.786809 1405.199601 1301.230448 10.606663 0.000000 0.107194
246.000000 126.936000 -4.000000 -1.000000 2.000000 82.693448 -25.070457 1478.496516 1093.355381 7.878036 0.000000 0.119206
247.000000 178.807000 -3.000000 -1.000000 2.000000 97.215047 -31.071675 1623.536719 781.920954 5.590990 0.000000 0.086612
248.000000 47.879000 -7.000000 0.000000 2.000000 47.926006 -23.906277 1452.089053 2003.797339 20.897860 0.000000 0.232663
249.000000 58.904000 -6.000000 0.000000 2.000000 51.070698 -26.220442 1505.079496 1910.087524 16.985548 0.000000 0.210981
250.000000 75.119000 -5.000000 0.000000 2.000000 55.269102 -29.500656 1583.954262 1798.264838 13.318157 0.000000 0.196395
251.000000 100.247000 -4.000000 0.000000 2.000000 61.049117 -34.467137 1713.807996 1663.170439 9.978697 0.000000 0.197991
252.000000 141.017000 -3.000000 0.000000 2.000000 69.133714 -42.685235 1967.662368 1499.124449 7.092470 0.000000 0.239642
257.000000 46.717000 -8.000000 -13.000000 3.000000 117.733221 42.797212 -21.562157 169.819801 21.391531 0.000000 0.155553
259.000000 49.339000 -8.000000 -12.000000 3.000000 117.533664 38.725592 111.936113 221.796567 20.254838 0.000000 0.090007
260.000000 51.992000 -7.000000 -12.000000 3.000000 120.709331 44.989267 -100.891099 37.071244 19.220219 0.000000 0.217863
261.000000 45.628000 -10.000000 -11.000000 3.000000 109.050614 24.890641 475.614499 531.280640 21.905670 0.000000 0.083517
262.000000 48.834000 -9.000000 -11.000000 3.000000 113.030089 29.105067 375.817608 417.351460 20.466153 0.000000 0.037860
263.000000 52.105000 -8.000000 -11.000000 3.000000 117.008410 34.213131 243.190510 277.601749 19.179973 0.000000 0.030936
264.000000 55.341000 -7.000000 -11.000000 3.000000 120.816976 40.420311 58.343676 97.672447 18.056918 0.000000 0.136888
266.000000 47.328000 -10.000000 -10.000000 3.000000 107.094233 20.552179 571.472474 587.508513 21.120032 0.000000 0.112123
267.000000 51.071000 -9.000000 -10.000000 3.000000 111.506952 24.441379 485.833711 475.137299 19.570326 0.000000 0.076505
268.000000 54.974000 -8.000000 -10.000000 3.000000 116.048055 29.249559 372.257136 338.063797 18.179190 0.000000 0.021702
269.000000 58.930000 -7.000000 -10.000000 3.000000 120.560277 35.247991 214.406987 162.817514 16.957433 0.000000 0.065269
271.000000 48.883000 -10.000000 -9.000000 3.000000 104.590911 16.012019 666.133219 649.520357 20.449172 0.000000 0.135434
272.000000 57.877000 -8.000000 -9.000000 3.000000 114.518892 23.849334 499.190238 404.243110 17.268210 0.000000 0.067237
273.000000 62.710000 -7.000000 -9.000000 3.000000 119.784268 29.446312 367.392648 233.609866 15.935634 0.000000 0.012709
275.000000 45.683000 -11.000000 -8.000000 3.000000 96.746780 8.955883 805.381160 812.102062 21.885272 0.000000 0.160298
276.000000 50.190000 -10.000000 -8.000000 3.000000 101.453633 11.316183 759.619025 718.608908 19.918026 0.000000 0.152634
277.000000 55.201000 -9.000000 -8.000000 3.000000 106.628698 14.272659 701.202935 609.317783 18.108089 0.000000 0.135770
278.000000 60.694000 -8.000000 -8.000000 3.000000 112.264645 18.060096 624.042285 477.520436 16.467540 0.000000 0.105348
279.000000 66.581000 -7.000000 -8.000000 3.000000 118.291516 23.033794 517.390809 311.492871 15.009730 0.000000 0.055060
280.000000 72.676000 -6.000000 -8.000000 3.000000 124.517840 29.729932 360.347153 88.589263 13.749447 0.000000 0.041880
282.000000 46.107000 -11.000000 -7.000000 3.000000 92.758246 4.646907 887.516519 888.975604 21.685479 0.000000 0.163465
283.000000 51.114000 -10.000000 -7.000000 3.000000 97.599302 6.522077 851.951633 796.469646 19.559313 0.000000 0.162759
284.000000 56.816000 -9.000000 -7.000000 3.000000 103.034507 8.891444 806.621474 688.804387 17.594498 0.000000 0.154561
285.000000 63.244000 -8.000000 -7.000000 3.000000 109.113495 11.967529 746.864037 559.728951 15.804446 0.000000 0.135167
286.000000 70.361000 -7.000000 -7.000000 3.000000 115.844949 16.092898 664.488135 398.394132 14.204096 0.000000 0.098902
287.000000 78.007000 -6.000000 -7.000000 3.000000 123.138610 21.839396 543.654328 184.009637 12.810142 0.000000 0.040658
288.000000 85.829000 -5.000000 -7.000000 3.000000 130.683996 30.174216 349.230029 -129.254539 11.641293 0.000000 0.091760
290.000000 46.034000 -11.000000 -6.000000 3.000000 88.099313 0.332563 968.752775 976.717883 21.722103 0.000000 0.158783
291.000000 51.494000 -10.000000 -6.000000 3.000000 92.957427 1.694898 943.152249 885.371361 19.416835 0.000000 0.164617
292.000000 65.267000 -8.000000 -6.000000 3.000000 104.892244 5.692986 867.704620 653.357516 15.315985 0.000000 0.155504
293.000000 73.751000 -7.000000 -6.000000 3.000000 112.182618 8.779873 808.767969 496.949936 13.552140 0.000000 0.132474
294.000000 93.445000 -5.000000 -6.000000 3.000000 129.556712 19.924648 584.863146 -4.622708 10.692756 0.000000 0.035153
296.000000 51.148000 -10.000000 -5.000000 3.000000 87.480868 -3.097428 1033.241563 988.421391 19.550605 0.000000 0.156799
297.000000 58.097000 -9.000000 -5.000000 3.000000 92.991669 -2.026485 1013.083162 884.715537 17.210064 0.000000 0.164276
298.000000 66.410000 -8.000000 -5.000000 3.000000 99.448491 -0.618111 986.611586 761.874223 15.053839 0.000000 0.164741
299.000000 76.299000 -7.000000 -5.000000 3.000000 107.048180 1.314098 950.310492 610.867083 13.100900 0.000000 0.153895
300.000000 87.877000 -6.000000 -5.000000 3.000000 115.999280 4.120841 897.456754 414.712351 11.372915 0.000000 0.124988
301.000000 100.987000 -5.000000 -5.000000 3.000000 126.460930 8.539644 813.385313 136.803503 9.894745 0.000000 0.069498
302.000000 114.901000 -4.000000 -5.000000 3.000000 138.346317 16.369720 658.847354 -320.095026 8.695053 0.000000 0.058354
303.000000 49.892000 -10.000000 -4.000000 3.000000 81.157662 -7.789852 1122.239766 1109.993113 20.045102 0.000000 0.137968
304.000000 57.224000 -9.000000 -4.000000 3.000000 86.410983 -7.368598 1114.186428 1009.069717 17.474915 0.000000 0.151920
305.000000 66.250000 -8.000000 -4.000000 3.000000 92.679938 -6.815255 1103.630977 890.262423 15.092312 0.000000 0.160867
306.000000 77.384000 -7.000000 -4.000000 3.000000 100.237211 -6.056321 1089.192871 745.531406 12.918794 0.000000 0.160956
307.000000 91.038000 -6.000000 -4.000000 3.000000 109.428879 -4.951578 1068.247056 559.944991 10.979280 0.000000 0.145843
308.000000 107.423000 -5.000000 -4.000000 3.000000 120.668470 -3.196786 1035.113637 301.749304 9.302813 0.000000 0.105582
309.000000 126.097000 -4.000000 -4.000000 3.000000 134.372507 0.011135 974.790834 -111.973998 7.923447 0.000000 0.032992
311.000000 47.577000 -10.000000 -3.000000 3.000000 74.022053 -12.325227 1210.166560 1256.444612 21.023164 0.000000 0.108671
312.000000 64.341000 -8.000000 -3.000000 3.000000 84.567346 -12.763513 1218.807386 1045.952019 15.542234 0.000000 0.142160
313.000000 76.272000 -7.000000 -3.000000 3.000000 91.654323 -13.101408 1225.489400 909.084344 13.109322 0.000000 0.151300
314.000000 111.008000 -5.000000 -3.000000 3.000000 111.620611 -14.350109 1250.346646 500.678695 9.003689 0.000000 0.120594
315.000000 134.919000 -4.000000 -3.000000 3.000000 125.791466 -15.711194 1277.759588 134.878113 7.406240 0.000000 0.052300
317.000000 51.216000 -9.000000 -2.000000 3.000000 70.234655 -17.399603 1312.281987 1346.300125 19.530331 0.000000 0.096168
318.000000 60.337000 -8.000000 -2.000000 3.000000 75.204057 -18.359180 1332.184010 1240.533760 16.576550 0.000000 0.112043
319.000000 72.275000 -7.000000 -2.000000 3.000000 81.370022 -19.648197 1359.271632 1114.449369 13.836859 0.000000 0.125827
320.000000 88.138000 -6.000000 -2.000000 3.000000 89.156842 -21.469120 1398.293653 958.020753 11.344665 0.000000 0.130595
321.000000 109.367000 -5.000000 -2.000000 3.000000 99.152274 -24.229215 1459.365631 750.847984 9.140709 0.000000 0.113320
322.000000 137.377000 -4.000000 -2.000000 3.000000 112.091745 -28.875123 1568.536777 442.119125 7.275194 0.000000 0.044998
323.000000 171.954000 -3.000000 -2.000000 3.000000 128.501732 -38.120420 1819.542114 -147.292676 5.810699 0.000000 0.155977
324.000000 45.906000 -9.000000 -1.000000 3.000000 60.910943 -21.976131 1409.329624 1586.705579 21.792265 0.000000 0.107998
325.000000 54.128000 -8.000000 -1.000000 3.000000 64.810973 -23.536551 1443.802709 1493.149703 18.480921 0.000000 0.107159
326.000000 65.039000 -7.000000 -1.000000 3.000000 69.658052 -25.597172 1490.608504 1383.454610 15.379117 0.000000 0.111855
327.000000 79.847000 -6.000000 -1.000000 3.000000 75.788608 -28.435271 1557.806701 1250.967911 12.525535 0.000000 0.116804
328.000000 100.307000 -5.000000 -1.000000 3.000000 83.658387 -32.566625 1662.435873 1082.931774 9.969003 0.000000 0.111916
329.000000 128.633000 -4.000000 -1.000000 3.000000 93.784608 -39.041061 1847.843776 849.333380 7.772054 0.000000 0.097187
330.000000 166.137000 -3.000000 -1.000000 3.000000 106.276385 -50.190956 2266.393966 450.163077 6.016097 0.000000 0.274256
334.000000 45.671000 -9.000000 -13.000000 4.000000 121.570823 35.564159 205.466880 127.952645 21.880170 0.000000 0.076063
335.000000 47.951000 -8.000000 -13.000000 4.000000 124.872347 41.323154 28.681453 -57.753583 20.838606 0.000000 0.182574
337.000000 47.947000 -9.000000 -12.000000 4.000000 121.100165 31.086175 326.091929 182.858069 20.841995 0.000000 0.028205
339.000000 47.082000 -10.000000 -11.000000 4.000000 115.792978 21.936929 541.526460 380.261863 21.226696 0.000000 0.072582
340.000000 50.286000 -9.000000 -11.000000 4.000000 120.234785 26.223167 444.856901 241.738551 19.872925 0.000000 0.026971
341.000000 53.526000 -8.000000 -11.000000 4.000000 124.703133 31.562623 313.826814 66.248133 18.668514 0.000000 0.057889
342.000000 56.699000 -7.000000 -11.000000 4.000000 129.006694 38.261855 126.156861 -169.273257 17.622531 0.000000 0.170008
344.000000 52.637000 -9.000000 -10.000000 4.000000 118.869142 21.002081 561.804491 305.384126 18.985688 0.000000 0.063671
345.000000 60.363000 -7.000000 -10.000000 4.000000 129.073398 32.224221 296.585743 -91.960321 16.552814 0.000000 0.098006
346.000000 46.551000 -11.000000 -9.000000 4.000000 106.555533 9.612389 792.719057 616.496019 21.472741 0.000000 0.146639
347.000000 50.583000 -10.000000 -9.000000 4.000000 111.520006 12.198055 742.335187 506.799302 19.759637 0.000000 0.127215
348.000000 54.923000 -9.000000 -9.000000 4.000000 116.884848 15.477312 676.976098 374.789654 18.196340 0.000000 0.096736
349.000000 59.507000 -8.000000 -9.000000 4.000000 122.603993 19.739197 588.799948 209.598015 16.792956 0.000000 0.052824
350.000000 64.214000 -7.000000 -9.000000 4.000000 128.553107 25.426320 463.331868 -8.747437 15.560523 0.000000 0.043639
352.000000 47.487000 -11.000000 -8.000000 4.000000 103.216390 5.063103 879.641884 687.242476 21.051152 0.000000 0.158852
353.000000 57.028000 -9.000000 -8.000000 4.000000 114.156570 9.731744 790.411871 451.226580 17.525433 0.000000 0.123729
354.000000 68.147000 -7.000000 -8.000000 4.000000 127.214969 17.941114 626.513331 81.826387 14.662714 0.000000 0.041438
356.000000 48.056000 -11.000000 -7.000000 4.000000 99.220548 0.502577 965.558910 766.275513 20.803463 0.000000 0.164949
357.000000 53.109000 -10.000000 -7.000000 4.000000 104.558874 1.974036 937.903290 661.305169 18.822194 0.000000 0.158542
358.000000 58.796000 -9.000000 -7.000000 4.000000 110.561591 3.872173 902.150761 536.347074 16.999706 0.000000 0.143733
359.000000 65.114000 -8.000000 -7.000000 4.000000 117.295547 6.407287 854.135640 382.097984 15.348365 0.000000 0.117170
360.000000 71.984000 -7.000000 -7.000000 4.000000 124.795097 9.947177 786.243229 181.678005 13.881856 0.000000 0.075305
361.000000 79.200000 -6.000000 -7.000000 4.000000 133.007466 15.183578 682.908538 -99.235860 12.615362 0.000000 0.036447
363.000000 48.138000 -11.000000 -6.000000 4.000000 94.528399 -4.011954 1050.487490 855.547599 20.769924 0.000000 0.164111
364.000000 60.020000 -9.000000 -6.000000 4.000000 105.992820 -1.981153 1012.230560 632.339032 16.654598 0.000000 0.155809
365.000000 75.432000 -7.000000 -6.000000 4.000000 121.024544 1.722679 942.629926 293.376772 13.248148 0.000000 0.104700
366.000000 93.533000 -5.000000 -6.000000 4.000000 140.386831 10.452825 776.437115 -381.352569 10.681261 0.000000 0.043165
367.000000 47.606000 -11.000000 -5.000000 4.000000 89.122585 -8.426635 1134.444585 957.663318 21.004241 0.000000 0.155500
368.000000 53.502000 -10.000000 -5.000000 4.000000 94.332675 -8.113249 1128.433281 858.631319 18.687706 0.000000 0.160247
369.000000 60.449000 -9.000000 -5.000000 4.000000 100.374385 -7.708744 1120.687948 742.163447 16.538107 0.000000 0.158879
370.000000 68.601000 -8.000000 -5.000000 4.000000 107.419840 -7.166685 1110.331832 600.641399 14.570822 0.000000 0.148217
371.000000 78.060000 -7.000000 -5.000000 4.000000 115.670403 -6.402710 1095.777297 420.452294 12.803173 0.000000 0.123711
372.000000 88.785000 -6.000000 -5.000000 4.000000 125.346929 -5.246020 1073.822164 174.405869 11.254752 0.000000 0.079975
373.000000 100.434000 -5.000000 -5.000000 4.000000 136.658109 -3.291454 1036.897662 -201.348401 9.947797 0.000000 0.018888
375.000000 46.342000 -11.000000 -4.000000 4.000000 83.014674 -12.694598 1217.446770 1076.176880 21.579723 0.000000 0.138715
376.000000 59.810000 -9.000000 -4.000000 4.000000 93.678241 -13.205852 1227.558529 869.930214 16.716891 0.000000 0.151951
377.000000 79.292000 -7.000000 -4.000000 4.000000 108.581684 -14.121957 1245.784956 567.894161 12.605808 0.000000 0.130535
378.000000 106.114000 -5.000000 -4.000000 4.000000 129.898337 -16.236695 1288.440035 3.748953 9.416053 0.000000 0.030564
379.000000 50.365000 -10.000000 -3.000000 4.000000 80.692206 -17.488528 1314.117365 1125.949171 19.856687 0.000000 0.127226
380.000000 57.847000 -9.000000 -3.000000 4.000000 85.939512 -18.392399 1332.876875 1021.516688 17.286310 0.000000 0.135250
381.000000 67.070000 -8.000000 -3.000000 4.000000 92.198667 -19.581175 1357.852745 897.141591 14.907363 0.000000 0.136348
382.000000 78.455000 -7.000000 -3.000000 4.000000 99.731538 -21.213022 1392.748476 742.999665 12.742259 0.000000 0.124895
383.000000 92.402000 -6.000000 -3.000000 4.000000 108.854660 -23.587351 1444.938466 539.945742 10.817052 0.000000 0.090984
384.000000 109.070000 -5.000000 -3.000000 4.000000 119.899548 -27.341922 1531.514561 244.277832 9.162204 0.000000 0.017435
386.000000 54.390000 -9.000000 -2.000000 4.000000 77.267059 -23.216919 1436.676559 1205.634021 18.387740 0.000000 0.115365
387.000000 74.930000 -7.000000 -2.000000 4.000000 89.250180 -27.561797 1536.759590 956.889317 13.344009 0.000000 0.112867
388.000000 107.403000 -5.000000 -2.000000 4.000000 106.845786 -36.331971 1766.541752 536.466731 9.306306 0.000000 0.045178
389.000000 128.766000 -4.000000 -2.000000 4.000000 118.134198 -44.875187 2046.615283 128.868282 7.760708 0.000000 0.199767
390.000000 49.420000 -9.000000 -1.000000 4.000000 67.844728 -27.655039 1538.990196 1435.771339 20.240138 0.000000 0.121353
391.000000 57.749000 -8.000000 -1.000000 4.000000 72.199650 -30.029253 1597.131684 1340.144743 17.319376 0.000000 0.124089
392.000000 68.395000 -7.000000 -1.000000 4.000000 77.440101 -33.147754 1677.906380 1227.396728 14.622023 0.000000 0.124837
393.000000 82.070000 -6.000000 -1.000000 4.000000 83.760230 -37.394460 1797.724218 1089.121930 12.183963 0.000000 0.122996
394.000000 99.488000 -5.000000 -1.000000 4.000000 91.298889 -43.431286 1993.914728 907.395374 10.049205 0.000000 0.146725
396.000000 59.056000 -7.000000 0.000000 4.000000 64.758066 -38.012566 1816.273461 1585.045911 16.937507 0.000000 0.210092
397.000000 85.080000 -5.000000 0.000000 4.000000 74.181786 -49.019846 2214.001414 1405.976046 11.754236 0.000000 0.319800
405.000000 46.533000 -9.000000 -13.000000 5.000000 128.168076 33.296055 268.112894 -71.136580 21.472910 0.000000 0.101637
407.000000 46.161000 -10.000000 -12.000000 5.000000 123.506781 23.485242 507.343531 164.074810 21.647421 0.000000 0.031902
408.000000 48.842000 -9.000000 -12.000000 5.000000 127.863785 28.231434 397.135608 -8.759762 20.457870 0.000000 0.055129
409.000000 51.478000 -8.000000 -12.000000 5.000000 132.141518 34.187223 243.901985 -236.366001 19.409115 0.000000 0.144583
411.000000 48.083000 -10.000000 -11.000000 5.000000 122.241007 18.457777 615.758709 225.328935 20.782764 0.000000 0.060225
412.000000 51.212000 -9.000000 -11.000000 5.000000 127.122435 22.734131 524.022834 57.718473 19.511378 0.000000 0.031652
413.000000 54.344000 -8.000000 -11.000000 5.000000 132.067157 28.244205 396.826505 -161.672129 18.385614 0.000000 0.086504
415.000000 46.464000 -11.000000 -10.000000 5.000000 115.370254 10.346303 778.505523 422.186693 21.509718 0.000000 0.117790
416.000000 53.592000 -9.000000 -10.000000 5.000000 125.826779 16.859523 648.827157 129.090198 18.645457 0.000000 0.050282
417.000000 57.307000 -8.000000 -10.000000 5.000000 131.448574 21.696793 546.760271 -81.978623 17.435114 0.000000 0.044540
420.000000 47.728000 -11.000000 -9.000000 5.000000 112.629679 5.529340 870.808362 490.230230 20.941132 0.000000 0.135757
421.000000 51.688000 -10.000000 -9.000000 5.000000 118.011425 7.776209 828.021290 363.134884 19.334784 0.000000 0.112021
422.000000 55.903000 -9.000000 -9.000000 5.000000 123.850127 10.701678 771.599445 206.341714 17.875114 0.000000 0.078375
423.000000 60.295000 -8.000000 -9.000000 5.000000 130.114012 14.642673 693.790169 3.786522 16.571504 0.000000 0.040244
424.000000 64.732000 -7.000000 -9.000000 5.000000 136.694348 20.172424 579.588843 -275.533271 15.434158 0.000000 0.067315
426.000000 48.739000 -11.000000 -8.000000 5.000000 109.257806 0.693156 961.978516 564.949166 20.507800 0.000000 0.148702
427.000000 53.196000 -10.000000 -8.000000 5.000000 114.866205 2.291451 931.932397 441.773046 18.787900 0.000000 0.130528
428.000000 58.035000 -9.000000 -8.000000 5.000000 121.065357 4.389137 892.388925 290.717949 17.219333 0.000000 0.102716
429.000000 63.192000 -8.000000 -8.000000 5.000000 127.879823 7.254103 837.999753 96.980721 15.812434 0.000000 0.064123
430.000000 68.533000 -7.000000 -8.000000 5.000000 135.284675 11.374847 758.472667 -167.822582 14.578505 0.000000 0.033924
432.000000 49.395000 -11.000000 -7.000000 5.000000 105.204565 -4.094014 1052.036709 647.736891 20.237179 0.000000 0.156083
433.000000 54.345000 -10.000000 -7.000000 5.000000 110.928125 -3.159146 1034.404379 528.771240 18.391790 0.000000 0.143090
434.000000 59.835000 -9.000000 -7.000000 5.000000 117.356854 -1.928655 1011.243248 383.814254 16.702479 0.000000 0.120941
435.000000 65.825000 -8.000000 -7.000000 5.000000 124.569590 -0.237924 979.469399 199.350705 15.180681 0.000000 0.087249
436.000000 72.198000 -7.000000 -7.000000 5.000000 132.626247 2.225060 933.181495 -50.361129 13.838977 0.000000 0.042623
437.000000 78.718000 -6.000000 -7.000000 5.000000 141.530898 6.125597 859.490970 -421.364713 12.691240 0.000000 0.030658
439.000000 49.577000 -11.000000 -6.000000 5.000000 100.437502 -8.767972 1141.003159 740.390373 20.164699 0.000000 0.157316
440.000000 54.983000 -10.000000 -6.000000 5.000000 106.141706 -8.479882 1135.466927 626.051628 18.180107 0.000000 0.149056
441.000000 61.106000 -9.000000 -6.000000 5.000000 112.633923 -8.101523 1128.208548 487.710224 16.356357 0.000000 0.132055
442.000000 67.954000 -8.000000 -6.000000 5.000000 120.036961 -7.582642 1118.276460 313.185236 14.706159 0.000000 0.103296
443.000000 75.448000 -7.000000 -6.000000 5.000000 128.478097 -6.827265 1103.859803 79.439175 13.243595 0.000000 0.060506
444.000000 83.365000 -6.000000 -6.000000 5.000000 138.073234 -5.626574 1081.035582 -263.224718 11.984312 0.000000 0.011250
446.000000 49.162000 -11.000000 -5.000000 5.000000 94.947741 -13.273398 1228.897600 845.268140 20.336883 0.000000 0.151920
447.000000 61.613000 -9.000000 -5.000000 5.000000 106.844076 -13.998958 1243.329504 605.169847 16.223280 0.000000 0.135382
448.000000 69.266000 -8.000000 -5.000000 5.000000 114.187359 -14.557206 1254.495403 441.545660 14.428948 0.000000 0.110769
449.000000 77.886000 -7.000000 -5.000000 5.000000 122.677347 -15.359648 1270.645475 225.060327 12.830183 0.000000 0.069749
450.000000 87.301000 -6.000000 -5.000000 5.000000 132.480518 -16.610681 1296.075749 -87.488515 11.444766 0.000000 0.023574
451.000000 48.036000 -11.000000 -4.000000 5.000000 88.755321 -17.567038 1315.739292 965.528731 20.816050 0.000000 0.139992
452.000000 54.034000 -10.000000 -4.000000 5.000000 93.958501 -18.421231 1333.478461 862.499037 18.503452 0.000000 0.139442
453.000000 61.103000 -9.000000 -4.000000 5.000000 99.985031 -19.524291 1356.649400 739.949799 16.360800 0.000000 0.130814
454.000000 69.394000 -8.000000 -4.000000 5.000000 106.995592 -21.002194 1388.197945 588.624932 14.404016 0.000000 0.109593
455.000000 78.998000 -7.000000 -4.000000 5.000000 115.166109 -23.081611 1433.670178 391.307406 12.651072 0.000000 0.068834
456.000000 89.841000 -6.000000 -4.000000 5.000000 124.658637 -26.212485 1504.893778 111.593056 11.122336 0.000000 0.015076
458.000000 46.111000 -11.000000 -3.000000 5.000000 81.913012 -21.618957 1401.547035 1105.501929 21.687652 0.000000 0.123840
459.000000 52.130000 -10.000000 -3.000000 5.000000 86.629748 -22.937862 1430.482882 1009.825014 19.181512 0.000000 0.125766
460.000000 59.340000 -9.000000 -3.000000 5.000000 92.114346 -24.619545 1468.210172 897.290799 16.849256 0.000000 0.120380
461.000000 67.966000 -8.000000 -3.000000 5.000000 98.519050 -26.832979 1519.453177 760.327133 14.708839 0.000000 0.102674
462.000000 78.208000 -7.000000 -3.000000 5.000000 106.004291 -29.866506 1593.059708 585.010708 12.780780 0.000000 0.064428
463.000000 90.128000 -6.000000 -3.000000 5.000000 114.694853 -34.247570 1707.755872 342.264498 11.088631 0.000000 0.025415
464.000000 103.444000 -5.000000 -3.000000 5.000000 124.552952 -41.020051 1911.269809 -41.374750 9.659560 0.000000 0.171065
465.000000 49.145000 -10.000000 -2.000000 5.000000 78.597841 -27.117766 1526.188792 1184.869396 20.349685 0.000000 0.115705
466.000000 56.165000 -9.000000 -2.000000 5.000000 83.354831 -29.262104 1578.052469 1084.732780 17.804276 0.000000 0.113495
467.000000 64.690000 -8.000000 -2.000000 5.000000 88.906010 -32.030020 1648.327682 965.243554 15.456236 0.000000 0.102601
468.000000 75.003000 -7.000000 -2.000000 5.000000 95.376886 -35.718898 1748.934310 816.227454 13.329177 0.000000 0.081729
469.000000 87.295000 -6.000000 -2.000000 5.000000 102.839644 -40.826863 1904.913262 616.809416 11.450637 0.000000 0.090130
470.000000 101.434000 -5.000000 -2.000000 5.000000 111.177222 -48.213372 2179.335190 315.248418 9.852922 0.000000 0.239646
471.000000 51.557000 -9.000000 -1.000000 5.000000 73.892666 -33.456744 1686.215691 1313.533592 19.398557 0.000000 0.134490
472.000000 59.465000 -8.000000 -1.000000 5.000000 78.395117 -36.619174 1774.885652 1216.382687 16.817113 0.000000 0.136795
473.000000 69.126000 -7.000000 -1.000000 5.000000 83.594999 -40.719878 1901.408986 1100.413629 14.465262 0.000000 0.145945
474.000000 80.787000 -6.000000 -1.000000 5.000000 89.506131 -46.180967 2096.603246 954.399385 12.375646 0.000000 0.193815
479.000000 47.013000 -9.000000 -13.000000 6.000000 134.509375 30.506278 340.855366 -287.006236 21.251647 0.000000 0.125761
481.000000 45.690000 -11.000000 -11.000000 6.000000 123.241786 11.171884 762.436812 221.945334 21.871236 0.000000 0.080272
482.000000 48.638000 -10.000000 -11.000000 6.000000 128.301586 14.333146 699.992827 63.635625 20.544007 0.000000 0.047390
483.000000 51.631000 -9.000000 -11.000000 6.000000 133.589111 18.459641 615.719798 -139.127058 19.351549 0.000000 0.043836
486.000000 47.134000 -11.000000 -10.000000 6.000000 121.036882 6.055146 860.829451 289.720237 21.201818 0.000000 0.100930
487.000000 53.961000 -9.000000 -10.000000 6.000000 132.252687 11.833042 749.502554 -57.957582 18.516259 0.000000 0.037806
489.000000 48.414000 -11.000000 -9.000000 6.000000 118.229837 0.908266 957.936908 363.101623 20.642231 0.000000 0.117572
490.000000 52.217000 -10.000000 -9.000000 6.000000 123.943472 2.655573 925.079628 215.795499 19.137082 0.000000 0.089776
491.000000 60.308000 -8.000000 -9.000000 6.000000 136.867446 8.273580 818.492475 -219.926706 16.566406 0.000000 0.029805
493.000000 49.447000 -11.000000 -8.000000 6.000000 114.765214 -4.186555 1053.784199 443.146504 20.212334 0.000000 0.129608
494.000000 58.273000 -9.000000 -8.000000 6.000000 127.190803 -1.867147 1010.086559 123.886604 17.147278 0.000000 0.072651
495.000000 67.892000 -7.000000 -8.000000 6.000000 142.224278 2.857618 921.275443 -449.493978 14.714926 0.000000 0.020275
496.000000 45.856000 -12.000000 -7.000000 6.000000 105.259168 -9.347988 1152.175697 643.431763 21.798820 0.000000 0.149367
497.000000 50.133000 -11.000000 -7.000000 6.000000 110.602272 -9.151962 1148.395696 531.181869 19.937077 0.000000 0.136593
498.000000 54.855000 -10.000000 -7.000000 6.000000 116.573343 -8.899008 1143.524086 396.098927 18.218906 0.000000 0.116005
499.000000 60.003000 -9.000000 -7.000000 6.000000 123.250781 -8.560130 1137.008205 227.379979 16.654015 0.000000 0.085791
500.000000 65.507000 -8.000000 -7.000000 6.000000 130.712702 -8.082636 1127.846581 5.533042 15.253005 0.000000 0.045820
501.000000 71.222000 -7.000000 -7.000000 6.000000 139.028560 -7.359741 1114.017278 -308.677710 14.027481 0.000000 0.011576
503.000000 50.362000 -11.000000 -6.000000 6.000000 105.719820 -13.922031 1241.795146 628.897233 19.848251 0.000000 0.138190
504.000000 74.101000 -7.000000 -6.000000 6.000000 134.252285 -16.890402 1301.806270 -154.834956 13.483169 0.000000 0.026025
505.000000 50.017000 -11.000000 -5.000000 6.000000 100.120591 -18.446491 1334.005693 738.478033 19.987001 0.000000 0.134352
506.000000 55.499000 -10.000000 -5.000000 6.000000 105.803812 -19.475406 1355.615950 617.874331 18.010688 0.000000 0.119329
507.000000 61.703000 -9.000000 -5.000000 6.000000 112.254234 -20.825612 1384.396470 469.798462 16.197943 0.000000 0.092811
508.000000 68.627000 -8.000000 -5.000000 6.000000 119.574332 -22.672902 1424.625668 279.063218 14.561879 0.000000 0.050532
509.000000 76.176000 -7.000000 -5.000000 6.000000 127.849488 -25.346493 1484.830907 15.563940 13.117049 0.000000 0.026517
511.000000 48.992000 -11.000000 -4.000000 6.000000 93.834812 -22.692127 1425.049892 862.802596 20.407541 0.000000 0.125960
512.000000 61.233000 -9.000000 -4.000000 6.000000 105.206677 -26.215819 1504.971599 614.898682 16.324132 0.000000 0.088523
513.000000 77.008000 -7.000000 -4.000000 6.000000 119.869412 -32.598161 1663.270229 207.285399 12.976646 0.000000 0.029816
514.000000 47.204000 -11.000000 -3.000000 6.000000 86.922436 -26.641768 1514.949735 1005.741041 21.182791 0.000000 0.116612
515.000000 52.926000 -10.000000 -3.000000 6.000000 91.734391 -28.592353 1561.628359 903.883212 18.890837 0.000000 0.106944
516.000000 67.331000 -8.000000 -3.000000 6.000000 103.440379 -34.313913 1709.581210 629.591804 14.845779 0.000000 0.054430
517.000000 76.131000 -7.000000 -3.000000 6.000000 110.442838 -38.700652 1837.294420 426.937293 13.128037 0.000000 0.065983
518.000000 56.675000 -9.000000 -2.000000 6.000000 88.411457 -35.409165 1740.141674 977.622029 17.642020 0.000000 0.102871
519.000000 73.147000 -7.000000 -2.000000 6.000000 99.780056 -43.798232 2007.065342 683.965879 13.665877 0.000000 0.133589
520.000000 46.376000 -10.000000 -1.000000 6.000000 75.069075 -36.168465 1761.819014 1296.514872 21.564795 0.000000 0.145490
521.000000 52.432000 -9.000000 -1.000000 6.000000 78.977519 -39.264853 1854.834677 1211.783996 19.072606 0.000000 0.152288
522.000000 59.568000 -8.000000 -1.000000 6.000000 83.354169 -43.134821 1983.405974 1112.845921 16.786193 0.000000 0.172387
523.000000 67.872000 -7.000000 -1.000000 6.000000 88.172525 -48.056930 2172.737041 992.377855 14.730726 0.000000 0.233351
525.000000 53.233000 -8.000000 0.000000 6.000000 72.431827 -46.680222 2116.346148 1437.688358 18.787116 0.000000 0.283079
531.000000 46.913000 -10.000000 -12.000000 7.000000 135.212390 15.640446 673.674081 -184.996274 21.297008 0.000000 0.041936
534.000000 45.974000 -11.000000 -11.000000 7.000000 128.512348 6.652608 849.466935 78.692013 21.734268 0.000000 0.061588
535.000000 48.773000 -10.000000 -11.000000 7.000000 133.878820 9.421987 796.396275 -108.128437 20.485412 0.000000 0.034677
536.000000 51.582000 -9.000000 -11.000000 7.000000 139.523791 13.168645 723.178777 -354.300353 19.368427 0.000000 0.050375
538.000000 47.389000 -11.000000 -10.000000 7.000000 126.203841 1.152962 953.338830 153.001327 21.086051 0.000000 0.078410
539.000000 50.564000 -10.000000 -10.000000 7.000000 131.902435 3.077492 917.134031 -26.181023 19.760219 0.000000 0.046310
540.000000 53.799000 -9.000000 -10.000000 7.000000 138.013936 5.713413 867.317074 -260.901457 18.570533 0.000000 0.025104
542.000000 48.639000 -11.000000 -9.000000 7.000000 123.263214 -4.291724 1055.770624 233.010350 20.545103 0.000000 0.091931
543.000000 52.216000 -10.000000 -9.000000 7.000000 129.200804 -3.240378 1035.935094 61.764902 19.135772 0.000000 0.060506
544.000000 55.919000 -9.000000 -9.000000 7.000000 135.665867 -1.794092 1008.712818 -161.146317 17.867096 0.000000 0.025164
547.000000 45.915000 -12.000000 -8.000000 7.000000 114.143739 -9.742763 1159.801233 451.504135 21.767191 0.000000 0.123693
548.000000 49.645000 -11.000000 -8.000000 7.000000 119.646261 -9.587087 1156.792059 319.753189 20.129910 0.000000 0.101249
549.000000 53.637000 -10.000000 -8.000000 7.000000 125.709552 -9.382710 1152.845692 156.841029 18.629774 0.000000 0.071128
550.000000 57.838000 -9.000000 -8.000000 7.000000 132.384067 -9.102550 1147.443549 -53.770407 17.275050 0.000000 0.034864
551.000000 62.151000 -8.000000 -8.000000 7.000000 139.713898 -8.694889 1139.597917 -343.509291 16.074683 0.000000 0.016078
553.000000 46.265000 -12.000000 -7.000000 7.000000 109.861703 -14.215945 1247.663052 539.918071 21.603948 0.000000 0.126574
554.000000 50.314000 -11.000000 -7.000000 7.000000 115.326020 -14.653747 1256.432066 414.514541 19.863462 0.000000 0.106002
555.000000 54.714000 -10.000000 -7.000000 7.000000 121.387818 -15.224185 1267.910593 260.458111 18.264335 0.000000 0.076716
556.000000 59.421000 -9.000000 -7.000000 7.000000 128.108522 -15.998106 1283.583906 62.807270 16.815629 0.000000 0.039421
557.000000 64.345000 -8.000000 -7.000000 7.000000 135.542759 -17.107499 1306.265558 -206.659983 15.527200 0.000000 0.031101
558.000000 46.218000 -12.000000 -6.000000 7.000000 104.977849 -18.468805 1334.471552 637.418148 21.627724 0.000000 0.125233
559.000000 50.544000 -11.000000 -6.000000 7.000000 110.295777 -19.432944 1354.718788 518.911076 19.774718 0.000000 0.106221
560.000000 55.315000 -10.000000 -6.000000 7.000000 116.221716 -20.675561 1381.173163 374.398638 18.067430 0.000000 0.077200
561.000000 60.504000 -9.000000 -6.000000 7.000000 122.818151 -22.335777 1417.205770 190.591812 16.515834 0.000000 0.036594
562.000000 66.035000 -8.000000 -6.000000 7.000000 130.132937 -24.661690 1469.168427 -57.453470 15.130838 0.000000 0.036195
564.000000 45.697000 -12.000000 -5.000000 7.000000 99.509228 -22.474090 1420.245560 745.894087 21.876570 0.000000 0.120197
565.000000 50.229000 -11.000000 -5.000000 7.000000 104.571470 -23.888058 1451.679607 635.006689 19.900679 0.000000 0.102661
566.000000 55.297000 -10.000000 -5.000000 7.000000 110.226498 -25.686598 1492.675418 500.949043 18.074987 0.000000 0.073937
567.000000 60.898000 -9.000000 -5.000000 7.000000 116.530635 -28.045739 1548.378386 332.167044 16.410525 0.000000 0.029120
568.000000 66.977000 -8.000000 -5.000000 7.000000 123.515509 -31.262498 1628.432658 107.116316 14.919432 0.000000 0.039825
569.000000 73.385000 -7.000000 -5.000000 7.000000 131.149646 -35.870860 1753.273199 -219.691997 13.615094 0.000000 0.146268
570.000000 49.272000 -11.000000 -4.000000 7.000000 98.193495 -28.002712 1547.341176 765.479338 20.289381 0.000000 0.097896
571.000000 54.522000 -10.000000 -4.000000 7.000000 103.448162 -30.241332 1602.458081 643.092567 18.333929 0.000000 0.071580
572.000000 60.408000 -9.000000 -4.000000 7.000000 109.301818 -33.120209 1677.168483 490.922982 16.545515 0.000000 0.033630
573.000000 66.902000 -8.000000 -4.000000 7.000000 115.766936 -36.936552 1784.178817 291.013749 14.937727 0.000000 0.059201
574.000000 73.878000 -7.000000 -4.000000 7.000000 122.777796 -42.179202 1950.212389 5.792287 13.525671 0.000000 0.178372
575.000000 47.601000 -11.000000 -3.000000 7.000000 91.227639 -31.776873 1641.729433 913.868552 21.004343 0.000000 0.098440
576.000000 52.877000 -10.000000 -3.000000 7.000000 95.964555 -34.349467 1710.560626 804.797995 18.906724 0.000000 0.080611
577.000000 58.862000 -9.000000 -3.000000 7.000000 101.226149 -37.592722 1803.640388 671.399569 16.982227 0.000000 0.066251
578.000000 65.558000 -8.000000 -3.000000 7.000000 107.006372 -41.776444 1936.522198 499.582507 15.246173 0.000000 0.103128
579.000000 72.864000 -7.000000 -3.000000 7.000000 113.215754 -47.307582 2141.678665 260.162010 13.715744 0.000000 0.226883
580.000000 50.299000 -10.000000 -2.000000 7.000000 87.885078 -38.037271 1817.021329 991.464839 19.878405 0.000000 0.112131
581.000000 56.151000 -9.000000 -2.000000 7.000000 92.436974 -41.518849 1927.856134 879.822507 17.804970 0.000000 0.121216
582.000000 62.759000 -8.000000 -2.000000 7.000000 97.397459 -45.898030 2085.573114 740.209428 15.928465 0.000000 0.171366
584.000000 46.799000 -10.000000 -1.000000 7.000000 79.347594 -41.339926 1921.877313 1210.633736 21.367778 0.000000 0.169632
585.000000 52.262000 -9.000000 -1.000000 7.000000 83.103894 -44.962213 2049.875558 1124.969302 19.132689 0.000000 0.198339
586.000000 58.456000 -8.000000 -1.000000 7.000000 87.148235 -49.415846 2231.437159 1023.412070 17.103914 0.000000 0.266122
592.000000 45.917000 -11.000000 -11.000000 8.000000 133.271848 1.433787 948.060860 -72.567782 21.759858 0.000000 0.039187
593.000000 48.532000 -10.000000 -11.000000 8.000000 138.872729 3.572096 907.811542 -293.993860 20.585871 0.000000 0.020299
596.000000 47.266000 -11.000000 -10.000000 8.000000 130.787314 -4.412291 1058.048585 9.623139 21.139171 0.000000 0.050390
598.000000 48.449000 -11.000000 -9.000000 8.000000 127.648608 -10.084231 1166.411607 97.657800 20.624066 0.000000 0.058953
599.000000 51.754000 -10.000000 -9.000000 8.000000 133.679571 -9.947073 1163.754746 -102.481062 19.305411 0.000000 0.027026
600.000000 55.121000 -9.000000 -9.000000 8.000000 140.228137 -9.753940 1160.017371 -371.065925 18.124515 0.000000 0.020978
602.000000 49.391000 -11.000000 -8.000000 8.000000 123.827695 -15.485310 1273.185662 192.561014 20.231922 0.000000 0.063379
603.000000 56.848000 -9.000000 -8.000000 8.000000 136.524332 -17.280881 1309.834386 -247.805283 17.574788 0.000000 0.036069
604.000000 46.247000 -12.000000 -7.000000 8.000000 113.858159 -19.395717 1353.932621 436.352009 21.610929 0.000000 0.093291
605.000000 50.007000 -11.000000 -7.000000 8.000000 119.314671 -20.546481 1378.405446 295.593660 19.984155 0.000000 0.063533
606.000000 54.023000 -10.000000 -7.000000 8.000000 125.301200 -22.052962 1411.008828 118.749148 18.496442 0.000000 0.027124
607.000000 58.238000 -9.000000 -7.000000 8.000000 131.845937 -24.106742 1456.601703 -114.967004 17.156264 0.000000 0.043581
609.000000 50.203000 -11.000000 -6.000000 8.000000 114.118553 -25.227844 1482.104649 408.325507 19.907463 0.000000 0.060437
610.000000 59.145000 -9.000000 -6.000000 8.000000 126.214089 -30.159952 1600.411505 29.467547 16.894252 0.000000 0.048460
612.000000 45.706000 -12.000000 -5.000000 8.000000 103.293014 -27.479725 1534.799342 654.374639 21.870471 0.000000 0.087360
613.000000 49.887000 -11.000000 -5.000000 8.000000 108.267866 -29.515241 1584.315999 532.736747 20.035554 0.000000 0.057589
614.000000 54.467000 -10.000000 -5.000000 8.000000 113.728308 -32.094298 1650.008889 382.562092 18.348975 0.000000 0.017261
615.000000 59.408000 -9.000000 -5.000000 8.000000 119.677317 -35.451953 1741.352296 188.064609 16.821018 0.000000 0.060397
616.000000 64.619000 -8.000000 -5.000000 8.000000 126.065970 -39.965492 1877.014042 -81.751025 15.462939 0.000000 0.165130
618.000000 48.973000 -11.000000 -4.000000 8.000000 101.811208 -33.414318 1685.071287 671.362339 20.411619 0.000000 0.062938
619.000000 58.864000 -9.000000 -4.000000 8.000000 112.309042 -40.043424 1879.509082 364.140452 16.978352 0.000000 0.088742
621.000000 47.399000 -11.000000 -3.000000 8.000000 94.817511 -36.944122 1784.401407 827.501855 21.091909 0.000000 0.085206
622.000000 52.144000 -10.000000 -3.000000 8.000000 99.334085 -40.094939 1881.161455 709.741849 19.170966 0.000000 0.088530
623.000000 57.375000 -9.000000 -3.000000 8.000000 104.208315 -44.016475 2014.963546 562.060557 17.421362 0.000000 0.136319
624.000000 63.028000 -8.000000 -3.000000 8.000000 109.362309 -48.976593 2212.113854 364.756482 15.857246 0.000000 0.251805
626.000000 54.855000 -9.000000 -2.000000 8.000000 95.501144 -47.456840 2147.794206 787.694162 18.224235 0.000000 0.203825
627.000000 46.515000 -10.000000 -1.000000 8.000000 82.867165 -46.390541 2104.846790 1136.270884 21.496635 0.000000 0.222414
628.000000 51.302000 -9.000000 -1.000000 8.000000 86.339373 -50.444521 2278.076565 1049.127258 19.489282 0.000000 0.293462
633.000000 45.558000 -11.000000 -11.000000 9.000000 137.441065 -4.551906 1060.687345 -234.855076 21.929959 0.000000 0.014156
636.000000 46.816000 -11.000000 -10.000000 9.000000 134.712255 -10.657575 1177.542628 -143.240846 21.341536 0.000000 0.022029
637.000000 49.516000 -10.000000 -10.000000 9.000000 140.627528 -10.613963 1176.694496 -393.417602 20.176158 0.000000 0.025440
639.000000 47.904000 -11.000000 -9.000000 9.000000 131.321776 -16.438217 1292.550866 -45.599460 20.857616 0.000000 0.025424
640.000000 50.909000 -10.000000 -9.000000 9.000000 137.295938 -17.422541 1312.755260 -281.277955 19.624768 0.000000 0.040382
641.000000 45.563000 -12.000000 -8.000000 9.000000 121.790167 -20.434265 1376.003102 229.129353 21.932381 0.000000 0.051942
642.000000 48.755000 -11.000000 -8.000000 9.000000 127.261190 -21.812322 1405.755509 59.095915 20.494666 0.000000 0.022371
643.000000 52.067000 -10.000000 -8.000000 9.000000 133.177616 -23.647994 1446.295451 -161.496495 19.189309 0.000000 0.049243
646.000000 45.858000 -12.000000 -7.000000 9.000000 117.217348 -24.826410 1472.919934 331.081675 21.792884 0.000000 0.048580
647.000000 49.292000 -11.000000 -7.000000 9.000000 122.538431 -26.737335 1517.198652 172.097267 20.272801 0.000000 0.012281
648.000000 52.897000 -10.000000 -7.000000 9.000000 128.287719 -29.235033 1577.384469 -32.651727 18.889424 0.000000 0.055217
651.000000 49.432000 -11.000000 -6.000000 9.000000 117.176764 -31.203665 1626.921093 294.947902 20.216862 0.000000 0.005668
652.000000 53.296000 -10.000000 -6.000000 9.000000 122.658991 -34.186901 1706.089188 107.013373 18.749463 0.000000 0.064128
654.000000 49.094000 -11.000000 -5.000000 9.000000 111.214384 -35.225595 1734.962379 429.573371 20.357880 0.000000 0.031612
655.000000 53.157000 -10.000000 -5.000000 9.000000 116.339706 -38.544020 1832.474073 259.698432 18.799976 0.000000 0.083092
656.000000 57.436000 -9.000000 -5.000000 9.000000 121.770879 -42.802666 1971.752463 32.488057 17.397907 0.000000 0.182710
658.000000 48.206000 -11.000000 -4.000000 9.000000 104.704619 -38.832255 1841.360853 578.408650 20.735142 0.000000 0.066943
659.000000 52.383000 -10.000000 -4.000000 9.000000 109.393753 -42.365423 1956.601282 428.196414 19.079826 0.000000 0.116523
660.000000 56.826000 -9.000000 -4.000000 9.000000 114.331192 -46.788293 2120.667797 230.215883 17.586630 0.000000 0.220289
662.000000 46.715000 -11.000000 -3.000000 9.000000 97.716184 -42.060329 1946.153703 744.579677 21.399126 0.000000 0.112873
663.000000 50.897000 -10.000000 -3.000000 9.000000 101.901668 -45.715863 2078.530776 616.110367 19.639216 0.000000 0.165769
665.000000 48.661000 -10.000000 -2.000000 9.000000 93.961129 -48.658233 2198.320410 828.172504 20.544160 0.000000 0.231785
668.000000 45.690000 -10.000000 -1.000000 9.000000 85.685578 -51.249815 2316.026025 1070.726867 21.883231 0.000000 0.316517
671.000000 46.090000 -11.000000 -10.000000 10.000000 137.918374 -17.540455 1315.189957 -309.048439 21.676435 0.000000 0.044034
672.000000 47.067000 -11.000000 -9.000000 10.000000 134.242088 -23.262473 1437.690086 -199.942443 21.227616 0.000000 0.053656
675.000000 47.811000 -11.000000 -8.000000 10.000000 129.928731 -28.448400 1558.125665 -83.558116 20.898332 0.000000 0.060449
677.000000 48.254000 -11.000000 -7.000000 10.000000 125.001455 -33.097050 1676.548450 41.360554 20.707603 0.000000 0.068163
678.000000 51.444000 -10.000000 -7.000000 10.000000 130.370785 -36.562014 1773.220077 -198.240532 19.422026 0.000000 0.149124
680.000000 48.325000 -11.000000 -6.000000 10.000000 119.493653 -37.235672 1793.008481 176.347529 20.678706 0.000000 0.081809
682.000000 47.955000 -11.000000 -5.000000 10.000000 113.448736 -40.907262 1907.554154 323.297313 20.840444 0.000000 0.105727
684.000000 47.082000 -11.000000 -4.000000 10.000000 106.920737 -44.161173 2020.232285 484.578808 21.228885 0.000000 0.142115
686.000000 45.665000 -11.000000 -3.000000 10.000000 99.974992 -47.047099 2131.088178 663.195135 21.889811 0.000000 0.191888
687.000000 49.294000 -10.000000 -3.000000 10.000000 103.756302 -51.113412 2309.505197 521.278698 20.277091 0.000000 0.294301
694.000000 46.631000 -11.000000 -8.000000 11.000000 131.845987 -35.230133 1735.090131 -239.000726 21.426240 0.000000 0.143698
696.000000 46.976000 -11.000000 -7.000000 11.000000 126.741036 -39.473317 1861.387031 -99.838486 21.270379 0.000000 0.162552
698.000000 46.974000 -11.000000 -6.000000 11.000000 121.122551 -43.191998 1985.424754 49.665458 21.273015 0.000000 0.185586
700.000000 46.566000 -11.000000 -5.000000 11.000000 115.034483 -46.451675 2107.263381 211.395074 21.461056 0.000000 0.216269
702.000000 45.704000 -11.000000 -4.000000 11.000000 108.528087 -49.314785 2226.960880 387.681583 21.867864 0.000000 0.257651
#UB matrix in q= (UB) B0 G* 
#[[ 0.238215994  0.72620732  -0.643089696]
# [ 0.183487837 -0.684604615 -0.705086196]
# [-0.953721843  0.050085861 -0.296831744]]
#B0 matrix in q= UB (B0) G*
#[[ 0.19670273 -0.          0.03056101]
# [ 0.          0.19187965 -0.        ]
# [ 0.          0.          0.18806537]]
#UBB0 matrix in q= (UB B0) G* i.e. recip. basis vectors are columns in LT frame: astar = UBB0[:,0], bstar = UBB0[:,1], cstar = UBB0[:,2]. (abcstar as columns on xyzlab1, xlab1 = ui, ui = unit vector along incident beam)
#[[ 0.04685774  0.13934441 -0.11366278]
# [ 0.03609256 -0.1313617  -0.12699472]
# [-0.18759969  0.00961046 -0.08497047]]
#Euler angles phi theta psi (deg)
#[267.014 107.25  137.582]
#deviatoric strain in direct crystal frame (10-3 unit)
#[[ 3.52  0.26 -0.65]
# [ 0.26  4.14 -0.71]
# [-0.65 -0.71 -7.66]]
#deviatoric strain in sample2 frame (10-3 unit)
#[[-1.44 -5.69  0.56]
# [-5.69 -2.33  1.24]
# [ 0.55  1.23  3.77]]
#new lattice parameters
#[ 5.1505     5.2148193  5.3199168 90.0471559 99.2647504 89.9703157]
#CCDLabel
#sCMOS
#DetectorParameters
#[79.0, 975.0, 941.0, 0.0, 0.0]
#pixelsize
#0.0734
#Frame dimensions
#[2018, 2016]
#
