#Strain and Orientation Refinement from experimental file: /home/micha/LaueProjects/DepthEffects/testZrO2_74.cor
#File created at Wed Jun 28 14:22:56 2023 with indexingSpotsSet.py
#Number of indexed spots: 502
#Element
#ZrO2
#grainIndex
#G_0
#Mean Deviation(pixel): 0.118
##spot_index intensity h k l 2theta Chi Xexp Yexp Energy GrainIndex PixDev
10.000000 46.127000 10.000000 -5.000000 -9.000000 94.994527 50.629165 -336.662774 792.719309 21.688844 0.000000 0.264200
13.000000 48.700000 11.000000 -4.000000 -9.000000 106.241166 48.277631 -232.057108 469.894263 20.539433 0.000000 0.219803
14.000000 47.051000 12.000000 -4.000000 -9.000000 109.117880 44.143653 -69.592970 421.102239 21.258208 0.000000 0.142323
17.000000 49.991000 4.000000 -1.000000 -3.000000 116.687846 45.435610 -117.785748 169.978796 6.668469 0.000000 0.204375
18.000000 47.881000 13.000000 -3.000000 -9.000000 118.730695 40.956382 40.829211 159.754402 20.886885 0.000000 0.134480
19.000000 45.779000 14.000000 -3.000000 -9.000000 120.290073 36.712590 172.387018 156.755078 21.845471 0.000000 0.083452
23.000000 47.798000 14.000000 -2.000000 -9.000000 127.422241 37.103297 160.907674 -91.602521 20.920542 0.000000 0.141347
24.000000 45.511000 15.000000 -2.000000 -9.000000 128.239209 32.585766 287.057770 -65.607219 21.971392 0.000000 0.094714
31.000000 48.946000 9.000000 -5.000000 -8.000000 90.849287 49.160838 -270.177296 916.601788 20.441558 0.000000 0.233655
32.000000 47.959000 10.000000 -5.000000 -8.000000 95.006771 45.151631 -107.006164 807.297066 20.860789 0.000000 0.149871
33.000000 46.627000 11.000000 -5.000000 -8.000000 98.476041 41.290769 29.759566 727.532499 21.455759 0.000000 0.091828
35.000000 54.017000 9.000000 -4.000000 -8.000000 99.308472 51.027231 -355.405107 660.511743 18.519456 0.000000 0.276115
36.000000 52.418000 5.000000 -2.000000 -4.000000 103.231926 46.514938 -159.769879 573.246362 9.541753 0.000000 0.174120
37.000000 50.530000 11.000000 -4.000000 -8.000000 106.409886 42.172972 0.000712 513.307002 19.795842 0.000000 0.101790
38.000000 48.497000 3.000000 -1.000000 -2.000000 108.957052 38.038520 132.940850 471.602826 5.156229 0.000000 0.049971
39.000000 46.419000 13.000000 -4.000000 -8.000000 110.978716 34.136795 245.285513 442.399143 21.547541 0.000000 0.017526
41.000000 56.655000 10.000000 -3.000000 -8.000000 111.841596 48.243502 -230.610615 293.228991 17.653691 0.000000 0.241087
42.000000 54.206000 11.000000 -3.000000 -8.000000 114.691526 43.289495 -38.875917 261.170029 18.450720 0.000000 0.150905
43.000000 51.686000 12.000000 -3.000000 -8.000000 116.869754 38.587189 116.199523 243.355138 19.349597 0.000000 0.087329
44.000000 49.191000 13.000000 -3.000000 -8.000000 118.500739 34.175926 244.212061 234.622249 20.330611 0.000000 0.041965
45.000000 46.779000 14.000000 -3.000000 -8.000000 119.692544 30.076748 351.677450 231.785982 21.378829 0.000000 0.014137
48.000000 54.528000 6.000000 -1.000000 -4.000000 125.026645 39.299689 94.073104 -33.842306 9.169465 0.000000 0.153633
49.000000 51.655000 13.000000 -2.000000 -8.000000 126.234354 34.226333 242.827809 -12.917106 19.358759 0.000000 0.096791
50.000000 48.923000 7.000000 -1.000000 -4.000000 126.992965 29.560394 364.563455 8.825908 10.219806 0.000000 0.058070
51.000000 46.356000 15.000000 -2.000000 -8.000000 127.408085 25.309113 466.028569 30.472871 21.571261 0.000000 0.035378
55.000000 50.721000 14.000000 -1.000000 -8.000000 134.412679 28.879512 381.355697 -263.210820 19.712850 0.000000 0.107426
56.000000 47.934000 15.000000 -1.000000 -8.000000 134.366923 24.028833 495.153782 -211.657239 20.859427 0.000000 0.070633
65.000000 51.854000 7.000000 -5.000000 -7.000000 80.083738 51.872879 -396.311664 1245.754929 19.298196 0.000000 0.332365
66.000000 51.738000 8.000000 -5.000000 -7.000000 85.765023 47.515652 -200.213472 1059.004214 19.340131 0.000000 0.213459
67.000000 50.857000 9.000000 -5.000000 -7.000000 90.510183 43.306097 -39.464682 927.829754 19.673740 0.000000 0.134554
68.000000 49.478000 10.000000 -5.000000 -7.000000 94.438057 39.279611 94.702751 833.082131 20.221182 0.000000 0.086585
69.000000 47.800000 11.000000 -5.000000 -7.000000 97.668415 35.461460 208.378554 763.080407 20.930053 0.000000 0.067396
70.000000 45.967000 12.000000 -5.000000 -7.000000 100.312962 31.867051 305.924240 710.394768 21.763778 0.000000 0.070542
73.000000 58.260000 8.000000 -4.000000 -7.000000 95.045447 49.300198 -276.316285 795.279296 17.172279 0.000000 0.231472
74.000000 56.529000 9.000000 -4.000000 -7.000000 99.504954 44.523096 -83.524619 688.245889 17.696917 0.000000 0.135067
75.000000 54.380000 10.000000 -4.000000 -7.000000 103.072938 39.963583 73.046997 614.919006 18.395238 0.000000 0.070913
76.000000 52.029000 11.000000 -4.000000 -7.000000 105.899437 35.660483 202.729157 563.665334 19.226021 0.000000 0.036291
77.000000 49.616000 12.000000 -4.000000 -7.000000 108.119634 31.636993 311.901037 527.328111 20.160132 0.000000 0.040177
78.000000 47.234000 13.000000 -4.000000 -7.000000 109.850052 27.902481 405.071852 501.334664 21.176397 0.000000 0.058818
81.000000 62.018000 9.000000 -3.000000 -7.000000 109.039613 46.093107 -143.165965 405.402958 16.128005 0.000000 0.180410
82.000000 59.066000 10.000000 -3.000000 -7.000000 112.180144 40.842743 44.565642 360.975913 16.933325 0.000000 0.097728
83.000000 56.029000 11.000000 -3.000000 -7.000000 114.533956 35.914637 195.473779 334.417633 17.850643 0.000000 0.040497
84.000000 53.040000 12.000000 -3.000000 -7.000000 116.263273 31.345750 319.425134 319.158777 18.856025 0.000000 0.001684
85.000000 50.177000 13.000000 -3.000000 -7.000000 117.504420 27.149841 423.050434 311.219518 19.931904 0.000000 0.029797
86.000000 47.477000 14.000000 -3.000000 -7.000000 118.368390 23.322625 510.970530 308.103066 21.065094 0.000000 0.051544
89.000000 63.291000 10.000000 -2.000000 -7.000000 121.668901 42.013882 5.427987 47.404279 15.800424 0.000000 0.172376
90.000000 59.614000 11.000000 -2.000000 -7.000000 123.497345 36.250493 185.814147 57.719980 16.774655 0.000000 0.100155
91.000000 56.096000 12.000000 -2.000000 -7.000000 124.678510 30.965193 329.186731 72.566467 17.826634 0.000000 0.053056
92.000000 52.794000 13.000000 -2.000000 -7.000000 125.373866 26.179407 445.877967 89.507414 18.941252 0.000000 0.028670
93.000000 49.733000 14.000000 -2.000000 -7.000000 125.711538 21.883071 542.701838 107.196912 20.107077 0.000000 0.031523
94.000000 46.914000 15.000000 -2.000000 -7.000000 125.790287 18.046053 624.334108 124.882834 21.315299 0.000000 0.044625
97.000000 58.644000 12.000000 -1.000000 -7.000000 133.283479 30.446854 342.358225 -234.806914 17.049803 0.000000 0.113026
98.000000 54.983000 13.000000 -1.000000 -7.000000 133.383586 24.881554 475.821925 -180.296265 18.185261 0.000000 0.069545
99.000000 51.625000 14.000000 -1.000000 -7.000000 133.146466 19.995122 583.364685 -132.527181 19.368237 0.000000 0.043293
100.000000 48.560000 15.000000 -1.000000 -7.000000 132.685722 15.729488 671.869541 -90.299007 20.590739 0.000000 0.032929
101.000000 45.770000 16.000000 -1.000000 -7.000000 132.083012 12.012522 745.980732 -52.686618 21.846472 0.000000 0.035093
107.000000 46.236000 7.000000 -6.000000 -6.000000 70.180638 44.363261 -77.634114 1483.578263 21.647462 0.000000 0.233629
108.000000 46.613000 4.000000 -3.000000 -3.000000 75.913985 40.442692 57.618060 1295.858863 10.735438 0.000000 0.161584
109.000000 46.204000 3.000000 -2.000000 -2.000000 80.763475 36.708689 172.501022 1159.322435 7.219776 0.000000 0.121870
112.000000 53.608000 6.000000 -5.000000 -6.000000 72.778143 50.271791 -320.104795 1462.975303 18.669257 0.000000 0.328317
113.000000 54.191000 7.000000 -5.000000 -6.000000 79.429407 45.662876 -126.491003 1228.390726 18.466811 0.000000 0.207089
114.000000 53.625000 8.000000 -5.000000 -6.000000 84.945789 41.242325 31.370291 1067.594241 18.660294 0.000000 0.133034
115.000000 52.310000 9.000000 -5.000000 -6.000000 89.476677 37.047812 162.545054 953.317294 19.128242 0.000000 0.095827
116.000000 50.547000 10.000000 -5.000000 -6.000000 93.175344 33.103723 273.272935 869.720559 19.794267 0.000000 0.087636
117.000000 48.549000 11.000000 -5.000000 -6.000000 96.184174 29.422231 367.989015 807.108980 20.607920 0.000000 0.094773
118.000000 46.459000 12.000000 -5.000000 -6.000000 98.628017 26.005333 449.932193 759.289849 21.534544 0.000000 0.105945
121.000000 62.714000 7.000000 -4.000000 -6.000000 89.625702 47.321413 -192.243912 951.372334 15.954206 0.000000 0.198640
122.000000 60.957000 4.000000 -2.000000 -3.000000 94.802468 42.260213 -2.987098 818.819397 8.206402 0.000000 0.110587
123.000000 58.562000 9.000000 -4.000000 -6.000000 98.892927 37.477243 149.809349 728.792203 17.083017 0.000000 0.064166
124.000000 55.862000 5.000000 -2.000000 -3.000000 102.096616 33.010875 275.755850 665.922435 8.954024 0.000000 0.058221
125.000000 53.069000 11.000000 -4.000000 -6.000000 104.589820 28.879415 381.358062 621.062508 18.849757 0.000000 0.072916
126.000000 50.314000 6.000000 -2.000000 -3.000000 106.520630 25.084717 471.176970 588.520316 9.940792 0.000000 0.089219
127.000000 47.668000 13.000000 -4.000000 -6.000000 108.009573 21.616564 548.504990 564.621251 20.984459 0.000000 0.102686
128.000000 71.370000 7.000000 -3.000000 -6.000000 100.706429 49.506986 -285.489849 627.623053 14.016447 0.000000 0.238012
129.000000 68.242000 8.000000 -3.000000 -6.000000 105.426168 43.598827 -49.899161 530.898494 14.658053 0.000000 0.123280
130.000000 60.972000 10.000000 -3.000000 -6.000000 111.552262 32.890641 278.963361 434.755247 16.404547 0.000000 0.015855
131.000000 57.364000 11.000000 -3.000000 -6.000000 113.426679 28.184465 398.271751 411.918345 17.435761 0.000000 0.040744
132.000000 53.943000 4.000000 -1.000000 -2.000000 114.754028 23.920890 497.582479 398.097850 6.180420 0.000000 0.064093
133.000000 50.755000 13.000000 -3.000000 -6.000000 115.670350 20.081109 581.534572 390.216865 19.705753 0.000000 0.081228
134.000000 47.813000 14.000000 -3.000000 -6.000000 116.279973 16.634586 653.435174 386.316736 20.917881 0.000000 0.093711
136.000000 70.238000 9.000000 -2.000000 -6.000000 119.565152 38.803198 109.538279 157.537500 14.238278 0.000000 0.106988
137.000000 65.596000 5.000000 -1.000000 -3.000000 121.452415 32.728811 283.266849 158.433988 7.622763 0.000000 0.046472
138.000000 61.223000 11.000000 -2.000000 -6.000000 122.612199 27.263326 420.355258 166.296898 16.334193 0.000000 0.020448
139.000000 57.188000 6.000000 -1.000000 -3.000000 123.249809 22.404294 531.289141 177.743133 8.743401 0.000000 0.036143
140.000000 53.505000 13.000000 -2.000000 -6.000000 123.519643 18.114969 622.901543 190.906871 18.690544 0.000000 0.054371
141.000000 50.163000 7.000000 -1.000000 -3.000000 123.534751 14.340985 699.835950 204.734288 9.967909 0.000000 0.068257
142.000000 47.138000 15.000000 -2.000000 -6.000000 123.376444 11.022124 765.358262 218.624050 21.215282 0.000000 0.078523
145.000000 69.448000 10.000000 -1.000000 -6.000000 131.672474 32.499286 289.343786 -194.900144 14.397674 0.000000 0.120800
146.000000 64.438000 11.000000 -1.000000 -6.000000 132.035900 25.984935 450.406486 -138.443197 15.517102 0.000000 0.067671
147.000000 59.894000 12.000000 -1.000000 -6.000000 131.904415 20.349420 575.810931 -89.145399 16.694417 0.000000 0.039213
148.000000 55.804000 13.000000 -1.000000 -6.000000 131.458827 15.514754 676.218685 -45.804345 17.918325 0.000000 0.033503
149.000000 52.133000 14.000000 -1.000000 -6.000000 130.823651 11.377224 758.426216 -7.445137 19.180290 0.000000 0.040718
150.000000 48.840000 15.000000 -1.000000 -6.000000 130.082252 7.831098 826.970843 26.719154 20.473739 0.000000 0.049740
151.000000 45.883000 16.000000 -1.000000 -6.000000 129.289299 4.780105 884.997396 57.325412 21.793533 0.000000 0.057480
154.000000 57.557000 13.000000 0.000000 -6.000000 139.359794 11.933163 747.538514 -340.649296 17.370663 0.000000 0.038384
155.000000 53.653000 14.000000 0.000000 -6.000000 138.024870 7.425034 834.735554 -265.506628 18.635137 0.000000 0.022352
156.000000 50.167000 5.000000 0.000000 -2.000000 136.666106 3.696983 905.456087 -202.161844 6.643369 0.000000 0.020388
157.000000 47.051000 16.000000 0.000000 -6.000000 135.332334 0.587313 963.967014 -147.910195 21.250700 0.000000 0.025783
162.000000 47.875000 16.000000 1.000000 -6.000000 141.097175 -4.807518 1065.521180 -397.440379 20.883070 0.000000 0.015217
167.000000 45.681000 6.000000 -6.000000 -5.000000 61.550576 42.432302 -8.905030 1731.096540 21.913355 0.000000 0.258255
168.000000 47.023000 7.000000 -6.000000 -5.000000 68.289309 38.345684 123.599697 1487.413391 21.286433 0.000000 0.175642
169.000000 47.199000 8.000000 -6.000000 -5.000000 73.969847 34.483340 235.744127 1316.153384 21.205715 0.000000 0.131850
170.000000 46.577000 9.000000 -6.000000 -5.000000 78.728407 30.859414 331.886202 1190.886809 21.487457 0.000000 0.116417
173.000000 55.666000 6.000000 -5.000000 -5.000000 71.403224 43.565291 -48.698641 1440.794198 17.980006 0.000000 0.216246
174.000000 55.834000 7.000000 -5.000000 -5.000000 77.953560 38.925601 105.745676 1236.239633 17.924531 0.000000 0.142217
175.000000 54.829000 8.000000 -5.000000 -5.000000 83.296213 34.564972 233.485037 1094.625005 18.251644 0.000000 0.110554
176.000000 53.119000 9.000000 -5.000000 -5.000000 87.627634 30.504727 340.894606 992.753415 18.838154 0.000000 0.106754
177.000000 51.029000 4.000000 -2.000000 -2.000000 91.131121 26.751406 432.469899 917.202123 7.843452 0.000000 0.114664
178.000000 48.774000 11.000000 -5.000000 -5.000000 93.965712 23.300112 511.471967 859.759903 20.514304 0.000000 0.124845
179.000000 46.488000 12.000000 -5.000000 -5.000000 96.263721 20.137939 580.323908 815.173549 21.522246 0.000000 0.133995
181.000000 66.595000 5.000000 -4.000000 -5.000000 74.769243 50.691584 -339.580621 1403.582044 15.028061 0.000000 0.327445
182.000000 66.937000 6.000000 -4.000000 -5.000000 82.573682 45.037435 -102.701629 1139.528324 14.949564 0.000000 0.184808
183.000000 65.444000 7.000000 -4.000000 -5.000000 88.744624 39.675652 82.215634 971.644096 15.289432 0.000000 0.108262
184.000000 62.912000 8.000000 -4.000000 -5.000000 93.561492 34.669756 230.578740 859.549514 15.903661 0.000000 0.082738
185.000000 59.882000 9.000000 -4.000000 -5.000000 97.294064 30.053851 352.251692 781.838381 16.707532 0.000000 0.088960
186.000000 56.688000 10.000000 -4.000000 -5.000000 100.176318 25.836954 453.842358 726.346067 17.647954 0.000000 0.103283
187.000000 53.526000 11.000000 -4.000000 -5.000000 102.399568 22.009393 539.943621 685.769261 18.689960 0.000000 0.116404
188.000000 50.500000 12.000000 -4.000000 -5.000000 104.115010 18.549294 613.847026 655.523374 19.809583 0.000000 0.126648
189.000000 47.659000 13.000000 -4.000000 -5.000000 105.439808 15.428001 677.973195 632.622251 20.989845 0.000000 0.134214
192.000000 78.962000 6.000000 -3.000000 -5.000000 95.061292 47.024615 -180.178895 801.164212 12.670174 0.000000 0.183016
193.000000 75.364000 7.000000 -3.000000 -5.000000 100.639763 40.683155 49.791287 674.365068 13.273964 0.000000 0.081594
194.000000 71.035000 8.000000 -3.000000 -5.000000 104.725423 34.809166 226.700605 596.479823 14.082197 0.000000 0.040890
195.000000 66.534000 9.000000 -3.000000 -5.000000 107.674434 29.461608 367.013671 547.103181 15.034233 0.000000 0.057119
196.000000 62.162000 10.000000 -3.000000 -5.000000 109.776942 24.653329 481.021733 515.185727 16.091257 0.000000 0.080106
197.000000 58.061000 11.000000 -3.000000 -5.000000 111.257210 20.364528 575.488068 494.381398 17.227270 0.000000 0.097480
198.000000 54.289000 12.000000 -3.000000 -5.000000 112.283294 16.556102 655.040430 480.869640 18.424204 0.000000 0.109793
199.000000 50.852000 13.000000 -3.000000 -5.000000 112.978910 13.180077 722.952260 472.260242 19.669109 0.000000 0.118373
200.000000 47.737000 14.000000 -3.000000 -5.000000 113.434286 10.186580 781.604332 467.009516 20.952465 0.000000 0.124271
201.000000 90.746000 6.000000 -2.000000 -5.000000 108.711144 49.845742 -300.686710 375.690022 11.022228 0.000000 0.267966
202.000000 84.823000 7.000000 -2.000000 -5.000000 113.510689 42.107008 2.254343 309.878923 11.791041 0.000000 0.124143
203.000000 78.619000 8.000000 -2.000000 -5.000000 116.673256 35.003762 221.265311 280.908648 12.721031 0.000000 0.040491
204.000000 72.649000 9.000000 -2.000000 -5.000000 118.659409 28.649366 386.981746 270.668165 13.766207 0.000000 0.014702
205.000000 67.135000 10.000000 -2.000000 -5.000000 119.826053 23.062827 516.746690 270.349158 14.896554 0.000000 0.046544
206.000000 62.149000 11.000000 -2.000000 -5.000000 120.434254 18.200859 621.114564 275.373611 16.091654 0.000000 0.068488
207.000000 57.684000 12.000000 -2.000000 -5.000000 120.668184 13.988622 706.876699 283.244763 17.337131 0.000000 0.083357
208.000000 53.703000 13.000000 -2.000000 -5.000000 120.654961 10.341374 778.601203 292.553423 18.622572 0.000000 0.093515
209.000000 50.154000 14.000000 -2.000000 -5.000000 120.481244 7.176866 839.473889 302.486101 19.940248 0.000000 0.100477
210.000000 46.987000 15.000000 -2.000000 -5.000000 120.205723 4.421132 891.784347 312.567877 21.284304 0.000000 0.105226
211.000000 84.995000 8.000000 -1.000000 -5.000000 129.207053 35.294388 213.099423 -134.754821 11.764598 0.000000 0.132604
212.000000 77.760000 9.000000 -1.000000 -5.000000 130.079296 27.467199 415.499564 -79.720066 12.859015 0.000000 0.064326
213.000000 71.283000 10.000000 -1.000000 -5.000000 130.166663 20.816508 565.799280 -30.909261 14.027484 0.000000 0.034475
214.000000 65.558000 11.000000 -1.000000 -5.000000 129.782416 15.237457 681.821617 12.171816 15.252801 0.000000 0.037720
215.000000 60.520000 12.000000 -1.000000 -5.000000 129.130685 10.573495 774.092285 50.236985 16.522707 0.000000 0.050075
216.000000 56.089000 13.000000 -1.000000 -5.000000 128.339728 6.665178 849.227585 83.989370 17.828232 0.000000 0.060639
217.000000 52.184000 14.000000 -1.000000 -5.000000 127.488149 3.371413 911.595212 114.052792 19.162659 0.000000 0.068535
218.000000 48.730000 15.000000 -1.000000 -5.000000 126.623108 0.575193 964.194709 140.959312 20.520863 0.000000 0.074280
219.000000 45.665000 16.000000 -1.000000 -5.000000 125.772186 -1.817569 1009.154270 165.155724 21.898861 0.000000 0.078428
224.000000 54.801000 14.000000 1.000000 -5.000000 140.716653 -8.014082 1126.533065 -387.731297 18.244160 0.000000 0.025874
225.000000 51.030000 15.000000 1.000000 -5.000000 138.660208 -10.413721 1172.803401 -302.894620 19.592798 0.000000 0.028508
226.000000 47.699000 16.000000 1.000000 -5.000000 136.796794 -12.345275 1210.561170 -232.134956 20.961408 0.000000 0.029206
232.000000 45.674000 3.000000 -3.000000 -2.000000 58.843484 36.016716 192.546576 1745.493660 10.959381 0.000000 0.201578
233.000000 46.952000 7.000000 -6.000000 -4.000000 65.611151 32.032538 301.606521 1516.615346 21.320419 0.000000 0.140846
234.000000 47.006000 4.000000 -3.000000 -2.000000 71.264170 28.327636 394.805419 1355.719036 10.647237 0.000000 0.117399
235.000000 46.257000 9.000000 -6.000000 -4.000000 75.970501 24.901402 475.368825 1237.503829 21.637847 0.000000 0.116627
237.000000 54.915000 5.000000 -5.000000 -4.000000 61.076012 41.177853 33.510201 1731.166799 18.228970 0.000000 0.244748
238.000000 56.633000 6.000000 -5.000000 -4.000000 69.034659 36.315541 183.933705 1452.814807 17.674507 0.000000 0.156830
239.000000 56.451000 7.000000 -5.000000 -4.000000 75.492029 31.797287 307.739816 1268.688666 17.729837 0.000000 0.121081
240.000000 55.104000 8.000000 -5.000000 -4.000000 80.696361 27.637939 411.419185 1140.030164 18.162056 0.000000 0.117241
241.000000 53.108000 9.000000 -5.000000 -4.000000 84.884741 23.835058 499.510775 1046.328853 18.843471 0.000000 0.125584
242.000000 50.801000 10.000000 -5.000000 -4.000000 88.262315 20.374069 575.284144 975.831268 19.698220 0.000000 0.135797
243.000000 48.390000 11.000000 -5.000000 -4.000000 90.997518 17.232885 641.154211 921.379034 20.678396 0.000000 0.144625
244.000000 46.000000 12.000000 -5.000000 -4.000000 93.224744 14.385577 698.943374 878.396644 21.752258 0.000000 0.151458
247.000000 69.811000 5.000000 -4.000000 -4.000000 73.164648 42.381007 -7.137664 1381.891406 14.336569 0.000000 0.193082
248.000000 66.990000 7.000000 -4.000000 -4.000000 86.629189 31.491047 315.677333 1015.342445 14.937522 0.000000 0.106048
249.000000 60.252000 9.000000 -4.000000 -4.000000 94.585922 22.483098 529.556248 847.568042 16.606190 0.000000 0.127282
250.000000 56.700000 5.000000 -2.000000 -2.000000 97.245947 18.659805 611.535846 796.563102 8.822835 0.000000 0.137904
251.000000 53.292000 11.000000 -4.000000 -4.000000 99.304844 15.244469 681.680117 758.225264 18.773300 0.000000 0.145717
252.000000 50.104000 6.000000 -2.000000 -2.000000 100.908416 12.195802 742.379493 728.785024 9.983750 0.000000 0.151103
253.000000 47.161000 13.000000 -4.000000 -4.000000 102.165567 9.472492 795.421272 705.766433 21.213201 0.000000 0.154603
255.000000 87.584000 4.000000 -3.000000 -4.000000 77.835573 51.361746 -371.405882 1312.561849 11.425993 0.000000 0.328884
256.000000 86.925000 5.000000 -3.000000 -4.000000 87.232869 44.050031 -66.183106 1013.378310 11.511158 0.000000 0.154334
257.000000 83.152000 6.000000 -3.000000 -4.000000 94.099300 37.249127 156.592682 844.096192 12.032359 0.000000 0.080483
258.000000 78.046000 7.000000 -3.000000 -4.000000 99.025640 31.076002 326.352477 741.390719 12.818652 0.000000 0.078842
259.000000 72.607000 8.000000 -3.000000 -4.000000 102.527764 25.570434 460.008906 675.876660 13.778122 0.000000 0.098658
260.000000 67.333000 9.000000 -3.000000 -4.000000 105.007265 20.715370 567.972298 632.517930 14.856945 0.000000 0.115667
261.000000 62.437000 10.000000 -3.000000 -4.000000 106.759352 16.460133 657.001549 603.029588 16.021507 0.000000 0.127550
262.000000 57.990000 11.000000 -3.000000 -4.000000 107.994907 12.739035 731.675988 582.573724 17.249733 0.000000 0.135375
263.000000 53.993000 12.000000 -3.000000 -4.000000 108.862675 9.483517 795.208395 568.190094 18.526529 0.000000 0.140305
264.000000 50.415000 13.000000 -3.000000 -4.000000 109.467227 6.628845 849.919367 557.996440 19.841220 0.000000 0.143213
265.000000 47.214000 14.000000 -3.000000 -4.000000 109.882250 4.117125 897.526908 550.756923 21.186049 0.000000 0.144713
266.000000 88.724000 7.000000 -2.000000 -4.000000 112.567769 30.481719 341.476684 421.955552 11.273143 0.000000 0.026805
267.000000 73.880000 9.000000 -2.000000 -4.000000 116.008041 18.310874 618.823083 387.861519 13.537637 0.000000 0.087962
268.000000 67.672000 5.000000 -1.000000 -2.000000 116.661838 13.545245 715.705522 385.116518 7.389674 0.000000 0.102817
269.000000 62.238000 11.000000 -2.000000 -4.000000 116.933021 9.499471 794.900329 386.581909 16.069813 0.000000 0.112063
270.000000 57.487000 6.000000 -1.000000 -2.000000 116.962373 6.054268 860.846122 390.419814 8.698913 0.000000 0.117739
271.000000 53.326000 13.000000 -2.000000 -4.000000 116.840646 3.105253 916.611027 395.565076 18.755368 0.000000 0.121094
272.000000 49.669000 7.000000 -1.000000 -2.000000 116.626409 0.565132 964.383727 401.385096 10.068277 0.000000 0.122909
273.000000 46.439000 15.000000 -2.000000 -4.000000 116.357565 -1.637440 1005.767491 407.498225 21.536967 0.000000 0.123691
274.000000 87.926000 8.000000 -1.000000 -4.000000 127.564773 21.460331 551.896977 51.529504 11.372822 0.000000 0.030846
275.000000 79.369000 9.000000 -1.000000 -4.000000 127.355608 14.865613 689.311816 90.981544 12.599037 0.000000 0.048193
276.000000 72.049000 10.000000 -1.000000 -4.000000 126.736815 9.524610 794.414840 126.449771 13.879273 0.000000 0.064510
277.000000 65.787000 11.000000 -1.000000 -4.000000 125.922469 5.181295 877.403825 158.050276 15.200512 0.000000 0.075523
278.000000 60.411000 12.000000 -1.000000 -4.000000 125.032406 1.618226 944.593731 186.162034 16.553609 0.000000 0.082726
279.000000 55.768000 13.000000 -1.000000 -4.000000 124.132106 -1.336156 1000.104071 211.215643 17.931949 0.000000 0.087397
280.000000 51.734000 14.000000 -1.000000 -4.000000 123.256196 -3.813213 1046.736696 233.618079 19.330631 0.000000 0.090377
281.000000 48.205000 15.000000 -1.000000 -4.000000 122.421907 -5.912611 1086.463621 253.729332 20.745946 0.000000 0.092219
282.000000 83.324000 9.000000 0.000000 -4.000000 138.699572 9.570072 793.536668 -301.391950 11.999158 0.000000 0.028587
283.000000 68.424000 11.000000 0.000000 -4.000000 134.683724 -0.776699 989.591089 -123.574797 14.612905 0.000000 0.028926
284.000000 62.614000 6.000000 0.000000 -2.000000 132.832645 -4.258636 1055.145597 -59.561647 7.984651 0.000000 0.037229
285.000000 57.633000 13.000000 0.000000 -4.000000 131.137901 -7.026758 1107.662570 -6.280737 17.349818 0.000000 0.043410
286.000000 53.331000 7.000000 0.000000 -2.000000 129.599775 -9.270428 1150.679600 38.835897 9.374945 0.000000 0.047921
287.000000 49.586000 15.000000 0.000000 -4.000000 128.208183 -11.120505 1186.560589 77.579144 20.166036 0.000000 0.051252
288.000000 46.305000 8.000000 0.000000 -2.000000 126.949396 -12.669185 1216.945218 111.241025 10.797777 0.000000 0.053754
292.000000 63.995000 12.000000 1.000000 -4.000000 140.032175 -12.206041 1207.821854 -372.842638 15.623074 0.000000 0.040092
293.000000 58.848000 13.000000 1.000000 -4.000000 137.589458 -14.404884 1251.443190 -275.501630 16.990040 0.000000 0.038862
294.000000 54.406000 14.000000 1.000000 -4.000000 135.439104 -16.116067 1285.983367 -196.626229 18.377748 0.000000 0.036120
295.000000 50.543000 15.000000 1.000000 -4.000000 133.538555 -17.483368 1314.010828 -131.277168 19.782593 0.000000 0.033063
296.000000 47.161000 16.000000 1.000000 -4.000000 131.850716 -18.599801 1337.208882 -76.160582 21.201755 0.000000 0.030270
301.000000 47.653000 8.000000 1.000000 -2.000000 136.171555 -25.648320 1491.790306 -302.787625 10.490861 0.000000 0.093804
304.000000 45.837000 7.000000 -6.000000 -3.000000 62.100919 25.562661 460.188328 1572.678969 21.840808 0.000000 0.113876
305.000000 45.904000 8.000000 -6.000000 -3.000000 67.776346 22.111653 537.707206 1415.655934 21.807326 0.000000 0.101760
307.000000 54.424000 5.000000 -5.000000 -3.000000 57.519611 33.365831 266.235257 1761.374720 18.395322 0.000000 0.185118
308.000000 56.077000 6.000000 -5.000000 -3.000000 65.522877 28.708142 385.547284 1499.646671 17.851437 0.000000 0.123682
309.000000 55.739000 7.000000 -5.000000 -3.000000 71.947183 24.476490 485.037699 1326.445954 17.958129 0.000000 0.111665
310.000000 54.245000 8.000000 -5.000000 -3.000000 77.095926 20.655039 569.267187 1204.523851 18.451377 0.000000 0.120879
311.000000 52.145000 9.000000 -5.000000 -3.000000 81.235621 17.216239 641.496957 1114.717559 19.193002 0.000000 0.133594
312.000000 49.780000 10.000000 -5.000000 -3.000000 84.584097 14.126675 704.120798 1046.223286 20.103669 0.000000 0.144468
313.000000 47.350000 11.000000 -5.000000 -3.000000 87.313057 11.351166 758.935488 992.518682 21.134580 0.000000 0.152682
315.000000 68.715000 4.000000 -4.000000 -3.000000 60.302477 39.267686 95.076554 1733.880251 14.568373 0.000000 0.226697
316.000000 70.922000 5.000000 -4.000000 -3.000000 70.010563 33.287687 268.337847 1409.360486 14.113565 0.000000 0.136128
317.000000 69.765000 6.000000 -4.000000 -3.000000 77.441025 27.886225 405.462778 1212.271855 14.346103 0.000000 0.116858
318.000000 66.886000 7.000000 -4.000000 -3.000000 83.097695 23.065429 516.688948 1082.610467 14.962354 0.000000 0.126199
319.000000 63.277000 8.000000 -4.000000 -3.000000 87.416669 18.794230 608.720495 992.295462 15.814571 0.000000 0.139197
320.000000 59.483000 9.000000 -4.000000 -3.000000 90.739335 15.023658 686.131449 926.619362 16.822230 0.000000 0.149535
321.000000 55.782000 10.000000 -4.000000 -3.000000 93.320955 11.697993 752.149480 877.221626 17.937704 0.000000 0.156686
322.000000 52.301000 11.000000 -4.000000 -3.000000 95.348703 8.761708 809.117315 839.042577 19.131021 0.000000 0.161247
323.000000 49.088000 12.000000 -4.000000 -3.000000 96.959066 6.163192 858.776571 808.864427 20.382374 0.000000 0.163886
324.000000 46.153000 13.000000 -4.000000 -3.000000 98.251778 3.856372 902.448926 784.556429 21.678153 0.000000 0.165137
326.000000 90.531000 5.000000 -3.000000 -3.000000 84.842901 33.177584 271.294000 1057.057875 11.053661 0.000000 0.107053
327.000000 78.746000 7.000000 -3.000000 -3.000000 95.550231 21.160903 558.377662 828.849993 12.705890 0.000000 0.131133
328.000000 72.542000 8.000000 -3.000000 -3.000000 98.675479 16.340103 659.451620 769.862749 13.791843 0.000000 0.143410
329.000000 61.646000 10.000000 -3.000000 -3.000000 102.522322 8.630200 811.645477 699.213689 16.228435 0.000000 0.155436
330.000000 57.062000 11.000000 -3.000000 -3.000000 103.702150 5.552526 870.368716 677.347870 17.531767 0.000000 0.157485
331.000000 53.006000 4.000000 -1.000000 -1.000000 104.573661 2.883608 920.785999 660.819851 6.291062 0.000000 0.158014
332.000000 49.416000 13.000000 -3.000000 -3.000000 105.223221 0.556646 964.543151 648.095042 20.244032 0.000000 0.157538
333.000000 46.232000 14.000000 -3.000000 -3.000000 105.710878 -1.483740 1002.878113 638.145280 21.638082 0.000000 0.156407
334.000000 90.342000 7.000000 -2.000000 -3.000000 109.152770 18.456837 615.778337 546.918606 11.072169 0.000000 0.113091
335.000000 81.338000 8.000000 -2.000000 -3.000000 110.688152 12.970442 727.102647 523.915085 12.297645 0.000000 0.126783
336.000000 73.614000 9.000000 -2.000000 -3.000000 111.553921 8.432043 815.451591 511.220202 13.587781 0.000000 0.134144
337.000000 67.021000 10.000000 -2.000000 -3.000000 112.008837 4.659815 887.272433 504.513006 14.924256 0.000000 0.137721
338.000000 61.383000 11.000000 -2.000000 -3.000000 112.210037 1.500518 946.806499 501.401745 16.295075 0.000000 0.139019
339.000000 56.536000 12.000000 -2.000000 -3.000000 112.253916 -1.168772 996.958291 500.498853 17.692054 0.000000 0.138934
340.000000 52.343000 13.000000 -2.000000 -3.000000 112.200395 -3.444560 1039.783709 500.968833 19.109418 0.000000 0.138012
341.000000 48.690000 14.000000 -2.000000 -3.000000 112.087213 -5.402064 1076.778873 502.293512 20.542974 0.000000 0.136587
342.000000 45.487000 15.000000 -2.000000 -3.000000 111.938428 -7.099946 1109.058500 504.143946 21.989608 0.000000 0.134871
343.000000 88.801000 8.000000 -1.000000 -3.000000 123.102536 8.099388 821.832379 232.234882 11.261616 0.000000 0.086093
344.000000 79.346000 9.000000 -1.000000 -3.000000 122.358952 3.231971 914.223340 257.957616 12.603737 0.000000 0.095770
345.000000 71.531000 10.000000 -1.000000 -3.000000 121.504644 -0.618530 986.619459 281.287565 13.981053 0.000000 0.100922
346.000000 65.005000 11.000000 -1.000000 -3.000000 120.636680 -3.714680 1044.877753 302.208892 15.384758 0.000000 0.103481
347.000000 59.499000 12.000000 -1.000000 -3.000000 119.800349 -6.244622 1092.771167 320.912501 16.808754 0.000000 0.104514
348.000000 54.805000 13.000000 -1.000000 -3.000000 119.015046 -8.343022 1132.839805 337.645581 18.248691 0.000000 0.104633
349.000000 50.764000 14.000000 -1.000000 -3.000000 118.287248 -10.107184 1166.856455 352.653758 19.701378 0.000000 0.104204
350.000000 47.256000 15.000000 -1.000000 -3.000000 117.617082 -11.608403 1196.095982 366.160382 21.164421 0.000000 0.103451
352.000000 76.726000 10.000000 1.000000 -3.000000 138.747697 -17.845838 1321.510363 -348.209857 13.030984 0.000000 0.060511
353.000000 69.332000 11.000000 1.000000 -3.000000 135.833323 -19.548352 1357.158291 -234.842569 14.421068 0.000000 0.052670
354.000000 63.155000 12.000000 1.000000 -3.000000 133.364416 -20.819291 1384.260557 -146.545593 15.832247 0.000000 0.044617
355.000000 57.931000 13.000000 1.000000 -3.000000 131.251157 -21.803403 1405.561159 -75.650553 17.260239 0.000000 0.037305
356.000000 53.467000 14.000000 1.000000 -3.000000 129.424680 -22.587513 1422.742889 -17.367364 18.701851 0.000000 0.031091
357.000000 49.614000 15.000000 1.000000 -3.000000 127.831988 -23.226744 1436.895114 31.460802 20.154647 0.000000 0.026124
358.000000 46.259000 16.000000 1.000000 -3.000000 126.431934 -23.757731 1448.754168 73.004683 21.616741 0.000000 0.022478
363.000000 54.017000 14.000000 2.000000 -3.000000 133.919227 -30.667585 1613.233484 -263.961800 18.510224 0.000000 0.120697
364.000000 50.144000 15.000000 2.000000 -3.000000 132.017208 -30.548161 1610.204986 -184.966889 19.940322 0.000000 0.104355
365.000000 46.764000 16.000000 2.000000 -3.000000 130.347507 -30.450443 1607.732500 -119.588547 21.382010 0.000000 0.090313
371.000000 51.786000 5.000000 -5.000000 -2.000000 52.711333 25.259493 467.168655 1847.229787 19.334572 0.000000 0.152816
372.000000 53.692000 6.000000 -5.000000 -2.000000 60.835115 20.994944 561.958313 1584.366994 18.646482 0.000000 0.092986
373.000000 53.510000 7.000000 -5.000000 -2.000000 67.330351 17.196295 641.907535 1411.590470 18.708308 0.000000 0.091521
374.000000 52.148000 8.000000 -5.000000 -2.000000 72.539340 13.819493 710.248473 1289.633880 19.195420 0.000000 0.109581
375.000000 50.179000 9.000000 -5.000000 -2.000000 76.745922 10.817857 769.338217 1199.101274 19.946932 0.000000 0.126884
376.000000 47.948000 10.000000 -5.000000 -2.000000 80.173396 8.146145 820.936161 1129.323225 20.874021 0.000000 0.140054
377.000000 45.650000 11.000000 -5.000000 -2.000000 82.993278 5.762685 866.382158 1073.952397 21.923645 0.000000 0.149467
379.000000 66.739000 2.000000 -2.000000 -1.000000 55.270262 29.330656 370.254366 1796.794908 7.500895 0.000000 0.165568
380.000000 68.997000 5.000000 -4.000000 -2.000000 65.070587 23.798415 500.333235 1487.761570 14.509108 0.000000 0.103957
381.000000 67.736000 3.000000 -2.000000 -1.000000 72.490322 18.961268 605.215805 1300.036022 7.388801 0.000000 0.109772
382.000000 64.797000 7.000000 -4.000000 -2.000000 78.130336 14.752933 691.576454 1174.927586 15.446469 0.000000 0.128678
383.000000 61.205000 4.000000 -2.000000 -1.000000 82.463246 11.095693 763.923473 1086.111832 8.175912 0.000000 0.143870
384.000000 57.487000 9.000000 -4.000000 -2.000000 85.837125 7.912534 825.411846 1020.089990 17.408488 0.000000 0.154142
385.000000 53.895000 5.000000 -2.000000 -1.000000 88.502100 5.133149 878.315596 969.257614 9.283901 0.000000 0.160614
386.000000 50.539000 11.000000 -4.000000 -2.000000 90.637021 2.696178 924.315211 929.019887 19.799954 0.000000 0.164399
387.000000 47.455000 6.000000 -2.000000 -1.000000 92.370380 0.549392 964.679427 896.445239 10.542827 0.000000 0.166322
389.000000 90.030000 5.000000 -3.000000 -2.000000 79.888727 21.745358 545.703207 1147.640317 11.116682 0.000000 0.124723
390.000000 83.685000 6.000000 -3.000000 -2.000000 85.896581 16.185668 662.599543 1021.401103 11.958355 0.000000 0.143044
391.000000 76.937000 7.000000 -3.000000 -2.000000 90.149568 11.510350 755.822977 938.132707 13.006277 0.000000 0.155513
392.000000 70.563000 8.000000 -3.000000 -2.000000 93.223680 7.573235 831.903386 879.846155 14.180380 0.000000 0.162495
393.000000 64.815000 9.000000 -3.000000 -2.000000 95.494378 4.241859 895.171291 837.186864 15.437294 0.000000 0.165785
394.000000 59.728000 10.000000 -3.000000 -2.000000 97.206851 1.404471 948.611905 804.860756 16.751480 0.000000 0.166730
395.000000 55.255000 11.000000 -3.000000 -2.000000 98.523371 -1.029968 994.349901 779.671824 18.106922 0.000000 0.166213
396.000000 51.325000 12.000000 -3.000000 -2.000000 99.553290 -3.134427 1033.938648 759.589479 19.493066 0.000000 0.164791
397.000000 47.863000 13.000000 -3.000000 -2.000000 100.371756 -4.967064 1068.540139 743.268860 20.902677 0.000000 0.162823
398.000000 88.927000 7.000000 -2.000000 -2.000000 103.157520 7.035613 842.168550 687.490324 11.249781 0.000000 0.156692
399.000000 71.665000 9.000000 -2.000000 -2.000000 105.484304 -0.496312 984.323402 642.823485 13.958983 0.000000 0.157038
400.000000 65.097000 5.000000 -1.000000 -1.000000 106.078947 -3.283084 1036.739926 630.262005 7.683584 0.000000 0.154854
401.000000 59.551000 11.000000 -2.000000 -2.000000 106.470575 -5.609952 1080.720327 621.256828 16.798235 0.000000 0.152066
402.000000 54.824000 6.000000 -1.000000 -1.000000 106.728596 -7.576003 1118.149536 614.661978 9.123261 0.000000 0.149017
403.000000 50.758000 13.000000 -2.000000 -2.000000 106.896853 -9.255404 1150.389860 609.748866 19.708095 0.000000 0.145900
404.000000 47.230000 7.000000 -1.000000 -1.000000 107.003755 -10.704238 1178.450372 606.038026 10.590065 0.000000 0.142823
405.000000 87.148000 8.000000 -1.000000 -2.000000 116.058709 -3.560174 1041.963637 413.672652 11.476611 0.000000 0.123775
406.000000 77.463000 9.000000 -1.000000 -2.000000 115.429183 -6.743299 1102.260188 425.701207 12.911641 0.000000 0.122677
407.000000 69.623000 10.000000 -1.000000 -2.000000 114.808803 -9.259566 1150.470127 436.913034 14.365758 0.000000 0.120697
408.000000 63.168000 11.000000 -1.000000 -2.000000 114.225736 -11.291388 1189.896586 447.154127 15.833994 0.000000 0.118363
409.000000 57.772000 12.000000 -1.000000 -2.000000 113.689260 -12.962466 1222.739575 456.432314 17.312967 0.000000 0.115937
410.000000 53.202000 13.000000 -1.000000 -2.000000 113.200327 -14.358820 1250.521002 464.817241 18.800296 0.000000 0.113554
411.000000 49.286000 14.000000 -1.000000 -2.000000 112.756358 -15.541733 1274.327240 472.397725 20.294255 0.000000 0.111276
412.000000 45.895000 15.000000 -1.000000 -2.000000 112.353453 -16.555856 1294.954525 479.263607 21.793563 0.000000 0.109133
413.000000 81.678000 9.000000 0.000000 -2.000000 124.773829 -15.109902 1265.606048 166.923167 12.243310 0.000000 0.057152
414.000000 72.967000 10.000000 0.000000 -2.000000 122.970678 -16.941506 1302.855046 211.155935 13.705310 0.000000 0.059265
415.000000 65.882000 11.000000 0.000000 -2.000000 121.458598 -18.364038 1332.285307 247.181915 15.179635 0.000000 0.060655
416.000000 60.017000 12.000000 0.000000 -2.000000 120.175778 -19.499479 1356.124785 277.113211 16.663423 0.000000 0.061620
417.000000 55.088000 13.000000 0.000000 -2.000000 119.075605 -20.426097 1375.828386 302.388475 18.154637 0.000000 0.062320
418.000000 50.892000 14.000000 0.000000 -2.000000 118.122732 -21.196273 1392.386490 324.023372 19.651782 0.000000 0.062849
419.000000 47.279000 15.000000 0.000000 -2.000000 117.290081 -21.846320 1406.496644 342.756350 21.153742 0.000000 0.063266
420.000000 83.953000 9.000000 1.000000 -2.000000 132.764727 -26.295784 1506.839222 -169.327085 11.910058 0.000000 0.073770
421.000000 74.902000 10.000000 1.000000 -2.000000 130.020890 -26.755916 1517.636348 -71.156122 13.349795 0.000000 0.057241
422.000000 67.541000 11.000000 1.000000 -2.000000 127.766502 -27.099702 1525.760541 4.314080 14.805070 0.000000 0.043740
423.000000 61.453000 12.000000 1.000000 -2.000000 125.882883 -27.366299 1532.095040 64.263649 16.272385 0.000000 0.032718
424.000000 56.341000 13.000000 1.000000 -2.000000 124.286424 -27.579071 1537.172552 113.103899 17.749218 0.000000 0.023746
425.000000 51.993000 14.000000 1.000000 -2.000000 122.916664 -27.752820 1541.333451 153.702948 19.233706 0.000000 0.016588
426.000000 48.254000 15.000000 1.000000 -2.000000 121.728868 -27.897377 1544.805395 188.010611 20.724442 0.000000 0.011343
429.000000 62.039000 6.000000 1.000000 -1.000000 130.484307 -36.620284 1774.918019 -203.686260 8.058655 0.000000 0.161987
430.000000 56.929000 13.000000 2.000000 -2.000000 128.584899 -35.851162 1752.709835 -118.452769 17.564515 0.000000 0.136134
431.000000 52.566000 7.000000 1.000000 -1.000000 126.945466 -35.230986 1735.114140 -49.950293 9.511475 0.000000 0.115297
432.000000 48.802000 15.000000 2.000000 -2.000000 125.517108 -34.720420 1720.829147 6.385307 20.490599 0.000000 0.098153
433.000000 45.525000 8.000000 1.000000 -1.000000 124.262194 -34.292830 1709.000818 53.580902 10.982952 0.000000 0.083818
439.000000 46.889000 5.000000 -5.000000 -1.000000 46.757459 17.171964 642.408291 2000.439179 21.355751 0.000000 0.161856
440.000000 49.442000 6.000000 -5.000000 -1.000000 55.097682 13.449161 717.614441 1713.070783 20.251466 0.000000 0.068549
441.000000 49.779000 7.000000 -5.000000 -1.000000 61.780741 10.182289 781.687551 1527.811915 20.112718 0.000000 0.052920
442.000000 48.854000 8.000000 -5.000000 -1.000000 67.169348 7.310169 836.929352 1397.823269 20.491668 0.000000 0.080495
443.000000 47.262000 9.000000 -5.000000 -1.000000 71.554413 4.777431 885.047978 1301.238382 21.180348 0.000000 0.105317
445.000000 60.391000 4.000000 -4.000000 -1.000000 48.339602 19.174425 600.733279 1954.855167 16.580905 0.000000 0.153901
446.000000 63.590000 5.000000 -4.000000 -1.000000 58.413643 14.413231 698.389661 1624.293617 15.745005 0.000000 0.062993
447.000000 63.028000 6.000000 -4.000000 -1.000000 66.052060 10.352330 778.388526 1426.936153 15.883613 0.000000 0.076362
448.000000 60.674000 7.000000 -4.000000 -1.000000 71.906168 6.880703 845.121866 1295.210064 16.498416 0.000000 0.106983
449.000000 57.587000 8.000000 -4.000000 -1.000000 76.461369 3.899417 901.636619 1200.764385 17.381371 0.000000 0.128579
450.000000 54.306000 9.000000 -4.000000 -1.000000 80.064347 1.324608 950.112958 1129.584027 18.430220 0.000000 0.142543
451.000000 51.091000 10.000000 -4.000000 -1.000000 82.960156 -0.912999 992.152035 1073.929010 19.588833 0.000000 0.151334
452.000000 48.059000 11.000000 -4.000000 -1.000000 85.322755 -2.869920 1028.956240 1029.167749 20.823837 0.000000 0.156684
454.000000 83.993000 3.000000 -3.000000 -1.000000 50.842646 22.545505 528.182523 1889.997890 11.921079 0.000000 0.149583
455.000000 87.688000 4.000000 -3.000000 -1.000000 63.551246 15.979564 666.792985 1497.939287 11.417153 0.000000 0.076415
456.000000 84.335000 5.000000 -3.000000 -1.000000 72.347382 10.618722 773.212974 1289.476448 11.869422 0.000000 0.108887
457.000000 78.606000 6.000000 -3.000000 -1.000000 78.561646 6.230906 857.489565 1160.062962 12.733116 0.000000 0.135781
458.000000 72.464000 7.000000 -3.000000 -1.000000 83.073892 2.612911 925.882734 1071.879642 13.811244 0.000000 0.151073
459.000000 66.649000 8.000000 -3.000000 -1.000000 86.442243 -0.399041 982.496055 1007.919686 15.015266 0.000000 0.159108
460.000000 61.394000 9.000000 -3.000000 -1.000000 89.021774 -2.932330 1030.131609 959.401733 16.299490 0.000000 0.162840
461.000000 56.733000 10.000000 -3.000000 -1.000000 91.042742 -5.084755 1070.768055 921.332662 17.637948 0.000000 0.164004
462.000000 52.623000 11.000000 -3.000000 -1.000000 92.658147 -6.931293 1105.842396 890.663298 19.014790 0.000000 0.163623
463.000000 49.001000 12.000000 -3.000000 -1.000000 93.972249 -8.529688 1136.423451 865.426098 20.419796 0.000000 0.162308
464.000000 45.801000 13.000000 -3.000000 -1.000000 95.057830 -9.924757 1163.322681 844.294513 21.846077 0.000000 0.160440
466.000000 84.190000 7.000000 -2.000000 -1.000000 94.980425 -3.041711 1032.191914 847.074642 11.884747 0.000000 0.166717
467.000000 75.358000 8.000000 -2.000000 -1.000000 96.821505 -5.910206 1086.417966 811.561910 13.277175 0.000000 0.164601
468.000000 68.050000 9.000000 -2.000000 -1.000000 98.169410 -8.243385 1130.928367 784.877079 14.702623 0.000000 0.161338
469.000000 61.946000 10.000000 -2.000000 -1.000000 99.187442 -10.172341 1168.119554 764.140376 16.150842 0.000000 0.157612
470.000000 56.795000 11.000000 -2.000000 -1.000000 99.976721 -11.790314 1199.659709 747.590577 17.615426 0.000000 0.153773
471.000000 52.401000 12.000000 -2.000000 -1.000000 100.602372 -13.164842 1226.745864 734.093134 19.092165 0.000000 0.149999
472.000000 48.617000 13.000000 -2.000000 -1.000000 101.107812 -14.345743 1250.259264 722.885867 20.578182 0.000000 0.146379
473.000000 82.850000 8.000000 -1.000000 -1.000000 107.102703 -13.072154 1224.910175 601.022902 12.073904 0.000000 0.137001
474.000000 73.721000 9.000000 -1.000000 -1.000000 107.114860 -14.921078 1261.803796 598.018207 13.569138 0.000000 0.131752
475.000000 66.368000 10.000000 -1.000000 -1.000000 107.083464 -16.401929 1291.810002 596.196685 15.072371 0.000000 0.127092
476.000000 60.328000 11.000000 -1.000000 -1.000000 107.030544 -17.613161 1316.692785 595.100976 16.581434 0.000000 0.122973
477.000000 55.282000 12.000000 -1.000000 -1.000000 106.967747 -18.621424 1337.661132 594.464767 18.094876 0.000000 0.119331
478.000000 51.006000 13.000000 -1.000000 -1.000000 106.901373 -19.473298 1355.571385 594.126404 19.611693 0.000000 0.116101
479.000000 47.339000 14.000000 -1.000000 -1.000000 106.834859 -20.202245 1371.047079 593.984387 21.131164 0.000000 0.113227
480.000000 80.212000 9.000000 1.000000 -1.000000 122.161485 -33.617096 1690.551213 128.314618 12.467409 0.000000 0.061281
481.000000 71.631000 10.000000 1.000000 -1.000000 120.473940 -33.107318 1676.823321 184.923643 13.961263 0.000000 0.044490
482.000000 64.679000 11.000000 1.000000 -1.000000 119.089462 -32.709104 1666.210168 229.351908 15.462136 0.000000 0.031656
483.000000 58.939000 12.000000 1.000000 -1.000000 117.933613 -32.389471 1657.759701 265.183632 16.968390 0.000000 0.021780
484.000000 54.122000 13.000000 1.000000 -1.000000 116.954357 -32.127263 1650.871994 294.713757 18.478862 0.000000 0.014457
485.000000 50.025000 14.000000 1.000000 -1.000000 116.114262 -31.908289 1645.150233 319.482357 19.992699 0.000000 0.010037
486.000000 46.498000 15.000000 1.000000 -1.000000 115.385736 -31.722675 1640.321466 340.562742 21.509266 0.000000 0.009388
489.000000 65.295000 11.000000 2.000000 -1.000000 123.422553 -42.000830 1944.127966 -14.806424 15.315103 0.000000 0.189099
490.000000 59.571000 12.000000 2.000000 -1.000000 122.023404 -40.707115 1900.991678 52.995521 16.786970 0.000000 0.156620
491.000000 54.744000 13.000000 2.000000 -1.000000 120.816865 -39.653025 1867.067116 107.111907 18.267760 0.000000 0.131420
492.000000 50.621000 14.000000 2.000000 -1.000000 119.767246 -38.778181 1839.688210 151.362678 19.755717 0.000000 0.111352
493.000000 47.063000 15.000000 2.000000 -1.000000 118.846723 -38.040767 1817.127194 188.255006 21.249520 0.000000 0.095045
499.000000 50.156000 2.000000 -2.000000 0.000000 39.964011 9.412143 796.586277 2242.841024 9.983186 0.000000 0.234782
500.000000 55.130000 5.000000 -4.000000 0.000000 50.468158 5.601131 869.446978 1833.494829 18.163507 0.000000 0.081081
501.000000 56.009000 3.000000 -2.000000 0.000000 58.518528 2.396521 929.955373 1600.652269 8.938240 0.000000 0.011568
502.000000 54.816000 7.000000 -4.000000 0.000000 64.771715 -0.319785 981.007189 1448.122674 18.263879 0.000000 0.063042
503.000000 52.661000 4.000000 -2.000000 0.000000 69.709295 -2.641670 1024.658635 1339.358189 9.504897 0.000000 0.096242
504.000000 50.127000 9.000000 -4.000000 0.000000 73.673716 -4.643025 1062.410082 1257.304498 19.968973 0.000000 0.117440
505.000000 47.516000 5.000000 -2.000000 0.000000 76.907537 -6.381927 1095.381987 1192.873132 10.532645 0.000000 0.131150
506.000000 74.339000 4.000000 -3.000000 0.000000 53.387998 4.471921 890.824510 1743.118447 13.469612 0.000000 0.046025
507.000000 73.815000 5.000000 -3.000000 0.000000 62.854009 0.537643 964.900143 1492.882511 13.563328 0.000000 0.048108
508.000000 65.675000 7.000000 -3.000000 0.000000 74.823095 -5.249336 1073.884979 1234.186499 15.241350 0.000000 0.122682
509.000000 61.077000 8.000000 -3.000000 0.000000 78.745210 -7.418417 1115.138041 1156.989688 16.387471 0.000000 0.137492
510.000000 56.758000 3.000000 -1.000000 0.000000 81.828248 -9.246069 1150.209862 1097.589258 5.877794 0.000000 0.145713
511.000000 52.825000 10.000000 -3.000000 0.000000 84.304035 -10.804046 1180.392883 1050.289158 18.945081 0.000000 0.150033
512.000000 49.291000 11.000000 -3.000000 0.000000 86.329196 -12.146063 1206.642706 1011.631228 20.302432 0.000000 0.151973
513.000000 46.131000 4.000000 -1.000000 0.000000 88.012395 -13.312902 1229.681115 979.383378 7.230920 0.000000 0.152425
514.000000 76.514000 7.000000 -2.000000 0.000000 85.365261 -11.499245 1193.959776 1030.040690 13.079313 0.000000 0.151234
515.000000 63.007000 9.000000 -2.000000 0.000000 90.059062 -14.801439 1259.398135 939.852440 15.881662 0.000000 0.151458
516.000000 57.751000 5.000000 -1.000000 0.000000 91.684006 -16.043520 1284.507348 908.074670 8.663311 0.000000 0.149416
517.000000 53.253000 11.000000 -2.000000 0.000000 93.002697 -17.094747 1306.003348 881.933449 18.789326 0.000000 0.146860
518.000000 49.374000 6.000000 -1.000000 0.000000 94.092648 -17.995401 1324.613698 860.028034 10.132512 0.000000 0.144095
519.000000 46.001000 13.000000 -2.000000 0.000000 95.007626 -18.775306 1340.882910 841.391743 21.750520 0.000000 0.141288
520.000000 86.091000 7.000000 -1.000000 0.000000 95.785991 -19.456982 1355.226606 825.334432 11.621794 0.000000 0.138531
521.000000 76.239000 8.000000 -1.000000 0.000000 97.037957 -20.591028 1379.360094 799.055679 13.123232 0.000000 0.133332
522.000000 68.374000 9.000000 -1.000000 0.000000 97.999566 -21.495890 1398.874413 778.437821 14.632586 0.000000 0.128655
523.000000 61.959000 10.000000 -1.000000 0.000000 98.760484 -22.234324 1414.979901 761.817580 16.147383 0.000000 0.124500
524.000000 56.631000 11.000000 -1.000000 0.000000 99.377138 -22.848189 1428.498012 748.128552 17.666081 0.000000 0.120822
525.000000 52.140000 12.000000 -1.000000 0.000000 99.886733 -23.366442 1440.005886 736.654390 19.187673 0.000000 0.117561
526.000000 48.303000 13.000000 -1.000000 0.000000 100.314761 -23.809739 1449.920895 726.895523 20.711470 0.000000 0.114660
527.000000 162.869000 4.000000 0.000000 0.000000 105.188288 -29.473078 1583.270578 605.379950 6.141924 0.000000 0.069702
529.000000 135.534000 5.000000 1.000000 0.000000 114.679369 -46.919104 2125.922089 216.917026 7.379136 0.000000 0.231642
530.000000 112.818000 6.000000 1.000000 0.000000 113.484210 -43.787460 2006.677019 293.229053 8.865172 0.000000 0.160143
531.000000 96.499000 7.000000 1.000000 0.000000 112.528133 -41.594604 1930.397534 344.050589 10.364573 0.000000 0.117344
532.000000 84.244000 8.000000 1.000000 0.000000 111.756859 -39.977775 1877.406917 380.448319 11.872566 0.000000 0.089460
533.000000 74.718000 9.000000 1.000000 0.000000 111.125782 -38.738171 1838.452202 407.850480 13.386408 0.000000 0.070405
534.000000 67.108000 10.000000 1.000000 0.000000 110.601769 -37.758415 1808.608928 429.248758 14.904412 0.000000 0.057104
535.000000 60.894000 11.000000 1.000000 0.000000 110.160652 -36.964983 1785.015080 446.433514 16.425483 0.000000 0.047853
536.000000 55.727000 12.000000 1.000000 0.000000 109.784709 -36.309575 1765.893692 460.544247 17.948877 0.000000 0.041603
537.000000 51.362000 13.000000 1.000000 0.000000 109.460780 -35.759191 1750.083160 472.341821 19.474076 0.000000 0.037629
538.000000 47.629000 14.000000 1.000000 0.000000 109.178942 -35.290541 1736.792088 482.354202 21.000704 0.000000 0.035365
540.000000 61.584000 11.000000 2.000000 0.000000 114.048494 -45.202788 2058.940065 259.351894 16.240116 0.000000 0.190862
541.000000 52.018000 13.000000 2.000000 0.000000 112.979808 -42.601681 1964.761607 320.939747 19.227130 0.000000 0.136293
545.000000 47.529000 6.000000 -4.000000 1.000000 50.422744 -4.712421 1063.722397 1833.686290 21.068121 0.000000 0.084667
546.000000 47.809000 7.000000 -4.000000 1.000000 57.154140 -6.735599 1102.113511 1640.673394 20.943035 0.000000 0.038859
547.000000 46.835000 8.000000 -4.000000 1.000000 62.549132 -8.467092 1135.221335 1506.271941 21.376835 0.000000 0.060325
548.000000 57.016000 4.000000 -3.000000 1.000000 42.140751 -5.495796 1078.555649 2135.949601 17.564200 0.000000 0.199573
549.000000 60.361000 5.000000 -3.000000 1.000000 52.452586 -8.122360 1128.607919 1776.668554 16.588978 0.000000 0.073977
550.000000 59.701000 6.000000 -3.000000 1.000000 60.129029 -10.250146 1169.628545 1569.197130 16.770426 0.000000 0.056997
551.000000 57.341000 7.000000 -3.000000 1.000000 65.994785 -12.004399 1203.859789 1431.030647 17.458883 0.000000 0.084759
552.000000 54.361000 8.000000 -3.000000 1.000000 70.588494 -13.472968 1232.858400 1330.998798 18.414486 0.000000 0.106415
553.000000 51.258000 9.000000 -3.000000 1.000000 74.265583 -14.718849 1257.738990 1254.518750 19.528067 0.000000 0.120452
554.000000 48.253000 10.000000 -3.000000 1.000000 77.265649 -15.788171 1279.320588 1193.767386 20.742808 0.000000 0.129279
555.000000 77.222000 3.000000 -2.000000 1.000000 42.287275 -10.920000 1182.651275 2146.182515 12.968079 0.000000 0.208872
556.000000 81.175000 4.000000 -2.000000 1.000000 55.303636 -13.587088 1235.126256 1707.614967 12.334690 0.000000 0.080142
557.000000 77.842000 5.000000 -2.000000 1.000000 64.142297 -15.597023 1275.446488 1482.581813 12.861091 0.000000 0.086434
558.000000 72.468000 6.000000 -2.000000 1.000000 70.446218 -17.162489 1307.396736 1341.088389 13.813255 0.000000 0.108964
559.000000 66.869000 7.000000 -2.000000 1.000000 75.133250 -18.414509 1333.338182 1242.130092 14.968661 0.000000 0.122803
560.000000 61.641000 8.000000 -2.000000 1.000000 78.738808 -19.437746 1354.820221 1168.259799 16.236847 0.000000 0.130232
561.000000 56.948000 9.000000 -2.000000 1.000000 81.590672 -20.289153 1372.901719 1110.637597 17.574101 0.000000 0.133833
562.000000 52.792000 10.000000 -2.000000 1.000000 83.898684 -21.008362 1388.330897 1064.239643 18.956715 0.000000 0.135182
563.000000 49.125000 11.000000 -2.000000 1.000000 85.802561 -21.623762 1401.651470 1025.969585 20.370718 0.000000 0.135196
564.000000 45.888000 12.000000 -2.000000 1.000000 87.398539 -22.156199 1413.268043 993.800570 21.807343 0.000000 0.134419
565.000000 113.930000 2.000000 -1.000000 1.000000 41.521387 -21.942034 1408.584994 2251.547722 8.789432 0.000000 0.264803
566.000000 117.857000 3.000000 -1.000000 1.000000 59.218647 -23.468122 1442.274215 1639.940614 8.494843 0.000000 0.121433
567.000000 106.873000 4.000000 -1.000000 1.000000 69.497514 -24.481237 1465.069954 1383.220076 9.366293 0.000000 0.118344
568.000000 94.794000 5.000000 -1.000000 1.000000 76.109408 -25.202391 1481.520506 1235.170672 10.558611 0.000000 0.124122
569.000000 84.211000 6.000000 -1.000000 1.000000 80.689542 -25.741740 1493.951477 1136.891810 11.884484 0.000000 0.126102
570.000000 75.364000 7.000000 -1.000000 1.000000 84.039061 -26.160269 1503.675711 1066.206939 13.278644 0.000000 0.125595
571.000000 68.017000 8.000000 -1.000000 1.000000 86.590813 -26.494454 1511.490463 1012.640729 14.712396 0.000000 0.123888
572.000000 61.879000 9.000000 -1.000000 1.000000 88.597454 -26.767440 1517.907878 970.514659 16.171146 0.000000 0.121675
573.000000 56.703000 10.000000 -1.000000 1.000000 90.215776 -26.994618 1523.271981 936.451050 17.646688 0.000000 0.119303
574.000000 52.294000 11.000000 -1.000000 1.000000 91.548000 -27.186620 1527.822428 908.301500 19.134053 0.000000 0.116943
575.000000 48.501000 12.000000 -1.000000 1.000000 92.663516 -27.351025 1531.731300 884.628219 20.630058 0.000000 0.114679
577.000000 113.072000 5.000000 1.000000 1.000000 94.664052 -51.159365 2311.697719 800.990752 8.847923 0.000000 0.291098
578.000000 97.288000 6.000000 1.000000 1.000000 96.825007 -48.084852 2173.911748 748.168985 10.283044 0.000000 0.214927
579.000000 85.162000 7.000000 1.000000 1.000000 98.299423 -45.752934 2079.960195 715.987544 11.747101 0.000000 0.167753
580.000000 75.620000 8.000000 1.000000 1.000000 99.358918 -43.929139 2011.795929 694.697615 13.229156 0.000000 0.136343
581.000000 67.946000 9.000000 1.000000 1.000000 100.151635 -42.466451 1960.083235 679.748522 14.723168 0.000000 0.114405
582.000000 61.654000 10.000000 1.000000 1.000000 100.764147 -41.268735 1919.507529 668.767949 16.225527 0.000000 0.098590
583.000000 56.410000 11.000000 1.000000 1.000000 101.249952 -40.270785 1886.820820 660.413024 17.733942 0.000000 0.086951
584.000000 51.975000 12.000000 1.000000 1.000000 101.643673 -39.426949 1859.926209 653.873443 19.246893 0.000000 0.078275
585.000000 48.179000 13.000000 1.000000 1.000000 101.968593 -38.704382 1837.409455 648.634627 20.763327 0.000000 0.071764
589.000000 62.433000 10.000000 2.000000 1.000000 104.478939 -49.327705 2227.532090 514.556777 16.021863 0.000000 0.250417
590.000000 57.176000 11.000000 2.000000 1.000000 104.804697 -47.622685 2154.630237 518.953415 17.494973 0.000000 0.210277
591.000000 52.707000 12.000000 2.000000 1.000000 105.040449 -46.179603 2096.549776 523.312685 18.978196 0.000000 0.179717
592.000000 48.868000 13.000000 2.000000 1.000000 105.213555 -44.943878 2049.187857 527.470034 20.469256 0.000000 0.155823
593.000000 45.537000 14.000000 2.000000 1.000000 105.342092 -43.874752 2009.828032 531.361191 21.966514 0.000000 0.136750
597.000000 45.743000 14.000000 3.000000 1.000000 107.799142 -49.937071 2254.820254 404.133697 21.866224 0.000000 0.275995
599.000000 46.388000 5.000000 -3.000000 2.000000 42.151822 -15.329950 1270.045596 2173.860824 21.587766 0.000000 0.225221
600.000000 48.547000 6.000000 -3.000000 2.000000 50.557891 -16.633660 1296.545868 1865.071792 20.625831 0.000000 0.130317
601.000000 48.398000 7.000000 -3.000000 2.000000 57.134013 -17.720411 1318.911833 1671.017042 20.687625 0.000000 0.095347
602.000000 47.111000 8.000000 -3.000000 2.000000 62.381818 -18.639581 1338.040971 1535.279242 21.250753 0.000000 0.094041
603.000000 59.864000 5.000000 -2.000000 2.000000 51.686168 -22.790716 1427.227242 1863.447169 16.725970 0.000000 0.157240
604.000000 56.446000 7.000000 -2.000000 2.000000 64.976074 -24.021207 1454.674499 1491.070486 17.735322 0.000000 0.115805
605.000000 50.355000 9.000000 -2.000000 2.000000 73.131258 -24.869827 1473.910415 1300.720371 19.877753 0.000000 0.121680
607.000000 75.186000 4.000000 -1.000000 2.000000 52.394774 -32.109259 1650.400512 1919.724102 13.316479 0.000000 0.223880
608.000000 72.994000 5.000000 -1.000000 2.000000 61.302033 -31.784424 1641.925729 1634.152203 13.714776 0.000000 0.167346
609.000000 68.565000 6.000000 -1.000000 2.000000 67.732866 -31.530831 1635.350879 1458.035023 14.599386 0.000000 0.144927
610.000000 63.699000 7.000000 -1.000000 2.000000 72.565735 -31.327365 1630.101451 1336.683672 15.713308 0.000000 0.134650
611.000000 59.035000 8.000000 -1.000000 2.000000 76.317987 -31.160504 1625.813357 1247.191246 16.953506 0.000000 0.128846
612.000000 54.777000 9.000000 -1.000000 2.000000 79.309605 -31.021188 1622.244673 1178.090489 18.270634 0.000000 0.124847
613.000000 50.960000 10.000000 -1.000000 2.000000 81.747464 -30.903117 1619.228368 1122.931424 19.638092 0.000000 0.121684
614.000000 47.562000 11.000000 -1.000000 2.000000 83.770560 -30.801777 1616.645405 1077.775569 21.040277 0.000000 0.118981
617.000000 90.092000 4.000000 0.000000 2.000000 62.399673 -44.163310 2020.310303 1725.380665 11.110951 0.000000 0.294878
618.000000 83.333000 5.000000 0.000000 2.000000 69.992367 -42.254206 1952.781112 1470.475826 12.010874 0.000000 0.221851
619.000000 76.043000 6.000000 0.000000 2.000000 75.380862 -40.778493 1903.327516 1311.737808 13.161234 0.000000 0.180229
620.000000 69.313000 7.000000 0.000000 2.000000 79.379674 -39.605077 1865.548705 1202.946199 14.438371 0.000000 0.154146
621.000000 63.382000 8.000000 0.000000 2.000000 82.454444 -38.650443 1835.746954 1123.551629 15.788531 0.000000 0.136676
622.000000 58.231000 9.000000 0.000000 2.000000 84.887114 -37.859033 1811.636979 1062.973260 17.184588 0.000000 0.124382
623.000000 53.765000 10.000000 0.000000 2.000000 86.857061 -37.192518 1791.730327 1015.188252 18.611370 0.000000 0.115393
624.000000 49.882000 11.000000 0.000000 2.000000 88.483302 -36.623641 1775.015925 976.507929 20.059729 0.000000 0.108612
625.000000 46.488000 12.000000 0.000000 2.000000 89.847659 -36.132503 1760.782902 944.543242 21.523820 0.000000 0.103364
628.000000 80.265000 6.000000 1.000000 2.000000 81.440932 -50.918966 2300.275889 1197.952656 12.467121 0.000000 0.317949
629.000000 72.654000 7.000000 1.000000 2.000000 84.905385 -48.654879 2198.176031 1086.255433 13.772444 0.000000 0.252790
630.000000 66.092000 8.000000 1.000000 2.000000 87.531176 -46.809784 2121.529268 1008.802083 15.139352 0.000000 0.208511
631.000000 60.471000 9.000000 1.000000 2.000000 89.580757 -45.280182 2061.872477 952.192592 16.546044 0.000000 0.176920
632.000000 55.647000 10.000000 1.000000 2.000000 91.219975 -43.993246 2014.120154 909.140311 17.979923 0.000000 0.153561
633.000000 51.485000 11.000000 1.000000 2.000000 92.557911 -42.896512 1975.032278 875.366613 19.433201 0.000000 0.135818
634.000000 47.869000 12.000000 1.000000 2.000000 93.668843 -41.951368 1942.446808 848.204578 20.900808 0.000000 0.122061
637.000000 52.319000 11.000000 2.000000 2.000000 95.855162 -49.509646 2235.608376 771.017568 19.121737 0.000000 0.248065
642.000000 46.160000 6.000000 -2.000000 3.000000 48.785306 -28.495765 1559.277112 2013.662615 21.691436 0.000000 0.224202
643.000000 46.284000 7.000000 -2.000000 3.000000 55.366790 -28.577192 1561.259004 1787.537529 21.631905 0.000000 0.173145
646.000000 53.843000 6.000000 -1.000000 3.000000 55.910053 -35.938127 1755.199164 1840.684439 18.594029 0.000000 0.235113
647.000000 52.323000 7.000000 -1.000000 3.000000 61.865025 -35.371121 1739.066346 1646.811045 19.132615 0.000000 0.193526
648.000000 50.070000 8.000000 -1.000000 3.000000 66.589551 -34.895278 1725.701430 1509.139145 19.992027 0.000000 0.168959
649.000000 47.576000 9.000000 -1.000000 3.000000 70.416474 -34.490302 1714.448364 1405.562308 21.038858 0.000000 0.153454
654.000000 56.500000 8.000000 1.000000 3.000000 76.552402 -48.992829 2212.821990 1333.216967 17.712624 0.000000 0.296080
655.000000 52.839000 9.000000 1.000000 3.000000 79.633975 -47.469365 2148.308993 1232.245389 18.939164 0.000000 0.251048
656.000000 49.455000 10.000000 1.000000 3.000000 82.145742 -46.160177 2095.788908 1155.355900 20.234264 0.000000 0.217483
657.000000 46.375000 11.000000 1.000000 3.000000 84.227089 -45.024149 2052.201934 1094.948149 21.577382 0.000000 0.191737
662.000000 47.264000 11.000000 2.000000 3.000000 87.317483 -51.019229 2305.025166 1021.163500 21.169940 0.000000 0.300198
#UB matrix in q= (UB) B0 G* 
#[[-0.79412265  -0.324693157  0.512949591]
# [-0.299007044 -0.526739622 -0.796337305]
# [ 0.529116248 -0.786393685  0.321483543]]
#B0 matrix in q= UB (B0) G*
#[[ 0.19670273 -0.          0.03056101]
# [ 0.          0.19187965 -0.        ]
# [ 0.          0.          0.18806537]]
#UBB0 matrix in q= (UB B0) G* i.e. recip. basis vectors are columns in LT frame: astar = UBB0[:,0], bstar = UBB0[:,1], cstar = UBB0[:,2]. (abcstar as columns on xyzlab1, xlab1 = ui, ui = unit vector along incident beam)
#[[-0.1562061  -0.06230201  0.07219887]
# [-0.0588155  -0.10107062 -0.15890143]
# [ 0.10407861 -0.15089295  0.07663025]]
#Euler angles phi theta psi (deg)
#[ 33.965  71.276 147.166]
#deviatoric strain in direct crystal frame (10-3 unit)
#[[ 4.52  0.38 -0.68]
# [ 0.38  3.74  0.02]
# [-0.68  0.02 -8.26]]
#deviatoric strain in sample2 frame (10-3 unit)
#[[-0.16  5.91 -0.2 ]
# [ 5.91 -3.98 -0.66]
# [-0.21 -0.66  4.14]]
#new lattice parameters
#[ 5.1505     5.2075527  5.3149583 90.0056789 99.2756028 89.9567797]
#CCDLabel
#sCMOS
#DetectorParameters
#[79.0, 975.0, 941.0, 0.0, 0.0]
#pixelsize
#0.0734
#Frame dimensions
#[2018, 2016]
#
