#Strain and Orientation Refinement from experimental file: /home/micha/LaueProjects/DepthEffects/testZrO2_58.cor
#File created at Wed Jun 28 14:22:03 2023 with indexingSpotsSet.py
#Number of indexed spots: 502
#Element
#ZrO2
#grainIndex
#G_0
#Mean Deviation(pixel): 0.114
##spot_index intensity h k l 2theta Chi Xexp Yexp Energy GrainIndex PixDev
0.000000 45.595000 1.000000 1.000000 -8.000000 118.137403 21.985308 540.469898 320.269545 10.961843 0.000000 0.059034
1.000000 45.962000 3.000000 2.000000 -16.000000 119.704111 14.836014 689.906930 305.814821 21.748459 0.000000 0.084414
2.000000 45.942000 2.000000 1.000000 -8.000000 120.463242 7.465032 833.971362 302.532511 10.878751 0.000000 0.100220
3.000000 45.547000 5.000000 2.000000 -16.000000 120.398416 0.109247 972.947813 309.580742 21.946409 0.000000 0.107234
4.000000 45.944000 1.000000 3.000000 -16.000000 122.441591 31.267817 321.430577 140.610217 21.755478 0.000000 0.040397
5.000000 46.682000 2.000000 3.000000 -16.000000 124.988144 23.980363 496.244851 116.538974 21.410996 0.000000 0.023424
6.000000 47.041000 3.000000 3.000000 -16.000000 126.719843 16.120970 663.916842 105.313796 21.247082 0.000000 0.044948
7.000000 47.013000 4.000000 3.000000 -16.000000 127.541137 7.940543 824.875499 105.894910 21.259569 0.000000 0.062146
8.000000 46.608000 5.000000 3.000000 -16.000000 127.425908 -0.240410 979.516098 117.332203 21.444418 0.000000 0.070036
9.000000 45.853000 6.000000 3.000000 -16.000000 126.425002 -8.101258 1128.203478 138.756292 21.797711 0.000000 0.068833
10.000000 45.567000 0.000000 1.000000 -4.000000 125.238650 41.290777 29.759295 -70.924298 5.483574 0.000000 0.190563
11.000000 46.639000 1.000000 4.000000 -16.000000 128.782489 34.331966 239.921584 -106.273389 21.429256 0.000000 0.120403
12.000000 47.362000 1.000000 2.000000 -8.000000 131.611183 26.424841 440.141139 -126.486677 10.550599 0.000000 0.069088
13.000000 47.712000 3.000000 4.000000 -16.000000 133.544602 17.719490 631.107239 -132.906957 20.946175 0.000000 0.037427
14.000000 47.679000 1.000000 1.000000 -4.000000 134.452485 8.536439 813.446888 -126.747238 5.240088 0.000000 0.028040
15.000000 47.274000 5.000000 4.000000 -16.000000 134.292373 -0.677731 987.731695 -109.105375 21.140008 0.000000 0.030269
16.000000 46.523000 3.000000 2.000000 -8.000000 133.124906 -9.467578 1154.483860 -80.976801 10.740766 0.000000 0.030420
17.000000 45.466000 7.000000 4.000000 -16.000000 131.095245 -17.491628 1314.181398 -43.265619 21.981413 0.000000 0.027745
22.000000 47.958000 4.000000 5.000000 -16.000000 141.152644 9.304869 798.656132 -413.195297 20.836878 0.000000 0.037013
23.000000 47.562000 5.000000 5.000000 -16.000000 140.954742 -1.240335 998.303174 -386.279166 21.010500 0.000000 0.000972
24.000000 46.828000 6.000000 5.000000 -16.000000 139.603348 -11.200138 1188.114699 -348.347270 21.339924 0.000000 0.030753
25.000000 45.795000 7.000000 5.000000 -16.000000 137.287483 -20.096820 1368.800048 -300.445253 21.821900 0.000000 0.060167
32.000000 46.439000 1.000000 1.000000 -15.000000 109.653060 26.293328 443.218167 512.267907 21.528590 0.000000 0.071096
33.000000 47.240000 2.000000 1.000000 -15.000000 111.828320 19.568661 592.412053 483.469177 21.162786 0.000000 0.099335
34.000000 47.590000 3.000000 1.000000 -15.000000 113.236731 12.503994 736.312579 467.655425 21.006672 0.000000 0.119859
35.000000 47.482000 4.000000 1.000000 -15.000000 113.818969 5.297818 875.196545 463.833591 21.054647 0.000000 0.131865
36.000000 46.932000 5.000000 1.000000 -15.000000 113.575422 -1.826477 1009.321781 471.089565 21.301304 0.000000 0.135760
37.000000 45.983000 6.000000 1.000000 -15.000000 112.565638 -8.660077 1138.928749 488.581072 21.741429 0.000000 0.132257
38.000000 46.856000 0.000000 2.000000 -15.000000 113.764841 35.263665 213.965449 360.581926 21.335078 0.000000 0.033413
39.000000 48.087000 1.000000 2.000000 -15.000000 116.905088 28.594191 388.326862 318.977406 20.787993 0.000000 0.019322
40.000000 48.890000 2.000000 2.000000 -15.000000 119.318443 21.286121 555.670705 292.301442 20.445709 0.000000 0.057236
41.000000 49.233000 3.000000 2.000000 -15.000000 120.868894 13.509680 716.412276 279.336609 20.302962 0.000000 0.083242
42.000000 49.108000 4.000000 2.000000 -15.000000 121.476858 5.522675 870.934739 278.970815 20.354666 0.000000 0.098207
43.000000 48.533000 5.000000 2.000000 -15.000000 121.138745 -2.372477 1019.592172 290.186846 20.595906 0.000000 0.103170
44.000000 47.550000 6.000000 2.000000 -15.000000 119.927900 -9.893225 1162.712274 312.053101 21.021934 0.000000 0.099131
45.000000 46.219000 7.000000 2.000000 -15.000000 117.975979 -16.831530 1300.598778 343.715369 21.628155 0.000000 0.087108
46.000000 46.430000 -1.000000 3.000000 -15.000000 116.384332 44.695987 -89.932766 189.911475 21.529512 0.000000 0.191036
47.000000 48.029000 0.000000 1.000000 -5.000000 120.451193 38.483840 119.372393 132.665005 6.937121 0.000000 0.110994
48.000000 49.253000 1.000000 3.000000 -15.000000 123.929760 31.364354 318.945918 93.040195 20.293317 0.000000 0.051956
49.000000 50.048000 2.000000 3.000000 -15.000000 126.619757 23.390798 509.451100 69.473944 19.970416 0.000000 0.026007
50.000000 50.381000 1.000000 1.000000 -5.000000 128.345812 14.757123 691.492285 60.553638 6.612623 0.000000 0.041910
51.000000 50.246000 4.000000 3.000000 -15.000000 128.998230 5.802778 865.621290 65.000337 19.891034 0.000000 0.057245
52.000000 49.662000 5.000000 3.000000 -15.000000 128.565335 -3.049730 1032.342981 81.654133 20.125427 0.000000 0.062625
53.000000 48.668000 2.000000 1.000000 -5.000000 127.138029 -11.405175 1192.120167 109.461351 6.845567 0.000000 0.057897
54.000000 47.324000 7.000000 3.000000 -15.000000 124.882721 -18.989531 1345.377888 147.463345 21.120652 0.000000 0.043860
55.000000 45.697000 8.000000 3.000000 -15.000000 121.998818 -25.679324 1492.507190 194.786643 21.873203 0.000000 0.021741
58.000000 49.939000 1.000000 4.000000 -15.000000 130.637785 34.745772 228.465729 -183.181619 20.012674 0.000000 0.140608
59.000000 50.715000 2.000000 4.000000 -15.000000 133.653157 26.022091 449.542405 -201.686886 19.705802 0.000000 0.081177
60.000000 51.037000 3.000000 4.000000 -15.000000 135.600362 16.343651 659.379240 -204.372554 19.580933 0.000000 0.041486
61.000000 50.899000 4.000000 4.000000 -15.000000 136.323548 6.161319 858.812157 -192.753706 19.633820 0.000000 0.022270
62.000000 50.319000 5.000000 4.000000 -15.000000 135.795520 -3.911753 1048.596193 -168.188623 19.860346 0.000000 0.021150
63.000000 49.336000 6.000000 4.000000 -15.000000 134.130782 -13.299489 1229.415052 -131.897682 20.256522 0.000000 0.025615
64.000000 48.006000 7.000000 4.000000 -15.000000 131.544106 -21.634704 1401.889332 -84.979623 20.818480 0.000000 0.035635
65.000000 46.394000 8.000000 4.000000 -15.000000 128.285117 -28.795334 1566.583644 -28.425596 21.542467 0.000000 0.056107
73.000000 48.283000 7.000000 5.000000 -15.000000 137.887876 -24.936776 1475.439096 -372.064185 20.697232 0.000000 0.095540
81.000000 45.504000 2.000000 -1.000000 -14.000000 96.264766 16.025676 665.855538 818.068535 21.976683 0.000000 0.148858
82.000000 45.831000 3.000000 -1.000000 -14.000000 97.420025 9.656331 791.869828 798.816743 21.819971 0.000000 0.161366
83.000000 45.651000 4.000000 -1.000000 -14.000000 97.859525 3.244136 913.994095 792.188238 21.905583 0.000000 0.167848
84.000000 46.228000 0.000000 0.000000 -4.000000 99.701401 30.200022 348.581218 728.103043 6.180150 0.000000 0.084754
85.000000 47.576000 1.000000 0.000000 -14.000000 102.422710 23.924924 497.491780 681.628246 21.016820 0.000000 0.109225
86.000000 48.429000 2.000000 0.000000 -14.000000 104.456929 17.231265 641.187572 650.474721 20.646288 0.000000 0.132016
87.000000 48.746000 3.000000 0.000000 -14.000000 105.704624 10.272498 779.937808 633.443691 20.511562 0.000000 0.148054
88.000000 48.524000 4.000000 0.000000 -14.000000 106.120184 3.244168 913.993484 629.433531 20.605568 0.000000 0.156420
89.000000 47.791000 5.000000 0.000000 -14.000000 105.720811 -3.646351 1043.588894 637.430914 20.921511 0.000000 0.157357
90.000000 46.608000 6.000000 0.000000 -14.000000 104.581760 -10.214803 1168.942997 656.502859 21.452863 0.000000 0.151555
91.000000 46.758000 -1.000000 1.000000 -14.000000 103.678046 38.795121 109.788059 604.923129 21.383104 0.000000 0.064739
92.000000 48.591000 0.000000 1.000000 -14.000000 107.320640 32.714612 283.643678 542.064291 20.575726 0.000000 0.040916
93.000000 49.975000 1.000000 1.000000 -14.000000 110.356784 25.976400 450.604873 496.775598 20.004794 0.000000 0.070138
94.000000 50.842000 2.000000 1.000000 -14.000000 112.619781 18.681882 611.073778 467.603408 19.663449 0.000000 0.100209
95.000000 51.149000 3.000000 1.000000 -14.000000 113.981751 11.018862 765.421851 453.221087 19.545096 0.000000 0.120921
96.000000 50.892000 4.000000 1.000000 -14.000000 114.381096 3.244208 913.992743 452.416371 19.643388 0.000000 0.131737
97.000000 50.105000 5.000000 1.000000 -14.000000 113.837239 -4.362346 1057.104849 464.080166 19.952219 0.000000 0.133320
98.000000 48.849000 6.000000 1.000000 -14.000000 112.445006 -11.555148 1195.053594 487.196602 20.465709 0.000000 0.126637
99.000000 47.207000 7.000000 1.000000 -14.000000 110.351275 -18.163765 1328.113459 520.834171 21.178196 0.000000 0.112915
100.000000 46.334000 -1.000000 1.000000 -7.000000 106.218674 47.640749 -205.377452 476.346544 10.788666 0.000000 0.209448
101.000000 48.557000 -1.000000 2.000000 -14.000000 110.699414 42.085125 3.000940 393.017516 20.588311 0.000000 0.115821
102.000000 50.413000 0.000000 1.000000 -7.000000 114.738159 35.691197 201.854836 330.405117 9.914670 0.000000 0.041820
103.000000 51.809000 1.000000 2.000000 -14.000000 118.125930 28.450526 391.822659 286.660950 19.294017 0.000000 0.014582
104.000000 52.675000 1.000000 1.000000 -7.000000 120.656046 20.458096 573.487022 260.114731 9.488091 0.000000 0.055156
105.000000 52.971000 3.000000 2.000000 -14.000000 122.161780 11.941205 747.380695 249.254502 18.869891 0.000000 0.081525
106.000000 52.693000 2.000000 1.000000 -7.000000 122.557234 3.244256 913.991826 252.709376 9.484711 0.000000 0.095132
107.000000 51.874000 5.000000 2.000000 -14.000000 121.862405 -5.243188 1073.768512 269.234440 19.269255 0.000000 0.097300
108.000000 50.576000 3.000000 1.000000 -7.000000 120.197171 -13.183867 1227.122828 297.697502 9.882032 0.000000 0.089270
109.000000 48.884000 7.000000 2.000000 -14.000000 117.747199 -20.360899 1374.434375 337.067450 20.448712 0.000000 0.072345
110.000000 46.893000 4.000000 1.000000 -7.000000 114.720619 -26.688688 1516.053416 386.403980 10.659119 0.000000 0.048504
112.000000 49.819000 -1.000000 3.000000 -14.000000 117.380041 45.921604 -136.487858 139.693548 20.064300 0.000000 0.222838
113.000000 51.664000 0.000000 3.000000 -14.000000 121.841115 39.248510 95.677348 77.889701 19.346642 0.000000 0.131916
114.000000 53.048000 1.000000 3.000000 -14.000000 125.622717 31.480077 315.960690 36.711835 18.841190 0.000000 0.065569
115.000000 53.901000 2.000000 3.000000 -14.000000 128.468949 22.678467 525.251553 14.169092 18.542372 0.000000 0.030676
116.000000 54.185000 3.000000 3.000000 -14.000000 130.158939 13.109380 724.352720 8.479603 18.444812 0.000000 0.038289
117.000000 53.897000 4.000000 3.000000 -14.000000 130.568682 3.244318 913.990661 18.045015 18.543316 0.000000 0.050740
118.000000 53.069000 5.000000 3.000000 -14.000000 129.715473 -6.352609 1094.824392 41.428608 18.832869 0.000000 0.052860
119.000000 51.763000 6.000000 3.000000 -14.000000 127.752915 -15.201509 1267.453125 77.336408 19.308626 0.000000 0.043971
120.000000 50.061000 7.000000 3.000000 -14.000000 124.918782 -23.025394 1432.422902 124.600855 19.965904 0.000000 0.026014
121.000000 48.055000 8.000000 3.000000 -14.000000 121.470706 -29.753190 1590.232364 182.166607 20.800174 0.000000 0.016842
122.000000 45.838000 9.000000 3.000000 -14.000000 117.640604 -35.451441 1741.337788 249.078187 21.807058 0.000000 0.048666
126.000000 54.527000 1.000000 2.000000 -7.000000 135.963567 25.523360 461.095210 -292.495179 9.163775 0.000000 0.094511
127.000000 54.799000 3.000000 4.000000 -14.000000 137.894753 14.635271 693.938701 -289.876455 18.236118 0.000000 0.045297
128.000000 54.513000 2.000000 2.000000 -7.000000 138.345026 3.244399 913.989134 -270.861574 9.165954 0.000000 0.014401
129.000000 53.698000 5.000000 4.000000 -14.000000 137.322350 -7.791570 1122.272647 -237.159217 18.610343 0.000000 0.017387
130.000000 52.413000 3.000000 2.000000 -7.000000 135.028888 -17.758883 1319.708495 -190.287690 9.533496 0.000000 0.037235
131.000000 50.737000 7.000000 4.000000 -14.000000 131.775945 -26.307908 1507.122610 -131.599570 19.697566 0.000000 0.062619
132.000000 48.758000 4.000000 2.000000 -7.000000 127.884339 -33.421286 1685.259151 -62.302663 10.248959 0.000000 0.096220
133.000000 46.566000 9.000000 4.000000 -14.000000 123.625234 -39.263440 1854.790382 16.522093 21.464025 0.000000 0.138824
144.000000 46.473000 0.000000 -1.000000 -13.000000 91.395532 27.903578 405.045456 911.330429 21.519888 0.000000 0.114208
145.000000 47.942000 1.000000 -1.000000 -13.000000 93.976583 21.616839 548.498995 860.519895 20.860029 0.000000 0.133852
146.000000 48.832000 2.000000 -1.000000 -13.000000 95.858089 14.976671 687.077468 826.688403 20.479274 0.000000 0.151785
147.000000 49.098000 3.000000 -1.000000 -13.000000 96.949956 8.141498 821.025233 808.466048 20.367966 0.000000 0.163810
148.000000 48.742000 4.000000 -1.000000 -13.000000 97.221013 1.300260 950.570583 804.596248 20.516889 0.000000 0.168914
149.000000 47.809000 5.000000 -1.000000 -13.000000 96.704419 -5.357116 1075.927049 813.925287 20.917242 0.000000 0.167267
150.000000 46.383000 6.000000 -1.000000 -13.000000 95.488861 -11.669612 1197.294570 835.392952 21.560619 0.000000 0.159631
151.000000 47.773000 -2.000000 1.000000 -13.000000 99.465957 45.215106 -109.406249 686.257577 20.930086 0.000000 0.152200
152.000000 50.355000 -1.000000 1.000000 -13.000000 103.925130 39.471734 88.662891 595.302756 19.855742 0.000000 0.070708
153.000000 52.501000 0.000000 1.000000 -13.000000 107.899801 32.925844 278.025155 526.847158 19.043134 0.000000 0.037241
154.000000 54.086000 1.000000 1.000000 -13.000000 111.166832 25.603631 459.242313 478.870885 18.484047 0.000000 0.069028
155.000000 55.018000 2.000000 1.000000 -13.000000 113.516471 17.636293 632.828822 449.547188 18.170603 0.000000 0.101079
156.000000 55.246000 3.000000 1.000000 -13.000000 114.794573 9.273731 799.256709 437.221394 18.095251 0.000000 0.121712
157.000000 54.775000 4.000000 1.000000 -13.000000 114.941715 0.853823 958.959855 440.392462 18.250743 0.000000 0.130777
158.000000 53.661000 5.000000 1.000000 -13.000000 114.009723 -7.271784 1112.337771 457.696792 18.630124 0.000000 0.129282
159.000000 51.997000 6.000000 1.000000 -13.000000 112.145526 -14.819391 1259.758937 487.893974 19.226715 0.000000 0.118557
160.000000 49.903000 7.000000 1.000000 -13.000000 109.551343 -21.619726 1401.563757 529.854221 20.034101 0.000000 0.100401
161.000000 47.506000 8.000000 1.000000 -13.000000 106.441325 -27.616475 1538.067183 582.547261 21.046115 0.000000 0.078127
163.000000 49.747000 -2.000000 2.000000 -13.000000 106.481782 48.997749 -263.036700 455.637763 20.096952 0.000000 0.242498
164.000000 52.368000 -1.000000 2.000000 -13.000000 111.415707 43.096143 -32.042480 362.897101 19.089879 0.000000 0.135793
165.000000 54.538000 0.000000 2.000000 -13.000000 115.854257 36.197293 187.349761 294.696937 18.328991 0.000000 0.053020
166.000000 56.134000 1.000000 2.000000 -13.000000 119.531288 28.278641 395.992698 248.657611 17.806975 0.000000 0.011136
167.000000 57.063000 2.000000 2.000000 -13.000000 122.181913 19.462469 594.657445 222.649122 17.516806 0.000000 0.052715
168.000000 57.274000 3.000000 2.000000 -13.000000 123.599391 10.060766 784.043086 214.760935 17.451729 0.000000 0.079002
169.000000 56.775000 4.000000 2.000000 -13.000000 123.696044 0.543778 964.784888 223.275974 17.605252 0.000000 0.090515
170.000000 55.620000 5.000000 2.000000 -13.000000 122.534037 -8.583721 1137.461424 246.648152 17.971129 0.000000 0.088851
171.000000 53.905000 6.000000 2.000000 -13.000000 120.303511 -16.929118 1302.600758 283.482897 18.543349 0.000000 0.075553
172.000000 51.751000 7.000000 2.000000 -13.000000 117.262475 -24.287632 1460.685840 332.520211 19.316127 0.000000 0.052359
173.000000 49.284000 8.000000 2.000000 -13.000000 113.674578 -30.625257 1612.159223 392.619902 20.283891 0.000000 0.024110
174.000000 46.626000 9.000000 2.000000 -13.000000 109.769180 -36.015802 1757.427197 462.748665 21.441275 0.000000 0.033133
177.000000 55.862000 0.000000 3.000000 -13.000000 123.423448 40.167140 66.518386 11.467157 17.892368 0.000000 0.157810
178.000000 57.437000 1.000000 3.000000 -13.000000 127.564912 31.621338 312.306676 -31.140686 17.401035 0.000000 0.081760
179.000000 58.346000 2.000000 3.000000 -13.000000 130.580041 21.800878 544.493867 -51.854424 17.129264 0.000000 0.037307
180.000000 58.544000 3.000000 3.000000 -13.000000 132.185619 11.082618 764.178522 -52.968412 17.070979 0.000000 0.033825
181.000000 58.036000 4.000000 3.000000 -13.000000 132.246436 0.141390 972.343998 -36.517677 17.220328 0.000000 0.042053
182.000000 56.877000 5.000000 3.000000 -13.000000 130.835233 -10.262755 1169.873162 -4.311866 17.571668 0.000000 0.040479
183.000000 55.159000 6.000000 3.000000 -13.000000 128.202869 -19.567383 1357.560907 42.035917 18.119562 0.000000 0.028993
184.000000 52.999000 7.000000 3.000000 -13.000000 124.682509 -27.535234 1536.124844 101.084522 18.858764 0.000000 0.023933
185.000000 50.523000 8.000000 3.000000 -13.000000 120.597954 -34.191465 1706.214472 171.543703 19.784215 0.000000 0.052125
186.000000 47.849000 9.000000 3.000000 -13.000000 116.215006 -39.695662 1868.419070 252.256022 20.891031 0.000000 0.097643
190.000000 59.076000 3.000000 4.000000 -13.000000 140.461235 12.461729 737.145444 -394.310448 16.915422 0.000000 0.047519
191.000000 58.579000 4.000000 4.000000 -13.000000 140.507638 -0.401749 982.546936 -365.036153 17.059029 0.000000 0.002947
192.000000 57.448000 5.000000 4.000000 -13.000000 138.817803 -12.483437 1213.282283 -319.000354 17.395265 0.000000 0.032850
193.000000 55.770000 6.000000 4.000000 -13.000000 135.734599 -22.944418 1430.628097 -258.123475 17.919183 0.000000 0.067287
194.000000 53.656000 7.000000 4.000000 -13.000000 131.696894 -31.544989 1635.717003 -184.094123 18.626007 0.000000 0.106415
195.000000 51.225000 8.000000 4.000000 -13.000000 127.100871 -38.448913 1829.557385 -98.401495 19.511119 0.000000 0.153482
196.000000 48.591000 9.000000 4.000000 -13.000000 122.247017 -43.963745 2013.049963 -2.362567 20.570056 0.000000 0.209513
207.000000 45.533000 0.000000 -1.000000 -6.000000 81.739541 25.650711 458.154424 1114.338382 10.984110 0.000000 0.125706
208.000000 47.096000 1.000000 -2.000000 -12.000000 84.152118 19.373989 596.526073 1057.851716 21.238838 0.000000 0.138819
209.000000 48.003000 1.000000 -1.000000 -6.000000 85.873930 12.807162 730.330460 1020.622876 10.418572 0.000000 0.151826
210.000000 48.204000 3.000000 -2.000000 -12.000000 86.826055 6.109857 859.790043 1001.024186 20.749930 0.000000 0.160183
211.000000 47.710000 2.000000 -1.000000 -6.000000 86.991544 -0.538346 985.113064 997.567975 10.482345 0.000000 0.162560
212.000000 46.589000 5.000000 -2.000000 -12.000000 86.417103 -6.965508 1106.494664 1008.893251 21.469569 0.000000 0.159074
213.000000 47.713000 -1.000000 -1.000000 -12.000000 87.304547 33.983929 249.469497 1002.108887 20.961829 0.000000 0.107243
214.000000 50.022000 0.000000 -1.000000 -12.000000 90.702618 27.728658 409.245965 926.088299 19.993404 0.000000 0.115806
215.000000 51.710000 1.000000 -1.000000 -12.000000 93.441815 20.942158 563.095505 871.689506 19.340174 0.000000 0.136520
216.000000 52.662000 2.000000 -1.000000 -12.000000 95.360176 13.764593 711.341903 837.029071 18.990149 0.000000 0.154825
217.000000 52.823000 3.000000 -1.000000 -12.000000 96.354254 6.399394 854.285780 820.392836 18.931937 0.000000 0.166066
218.000000 52.209000 4.000000 -1.000000 -12.000000 96.402096 -0.915905 992.206632 820.218954 19.154712 0.000000 0.169324
219.000000 50.898000 5.000000 -1.000000 -12.000000 95.566614 -7.953082 1125.364648 835.082827 19.648175 0.000000 0.165039
220.000000 49.017000 6.000000 -1.000000 -12.000000 93.977788 -14.532614 1254.002356 863.683719 20.402525 0.000000 0.154393
221.000000 46.716000 7.000000 -1.000000 -12.000000 91.802298 -20.543711 1378.346089 904.832824 21.408430 0.000000 0.139384
222.000000 48.508000 -1.000000 0.000000 -6.000000 91.457762 42.775976 -20.821491 903.684946 10.307974 0.000000 0.132009
223.000000 51.475000 -1.000000 0.000000 -12.000000 95.838430 36.866656 167.874438 803.436605 19.426394 0.000000 0.080151
224.000000 55.713000 1.000000 0.000000 -12.000000 102.812696 22.834909 521.795708 675.405658 17.947183 0.000000 0.113373
225.000000 56.694000 1.000000 0.000000 -6.000000 104.963720 14.932103 687.974402 643.284856 8.818086 0.000000 0.138198
226.000000 56.818000 1.000000 0.000000 -4.000000 106.016831 6.753923 847.537447 629.876307 5.865830 0.000000 0.153195
227.000000 56.104000 2.000000 0.000000 -6.000000 105.940889 -1.377023 1000.872191 633.490111 8.910834 0.000000 0.157834
228.000000 54.639000 5.000000 0.000000 -12.000000 104.818377 -9.148881 1148.336321 652.592482 18.299670 0.000000 0.152952
229.000000 52.563000 2.000000 0.000000 -4.000000 102.819827 -16.325997 1290.260651 685.789598 6.340957 0.000000 0.140037
230.000000 50.039000 7.000000 0.000000 -12.000000 100.159585 -22.778242 1426.951595 731.813343 19.983035 0.000000 0.121471
231.000000 47.231000 4.000000 0.000000 -6.000000 97.053301 -28.471758 1558.693382 789.508681 10.586142 0.000000 0.101748
232.000000 48.013000 -3.000000 1.000000 -12.000000 94.070179 51.636474 -384.722694 817.602202 20.827018 0.000000 0.296990
233.000000 51.454000 -2.000000 1.000000 -12.000000 99.281699 46.393877 -154.978522 685.964849 19.432680 0.000000 0.173807
234.000000 54.542000 -1.000000 1.000000 -12.000000 104.202515 40.262786 63.437231 584.036573 18.331175 0.000000 0.079111
235.000000 57.089000 0.000000 1.000000 -12.000000 108.573914 33.175783 271.342292 508.897883 17.512488 0.000000 0.033098
236.000000 58.921000 1.000000 1.000000 -12.000000 112.109024 25.158879 469.477535 457.937788 16.967054 0.000000 0.067727
237.000000 59.913000 2.000000 1.000000 -12.000000 114.538981 16.385966 658.515800 428.816537 16.685735 0.000000 0.101884
238.000000 60.005000 3.000000 1.000000 -12.000000 115.677112 7.198055 839.069533 419.433483 16.659797 0.000000 0.122018
239.000000 59.220000 4.000000 1.000000 -12.000000 115.475565 -1.952805 1011.697408 427.899297 16.880885 0.000000 0.128538
240.000000 57.650000 5.000000 1.000000 -12.000000 114.040676 -10.625051 1176.910104 452.511850 17.341006 0.000000 0.122921
241.000000 55.441000 6.000000 1.000000 -12.000000 111.595725 -18.502505 1335.175351 491.735237 18.032508 0.000000 0.107060
242.000000 52.764000 7.000000 1.000000 -12.000000 108.415033 -25.437358 1486.922351 544.181470 18.948061 0.000000 0.083930
243.000000 49.791000 8.000000 1.000000 -12.000000 104.764597 -31.422211 1632.545666 608.594458 20.080643 0.000000 0.061093
244.000000 46.672000 9.000000 1.000000 -12.000000 100.867674 -36.534136 1772.408642 683.835954 21.423521 0.000000 0.060253
246.000000 53.674000 -1.000000 1.000000 -6.000000 106.746955 50.574064 -334.093460 431.040131 9.313150 0.000000 0.284856
247.000000 56.805000 -1.000000 2.000000 -12.000000 112.224911 44.291367 -74.995051 326.617775 17.598383 0.000000 0.161262
248.000000 59.376000 0.000000 1.000000 -6.000000 117.146411 36.805694 169.662186 251.743590 8.417611 0.000000 0.067549
249.000000 61.216000 1.000000 2.000000 -12.000000 121.165825 28.069317 401.052862 203.278586 16.328381 0.000000 0.012779
250.000000 62.199000 1.000000 1.000000 -6.000000 123.936110 18.243461 620.227564 178.445317 8.034889 0.000000 0.049814
251.000000 62.269000 3.000000 2.000000 -12.000000 125.197942 7.770591 828.128803 174.779873 16.051665 0.000000 0.075274
252.000000 61.446000 2.000000 1.000000 -6.000000 124.873025 -2.691916 1025.604561 190.091169 8.133308 0.000000 0.083617
253.000000 59.826000 5.000000 2.000000 -12.000000 123.097729 -12.490418 1213.419858 222.426306 16.707507 0.000000 0.076660
254.000000 57.555000 3.000000 1.000000 -6.000000 120.167068 -21.190727 1392.266648 270.040963 8.683749 0.000000 0.056300
255.000000 54.804000 7.000000 2.000000 -12.000000 116.432618 -28.639284 1562.772345 331.374002 18.240029 0.000000 0.025175
256.000000 51.747000 4.000000 1.000000 -6.000000 112.218952 -34.888321 1725.507171 405.025603 9.659396 0.000000 0.023978
257.000000 48.537000 9.000000 2.000000 -12.000000 107.784172 -40.089614 1880.990532 489.738392 20.597731 0.000000 0.074685
260.000000 62.560000 1.000000 3.000000 -12.000000 129.814303 31.797635 307.730782 -114.623751 15.975327 0.000000 0.101228
261.000000 63.517000 2.000000 3.000000 -12.000000 133.009139 20.693578 568.440128 -132.222042 15.734147 0.000000 0.045589
262.000000 62.748000 4.000000 3.000000 -12.000000 134.009373 -3.674946 1044.128242 -100.847946 15.927029 0.000000 0.030807
263.000000 61.133000 5.000000 3.000000 -12.000000 131.856345 -14.916163 1261.704902 -56.848395 16.348052 0.000000 0.028580
264.000000 58.870000 2.000000 1.000000 -4.000000 128.392381 -24.577847 1467.262714 3.205680 5.659061 0.000000 0.031283
265.000000 56.125000 7.000000 3.000000 -12.000000 124.071491 -32.541471 1661.770787 77.508610 17.808512 0.000000 0.058691
266.000000 53.066000 8.000000 3.000000 -12.000000 119.284755 -38.984913 1846.096766 164.462455 18.836344 0.000000 0.104969
267.000000 49.844000 3.000000 1.000000 -4.000000 114.321818 -44.182739 2021.019776 262.649664 6.685066 0.000000 0.163925
268.000000 46.585000 10.000000 3.000000 -12.000000 109.378413 -48.399578 2187.241429 370.809866 21.459797 0.000000 0.232936
272.000000 61.602000 5.000000 4.000000 -12.000000 140.187968 -18.185092 1328.557262 -418.141720 16.221704 0.000000 0.065851
282.000000 45.539000 3.000000 -3.000000 -11.000000 75.231372 4.175543 896.423766 1225.493995 21.969119 0.000000 0.126712
283.000000 46.237000 -1.000000 -2.000000 -11.000000 76.932733 31.613401 312.512272 1234.344481 21.635305 0.000000 0.125695
284.000000 48.732000 0.000000 -2.000000 -11.000000 80.125286 25.308346 466.046201 1148.245349 20.526707 0.000000 0.125531
285.000000 50.528000 1.000000 -2.000000 -11.000000 82.665695 18.538964 614.062915 1087.113698 19.796628 0.000000 0.138350
286.000000 51.486000 2.000000 -2.000000 -11.000000 84.400941 11.457611 756.854557 1048.659171 19.428012 0.000000 0.151046
287.000000 51.547000 3.000000 -2.000000 -11.000000 85.243417 4.267180 894.692999 1030.806630 19.404809 0.000000 0.158299
288.000000 50.744000 4.000000 -2.000000 -11.000000 85.190179 -2.810197 1027.831575 1031.673780 19.711908 0.000000 0.158779
289.000000 49.190000 5.000000 -2.000000 -11.000000 84.320478 -9.572314 1156.506632 1049.551375 20.335066 0.000000 0.152955
290.000000 47.049000 6.000000 -2.000000 -11.000000 82.773201 -15.867913 1280.938931 1082.885690 21.260848 0.000000 0.142489
291.000000 48.052000 -2.000000 -1.000000 -11.000000 81.971353 40.332129 61.197972 1140.148626 20.815450 0.000000 0.143966
292.000000 51.390000 -1.000000 -1.000000 -11.000000 86.194808 34.280527 241.337725 1027.634681 19.462218 0.000000 0.109933
293.000000 54.147000 0.000000 -1.000000 -11.000000 89.884010 27.524915 414.121674 943.456968 18.470555 0.000000 0.117531
294.000000 56.106000 1.000000 -1.000000 -11.000000 92.799788 20.153542 579.991353 884.931504 17.825183 0.000000 0.139385
295.000000 57.109000 2.000000 -1.000000 -11.000000 94.740185 12.349602 739.353652 849.638446 17.511673 0.000000 0.157910
296.000000 57.093000 3.000000 -1.000000 -11.000000 95.587718 4.378806 892.584148 835.393086 17.516387 0.000000 0.167939
297.000000 56.100000 4.000000 -1.000000 -11.000000 95.339653 -3.457627 1040.030063 840.220415 17.826423 0.000000 0.168736
298.000000 54.265000 5.000000 -1.000000 -11.000000 94.105378 -10.887232 1182.012888 862.332773 18.429570 0.000000 0.161167
299.000000 51.781000 6.000000 -1.000000 -11.000000 92.072603 -17.716493 1318.830724 900.110162 19.314255 0.000000 0.147129
300.000000 48.860000 7.000000 -1.000000 -11.000000 89.460396 -23.847134 1450.760370 952.082873 20.469511 0.000000 0.129994
301.000000 45.702000 8.000000 -1.000000 -11.000000 86.478812 -29.262376 1578.059195 1016.916120 21.884930 0.000000 0.115939
304.000000 55.724000 -2.000000 1.000000 -11.000000 99.035827 47.767196 -210.622355 686.355057 17.943558 0.000000 0.201644
305.000000 59.477000 -1.000000 1.000000 -11.000000 104.515198 41.199600 32.788873 570.657093 16.810124 0.000000 0.090784
306.000000 62.546000 0.000000 1.000000 -11.000000 109.368302 33.476130 263.261014 487.401193 15.984283 0.000000 0.028619
307.000000 64.686000 1.000000 1.000000 -11.000000 113.218156 24.619138 481.799067 433.128921 15.454760 0.000000 0.066179
308.000000 65.721000 2.000000 1.000000 -11.000000 115.712597 14.865873 689.306577 404.775131 15.210827 0.000000 0.102514
309.000000 65.585000 3.000000 1.000000 -11.000000 116.625447 4.695472 886.598126 399.616996 15.242265 0.000000 0.121491
310.000000 64.332000 4.000000 1.000000 -11.000000 115.939644 -5.277051 1074.410013 415.230556 15.539340 0.000000 0.124311
311.000000 62.121000 5.000000 1.000000 -11.000000 113.852596 -14.503034 1253.409440 449.453542 16.092768 0.000000 0.113133
312.000000 59.179000 6.000000 1.000000 -11.000000 110.697798 -22.653717 1424.202435 500.353462 16.893696 0.000000 0.090859
313.000000 55.750000 7.000000 1.000000 -11.000000 106.839728 -29.637031 1587.340700 566.200098 17.933671 0.000000 0.063712
314.000000 52.063000 8.000000 1.000000 -11.000000 102.598650 -35.521669 1743.327569 645.441740 19.204622 0.000000 0.053761
315.000000 48.308000 9.000000 1.000000 -11.000000 98.219906 -40.450130 1892.623194 736.684585 20.698839 0.000000 0.087350
318.000000 62.031000 -1.000000 2.000000 -11.000000 113.143720 45.724793 -128.874960 282.003030 16.115497 0.000000 0.194434
319.000000 65.121000 0.000000 2.000000 -11.000000 118.658807 37.550717 147.615661 199.024652 15.349603 0.000000 0.086349
320.000000 67.262000 1.000000 2.000000 -11.000000 123.089629 27.808838 407.322211 148.074408 14.860228 0.000000 0.020609
321.000000 68.281000 2.000000 2.000000 -11.000000 125.969413 16.717985 651.727959 125.431722 14.637976 0.000000 0.046296
322.000000 68.113000 3.000000 2.000000 -11.000000 126.969571 4.930788 882.146399 127.840613 14.673870 0.000000 0.069697
323.000000 66.814000 4.000000 2.000000 -11.000000 126.046653 -6.611208 1099.744867 152.442981 14.959334 0.000000 0.073304
324.000000 64.544000 5.000000 2.000000 -11.000000 123.466405 -17.073393 1305.564315 196.722872 15.486164 0.000000 0.058982
325.000000 61.526000 6.000000 2.000000 -11.000000 119.676809 -26.025461 1500.535970 258.459667 16.246513 0.000000 0.028977
326.000000 58.008000 7.000000 2.000000 -11.000000 115.143423 -33.430047 1685.495419 335.688592 17.232872 0.000000 0.015269
327.000000 54.220000 8.000000 2.000000 -11.000000 110.249673 -39.467212 1861.194576 426.667261 18.438049 0.000000 0.070843
328.000000 50.354000 9.000000 2.000000 -11.000000 105.270701 -44.381697 2028.311906 529.847208 19.855154 0.000000 0.137035
329.000000 46.554000 10.000000 2.000000 -11.000000 100.386127 -48.404734 2187.461172 643.849567 21.477583 0.000000 0.212315
332.000000 68.605000 1.000000 3.000000 -11.000000 132.447719 32.023842 301.833772 -220.128609 14.567271 0.000000 0.124912
333.000000 69.588000 2.000000 3.000000 -11.000000 135.827450 19.254071 599.055408 -232.476881 14.360970 0.000000 0.054926
334.000000 69.410000 3.000000 3.000000 -11.000000 136.980779 5.257115 875.967671 -217.280541 14.397687 0.000000 0.019937
335.000000 68.123000 4.000000 3.000000 -11.000000 135.805152 -8.433867 1134.583422 -178.078757 14.669803 0.000000 0.020846
336.000000 65.879000 5.000000 3.000000 -11.000000 132.668861 -20.464874 1376.658036 -117.925570 15.170016 0.000000 0.036588
337.000000 62.893000 6.000000 3.000000 -11.000000 128.188201 -30.291813 1603.729299 -39.466667 15.891322 0.000000 0.067818
338.000000 59.399000 7.000000 3.000000 -11.000000 122.956173 -38.041524 1817.150107 54.997790 16.827003 0.000000 0.116282
339.000000 55.623000 8.000000 3.000000 -11.000000 117.418605 -44.103122 2018.115443 163.461409 17.970607 0.000000 0.179670
340.000000 51.753000 9.000000 3.000000 -11.000000 111.869504 -48.874808 2207.684764 284.168704 19.315942 0.000000 0.255588
351.000000 47.053000 1.000000 -3.000000 -10.000000 70.130628 16.218113 661.938604 1346.082556 21.263805 0.000000 0.106653
352.000000 47.988000 2.000000 -3.000000 -10.000000 71.691370 9.253147 799.653656 1301.825382 20.849565 0.000000 0.110442
353.000000 47.965000 3.000000 -3.000000 -10.000000 72.432687 2.248972 932.731620 1282.007629 20.859136 0.000000 0.113563
354.000000 47.039000 4.000000 -3.000000 -10.000000 72.366576 -4.589752 1061.402825 1284.212436 21.269929 0.000000 0.113088
355.000000 45.747000 -1.000000 -1.000000 -5.000000 70.796547 37.892437 137.355920 1416.031176 10.934168 0.000000 0.168374
356.000000 49.364000 -1.000000 -2.000000 -10.000000 74.759087 31.723522 309.656558 1285.756336 20.265476 0.000000 0.128793
357.000000 52.348000 0.000000 -1.000000 -5.000000 78.197170 24.910416 475.162982 1188.974792 9.554896 0.000000 0.124630
358.000000 54.429000 1.000000 -2.000000 -10.000000 80.875461 17.566623 634.269290 1122.322937 18.378436 0.000000 0.136712
359.000000 55.419000 1.000000 -1.000000 -5.000000 82.605641 9.890541 787.339679 1082.785737 9.025045 0.000000 0.148799
360.000000 55.251000 3.000000 -2.000000 -10.000000 83.293038 2.143744 934.711225 1067.656744 18.104843 0.000000 0.154537
361.000000 54.001000 2.000000 -1.000000 -5.000000 82.960204 -5.397710 1076.696366 1074.503214 9.262035 0.000000 0.152681
362.000000 51.856000 5.000000 -2.000000 -10.000000 81.735129 -12.498803 1213.585112 1101.135600 19.290335 0.000000 0.144345
363.000000 49.067000 3.000000 -1.000000 -5.000000 79.811533 -19.002340 1345.647017 1145.580837 10.193650 0.000000 0.132522
364.000000 45.889000 7.000000 -2.000000 -10.000000 77.401786 -24.835750 1473.132959 1206.058867 21.799636 0.000000 0.122741
365.000000 47.090000 -3.000000 -1.000000 -10.000000 75.268167 46.803721 -171.286185 1354.440255 21.242096 0.000000 0.251234
366.000000 51.570000 -2.000000 -1.000000 -10.000000 80.224855 41.135462 34.914941 1187.200554 19.395787 0.000000 0.157075
367.000000 55.651000 -1.000000 -1.000000 -10.000000 84.868676 34.627475 231.752320 1058.455420 17.972632 0.000000 0.113356
368.000000 58.997000 0.000000 -1.000000 -10.000000 88.902249 27.284591 419.849614 964.205474 16.952525 0.000000 0.119373
369.000000 61.294000 1.000000 -1.000000 -10.000000 92.015566 19.219861 599.776301 900.886363 16.316615 0.000000 0.142415
370.000000 62.322000 2.000000 -1.000000 -10.000000 93.952934 10.678341 772.053441 865.315940 16.047210 0.000000 0.160910
371.000000 62.010000 3.000000 -1.000000 -10.000000 94.584209 2.013626 937.158707 854.648634 16.127684 0.000000 0.169119
372.000000 60.456000 4.000000 -1.000000 -10.000000 93.943760 -6.389752 1095.530813 866.335904 16.542406 0.000000 0.166645
373.000000 57.888000 5.000000 -1.000000 -10.000000 92.213177 -14.211461 1247.573408 898.091898 17.276660 0.000000 0.155075
374.000000 54.603000 6.000000 -1.000000 -10.000000 89.659483 -21.255112 1393.658505 947.863531 18.316582 0.000000 0.137653
375.000000 50.902000 7.000000 -1.000000 -10.000000 86.564833 -27.451652 1534.129526 1013.804381 19.649097 0.000000 0.120582
376.000000 47.043000 8.000000 -1.000000 -10.000000 83.176854 -32.825557 1669.303994 1094.251833 21.261868 0.000000 0.114946
378.000000 51.777000 -3.000000 0.000000 -10.000000 83.911781 50.715983 -340.723287 1122.309544 19.316368 0.000000 0.294068
379.000000 56.662000 -2.000000 0.000000 -10.000000 89.611173 44.929705 -98.656559 951.317008 17.649447 0.000000 0.165121
380.000000 61.100000 -1.000000 0.000000 -10.000000 94.996255 38.109442 130.791043 821.416028 16.366381 0.000000 0.086093
381.000000 67.171000 1.000000 0.000000 -10.000000 103.325433 21.290297 555.580367 667.397701 14.885604 0.000000 0.118989
382.000000 68.217000 2.000000 0.000000 -10.000000 105.521083 11.676469 752.571108 635.774300 14.657133 0.000000 0.145456
383.000000 67.783000 3.000000 0.000000 -10.000000 106.103855 1.848603 940.262168 630.103369 14.750867 0.000000 0.157185
384.000000 65.983000 4.000000 0.000000 -10.000000 105.119351 -7.636012 1119.296899 647.601721 15.153486 0.000000 0.154628
385.000000 59.395000 6.000000 0.000000 -10.000000 99.567463 -23.977341 1453.687157 742.453785 16.835670 0.000000 0.117413
386.000000 55.273000 7.000000 0.000000 -10.000000 95.729459 -30.542598 1610.064108 815.615767 18.092026 0.000000 0.095390
387.000000 50.995000 8.000000 0.000000 -10.000000 91.612381 -36.099678 1759.838007 903.504157 19.610763 0.000000 0.092636
388.000000 46.774000 9.000000 0.000000 -10.000000 87.440812 -40.781268 1903.418430 1004.530751 21.381733 0.000000 0.124095
391.000000 60.728000 -2.000000 1.000000 -10.000000 98.702524 49.385503 -280.091265 687.922866 16.465086 0.000000 0.238341
392.000000 65.374000 -1.000000 1.000000 -10.000000 104.868747 42.325875 -5.241317 554.498242 15.293580 0.000000 0.106949
393.000000 69.141000 0.000000 1.000000 -10.000000 110.318111 33.843821 253.291092 461.178261 14.459198 0.000000 0.024450
394.000000 71.669000 1.000000 1.000000 -10.000000 114.542199 23.950476 496.917199 403.244233 13.948454 0.000000 0.064304
395.000000 72.709000 2.000000 1.000000 -10.000000 117.067821 12.981188 726.890068 376.570309 13.748573 0.000000 0.102765
396.000000 72.190000 3.000000 1.000000 -10.000000 117.623391 1.632460 944.326144 377.538648 13.847444 0.000000 0.119533
397.000000 70.233000 4.000000 1.000000 -10.000000 116.261583 -9.246770 1150.223375 402.968388 14.233574 0.000000 0.116948
398.000000 67.112000 5.000000 1.000000 -10.000000 113.330857 -18.994226 1345.476530 450.055906 14.896055 0.000000 0.098234
399.000000 63.178000 6.000000 1.000000 -10.000000 109.319338 -27.315690 1530.890198 516.324341 15.824523 0.000000 0.068673
400.000000 58.782000 7.000000 1.000000 -10.000000 104.696528 -34.226976 1707.189868 599.580783 17.009127 0.000000 0.047855
401.000000 54.223000 8.000000 1.000000 -10.000000 99.830789 -39.903437 1875.031416 697.879806 18.440494 0.000000 0.078867
402.000000 49.725000 9.000000 1.000000 -10.000000 94.975305 -44.563243 2035.009263 809.492299 20.109706 0.000000 0.143061
404.000000 68.265000 -1.000000 2.000000 -10.000000 114.191471 47.473035 -198.459890 225.677157 14.643479 0.000000 0.238929
405.000000 74.560000 1.000000 2.000000 -10.000000 125.385340 27.475856 415.292978 79.341357 13.405185 0.000000 0.032690
406.000000 75.012000 3.000000 2.000000 -10.000000 128.913983 1.337099 949.878192 71.869554 13.323902 0.000000 0.061231
407.000000 69.812000 5.000000 2.000000 -10.000000 123.506710 -22.448622 1419.685385 170.011340 14.317402 0.000000 0.033686
408.000000 65.790000 3.000000 1.000000 -5.000000 118.681428 -31.473462 1633.868461 250.634278 7.596802 0.000000 0.012354
409.000000 61.288000 7.000000 2.000000 -10.000000 113.252410 -38.652688 1835.816099 348.813241 16.311067 0.000000 0.069081
410.000000 56.606000 4.000000 1.000000 -5.000000 107.646020 -44.333684 2026.547628 462.346327 8.830756 0.000000 0.141085
411.000000 51.974000 9.000000 2.000000 -10.000000 102.133197 -48.858394 2206.972210 589.302150 19.237032 0.000000 0.224766
415.000000 76.782000 2.000000 3.000000 -10.000000 139.124731 17.309476 639.576388 -361.584289 13.014931 0.000000 0.063903
416.000000 76.226000 3.000000 3.000000 -10.000000 139.772486 0.909230 957.918790 -331.542638 13.109837 0.000000 0.007274
417.000000 74.261000 4.000000 3.000000 -10.000000 137.526065 -14.436826 1252.082891 -272.975949 13.456999 0.000000 0.035291
418.000000 71.140000 5.000000 3.000000 -10.000000 133.101531 -27.055890 1524.722448 -190.005939 14.047994 0.000000 0.077566
419.000000 67.191000 6.000000 3.000000 -10.000000 127.410731 -36.729814 1778.116565 -86.130341 14.874772 0.000000 0.132147
420.000000 62.747000 7.000000 3.000000 -10.000000 121.178722 -43.996371 2014.233556 35.668514 15.929631 0.000000 0.202415
427.000000 47.572000 0.000000 -1.000000 -3.000000 64.468388 22.364974 532.153047 1496.911485 7.011132 0.000000 0.105642
428.000000 49.675000 1.000000 -3.000000 -9.000000 66.872051 15.079220 685.012245 1417.092349 20.142896 0.000000 0.093011
429.000000 50.620000 2.000000 -3.000000 -9.000000 68.413682 7.554690 832.257884 1370.566490 19.766495 0.000000 0.092873
430.000000 50.350000 1.000000 -1.000000 -3.000000 69.021564 0.042927 974.193613 1353.686075 6.624115 0.000000 0.094386
431.000000 48.973000 4.000000 -3.000000 -9.000000 68.734981 -7.207020 1111.101571 1363.208520 20.431179 0.000000 0.093912
432.000000 46.721000 5.000000 -3.000000 -9.000000 67.685697 -13.994685 1243.244257 1396.246921 21.416049 0.000000 0.093504
433.000000 48.395000 -2.000000 -2.000000 -9.000000 67.823877 38.502866 118.788972 1501.589445 20.672674 0.000000 0.185581
434.000000 52.810000 -1.000000 -2.000000 -9.000000 72.135629 31.852246 306.309768 1349.393903 18.943839 0.000000 0.133050
435.000000 56.432000 0.000000 -2.000000 -9.000000 75.855684 24.442249 485.813997 1238.932697 17.727425 0.000000 0.122612
436.000000 58.867000 1.000000 -2.000000 -9.000000 78.681329 16.420790 657.804966 1165.590289 16.993788 0.000000 0.133164
437.000000 59.846000 2.000000 -2.000000 -9.000000 80.378301 8.051778 822.744714 1125.277488 16.715528 0.000000 0.144197
438.000000 59.307000 3.000000 -2.000000 -9.000000 80.849766 -0.322498 981.058155 1114.365142 16.867279 0.000000 0.147916
439.000000 57.408000 4.000000 -2.000000 -9.000000 80.163036 -8.358495 1133.136736 1129.627088 17.425526 0.000000 0.143354
440.000000 54.462000 5.000000 -2.000000 -9.000000 78.518182 -15.789210 1279.341666 1168.190963 18.368436 0.000000 0.132945
441.000000 50.844000 6.000000 -2.000000 -9.000000 76.180193 -22.463235 1420.006779 1227.495664 19.675713 0.000000 0.122428
442.000000 46.905000 7.000000 -2.000000 -9.000000 73.412392 -28.337803 1555.441083 1305.254475 21.328465 0.000000 0.121540
443.000000 50.017000 -3.000000 -1.000000 -9.000000 72.647538 48.110471 -224.990705 1444.686534 19.999696 0.000000 0.288772
444.000000 55.547000 -2.000000 -1.000000 -9.000000 78.108898 42.075168 3.340474 1246.330045 18.007797 0.000000 0.174465
445.000000 60.631000 -1.000000 -1.000000 -9.000000 83.256714 35.038752 220.285249 1096.429334 16.496800 0.000000 0.117846
446.000000 64.773000 0.000000 -1.000000 -9.000000 87.703433 26.996875 426.674624 989.442572 15.441075 0.000000 0.121291
447.000000 67.500000 1.000000 -1.000000 -9.000000 91.037652 18.097698 623.260659 920.491097 14.816779 0.000000 0.145524
448.000000 68.493000 2.000000 -1.000000 -9.000000 92.930172 8.678058 810.725627 885.271036 14.601705 0.000000 0.163581
449.000000 67.689000 3.000000 -1.000000 -9.000000 93.244684 -0.781959 989.689926 879.978086 14.775145 0.000000 0.169100
450.000000 65.292000 4.000000 -1.000000 -9.000000 92.084680 -9.790211 1160.718936 901.243273 15.317767 0.000000 0.162319
451.000000 61.694000 5.000000 -1.000000 -9.000000 89.742886 -17.981690 1324.328987 946.077925 16.211498 0.000000 0.146163
452.000000 57.352000 6.000000 -1.000000 -9.000000 86.591893 -25.179378 1480.992565 1011.826389 17.439426 0.000000 0.126739
453.000000 52.684000 7.000000 -1.000000 -9.000000 82.984247 -31.367800 1631.142867 1096.125291 18.985709 0.000000 0.116149
454.000000 48.008000 8.000000 -1.000000 -9.000000 79.198783 -36.629192 1775.177806 1196.868327 20.835490 0.000000 0.130388
456.000000 66.657000 -2.000000 1.000000 -9.000000 98.242019 51.317343 -369.268520 691.559068 15.000629 0.000000 0.288222
457.000000 72.538000 -1.000000 1.000000 -9.000000 105.268781 43.704348 -53.685418 534.575091 13.782943 0.000000 0.129518
458.000000 77.268000 0.000000 1.000000 -9.000000 111.473548 34.304322 240.682842 428.456300 12.938187 0.000000 0.022723
459.000000 80.294000 1.000000 1.000000 -9.000000 116.149007 23.100705 515.905923 366.523429 12.449943 0.000000 0.061984
460.000000 81.252000 2.000000 1.000000 -9.000000 118.639694 10.588903 773.792753 343.034861 12.302740 0.000000 0.102250
461.000000 80.085000 3.000000 1.000000 -9.000000 118.629691 -2.177901 1015.931327 353.036840 12.481993 0.000000 0.115095
462.000000 77.051000 4.000000 1.000000 -9.000000 116.320438 -14.018600 1243.721443 392.240839 12.973933 0.000000 0.104520
463.000000 72.624000 5.000000 1.000000 -9.000000 112.307424 -24.186532 1458.401775 456.922594 13.765558 0.000000 0.075717
464.000000 67.350000 6.000000 1.000000 -9.000000 107.284385 -32.515043 1661.072410 543.838490 14.844576 0.000000 0.043842
465.000000 61.722000 7.000000 1.000000 -9.000000 101.827933 -39.197107 1852.713699 650.155977 16.199357 0.000000 0.068757
466.000000 56.117000 8.000000 1.000000 -9.000000 96.333401 -44.541424 2034.202120 773.395365 17.818891 0.000000 0.140373
467.000000 50.781000 9.000000 1.000000 -9.000000 91.037576 -48.843445 2206.323678 911.380921 19.692747 0.000000 0.228700
468.000000 45.852000 10.000000 1.000000 -9.000000 86.064583 -52.344215 2369.785285 1062.199605 21.811034 0.000000 0.328041
471.000000 80.528000 0.000000 2.000000 -9.000000 122.605925 39.685839 81.892538 46.361418 12.412050 0.000000 0.144143
472.000000 83.518000 1.000000 2.000000 -9.000000 128.169498 27.035242 425.766517 -8.822544 11.966917 0.000000 0.048661
473.000000 84.433000 2.000000 2.000000 -9.000000 131.143885 12.150835 743.263500 -20.913916 11.836848 0.000000 0.036185
474.000000 83.221000 3.000000 2.000000 -9.000000 130.999958 -3.313134 1037.306278 3.826662 12.009334 0.000000 0.048296
475.000000 80.133000 4.000000 2.000000 -9.000000 128.003702 -17.308388 1310.401197 60.105419 12.472521 0.000000 0.036171
476.000000 75.635000 5.000000 2.000000 -9.000000 123.019158 -28.718668 1564.709778 143.424517 13.215165 0.000000 0.020231
477.000000 70.263000 6.000000 2.000000 -9.000000 116.980847 -37.541404 1802.106046 249.945556 14.226597 0.000000 0.071359
478.000000 64.510000 7.000000 2.000000 -9.000000 110.588178 -44.270296 2024.222791 376.379751 15.496681 0.000000 0.149135
479.000000 58.757000 8.000000 2.000000 -9.000000 104.273857 -49.439537 2232.489172 519.898910 17.015786 0.000000 0.243000
484.000000 81.246000 4.000000 3.000000 -9.000000 138.966776 -22.047389 1410.886979 -393.255021 12.299762 0.000000 0.082263
488.000000 46.146000 -1.000000 -3.000000 -8.000000 57.076094 29.121836 375.404925 1738.772083 21.685046 0.000000 0.159252
489.000000 49.781000 0.000000 -3.000000 -8.000000 60.365553 21.683695 547.045236 1599.901818 20.101407 0.000000 0.103537
490.000000 52.202000 1.000000 -3.000000 -8.000000 62.861871 13.743897 711.753973 1508.933125 19.168964 0.000000 0.074752
491.000000 53.114000 2.000000 -3.000000 -8.000000 64.364173 5.574991 869.942715 1459.956287 18.839568 0.000000 0.066262
492.000000 52.473000 3.000000 -3.000000 -8.000000 64.806032 -2.499950 1021.991090 1447.809610 19.069701 0.000000 0.066595
493.000000 50.487000 4.000000 -3.000000 -8.000000 64.269968 -10.179058 1168.249813 1467.974898 19.819937 0.000000 0.071206
494.000000 47.526000 5.000000 -3.000000 -8.000000 62.948182 -17.242481 1309.043393 1516.489132 21.054467 0.000000 0.083995
495.000000 51.070000 -1.000000 -1.000000 -4.000000 64.198415 39.217657 96.643341 1612.620425 9.795544 0.000000 0.209833
496.000000 56.545000 -1.000000 -2.000000 -8.000000 68.910520 32.004723 302.333317 1430.479036 17.693449 0.000000 0.139535
497.000000 61.019000 0.000000 -1.000000 -4.000000 72.955372 23.883530 498.422113 1301.874659 8.197879 0.000000 0.118931
498.000000 63.892000 1.000000 -2.000000 -8.000000 75.935818 15.051701 685.566641 1220.210441 15.658018 0.000000 0.126428
499.000000 64.778000 1.000000 -1.000000 -4.000000 77.557485 5.868953 864.365223 1179.727348 7.721856 0.000000 0.135736
500.000000 63.642000 3.000000 -2.000000 -8.000000 77.733089 -3.210072 1035.363979 1175.386833 15.719430 0.000000 0.136913
501.000000 60.799000 2.000000 -1.000000 -4.000000 76.606660 -11.759841 1199.062397 1202.771719 8.227273 0.000000 0.129804
502.000000 56.776000 5.000000 -2.000000 -8.000000 74.482425 -19.489707 1355.918210 1258.002157 17.620933 0.000000 0.119844
503.000000 52.127000 3.000000 -1.000000 -4.000000 71.712926 -26.274919 1506.351666 1337.664176 9.596359 0.000000 0.118281
504.000000 47.313000 7.000000 -2.000000 -8.000000 68.611332 -32.122578 1650.749292 1438.748706 21.146052 0.000000 0.137995
507.000000 60.024000 -2.000000 -1.000000 -8.000000 75.497029 43.188531 -35.302238 1322.848882 16.665216 0.000000 0.198157
508.000000 66.503000 -1.000000 -1.000000 -8.000000 81.256619 35.534020 206.322137 1144.411453 15.040567 0.000000 0.123969
509.000000 71.756000 0.000000 -1.000000 -8.000000 86.207145 26.646233 434.945268 1020.831251 13.938944 0.000000 0.123187
510.000000 75.035000 1.000000 -1.000000 -8.000000 89.787152 16.724769 651.589014 945.174951 13.329234 0.000000 0.148515
511.000000 75.867000 2.000000 -1.000000 -8.000000 91.565143 6.247671 857.170880 911.415964 13.182741 0.000000 0.165464
512.000000 74.234000 3.000000 -1.000000 -8.000000 91.417230 -4.119451 1052.517008 914.303100 13.472959 0.000000 0.167049
513.000000 70.557000 4.000000 -1.000000 -8.000000 89.573391 -13.750288 1238.373271 949.250386 14.175367 0.000000 0.154755
514.000000 65.513000 5.000000 -1.000000 -8.000000 86.494243 -22.254158 1415.414794 1012.244292 15.267245 0.000000 0.134368
515.000000 59.797000 6.000000 -1.000000 -8.000000 82.684894 -29.512747 1584.254146 1099.765318 16.727515 0.000000 0.118639
516.000000 53.963000 7.000000 -1.000000 -8.000000 78.565456 -35.596389 1745.448420 1208.721493 18.536589 0.000000 0.128556
517.000000 48.381000 8.000000 -1.000000 -8.000000 74.428351 -40.661616 1899.505375 1336.391786 20.676248 0.000000 0.173625
520.000000 67.817000 -1.000000 0.000000 -4.000000 86.780829 47.945180 -218.048350 1031.372806 7.373534 0.000000 0.224413
521.000000 75.066000 -1.000000 0.000000 -8.000000 93.698331 39.916302 74.557868 850.294744 13.321677 0.000000 0.099540
522.000000 84.463000 1.000000 0.000000 -8.000000 104.019026 18.936426 605.737463 656.894024 11.838018 0.000000 0.126866
523.000000 83.186000 3.000000 0.000000 -8.000000 105.501380 -5.324912 1075.316808 641.195444 12.019659 0.000000 0.156504
524.000000 72.992000 5.000000 0.000000 -8.000000 98.649555 -25.718960 1493.424180 759.270151 13.699668 0.000000 0.111325
525.000000 66.423000 3.000000 0.000000 -4.000000 93.689832 -33.439486 1685.750021 857.822459 7.527698 0.000000 0.090124
526.000000 59.769000 7.000000 0.000000 -8.000000 88.479529 -39.685063 1868.082844 978.122967 16.732703 0.000000 0.113286
527.000000 53.438000 4.000000 0.000000 -4.000000 83.363393 -44.729565 2041.181765 1117.269693 9.358122 0.000000 0.180829
528.000000 47.649000 9.000000 0.000000 -8.000000 78.530745 -48.829774 2205.730911 1272.723683 20.991630 0.000000 0.271361
531.000000 81.414000 -1.000000 1.000000 -8.000000 105.719370 45.428106 -117.499504 509.361730 12.280264 0.000000 0.161712
532.000000 87.518000 0.000000 1.000000 -8.000000 112.908815 34.897759 224.229302 386.435340 11.422643 0.000000 0.027539
533.000000 89.607000 3.000000 1.000000 -8.000000 119.552353 -6.997316 1107.101148 326.183837 11.155459 0.000000 0.106255
534.000000 84.895000 4.000000 1.000000 -8.000000 115.915763 -19.772629 1361.909088 385.247842 11.775178 0.000000 0.083662
535.000000 78.582000 5.000000 1.000000 -8.000000 110.540248 -30.150695 1600.178928 474.631905 12.722145 0.000000 0.043662
536.000000 71.510000 6.000000 1.000000 -8.000000 104.365942 -38.249611 1823.470147 589.979831 13.981547 0.000000 0.056550
537.000000 64.347000 7.000000 1.000000 -8.000000 98.049278 -44.513015 2033.152131 727.552720 15.539454 0.000000 0.137694
538.000000 57.528000 8.000000 1.000000 -8.000000 91.969619 -49.393195 2230.432274 884.131557 17.382751 0.000000 0.239237
542.000000 81.937000 5.000000 2.000000 -8.000000 121.715835 -35.936618 1755.155906 119.496703 12.198808 0.000000 0.079997
543.000000 67.459000 7.000000 2.000000 -8.000000 106.954837 -50.210492 2267.289647 428.274021 14.820103 0.000000 0.270690
549.000000 47.126000 -1.000000 -3.000000 -7.000000 51.763292 29.023325 377.827436 1910.871474 21.235530 0.000000 0.191698
550.000000 51.493000 0.000000 -3.000000 -7.000000 55.246778 20.873801 564.566993 1740.194701 19.434493 0.000000 0.113839
551.000000 54.286000 1.000000 -3.000000 -7.000000 57.830229 12.158440 743.114006 1633.519885 18.434422 0.000000 0.058994
552.000000 55.094000 2.000000 -3.000000 -7.000000 59.271626 3.244033 913.996033 1581.804748 18.164049 0.000000 0.025944
553.000000 53.918000 3.000000 -3.000000 -7.000000 59.521371 -5.450465 1077.696285 1577.322166 18.560318 0.000000 0.032676
554.000000 51.143000 4.000000 -3.000000 -7.000000 58.727322 -13.563544 1234.658194 1613.448722 19.567236 0.000000 0.063710
555.000000 47.349000 5.000000 -3.000000 -7.000000 57.158631 -20.867127 1385.289422 1684.491019 21.134909 0.000000 0.104614
557.000000 53.534000 -2.000000 -2.000000 -7.000000 59.691400 40.065784 69.774022 1763.092603 18.690349 0.000000 0.245522
558.000000 60.438000 -1.000000 -2.000000 -7.000000 64.857502 32.188192 297.531058 1537.886614 16.554855 0.000000 0.150634
559.000000 66.072000 0.000000 -2.000000 -7.000000 69.275794 23.205323 513.581322 1384.061670 15.142869 0.000000 0.113035
560.000000 69.491000 1.000000 -2.000000 -7.000000 72.413819 13.389206 718.804795 1291.666235 14.397486 0.000000 0.114204
561.000000 70.123000 2.000000 -2.000000 -7.000000 73.898824 3.244066 913.995419 1252.178965 14.267617 0.000000 0.120755
562.000000 68.027000 3.000000 -2.000000 -7.000000 73.678526 -6.617853 1099.871358 1258.282490 14.707266 0.000000 0.119322
563.000000 63.828000 4.000000 -2.000000 -7.000000 72.025301 -15.677853 1277.083833 1303.676758 15.674906 0.000000 0.112197
564.000000 58.397000 5.000000 -2.000000 -7.000000 69.387314 -23.644836 1446.224742 1382.924329 17.132952 0.000000 0.111897
565.000000 52.529000 6.000000 -2.000000 -7.000000 66.213691 -30.454430 1607.833263 1491.321621 19.047304 0.000000 0.135055
566.000000 46.783000 7.000000 -2.000000 -7.000000 62.853415 -36.188672 1762.401599 1624.791336 21.386952 0.000000 0.185952
569.000000 64.996000 -2.000000 -1.000000 -7.000000 72.200406 44.527457 -83.685777 1425.703130 15.391070 0.000000 0.231550
570.000000 73.477000 -1.000000 -1.000000 -7.000000 78.711509 36.141829 188.948483 1207.036119 13.613628 0.000000 0.132740
571.000000 80.336000 0.000000 -1.000000 -7.000000 84.288005 26.209526 445.175261 1060.993129 12.450636 0.000000 0.124830
572.000000 84.335000 1.000000 -1.000000 -7.000000 88.137508 15.008711 686.432427 977.235131 11.859786 0.000000 0.150946
573.000000 84.743000 2.000000 -1.000000 -7.000000 89.684114 3.244109 913.994607 946.943459 11.802569 0.000000 0.165690
574.000000 81.689000 3.000000 -1.000000 -7.000000 88.863302 -8.142591 1128.995714 962.573029 12.243855 0.000000 0.161607
575.000000 76.054000 4.000000 -1.000000 -7.000000 86.133447 -18.371831 1332.447843 1017.649964 13.151532 0.000000 0.142941
576.000000 69.002000 5.000000 -1.000000 -7.000000 82.199064 -27.078463 1525.257199 1106.604828 14.496188 0.000000 0.122619
577.000000 61.555000 6.000000 -1.000000 -7.000000 77.713351 -34.265088 1708.237598 1224.634576 16.250833 0.000000 0.126878
578.000000 54.395000 7.000000 -1.000000 -7.000000 73.139790 -40.124847 1882.121943 1367.587781 18.390654 0.000000 0.174285
579.000000 47.883000 8.000000 -1.000000 -7.000000 68.750810 -44.900753 2047.572040 1531.868818 20.892803 0.000000 0.254153
581.000000 84.751000 5.000000 1.000000 -7.000000 107.691502 -36.912938 1783.484715 511.616169 11.796473 0.000000 0.041688
582.000000 75.315000 6.000000 1.000000 -7.000000 100.284575 -44.474501 2031.730288 667.307701 13.275906 0.000000 0.135542
583.000000 66.310000 7.000000 1.000000 -7.000000 93.157313 -50.112038 2262.783240 848.420999 15.080435 0.000000 0.254567
586.000000 88.488000 5.000000 2.000000 -7.000000 119.203543 -44.053937 2016.325146 103.905279 11.295998 0.000000 0.190010
589.000000 46.733000 -1.000000 -3.000000 -6.000000 45.052223 28.905005 380.730953 2168.218043 21.415681 0.000000 0.253670
590.000000 51.985000 0.000000 -1.000000 -2.000000 48.716516 19.895514 585.482230 1945.980549 6.417331 0.000000 0.155953
591.000000 55.204000 1.000000 -3.000000 -6.000000 51.377110 10.248582 780.401791 1814.840689 18.129695 0.000000 0.084797
592.000000 55.811000 2.000000 -3.000000 -6.000000 52.744708 0.469453 966.181182 1759.617563 17.932479 0.000000 0.046100
593.000000 53.921000 1.000000 -1.000000 -2.000000 52.804822 -8.895084 1143.448574 1767.752290 6.186909 0.000000 0.066175
594.000000 50.219000 4.000000 -3.000000 -6.000000 51.796352 -17.423540 1312.775869 1828.805894 19.928636 0.000000 0.115361
595.000000 45.569000 5.000000 -3.000000 -6.000000 50.074825 -24.903753 1474.684854 1934.064167 21.961889 0.000000 0.175801
597.000000 55.278000 -1.000000 -1.000000 -3.000000 53.961918 41.087889 36.489232 1979.960668 9.050986 0.000000 0.300864
598.000000 64.115000 -1.000000 -2.000000 -6.000000 59.626481 32.413165 291.615934 1688.199764 15.606581 0.000000 0.171889
599.000000 75.449000 1.000000 -2.000000 -6.000000 67.757687 11.331628 759.317254 1389.905879 13.261658 0.000000 0.092219
600.000000 71.908000 3.000000 -2.000000 -6.000000 68.294899 -10.668385 1177.752887 1376.955976 13.914639 0.000000 0.093399
601.000000 65.822000 2.000000 -1.000000 -3.000000 66.056526 -20.193765 1370.866206 1450.227217 7.600702 0.000000 0.099011
602.000000 58.666000 5.000000 -2.000000 -6.000000 62.936388 -28.291447 1554.317531 1565.503473 17.055781 0.000000 0.130916
603.000000 51.496000 3.000000 -1.000000 -3.000000 59.467341 -35.006605 1728.814288 1716.025448 9.715423 0.000000 0.193087
606.000000 70.318000 -2.000000 -1.000000 -6.000000 67.926342 46.166191 -146.024412 1571.206529 14.227113 0.000000 0.280783
607.000000 81.772000 -1.000000 -1.000000 -6.000000 75.368795 36.905259 166.740896 1292.387358 12.233345 0.000000 0.146131
608.000000 89.897000 3.000000 -1.000000 -6.000000 85.200748 -13.032129 1224.117904 1033.753796 11.126664 0.000000 0.150699
609.000000 81.274000 4.000000 -1.000000 -6.000000 81.363768 -23.758283 1448.766554 1119.606790 12.307674 0.000000 0.127838
610.000000 71.526000 5.000000 -1.000000 -6.000000 76.510875 -32.486355 1660.314787 1247.073998 13.985831 0.000000 0.125319
611.000000 62.039000 6.000000 -1.000000 -6.000000 71.420406 -39.425356 1859.876069 1409.360599 16.125379 0.000000 0.175481
612.000000 53.517000 7.000000 -1.000000 -6.000000 66.539266 -44.923957 2048.441152 1600.717259 18.693915 0.000000 0.267946
615.000000 82.623000 5.000000 0.000000 -6.000000 90.219151 -37.750366 1808.367076 935.793456 12.104128 0.000000 0.099409
616.000000 61.142000 7.000000 0.000000 -6.000000 76.999789 -50.024439 2258.789266 1327.772688 16.359442 0.000000 0.304828
618.000000 90.600000 5.000000 1.000000 -6.000000 103.314375 -44.419324 2029.696552 584.381070 11.035512 0.000000 0.135347
619.000000 78.187000 6.000000 1.000000 -6.000000 94.721097 -51.091789 2308.475035 799.477803 12.789243 0.000000 0.278303
622.000000 49.778000 0.000000 -3.000000 -5.000000 40.172956 18.691020 610.882481 2286.820242 20.107405 0.000000 0.255524
623.000000 53.468000 1.000000 -3.000000 -5.000000 42.900325 7.909315 825.473472 2110.341242 18.720060 0.000000 0.184651
624.000000 53.809000 2.000000 -3.000000 -5.000000 44.219951 -2.871113 1028.978694 2048.396946 18.601408 0.000000 0.159509
625.000000 51.144000 3.000000 -3.000000 -5.000000 44.173487 -12.936982 1222.235553 2077.654710 19.570233 0.000000 0.180695
626.000000 46.599000 4.000000 -3.000000 -5.000000 43.106140 -21.823502 1405.999184 2179.677937 21.478263 0.000000 0.233798
628.000000 66.611000 -1.000000 -2.000000 -5.000000 52.652207 32.695512 284.150411 1916.976690 15.023168 0.000000 0.216339
629.000000 76.099000 0.000000 -2.000000 -5.000000 57.954119 21.296981 555.435729 1664.124194 13.150080 0.000000 0.106147
630.000000 80.992000 1.000000 -2.000000 -5.000000 61.373503 8.726962 809.785453 1535.341497 12.355540 0.000000 0.053861
631.000000 79.976000 2.000000 -2.000000 -5.000000 62.317406 -3.919237 1048.737443 1506.973698 12.512312 0.000000 0.049132
632.000000 74.056000 3.000000 -2.000000 -5.000000 61.006888 -15.508206 1273.648835 1559.965722 13.512416 0.000000 0.074109
633.000000 65.560000 4.000000 -2.000000 -5.000000 58.226646 -25.385217 1485.721828 1678.883611 15.263619 0.000000 0.127664
634.000000 56.578000 5.000000 -2.000000 -5.000000 54.793873 -33.449684 1686.025180 1851.164892 17.686662 0.000000 0.208121
639.000000 85.093000 4.000000 -1.000000 -5.000000 74.700525 -29.995126 1596.276723 1280.962005 11.756471 0.000000 0.123331
640.000000 72.002000 5.000000 -1.000000 -5.000000 69.013576 -38.476280 1830.395859 1468.367634 13.894568 0.000000 0.177651
641.000000 60.422000 6.000000 -1.000000 -5.000000 63.546791 -44.954438 2049.583885 1697.743082 16.558429 0.000000 0.288103
648.000000 83.765000 1.000000 -2.000000 -4.000000 52.230437 5.340208 874.393350 1778.579440 11.948021 0.000000 0.059688
649.000000 71.943000 3.000000 -2.000000 -4.000000 51.002095 -21.299872 1394.626844 1876.395748 13.910896 0.000000 0.144317
650.000000 61.033000 2.000000 -1.000000 -2.000000 47.976472 -31.309925 1629.652580 2076.224355 8.198602 0.000000 0.246461
654.000000 85.298000 4.000000 -1.000000 -4.000000 65.412438 -37.115989 1789.467205 1558.599429 11.729462 0.000000 0.181941
663.000000 77.019000 1.000000 -2.000000 -3.000000 38.487659 0.795734 960.051267 2294.816316 12.996199 0.000000 0.249501
#UB matrix in q= (UB) B0 G* 
#[[-0.107893695 -0.600279686  0.791329897]
# [-0.984657906 -0.045225844 -0.168565401]
# [ 0.13714138  -0.798421383 -0.586889165]]
#B0 matrix in q= UB (B0) G*
#[[ 0.19670273 -0.          0.03056101]
# [ 0.          0.19187965 -0.        ]
# [ 0.          0.          0.18806537]]
#UBB0 matrix in q= (UB B0) G* i.e. recip. basis vectors are columns in LT frame: astar = UBB0[:,0], bstar = UBB0[:,1], cstar = UBB0[:,2]. (abcstar as columns on xyzlab1, xlab1 = ui, ui = unit vector along incident beam)
#[[-0.02122298 -0.11518146  0.14552441]
# [-0.1936849  -0.00867792 -0.06179345]
# [ 0.02697608 -0.15320082 -0.10618235]]
#Euler angles phi theta psi (deg)
#[  9.746 125.89  102.003]
#deviatoric strain in direct crystal frame (10-3 unit)
#[[ 1.3   0.19 -0.24]
# [ 0.19  1.34 -1.08]
# [-0.24 -1.08 -2.64]]
#deviatoric strain in sample2 frame (10-3 unit)
#[[ 1.61  0.23 -0.12]
# [ 0.23  1.11 -0.91]
# [-0.11 -0.91 -2.72]]
#new lattice parameters
#[ 5.1505     5.2118174  5.3196545 90.0681692 99.2406114 89.9778421]
#CCDLabel
#sCMOS
#DetectorParameters
#[79.0, 975.0, 941.0, 0.0, 0.0]
#pixelsize
#0.0734
#Frame dimensions
#[2018, 2016]
#
