#Strain and Orientation Refinement from experimental file: /home/micha/LaueProjects/DepthEffects/testZrO2_76.cor
#File created at Wed Jun 28 14:23:02 2023 with indexingSpotsSet.py
#Number of indexed spots: 530
#Element
#ZrO2
#grainIndex
#G_0
#Mean Deviation(pixel): 0.115
##spot_index intensity h k l 2theta Chi Xexp Yexp Energy GrainIndex PixDev
4.000000 53.919000 4.000000 3.000000 -2.000000 39.039054 5.125774 878.455253 2273.590983 18.561581 0.000000 0.239194
5.000000 47.266000 5.000000 3.000000 -2.000000 39.397436 -2.041541 1013.366341 2252.253952 21.174094 0.000000 0.225843
8.000000 65.588000 3.000000 4.000000 -2.000000 48.240911 21.367922 553.899851 1972.866726 15.257292 0.000000 0.177569
9.000000 59.612000 2.000000 2.000000 -1.000000 48.951083 11.961112 746.989989 1899.022935 8.393674 0.000000 0.120585
10.000000 52.876000 5.000000 4.000000 -2.000000 48.681086 4.441144 891.406165 1890.026882 18.926096 0.000000 0.098985
11.000000 46.543000 3.000000 2.000000 -1.000000 47.938713 -1.516443 1003.492852 1912.526614 10.750949 0.000000 0.101396
14.000000 67.088000 2.000000 5.000000 -2.000000 53.520438 37.187528 158.417381 1939.946096 14.914051 0.000000 0.268960
15.000000 65.081000 3.000000 5.000000 -2.000000 55.716443 26.789639 431.568901 1762.969855 15.374276 0.000000 0.155194
16.000000 60.431000 4.000000 5.000000 -2.000000 56.342759 17.754207 630.388350 1693.477077 16.558087 0.000000 0.095463
17.000000 54.723000 5.000000 5.000000 -2.000000 55.954358 10.187655 781.583482 1679.866963 18.285573 0.000000 0.057237
18.000000 48.976000 6.000000 5.000000 -2.000000 55.009690 3.963049 900.435656 1696.163840 20.431901 0.000000 0.032549
21.000000 63.210000 1.000000 3.000000 -1.000000 58.955306 40.609806 52.184656 1794.372325 7.913787 0.000000 0.269016
22.000000 62.045000 3.000000 6.000000 -2.000000 61.099857 31.157492 324.263900 1635.304425 16.125126 0.000000 0.159691
23.000000 58.715000 2.000000 3.000000 -1.000000 61.843028 22.632546 526.264460 1565.126563 8.520124 0.000000 0.107938
24.000000 54.245000 5.000000 6.000000 -2.000000 61.579198 15.220077 682.172292 1544.627745 18.445099 0.000000 0.077785
25.000000 49.424000 3.000000 3.000000 -1.000000 60.687238 8.916043 806.148039 1552.694849 10.122421 0.000000 0.053970
28.000000 58.735000 2.000000 7.000000 -2.000000 62.937267 43.314572 -39.765369 1696.752886 17.032278 0.000000 0.279443
29.000000 58.161000 3.000000 7.000000 -2.000000 65.068714 34.713021 229.376573 1549.643285 17.200557 0.000000 0.169068
30.000000 55.863000 4.000000 7.000000 -2.000000 65.973740 26.740910 432.717145 1478.246633 17.908512 0.000000 0.121056
31.000000 52.489000 5.000000 7.000000 -2.000000 65.921651 19.599518 591.759041 1451.542374 19.060449 0.000000 0.098897
32.000000 48.610000 6.000000 7.000000 -2.000000 65.207277 13.351338 719.556322 1451.961996 20.582034 0.000000 0.083716
35.000000 54.370000 1.000000 4.000000 -1.000000 65.952129 45.497035 -120.131665 1626.181013 9.199243 0.000000 0.294877
36.000000 54.177000 3.000000 8.000000 -2.000000 68.068072 37.642499 144.869301 1488.289976 18.464348 0.000000 0.179921
37.000000 52.624000 2.000000 4.000000 -1.000000 69.121062 30.214670 348.212791 1416.085870 9.504836 0.000000 0.130217
38.000000 50.119000 5.000000 8.000000 -2.000000 69.290995 23.403178 509.174985 1384.365587 19.960102 0.000000 0.111615
39.000000 47.066000 3.000000 4.000000 -1.000000 68.799052 17.300798 639.755223 1378.271139 10.627952 0.000000 0.102294
42.000000 50.358000 2.000000 9.000000 -2.000000 68.299790 47.290316 -190.973473 1572.467307 19.863568 0.000000 0.313112
43.000000 50.399000 3.000000 9.000000 -2.000000 70.388503 40.085947 69.127150 1442.248018 19.847151 0.000000 0.192402
44.000000 49.368000 4.000000 9.000000 -2.000000 71.558484 33.169878 271.500617 1369.768841 20.262110 0.000000 0.137360
45.000000 47.524000 5.000000 9.000000 -2.000000 71.928278 26.709983 433.445392 1334.151307 21.049001 0.000000 0.118456
47.000000 46.754000 1.000000 5.000000 -1.000000 70.171931 48.787252 -253.889244 1530.028570 10.696786 0.000000 0.332872
48.000000 46.938000 3.000000 10.000000 -2.000000 72.222188 42.148022 0.853672 1406.462943 21.309939 0.000000 0.206682
49.000000 46.269000 2.000000 5.000000 -1.000000 73.477284 35.701887 201.550344 1334.167256 10.809178 0.000000 0.144495
52.000000 72.651000 4.000000 2.000000 -1.000000 46.055745 -10.071201 1166.159111 1994.577876 13.774859 0.000000 0.135623
53.000000 58.210000 5.000000 2.000000 -1.000000 44.275486 -15.748645 1278.518895 2087.917555 17.192180 0.000000 0.174724
54.000000 47.972000 6.000000 2.000000 -1.000000 42.780107 -19.719558 1360.783696 2176.560820 20.861049 0.000000 0.209134
55.000000 80.832000 4.000000 3.000000 -1.000000 58.080426 -0.844942 990.873293 1611.517363 12.379051 0.000000 0.011778
56.000000 66.319000 5.000000 3.000000 -1.000000 55.309619 -7.773074 1121.918712 1692.903056 15.088600 0.000000 0.035466
57.000000 55.211000 6.000000 3.000000 -1.000000 52.806689 -12.809430 1219.714346 1778.599237 18.124626 0.000000 0.074515
58.000000 46.753000 7.000000 3.000000 -1.000000 50.659369 -16.582048 1295.490091 1861.493417 21.403745 0.000000 0.109733
59.000000 81.017000 4.000000 4.000000 -1.000000 66.635472 7.216661 838.714428 1409.675969 12.349072 0.000000 0.083127
60.000000 68.904000 5.000000 4.000000 -1.000000 63.840193 -0.433797 983.148976 1469.680077 14.520815 0.000000 0.059964
61.000000 58.717000 6.000000 4.000000 -1.000000 61.027050 -6.244637 1092.771436 1540.492658 17.040551 0.000000 0.042530
62.000000 50.448000 7.000000 4.000000 -1.000000 58.440050 -10.722926 1178.813984 1613.853089 19.834619 0.000000 0.045020
64.000000 86.142000 3.000000 5.000000 -1.000000 73.951508 23.921798 497.562059 1279.703165 11.612315 0.000000 0.117457
65.000000 77.226000 4.000000 5.000000 -1.000000 72.549820 14.063179 705.388767 1289.779140 12.953814 0.000000 0.114005
66.000000 67.950000 5.000000 5.000000 -1.000000 70.203149 6.134149 859.328463 1330.653955 14.723047 0.000000 0.102509
67.000000 59.419000 6.000000 5.000000 -1.000000 67.535490 -0.156202 977.934247 1386.036481 16.837749 0.000000 0.085544
68.000000 52.014000 7.000000 5.000000 -1.000000 64.884697 -5.156100 1072.119029 1447.573486 19.235484 0.000000 0.068499
69.000000 45.754000 8.000000 5.000000 -1.000000 62.405240 -9.168853 1148.721239 1510.828410 21.868004 0.000000 0.056956
71.000000 81.533000 2.000000 6.000000 -1.000000 76.256376 39.787946 78.648972 1283.574655 12.267258 0.000000 0.162857
72.000000 77.877000 3.000000 6.000000 -1.000000 77.298887 29.152612 374.647142 1218.760618 12.843531 0.000000 0.119392
73.000000 71.936000 4.000000 6.000000 -1.000000 76.618119 19.795603 587.603518 1213.130907 13.904964 0.000000 0.123500
74.000000 65.100000 5.000000 6.000000 -1.000000 74.864911 11.901235 748.164988 1238.508810 15.366070 0.000000 0.123084
75.000000 58.296000 6.000000 6.000000 -1.000000 72.574426 5.384715 873.549923 1280.315225 17.160330 0.000000 0.114403
76.000000 52.010000 7.000000 6.000000 -1.000000 70.102504 0.043812 974.176991 1330.560014 19.235211 0.000000 0.101015
77.000000 46.428000 8.000000 6.000000 -1.000000 67.654496 -4.341984 1056.720133 1384.692778 21.548673 0.000000 0.086356
79.000000 72.416000 2.000000 7.000000 -1.000000 78.131467 42.919380 -25.832987 1249.875601 13.811054 0.000000 0.187664
80.000000 70.342000 3.000000 7.000000 -1.000000 79.540224 33.324834 267.338814 1178.799429 14.218635 0.000000 0.119920
81.000000 66.389000 4.000000 7.000000 -1.000000 79.438074 24.575472 482.791231 1161.672624 15.065863 0.000000 0.122419
82.000000 61.422000 5.000000 7.000000 -1.000000 78.260339 16.908996 647.812199 1174.773424 16.284931 0.000000 0.129939
83.000000 56.130000 6.000000 7.000000 -1.000000 76.426681 10.359291 778.253409 1205.158438 17.821297 0.000000 0.129393
84.000000 50.959000 7.000000 7.000000 -1.000000 74.262547 4.835301 883.953218 1245.375196 19.630587 0.000000 0.122231
85.000000 46.152000 8.000000 7.000000 -1.000000 71.987741 0.194778 971.341100 1290.965842 21.676332 0.000000 0.111235
87.000000 64.910000 2.000000 8.000000 -1.000000 79.456991 45.382137 -115.747685 1226.196853 15.407515 0.000000 0.216709
88.000000 63.763000 3.000000 8.000000 -1.000000 81.087610 36.697017 172.842143 1151.501639 15.684937 0.000000 0.125134
89.000000 61.121000 4.000000 8.000000 -1.000000 81.419082 28.569822 388.920498 1125.924966 16.363380 0.000000 0.117387
90.000000 57.522000 5.000000 8.000000 -1.000000 80.736967 21.235471 556.766210 1129.324251 17.387854 0.000000 0.128746
91.000000 53.451000 6.000000 8.000000 -1.000000 79.354949 14.786234 690.907419 1150.227676 18.712984 0.000000 0.134870
92.000000 49.273000 7.000000 8.000000 -1.000000 77.547793 9.205624 800.569946 1181.767905 20.300997 0.000000 0.133868
94.000000 58.695000 2.000000 9.000000 -1.000000 80.430688 47.362947 -193.943117 1208.879442 17.038645 0.000000 0.247487
95.000000 58.102000 3.000000 9.000000 -1.000000 82.186562 39.461293 88.991983 1132.296366 17.212674 0.000000 0.136789
96.000000 56.329000 4.000000 9.000000 -1.000000 82.832114 31.926958 304.362996 1100.480491 17.754843 0.000000 0.112862
97.000000 53.714000 5.000000 9.000000 -1.000000 82.553133 24.970522 473.789713 1096.187720 18.619711 0.000000 0.123345
98.000000 50.593000 6.000000 9.000000 -1.000000 81.578216 18.706574 610.556836 1109.238936 19.769020 0.000000 0.134138
99.000000 47.247000 7.000000 9.000000 -1.000000 80.128682 13.163655 723.277648 1133.342346 21.170331 0.000000 0.138518
101.000000 53.497000 2.000000 10.000000 -1.000000 81.168998 48.987059 -262.570295 1195.812591 18.693810 0.000000 0.278318
102.000000 53.241000 3.000000 10.000000 -1.000000 82.986962 41.758461 14.085044 1118.490903 18.783762 0.000000 0.153853
103.000000 52.050000 4.000000 10.000000 -1.000000 83.855330 34.769756 227.798235 1082.057149 19.213673 0.000000 0.111822
104.000000 50.142000 5.000000 10.000000 -1.000000 83.894451 28.201681 397.855424 1071.635959 19.945391 0.000000 0.116511
105.000000 47.748000 6.000000 10.000000 -1.000000 83.268775 22.171646 536.393639 1078.173134 20.946265 0.000000 0.129595
107.000000 49.103000 2.000000 11.000000 -1.000000 81.743828 50.340832 -323.284171 1185.702108 20.366322 0.000000 0.308263
108.000000 49.054000 3.000000 11.000000 -1.000000 83.582957 43.691871 -53.237024 1108.412216 20.386582 0.000000 0.174421
109.000000 48.259000 4.000000 11.000000 -1.000000 84.606659 37.196760 158.144095 1068.564817 20.722456 0.000000 0.115741
110.000000 46.861000 5.000000 11.000000 -1.000000 84.892479 31.007580 328.103330 1053.238019 21.341471 0.000000 0.110393
112.000000 122.258000 3.000000 1.000000 0.000000 56.100195 -26.110044 1502.505111 1746.427990 8.184164 0.000000 0.132483
113.000000 84.997000 4.000000 1.000000 0.000000 50.515131 -29.779797 1590.895661 1962.672712 11.772464 0.000000 0.194974
114.000000 64.158000 5.000000 1.000000 0.000000 46.969985 -31.965499 1646.642497 2125.293196 15.596522 0.000000 0.244476
116.000000 196.844000 2.000000 2.000000 0.000000 84.222380 1.274863 951.047899 1049.928227 5.080999 0.000000 0.156024
117.000000 137.494000 3.000000 2.000000 0.000000 73.728672 -11.648103 1196.873333 1261.751430 7.275588 0.000000 0.117478
118.000000 100.219000 4.000000 2.000000 0.000000 65.887236 -18.777437 1340.927561 1449.818801 9.982808 0.000000 0.091471
119.000000 76.690000 5.000000 2.000000 0.000000 60.245698 -23.167216 1435.571518 1610.226061 13.046574 0.000000 0.102380
120.000000 50.325000 7.000000 2.000000 0.000000 52.960888 -28.209928 1552.344058 1862.673329 19.882771 0.000000 0.165023
121.000000 194.119000 1.000000 3.000000 0.000000 94.106030 38.703861 112.606611 841.993411 5.150828 0.000000 0.090206
122.000000 165.611000 2.000000 3.000000 0.000000 91.408976 16.266098 660.960703 913.423357 6.038251 0.000000 0.147802
123.000000 102.959000 4.000000 3.000000 0.000000 76.950680 -8.223664 1130.550154 1193.049920 9.715499 0.000000 0.131514
124.000000 82.030000 5.000000 3.000000 0.000000 70.822642 -14.461577 1252.578712 1327.577044 12.195469 0.000000 0.105194
125.000000 55.618000 7.000000 3.000000 0.000000 61.929302 -21.908325 1407.849193 1559.658710 17.988958 0.000000 0.095327
126.000000 47.211000 8.000000 3.000000 0.000000 58.726292 -24.270374 1460.295672 1658.101206 21.193368 0.000000 0.111450
127.000000 147.963000 1.000000 4.000000 0.000000 93.222016 45.239133 -110.316137 854.954263 6.757548 0.000000 0.168069
128.000000 136.534000 2.000000 4.000000 0.000000 93.761967 26.571598 436.699117 861.872408 7.323601 0.000000 0.111312
129.000000 117.608000 3.000000 4.000000 0.000000 89.786194 11.856688 749.038826 945.103896 8.503182 0.000000 0.155991
130.000000 81.974000 5.000000 4.000000 0.000000 78.677525 -6.225663 1092.410756 1157.782381 12.202284 0.000000 0.138589
131.000000 58.322000 7.000000 4.000000 0.000000 69.484091 -15.684368 1277.215855 1359.326766 17.153253 0.000000 0.100202
132.000000 118.796000 1.000000 5.000000 0.000000 92.304334 49.226050 -273.045658 874.683121 8.416723 0.000000 0.251297
133.000000 114.038000 2.000000 5.000000 0.000000 94.274973 33.665356 258.140800 844.333861 8.768050 0.000000 0.083025
134.000000 103.485000 3.000000 5.000000 0.000000 92.525861 20.148921 580.089861 890.426154 9.662905 0.000000 0.136718
135.000000 90.913000 4.000000 5.000000 0.000000 88.728887 9.437928 796.088566 965.209315 11.000214 0.000000 0.158464
136.000000 68.001000 6.000000 5.000000 0.000000 79.747721 -4.919417 1067.638410 1136.389685 14.709371 0.000000 0.142683
137.000000 58.936000 7.000000 5.000000 0.000000 75.623944 -9.677570 1158.540714 1220.848433 16.973072 0.000000 0.125804
138.000000 51.419000 8.000000 5.000000 0.000000 71.947681 -13.399630 1231.402115 1301.612921 19.455331 0.000000 0.109790
139.000000 98.960000 1.000000 6.000000 0.000000 91.526390 51.888098 -397.061877 894.532285 10.103811 0.000000 0.323582
140.000000 74.012000 5.000000 6.000000 0.000000 88.000182 7.915139 825.361958 978.943075 13.512476 0.000000 0.159280
141.000000 58.062000 7.000000 6.000000 0.000000 80.474109 -3.999567 1050.253651 1122.050835 17.227078 0.000000 0.145302
143.000000 84.092000 2.000000 7.000000 0.000000 93.697279 42.414450 -8.289600 846.795906 11.890235 0.000000 0.125271
144.000000 80.563000 3.000000 7.000000 0.000000 94.215348 31.576225 313.474835 847.885955 12.411382 0.000000 0.089514
145.000000 75.138000 4.000000 7.000000 0.000000 92.939705 21.911283 542.086263 881.426035 13.308280 0.000000 0.130542
146.000000 68.826000 5.000000 7.000000 0.000000 90.506786 13.687217 712.882120 931.201587 14.529655 0.000000 0.153166
147.000000 62.377000 6.000000 7.000000 0.000000 87.470989 6.869643 845.332644 988.881795 16.033157 0.000000 0.159506
148.000000 50.642000 8.000000 7.000000 0.000000 80.998746 -3.317078 1037.380618 1111.778526 19.751037 0.000000 0.147103
149.000000 45.653000 9.000000 7.000000 0.000000 77.928428 -7.108084 1109.213749 1172.961753 21.910701 0.000000 0.135582
151.000000 71.897000 3.000000 8.000000 0.000000 94.264022 35.529787 206.442208 842.393451 13.907236 0.000000 0.080905
152.000000 63.724000 5.000000 8.000000 0.000000 92.129954 18.655264 611.630883 898.750868 15.692250 0.000000 0.141402
153.000000 53.888000 7.000000 8.000000 0.000000 87.070368 6.107909 859.827049 996.395252 18.558980 0.000000 0.159499
155.000000 65.932000 2.000000 9.000000 0.000000 92.748962 47.451407 -197.571000 864.576730 15.165163 0.000000 0.210826
156.000000 62.249000 4.000000 9.000000 0.000000 94.150713 30.436214 342.627121 850.408600 16.063081 0.000000 0.094094
157.000000 58.956000 5.000000 9.000000 0.000000 93.150085 22.915750 520.006794 876.690974 16.960819 0.000000 0.126723
158.000000 51.290000 7.000000 9.000000 0.000000 89.204846 10.492603 775.664360 956.191854 19.498231 0.000000 0.157562
159.000000 47.425000 8.000000 9.000000 0.000000 86.756983 5.528405 870.826098 1002.269814 21.088173 0.000000 0.159396
161.000000 58.699000 3.000000 10.000000 0.000000 93.846393 41.293491 29.669005 844.688269 17.033939 0.000000 0.112021
162.000000 48.632000 7.000000 10.000000 0.000000 90.785134 14.444112 697.771161 925.768990 20.563120 0.000000 0.151759
164.000000 54.002000 2.000000 11.000000 0.000000 91.896521 50.678640 -338.974904 884.757843 18.515327 0.000000 0.288894
165.000000 53.633000 3.000000 11.000000 0.000000 93.541542 43.438309 -44.164939 849.262066 18.642724 0.000000 0.139255
166.000000 52.480000 4.000000 11.000000 0.000000 94.238654 36.387630 181.846052 841.911786 19.052703 0.000000 0.081620
167.000000 50.709000 5.000000 11.000000 0.000000 94.098389 29.718788 360.624729 852.200852 19.718512 0.000000 0.097182
168.000000 48.502000 6.000000 11.000000 0.000000 93.276179 23.564325 505.576433 873.785310 20.616675 0.000000 0.124151
169.000000 46.026000 7.000000 11.000000 0.000000 91.940491 17.991271 625.472064 902.659456 21.726501 0.000000 0.143316
171.000000 47.218000 5.000000 12.000000 0.000000 94.249253 32.441048 290.880766 846.244431 21.176264 0.000000 0.086449
173.000000 45.616000 3.000000 13.000000 0.000000 92.904267 46.769734 -169.924420 861.279567 21.919248 0.000000 0.196770
175.000000 150.974000 3.000000 1.000000 1.000000 78.532955 -40.159847 1883.247035 1226.679368 6.624687 0.000000 0.147665
176.000000 105.003000 4.000000 1.000000 1.000000 68.112666 -40.238274 1885.772307 1507.428051 9.526664 0.000000 0.191217
177.000000 78.512000 5.000000 1.000000 1.000000 61.400271 -40.283799 1887.240848 1710.230093 12.742254 0.000000 0.226600
178.000000 61.813000 6.000000 1.000000 1.000000 56.745025 -40.313537 1888.201190 1866.598348 16.185611 0.000000 0.256582
179.000000 50.533000 7.000000 1.000000 1.000000 53.337232 -40.334486 1888.878221 1992.003248 19.799602 0.000000 0.282095
180.000000 158.683000 3.000000 2.000000 1.000000 95.673005 -24.577469 1467.254120 823.431982 6.301240 0.000000 0.117298
181.000000 116.117000 4.000000 2.000000 1.000000 83.192803 -28.881631 1568.696231 1087.727501 8.613033 0.000000 0.114617
182.000000 88.737000 5.000000 2.000000 1.000000 74.499895 -31.365501 1631.083651 1290.569506 11.272300 0.000000 0.120676
183.000000 70.442000 6.000000 2.000000 1.000000 68.200570 -32.976621 1673.329446 1454.146161 14.201168 0.000000 0.137015
184.000000 57.684000 7.000000 2.000000 1.000000 63.463224 -34.104596 1703.831939 1590.122480 17.343415 0.000000 0.158570
185.000000 48.432000 8.000000 2.000000 1.000000 59.786683 -34.937827 1726.890146 1705.543896 20.657437 0.000000 0.181347
186.000000 187.549000 2.000000 3.000000 1.000000 118.504816 6.030356 861.300342 353.250365 5.329265 0.000000 0.108842
187.000000 147.834000 3.000000 3.000000 1.000000 105.243351 -9.079759 1147.004462 643.980917 6.762625 0.000000 0.149393
188.000000 115.806000 4.000000 3.000000 1.000000 93.811599 -17.229115 1308.768156 865.925004 8.634768 0.000000 0.144854
189.000000 92.119000 5.000000 3.000000 1.000000 84.820609 -22.137822 1412.865640 1046.324646 10.856827 0.000000 0.130206
190.000000 74.854000 6.000000 3.000000 1.000000 77.825924 -25.374178 1485.467803 1197.985100 13.362416 0.000000 0.118731
191.000000 62.128000 7.000000 3.000000 1.000000 72.323983 -27.655036 1538.990108 1328.230967 16.100941 0.000000 0.115790
192.000000 52.560000 8.000000 3.000000 1.000000 67.923455 -29.344196 1580.080320 1441.778784 19.033172 0.000000 0.121667
193.000000 169.901000 1.000000 4.000000 1.000000 119.993568 44.814213 -94.336830 65.272238 5.882345 0.000000 0.228478
194.000000 153.624000 2.000000 4.000000 1.000000 117.295733 20.975026 562.387512 346.169061 6.506167 0.000000 0.065145
195.000000 130.950000 3.000000 4.000000 1.000000 109.303203 4.364447 892.855449 562.923189 7.633946 0.000000 0.145314
196.000000 109.003000 4.000000 4.000000 1.000000 100.381362 -6.194332 1091.815249 742.666988 9.172580 0.000000 0.161584
197.000000 90.492000 5.000000 4.000000 1.000000 92.297032 -13.063521 1224.739260 896.680410 11.050572 0.000000 0.154760
198.000000 75.697000 6.000000 4.000000 1.000000 85.438644 -17.764486 1319.824538 1031.165195 13.212102 0.000000 0.140562
199.000000 64.063000 7.000000 4.000000 1.000000 79.729264 -21.142040 1391.214964 1150.102891 15.612957 0.000000 0.126421
200.000000 54.908000 8.000000 4.000000 1.000000 74.981285 -23.669913 1446.786230 1256.293538 18.217663 0.000000 0.116364
201.000000 47.642000 9.000000 4.000000 1.000000 71.008853 -25.625887 1491.271862 1351.821363 20.997425 0.000000 0.112362
203.000000 127.336000 2.000000 5.000000 1.000000 114.520549 30.711501 335.650969 369.948020 7.849563 0.000000 0.010360
204.000000 114.293000 3.000000 5.000000 1.000000 110.257502 15.017451 686.256435 529.727757 8.746282 0.000000 0.120219
205.000000 99.726000 4.000000 5.000000 1.000000 103.951888 3.562454 907.993361 673.091771 10.025205 0.000000 0.158554
206.000000 85.991000 5.000000 5.000000 1.000000 97.323546 -4.562185 1060.881664 802.234264 11.628027 0.000000 0.165639
207.000000 74.033000 6.000000 5.000000 1.000000 91.147383 -10.407267 1172.678078 919.083095 13.507726 0.000000 0.158867
208.000000 64.004000 7.000000 5.000000 1.000000 85.669575 -14.731173 1257.986495 1025.271816 15.625963 0.000000 0.146559
209.000000 55.718000 8.000000 5.000000 1.000000 80.905837 -18.024763 1325.223562 1122.173430 17.951167 0.000000 0.133229
210.000000 48.896000 9.000000 5.000000 1.000000 76.788008 -20.601359 1379.581555 1210.942736 20.457099 0.000000 0.121619
212.000000 107.527000 2.000000 6.000000 1.000000 111.645660 37.209562 157.765036 404.696649 9.295973 0.000000 0.055690
213.000000 99.840000 3.000000 6.000000 1.000000 109.727411 23.141296 515.004432 521.278393 10.012314 0.000000 0.085866
214.000000 90.196000 4.000000 6.000000 1.000000 105.571704 11.794835 750.251670 634.596682 11.083994 0.000000 0.142888
215.000000 80.226000 5.000000 6.000000 1.000000 100.468582 3.090907 916.881300 741.841305 12.462759 0.000000 0.164002
216.000000 70.874000 6.000000 6.000000 1.000000 95.231182 -3.514058 1041.094048 842.273290 14.108714 0.000000 0.166950
217.000000 62.547000 7.000000 6.000000 1.000000 90.266475 -8.573109 1137.257544 935.937709 15.988587 0.000000 0.160694
218.000000 55.334000 8.000000 6.000000 1.000000 85.736764 -12.515229 1213.908848 1023.185351 18.074412 0.000000 0.150158
219.000000 49.168000 9.000000 6.000000 1.000000 81.678953 -15.646061 1276.439677 1104.475573 20.342507 0.000000 0.138282
221.000000 92.465000 2.000000 7.000000 1.000000 109.070377 41.746829 14.477655 442.299943 10.810548 0.000000 0.113694
222.000000 87.824000 3.000000 7.000000 1.000000 108.581648 29.310882 370.743012 526.046862 11.382357 0.000000 0.050880
223.000000 81.376000 4.000000 7.000000 1.000000 106.025669 18.570320 613.407536 614.875530 12.285135 0.000000 0.120193
224.000000 74.178000 5.000000 7.000000 1.000000 102.276349 9.787435 789.334765 703.336102 13.478385 0.000000 0.153712
225.000000 66.981000 6.000000 7.000000 1.000000 98.025154 2.780501 922.727587 789.075967 14.927959 0.000000 0.166333
226.000000 60.222000 7.000000 7.000000 1.000000 93.711914 -2.784508 1027.347870 871.091894 16.604858 0.000000 0.167191
227.000000 54.103000 8.000000 7.000000 1.000000 89.576552 -7.233062 1111.598619 949.018376 18.484300 0.000000 0.161504
228.000000 48.680000 9.000000 7.000000 1.000000 85.730637 -10.830142 1180.900996 1022.805293 20.544979 0.000000 0.152421
230.000000 80.794000 2.000000 8.000000 1.000000 106.857209 45.056275 -103.410589 479.335390 12.372566 0.000000 0.167670
231.000000 77.939000 3.000000 8.000000 1.000000 107.238207 34.053858 247.557409 537.921278 12.826059 0.000000 0.033497
232.000000 73.569000 4.000000 8.000000 1.000000 105.823753 24.099295 493.566196 606.830999 13.588689 0.000000 0.094466
233.000000 68.356000 5.000000 8.000000 1.000000 103.182052 15.546594 675.574386 679.339722 14.626035 0.000000 0.137936
234.000000 62.849000 6.000000 8.000000 1.000000 99.846308 8.420020 815.682387 752.160274 15.908606 0.000000 0.159348
235.000000 57.431000 7.000000 8.000000 1.000000 96.218087 2.560702 926.865471 823.616032 17.410986 0.000000 0.167262
236.000000 52.325000 8.000000 8.000000 1.000000 92.559602 -2.247610 1017.242759 892.849133 19.111153 0.000000 0.166986
237.000000 47.645000 9.000000 8.000000 1.000000 89.024114 -6.212191 1092.154682 959.441957 20.989932 0.000000 0.161821
239.000000 71.563000 2.000000 9.000000 1.000000 104.974162 47.561501 -202.103254 514.395527 13.968932 0.000000 0.217047
240.000000 69.790000 3.000000 9.000000 1.000000 105.886195 37.766654 141.143435 553.516565 14.323832 0.000000 0.055552
241.000000 66.788000 4.000000 9.000000 1.000000 105.273754 28.618101 387.744123 606.185314 14.968379 0.000000 0.069285
242.000000 62.985000 5.000000 9.000000 1.000000 103.501034 20.458442 573.479603 665.187455 15.872988 0.000000 0.119044
243.000000 58.771000 6.000000 9.000000 1.000000 100.959579 13.409178 718.408332 726.736377 17.011972 0.000000 0.147978
244.000000 54.451000 7.000000 9.000000 1.000000 97.985307 7.429653 834.647319 788.739828 18.362917 0.000000 0.162429
245.000000 50.233000 8.000000 9.000000 1.000000 94.828119 2.396895 929.948332 850.009486 19.906180 0.000000 0.167517
246.000000 46.245000 9.000000 9.000000 1.000000 91.656037 -1.836021 1009.501242 909.866895 21.624472 0.000000 0.166597
248.000000 64.119000 2.000000 10.000000 1.000000 103.369675 49.516993 -285.935760 546.978613 15.590963 0.000000 0.261937
249.000000 63.022000 3.000000 10.000000 1.000000 104.605461 40.728952 48.294231 570.900419 15.862464 0.000000 0.090403
250.000000 60.935000 4.000000 10.000000 1.000000 104.554386 32.337173 293.617252 610.269859 16.406209 0.000000 0.050161
251.000000 58.137000 5.000000 10.000000 1.000000 103.449221 24.639176 481.343553 657.831065 17.196511 0.000000 0.098930
252.000000 54.901000 6.000000 10.000000 1.000000 101.570664 17.791012 629.625944 709.575408 18.210819 0.000000 0.133768
253.000000 51.461000 7.000000 10.000000 1.000000 99.186244 11.822252 749.714135 763.171419 19.429249 0.000000 0.154013
254.000000 47.994000 8.000000 10.000000 1.000000 96.516542 6.679691 848.951231 817.216732 20.834202 0.000000 0.164143
255.000000 58.012000 2.000000 11.000000 1.000000 101.994582 51.082428 -358.029365 576.997437 17.232675 0.000000 0.302679
256.000000 57.346000 3.000000 11.000000 1.000000 103.424970 43.135459 -33.428486 588.949338 17.432728 0.000000 0.126168
257.000000 55.883000 4.000000 11.000000 1.000000 103.767067 35.427196 209.348320 617.374211 17.889442 0.000000 0.046838
258.000000 53.807000 5.000000 11.000000 1.000000 103.169777 28.204928 397.776876 655.224134 18.580319 0.000000 0.079453
259.000000 51.309000 6.000000 11.000000 1.000000 101.832167 21.627384 548.269789 698.443873 19.485416 0.000000 0.117952
260.000000 48.566000 7.000000 11.000000 1.000000 99.961422 15.760756 671.235484 744.582969 20.586991 0.000000 0.143090
261.000000 45.721000 8.000000 11.000000 1.000000 97.743411 10.599138 773.593755 792.108466 21.869210 0.000000 0.157793
263.000000 52.539000 3.000000 12.000000 1.000000 102.350473 45.122638 -105.911651 607.005815 19.027977 0.000000 0.160725
264.000000 51.508000 4.000000 12.000000 1.000000 102.968220 38.021183 133.465748 626.378641 19.408806 0.000000 0.061441
265.000000 49.956000 5.000000 12.000000 1.000000 102.755907 31.259781 321.637171 655.961934 20.012437 0.000000 0.063103
266.000000 48.017000 6.000000 12.000000 1.000000 101.854175 24.985578 473.445519 691.763059 20.821116 0.000000 0.101602
267.000000 45.823000 7.000000 12.000000 1.000000 100.420989 19.280299 598.502526 731.293986 21.818929 0.000000 0.130528
269.000000 48.428000 3.000000 13.000000 1.000000 101.377568 46.787558 -170.638358 624.688028 20.643306 0.000000 0.193546
270.000000 47.703000 4.000000 13.000000 1.000000 102.188346 40.221231 64.776975 636.538156 20.957394 0.000000 0.084301
271.000000 46.535000 5.000000 13.000000 1.000000 102.267646 33.892070 251.976456 659.062294 21.483866 0.000000 0.053757
277.000000 111.130000 4.000000 1.000000 2.000000 81.464386 -50.912879 2299.988207 1197.204484 8.998988 0.000000 0.302156
278.000000 85.375000 5.000000 1.000000 2.000000 73.209121 -48.736855 2201.710578 1433.428283 11.715345 0.000000 0.290044
279.000000 68.091000 6.000000 1.000000 2.000000 67.203065 -47.306843 2141.648475 1608.133851 14.690707 0.000000 0.295833
280.000000 55.976000 7.000000 1.000000 2.000000 62.668386 -46.296502 2101.139954 1746.106116 17.871459 0.000000 0.306222
282.000000 157.249000 3.000000 2.000000 2.000000 110.770612 -39.810143 1872.057420 409.588785 6.356701 0.000000 0.081696
283.000000 119.841000 4.000000 2.000000 2.000000 96.443894 -39.992667 1877.883428 782.330778 8.343014 0.000000 0.086347
284.000000 93.798000 5.000000 2.000000 2.000000 86.160193 -40.094691 1881.153501 1035.431743 10.661433 0.000000 0.119859
285.000000 62.286000 7.000000 2.000000 2.000000 72.698282 -40.205062 1884.702181 1379.976857 16.059046 0.000000 0.170844
286.000000 183.204000 2.000000 3.000000 2.000000 138.814420 -11.334040 1190.729876 -313.531339 5.453974 0.000000 0.034178
287.000000 148.448000 3.000000 3.000000 2.000000 121.265715 -22.770211 1426.774125 232.247657 6.732605 0.000000 0.037945
288.000000 118.995000 4.000000 3.000000 2.000000 107.272773 -27.865226 1544.032392 562.438200 8.400949 0.000000 0.067717
289.000000 96.219000 5.000000 3.000000 2.000000 96.476366 -30.703465 1614.144813 798.902414 10.391605 0.000000 0.087247
290.000000 79.041000 6.000000 3.000000 2.000000 88.097492 -32.504193 1660.785805 983.392158 12.651867 0.000000 0.100843
291.000000 66.059000 7.000000 3.000000 2.000000 81.491078 -33.746128 1694.051650 1134.653893 15.139925 0.000000 0.113129
292.000000 56.122000 8.000000 3.000000 2.000000 76.188530 -34.653655 1718.974209 1262.651275 17.822192 0.000000 0.125997
293.000000 48.390000 9.000000 3.000000 2.000000 71.858909 -35.345493 1738.342547 1373.329323 20.671373 0.000000 0.139749
294.000000 155.287000 2.000000 4.000000 2.000000 137.457324 11.553244 754.983666 -256.067880 6.434577 0.000000 0.031169
295.000000 133.547000 3.000000 4.000000 2.000000 125.635178 -6.132747 1090.644898 165.008056 7.483354 0.000000 0.072559
296.000000 112.363000 4.000000 4.000000 2.000000 113.981424 -15.494747 1273.376558 444.163428 8.895961 0.000000 0.105389
297.000000 94.163000 5.000000 4.000000 2.000000 103.968146 -21.006980 1388.301107 654.225191 10.617194 0.000000 0.116096
298.000000 67.499000 7.000000 4.000000 2.000000 88.843235 -27.060806 1524.838880 965.404320 14.815435 0.000000 0.115594
299.000000 50.491000 9.000000 4.000000 2.000000 78.476462 -30.271278 1603.212044 1195.079152 19.809428 0.000000 0.116151
300.000000 131.320000 2.000000 5.000000 2.000000 132.936967 26.074998 448.311136 -173.927068 7.609324 0.000000 0.079477
301.000000 117.936000 3.000000 5.000000 2.000000 126.046348 7.781716 827.915918 150.415000 8.473860 0.000000 0.067119
302.000000 103.278000 4.000000 5.000000 2.000000 117.376496 -3.960905 1049.523881 382.327627 9.677964 0.000000 0.116449
303.000000 89.450000 5.000000 5.000000 2.000000 108.903808 -11.541373 1194.784025 564.815915 11.175744 0.000000 0.134878
304.000000 77.329000 6.000000 5.000000 2.000000 101.309278 -16.673116 1297.353373 716.307228 12.929223 0.000000 0.138311
305.000000 67.079000 7.000000 5.000000 2.000000 94.718270 -20.323744 1373.640478 846.269544 14.906702 0.000000 0.134773
306.000000 58.545000 8.000000 5.000000 2.000000 89.058792 -23.033374 1432.599884 960.213853 17.081511 0.000000 0.128691
307.000000 51.470000 9.000000 5.000000 2.000000 84.204239 -25.115717 1479.533165 1061.652996 19.431055 0.000000 0.122713
308.000000 45.596000 10.000000 5.000000 2.000000 80.025915 -26.761983 1517.779297 1152.984583 21.936062 0.000000 0.118449
309.000000 112.120000 2.000000 6.000000 2.000000 128.083019 35.021788 220.760519 -88.884781 8.912864 0.000000 0.129493
310.000000 103.811000 3.000000 6.000000 2.000000 124.483109 18.402551 616.911333 161.909352 9.626984 0.000000 0.042861
311.000000 83.519000 5.000000 6.000000 2.000000 111.797334 -2.772216 1027.116417 510.066786 11.968830 0.000000 0.138814
312.000000 65.350000 7.000000 6.000000 2.000000 99.212145 -13.717729 1237.725122 761.318973 15.300057 0.000000 0.149739
313.000000 51.513000 9.000000 6.000000 2.000000 89.032697 -19.960989 1365.909385 960.333877 19.413284 0.000000 0.137711
314.000000 96.968000 2.000000 7.000000 2.000000 123.723492 40.823100 45.210188 -8.394528 10.306216 0.000000 0.179969
315.000000 91.728000 3.000000 7.000000 2.000000 122.159286 26.271627 443.725245 186.336537 10.895474 0.000000 0.015762
316.000000 84.831000 4.000000 7.000000 2.000000 118.268472 14.291468 700.826706 343.755762 11.782178 0.000000 0.090134
317.000000 77.288000 5.000000 7.000000 2.000000 113.208307 5.020775 880.443195 477.737426 12.933341 0.000000 0.131933
318.000000 69.808000 6.000000 7.000000 2.000000 107.798325 -2.022916 1013.016036 595.258956 14.320681 0.000000 0.150964
319.000000 62.802000 7.000000 7.000000 2.000000 102.502359 -7.405280 1114.887086 700.337518 15.919808 0.000000 0.157181
320.000000 56.460000 8.000000 7.000000 2.000000 97.542621 -11.583814 1195.614648 795.525565 17.709581 0.000000 0.156084
321.000000 50.834000 9.000000 7.000000 2.000000 93.003301 -14.889192 1261.162383 882.569808 19.671580 0.000000 0.150938
322.000000 45.896000 10.000000 7.000000 2.000000 88.896938 -17.552745 1315.443907 962.735464 21.789685 0.000000 0.143812
323.000000 81.596000 3.000000 8.000000 2.000000 119.672597 32.131138 299.026513 216.860339 12.248767 0.000000 0.035305
324.000000 71.261000 5.000000 8.000000 2.000000 113.620116 11.753928 751.053490 460.247865 14.026945 0.000000 0.117865
325.000000 59.817000 7.000000 8.000000 2.000000 104.799649 -1.507547 1003.325618 656.539381 16.713601 0.000000 0.157934
326.000000 49.634000 9.000000 8.000000 2.000000 96.192293 -9.974767 1164.291026 822.431235 20.145915 0.000000 0.159782
328.000000 73.135000 3.000000 9.000000 2.000000 117.280557 36.577790 176.320469 249.815806 13.666222 0.000000 0.072576
329.000000 69.780000 4.000000 9.000000 2.000000 115.972956 26.356712 441.736034 355.857905 14.323910 0.000000 0.037022
330.000000 65.674000 5.000000 9.000000 2.000000 113.397994 17.479825 636.062326 452.744333 15.220189 0.000000 0.099262
331.000000 61.203000 6.000000 9.000000 2.000000 110.046242 10.037846 784.487152 542.171970 16.333304 0.000000 0.134522
332.000000 56.661000 7.000000 9.000000 2.000000 106.312411 3.903685 901.556075 625.283936 17.644069 0.000000 0.153441
333.000000 52.249000 8.000000 9.000000 2.000000 102.471172 -1.131406 996.256079 702.912975 19.135496 0.000000 0.162083
334.000000 48.088000 9.000000 9.000000 2.000000 98.694908 -5.278595 1074.439274 775.700714 20.792490 0.000000 0.164144
335.000000 66.046000 3.000000 10.000000 2.000000 115.078575 40.029184 70.947253 283.208105 15.133391 0.000000 0.110357
336.000000 60.610000 5.000000 10.000000 2.000000 112.795819 22.317614 533.192968 452.032907 16.491944 0.000000 0.078055
337.000000 53.506000 7.000000 10.000000 2.000000 107.225979 8.801943 808.343476 603.319625 18.683827 0.000000 0.145024
338.000000 46.335000 9.000000 10.000000 2.000000 100.612445 -0.844810 990.870809 739.313106 21.578595 0.000000 0.164602
340.000000 60.069000 3.000000 11.000000 2.000000 113.089972 42.767425 -20.523387 315.954704 16.639863 0.000000 0.146974
341.000000 58.368000 4.000000 11.000000 2.000000 113.057758 34.269373 241.644559 386.618147 17.125025 0.000000 0.026134
342.000000 56.073000 5.000000 11.000000 2.000000 111.981014 26.404195 440.624651 455.964402 17.826664 0.000000 0.055881
343.000000 53.378000 6.000000 11.000000 2.000000 110.109713 19.360805 596.804346 523.304508 18.727580 0.000000 0.103657
344.000000 50.458000 7.000000 11.000000 2.000000 107.694122 13.195222 722.652140 588.320887 19.812348 0.000000 0.133768
345.000000 47.455000 8.000000 11.000000 2.000000 104.949532 7.870211 826.222141 650.891090 21.067095 0.000000 0.151902
346.000000 54.987000 3.000000 12.000000 2.000000 111.307862 44.983447 -100.672565 347.484954 18.177944 0.000000 0.181887
347.000000 52.028000 5.000000 12.000000 2.000000 111.060233 29.868764 356.883877 463.065852 19.212650 0.000000 0.035084
348.000000 47.572000 7.000000 12.000000 2.000000 107.838523 17.113694 643.607040 578.594980 21.013944 0.000000 0.120541
350.000000 50.633000 3.000000 13.000000 2.000000 109.714050 46.808548 -171.479696 377.520576 19.741825 0.000000 0.214898
351.000000 49.749000 4.000000 13.000000 2.000000 110.312892 39.667956 82.459649 423.422583 20.092534 0.000000 0.085103
352.000000 48.428000 5.000000 13.000000 2.000000 110.099697 32.822948 280.765389 472.312520 20.640935 0.000000 0.023420
353.000000 46.771000 6.000000 13.000000 2.000000 109.197992 26.434492 439.915062 522.477953 21.373110 0.000000 0.067831
354.000000 46.870000 3.000000 14.000000 2.000000 108.287367 48.334888 -234.488170 405.951701 21.327039 0.000000 0.245971
360.000000 93.378000 5.000000 2.000000 3.000000 94.969859 -48.981332 2212.320505 798.393952 10.707369 0.000000 0.227230
361.000000 76.848000 6.000000 2.000000 3.000000 86.875038 -47.447527 2147.411621 1027.889466 13.012395 0.000000 0.209798
362.000000 64.359000 7.000000 2.000000 3.000000 80.486177 -46.379763 2104.421276 1202.462980 15.539365 0.000000 0.213403
363.000000 54.787000 8.000000 2.000000 3.000000 75.350239 -45.594147 2073.850971 1343.082990 18.255725 0.000000 0.223388
364.000000 47.327000 9.000000 2.000000 3.000000 71.149554 -44.992107 2050.997772 1460.592822 21.134988 0.000000 0.234930
366.000000 115.239000 4.000000 3.000000 3.000000 116.789169 -39.712452 1868.951918 234.581504 8.673120 0.000000 0.108058
367.000000 95.518000 5.000000 3.000000 3.000000 105.431248 -39.885126 1874.447074 553.823921 10.465896 0.000000 0.072688
368.000000 67.639000 7.000000 3.000000 3.000000 89.237557 -40.066079 1880.235453 959.715783 14.783914 0.000000 0.109164
369.000000 57.991000 8.000000 3.000000 3.000000 83.373756 -40.119384 1881.946443 1104.502736 17.245127 0.000000 0.129796
370.000000 128.392000 3.000000 4.000000 3.000000 137.601775 -20.611941 1379.808445 -318.383924 7.782441 0.000000 0.072152
371.000000 110.090000 4.000000 4.000000 3.000000 124.334361 -26.706374 1516.469658 118.066177 9.077883 0.000000 0.024681
372.000000 93.791000 5.000000 4.000000 3.000000 113.262823 -29.969450 1595.633866 406.886855 10.657406 0.000000 0.024820
373.000000 80.077000 6.000000 4.000000 3.000000 104.143425 -31.989930 1647.280314 621.225653 12.484442 0.000000 0.054284
374.000000 68.821000 7.000000 4.000000 3.000000 96.620043 -33.360918 1683.632451 791.443493 14.528439 0.000000 0.075808
375.000000 59.651000 8.000000 4.000000 3.000000 90.368579 -34.351181 1710.607846 932.613539 16.763678 0.000000 0.092207
376.000000 52.172000 9.000000 4.000000 3.000000 85.125474 -35.099563 1731.420028 1053.190279 19.168347 0.000000 0.105841
377.000000 46.039000 10.000000 4.000000 3.000000 80.684623 -35.684858 1747.964656 1158.358232 21.723833 0.000000 0.118106
379.000000 115.777000 3.000000 5.000000 3.000000 139.025411 -2.736250 1026.439237 -299.659046 8.630271 0.000000 0.007330
380.000000 102.417000 4.000000 5.000000 3.000000 128.369928 -13.542489 1234.239703 64.489010 9.757458 0.000000 0.042501
381.000000 89.604000 5.000000 5.000000 3.000000 118.533716 -19.759941 1361.639961 319.185479 11.154460 0.000000 0.067061
382.000000 78.159000 6.000000 5.000000 3.000000 109.937739 -23.712394 1447.737865 514.585096 12.789822 0.000000 0.083050
383.000000 68.305000 7.000000 5.000000 3.000000 102.559173 -26.423044 1509.816778 673.254216 14.636793 0.000000 0.092773
384.000000 59.972000 8.000000 5.000000 3.000000 96.250862 -28.389585 1556.697318 806.993996 16.672482 0.000000 0.098803
385.000000 52.973000 9.000000 5.000000 3.000000 90.846182 -29.878212 1593.352150 922.666657 18.877183 0.000000 0.103167
386.000000 47.097000 10.000000 5.000000 3.000000 86.192957 -31.042814 1622.797957 1024.592150 21.233844 0.000000 0.107230
388.000000 93.962000 4.000000 6.000000 3.000000 129.714140 -1.498878 1003.162675 46.688477 10.635369 0.000000 0.052763
389.000000 84.163000 5.000000 6.000000 3.000000 121.608667 -9.880309 1162.462283 268.663028 11.875163 0.000000 0.087188
390.000000 66.566000 7.000000 6.000000 3.000000 107.106951 -19.448324 1355.043693 589.701369 15.018147 0.000000 0.114034
391.000000 59.239000 8.000000 6.000000 3.000000 101.022316 -22.357576 1417.684454 714.314069 16.877343 0.000000 0.117147
392.000000 47.434000 10.000000 6.000000 3.000000 90.975223 -26.322229 1507.457432 920.559382 21.081680 0.000000 0.116216
394.000000 92.510000 3.000000 7.000000 3.000000 134.561324 22.010576 539.917761 -202.265501 10.801371 0.000000 0.063340
395.000000 85.697000 4.000000 7.000000 3.000000 129.305421 8.690458 810.487271 49.659842 11.661109 0.000000 0.047174
396.000000 78.297000 5.000000 7.000000 3.000000 122.996265 -0.844681 990.868375 242.070113 12.764484 0.000000 0.090902
397.000000 70.951000 6.000000 7.000000 3.000000 116.547940 -7.657756 1119.712720 398.415666 14.087599 0.000000 0.115303
398.000000 64.040000 7.000000 7.000000 3.000000 110.406400 -12.638836 1216.346363 530.649555 15.609583 0.000000 0.127388
399.000000 57.748000 8.000000 7.000000 3.000000 104.752545 -16.387039 1291.506090 645.583802 17.312125 0.000000 0.132036
400.000000 52.132000 9.000000 7.000000 3.000000 99.634062 -19.286775 1351.634014 747.436933 19.179098 0.000000 0.132257
401.000000 47.174000 10.000000 7.000000 3.000000 95.036291 -21.585946 1400.829683 838.995576 21.196237 0.000000 0.130009
403.000000 82.943000 3.000000 8.000000 3.000000 131.291009 29.529752 365.324001 -145.367732 12.047761 0.000000 0.095918
404.000000 78.073000 4.000000 8.000000 3.000000 127.912916 16.930289 647.375205 64.761678 12.799978 0.000000 0.033630
405.000000 72.505000 5.000000 8.000000 3.000000 123.205140 7.070705 841.499270 231.156501 13.784082 0.000000 0.083883
406.000000 66.727000 6.000000 8.000000 3.000000 117.954695 -0.440106 983.267506 369.798532 14.979000 0.000000 0.115547
407.000000 61.078000 7.000000 8.000000 3.000000 112.650570 -6.169528 1091.343837 489.250552 16.366137 0.000000 0.132722
408.000000 55.759000 8.000000 8.000000 3.000000 107.556068 -10.602069 1176.463221 594.573466 17.929023 0.000000 0.140810
409.000000 50.872000 9.000000 8.000000 3.000000 102.794679 -14.094568 1245.237957 688.990332 19.653015 0.000000 0.143180
410.000000 46.451000 10.000000 8.000000 3.000000 98.410793 -16.898060 1301.963402 774.678308 21.525057 0.000000 0.142002
412.000000 71.243000 4.000000 9.000000 3.000000 126.050796 23.477914 507.507163 86.856208 14.027348 0.000000 0.023776
413.000000 67.046000 5.000000 9.000000 3.000000 122.656388 13.816919 710.299757 230.632348 14.906418 0.000000 0.069926
414.000000 57.930000 7.000000 9.000000 3.000000 114.046135 -0.165198 978.103229 460.762114 17.254824 0.000000 0.131621
415.000000 53.479000 8.000000 9.000000 3.000000 109.569723 -5.104613 1071.144049 556.866080 18.692626 0.000000 0.143921
417.000000 67.751000 3.000000 10.000000 3.000000 125.106922 39.139295 99.093018 -34.519865 14.750284 0.000000 0.163267
418.000000 65.211000 4.000000 10.000000 3.000000 124.022353 28.679558 386.245086 112.815458 15.325256 0.000000 0.034862
419.000000 62.033000 5.000000 10.000000 3.000000 121.658312 19.486734 594.144631 237.023814 16.111205 0.000000 0.051576
420.000000 58.479000 6.000000 10.000000 3.000000 118.454443 11.724868 751.622951 345.297978 17.091417 0.000000 0.097260
421.000000 54.768000 7.000000 10.000000 3.000000 114.787366 5.306130 875.039051 441.831172 18.250894 0.000000 0.125636
422.000000 51.064000 8.000000 10.000000 3.000000 110.934141 0.033764 974.365757 529.268079 19.576147 0.000000 0.142383
423.000000 47.481000 9.000000 10.000000 3.000000 107.079057 -4.305395 1056.028900 609.383449 21.055005 0.000000 0.151357
425.000000 61.770000 3.000000 11.000000 3.000000 122.411274 42.310666 -4.718766 16.958263 16.179120 0.000000 0.196440
426.000000 59.915000 4.000000 11.000000 3.000000 121.992278 32.847658 280.107916 140.703557 16.680292 0.000000 0.058418
427.000000 57.495000 5.000000 11.000000 3.000000 120.419064 24.231333 490.586541 248.004635 17.383169 0.000000 0.030620
428.000000 54.699000 6.000000 11.000000 3.000000 118.002703 16.681896 652.466899 343.512746 18.272732 0.000000 0.082323
429.000000 51.696000 7.000000 11.000000 3.000000 115.041743 10.226067 780.838525 430.044196 19.335417 0.000000 0.116037
430.000000 48.622000 8.000000 11.000000 3.000000 111.780961 4.773100 885.129892 509.431149 20.558944 0.000000 0.137186
431.000000 45.581000 9.000000 11.000000 3.000000 108.401283 0.184427 971.535555 582.935924 21.932166 0.000000 0.149771
433.000000 55.271000 4.000000 12.000000 3.000000 120.043572 36.229097 186.431998 169.311332 18.082243 0.000000 0.085103
434.000000 53.417000 5.000000 12.000000 3.000000 119.071725 28.208864 397.681668 261.992277 18.710586 0.000000 0.009315
435.000000 48.774000 7.000000 12.000000 3.000000 114.945113 14.612013 694.405363 423.636986 20.493664 0.000000 0.103819
436.000000 46.225000 8.000000 12.000000 3.000000 112.225663 9.100924 802.587795 495.602983 21.624856 0.000000 0.129175
439.000000 51.193000 4.000000 13.000000 3.000000 118.213675 39.009310 103.144458 197.882557 19.523194 0.000000 0.112433
440.000000 49.764000 5.000000 13.000000 3.000000 117.697982 31.561087 313.866554 277.896713 20.084313 0.000000 0.017302
441.000000 48.011000 6.000000 13.000000 3.000000 116.436561 24.689757 480.193032 352.024085 20.818331 0.000000 0.046582
442.000000 46.033000 7.000000 13.000000 3.000000 114.602949 18.502875 614.816910 421.302654 21.714005 0.000000 0.089760
445.000000 47.601000 4.000000 14.000000 3.000000 116.515482 41.325359 28.608021 225.948369 20.996914 0.000000 0.139518
446.000000 46.494000 5.000000 14.000000 3.000000 116.346088 34.406397 237.869409 294.960169 21.497111 0.000000 0.040585
452.000000 48.453000 9.000000 2.000000 4.000000 76.989274 -49.699623 2244.105734 1325.502713 20.641483 0.000000 0.292126
455.000000 78.320000 6.000000 3.000000 4.000000 102.864877 -47.600554 2153.715514 576.456419 12.764315 0.000000 0.200862
456.000000 67.353000 7.000000 3.000000 4.000000 95.528096 -46.469183 2107.956485 789.756655 14.844565 0.000000 0.174828
457.000000 58.434000 8.000000 3.000000 4.000000 89.431899 -45.646269 2075.852504 956.265717 17.112400 0.000000 0.171669
458.000000 51.162000 9.000000 3.000000 4.000000 84.316381 -45.021036 2052.084900 1092.542913 19.546512 0.000000 0.178115
459.000000 90.641000 5.000000 4.000000 4.000000 120.083508 -39.651604 1867.022067 131.205617 11.026308 0.000000 0.127792
460.000000 68.439000 7.000000 4.000000 4.000000 102.988007 -39.916441 1875.446591 617.335115 14.607408 0.000000 0.073457
461.000000 52.823000 9.000000 4.000000 4.000000 90.898453 -40.050001 1879.719883 918.950245 18.930058 0.000000 0.103552
463.000000 98.540000 4.000000 5.000000 4.000000 136.541528 -25.374058 1485.465031 -316.098120 10.140213 0.000000 0.097275
464.000000 87.326000 5.000000 5.000000 4.000000 125.990588 -29.151331 1575.321296 45.922590 11.444042 0.000000 0.050156
465.000000 77.054000 6.000000 5.000000 4.000000 116.887685 -31.428114 1632.697931 301.427091 12.971461 0.000000 0.008078
466.000000 68.004000 7.000000 5.000000 4.000000 109.086549 -32.945897 1672.509621 497.215143 14.699548 0.000000 0.027133
467.000000 60.195000 8.000000 5.000000 4.000000 102.399484 -34.028596 1701.751486 655.478333 16.608413 0.000000 0.052290
468.000000 53.523000 9.000000 5.000000 4.000000 96.646875 -34.839307 1724.139589 788.185177 18.680710 0.000000 0.071768
469.000000 47.841000 10.000000 5.000000 4.000000 91.672269 -35.468851 1741.830764 902.418118 20.901242 0.000000 0.087392
471.000000 82.729000 5.000000 6.000000 4.000000 129.639157 -18.379213 1332.601813 1.446061 12.079307 0.000000 0.029133
472.000000 66.437000 7.000000 6.000000 4.000000 113.822629 -25.736962 1493.840859 413.455871 15.045349 0.000000 0.053816
473.000000 53.409000 9.000000 6.000000 4.000000 101.524924 -29.462407 1583.006130 688.941246 18.719152 0.000000 0.078628
475.000000 84.472000 4.000000 7.000000 4.000000 138.837240 1.218113 952.114453 -290.332845 11.828661 0.000000 0.004186
476.000000 77.568000 5.000000 7.000000 4.000000 131.396666 -8.063614 1127.482064 -17.243973 12.882801 0.000000 0.037713
477.000000 70.665000 6.000000 7.000000 4.000000 124.091179 -14.219671 1247.737523 189.510813 14.142846 0.000000 0.062227
478.000000 64.110000 7.000000 7.000000 4.000000 117.288150 -18.510039 1335.332738 355.474603 15.590690 0.000000 0.078852
479.000000 58.083000 8.000000 7.000000 4.000000 111.103527 -21.638978 1401.982250 494.123218 17.210291 0.000000 0.089860
480.000000 52.652000 9.000000 7.000000 4.000000 105.543209 -24.008860 1454.396537 613.290284 18.987382 0.000000 0.096895
481.000000 47.816000 10.000000 7.000000 4.000000 100.566988 -25.860172 1496.696168 717.875343 20.909235 0.000000 0.101278
483.000000 72.312000 5.000000 8.000000 4.000000 131.736753 1.232012 951.853241 -19.404403 13.819075 0.000000 0.040691
484.000000 61.333000 7.000000 8.000000 4.000000 119.640054 -11.488785 1193.755165 316.062701 16.295825 0.000000 0.092938
485.000000 51.418000 9.000000 8.000000 4.000000 108.750691 -18.576163 1336.714622 555.551380 19.442004 0.000000 0.112518
487.000000 71.347000 4.000000 9.000000 4.000000 135.346542 19.711636 589.384225 -216.202882 14.005187 0.000000 0.055357
488.000000 67.238000 5.000000 9.000000 4.000000 131.118842 9.246500 799.781836 -10.903669 14.861985 0.000000 0.036582
489.000000 62.819000 6.000000 9.000000 4.000000 126.194940 1.240442 951.694805 153.233019 15.908767 0.000000 0.073197
490.000000 58.342000 7.000000 9.000000 4.000000 121.068598 -4.861004 1066.533088 290.201256 17.130907 0.000000 0.098291
491.000000 53.985000 8.000000 9.000000 4.000000 116.027556 -9.566425 1156.392869 408.003223 18.515244 0.000000 0.113850
492.000000 49.857000 9.000000 9.000000 4.000000 111.223483 -13.259620 1228.624391 511.577320 20.049901 0.000000 0.122901
493.000000 46.018000 10.000000 9.000000 4.000000 106.726482 -16.212725 1287.951632 604.158307 21.724134 0.000000 0.127523
495.000000 62.489000 5.000000 10.000000 4.000000 129.913945 15.977938 666.826043 4.452179 15.991828 0.000000 0.029799
496.000000 55.300000 7.000000 10.000000 4.000000 121.768530 1.246101 951.588460 274.329764 18.073084 0.000000 0.097108
497.000000 48.091000 9.000000 10.000000 4.000000 113.053393 -8.142768 1128.999104 478.291089 20.785364 0.000000 0.128274
499.000000 60.578000 4.000000 11.000000 4.000000 130.473462 31.062768 326.691309 -131.119539 16.495731 0.000000 0.104243
500.000000 58.122000 5.000000 11.000000 4.000000 128.387033 21.566409 549.594705 24.149475 17.193475 0.000000 0.027765
501.000000 55.315000 6.000000 11.000000 4.000000 125.417687 13.482505 716.952168 153.926467 18.067101 0.000000 0.056460
502.000000 52.314000 7.000000 11.000000 4.000000 121.918296 6.770281 847.225854 265.881135 19.104570 0.000000 0.091097
503.000000 49.249000 8.000000 11.000000 4.000000 118.161581 1.250161 951.512143 364.687738 20.294915 0.000000 0.114431
504.000000 46.216000 9.000000 11.000000 4.000000 114.337728 -3.290615 1036.881850 453.377059 21.628128 0.000000 0.129407
506.000000 54.150000 5.000000 12.000000 4.000000 126.712492 26.197580 445.454014 46.504644 18.455112 0.000000 0.036557
507.000000 49.450000 7.000000 12.000000 4.000000 121.668920 11.703159 752.048274 262.978392 20.211306 0.000000 0.081546
509.000000 52.049000 4.000000 13.000000 4.000000 125.825324 38.212262 127.666871 -47.859658 19.200205 0.000000 0.154854
510.000000 50.556000 5.000000 13.000000 4.000000 124.998727 30.050837 352.327265 70.378576 19.767384 0.000000 0.052887
511.000000 48.756000 6.000000 13.000000 4.000000 123.368065 22.632918 526.256246 173.033413 20.498021 0.000000 0.027957
512.000000 46.742000 7.000000 13.000000 4.000000 121.140989 16.072938 664.894258 264.232347 21.382040 0.000000 0.069421
514.000000 47.313000 5.000000 14.000000 4.000000 123.309990 33.279610 268.554958 94.995697 21.122786 0.000000 0.072476
522.000000 57.783000 8.000000 3.000000 5.000000 94.398910 -51.132664 2310.423243 809.058648 17.303175 0.000000 0.280873
523.000000 51.107000 9.000000 3.000000 5.000000 89.218137 -49.859743 2251.319387 963.784259 19.565390 0.000000 0.254868
524.000000 45.507000 10.000000 3.000000 5.000000 84.756414 -48.856049 2206.870457 1091.126279 21.974639 0.000000 0.244034
527.000000 66.830000 7.000000 4.000000 5.000000 107.990990 -46.565471 2111.776233 432.622901 14.957651 0.000000 0.191624
528.000000 59.167000 8.000000 4.000000 5.000000 101.432309 -45.701832 2077.990278 629.354755 16.896847 0.000000 0.160030
529.000000 52.631000 9.000000 4.000000 5.000000 95.792426 -45.051640 2053.236136 786.453639 18.996985 0.000000 0.149704
530.000000 47.070000 10.000000 4.000000 5.000000 90.915077 -44.544589 2034.319172 916.879105 21.243150 0.000000 0.151150
531.000000 74.610000 6.000000 5.000000 5.000000 122.158668 -39.610063 1865.706522 62.633268 13.394920 0.000000 0.141634
532.000000 66.566000 7.000000 5.000000 5.000000 114.294137 -39.754875 1870.299444 309.052980 15.015461 0.000000 0.095374
533.000000 59.469000 8.000000 5.000000 5.000000 107.491420 -39.857326 1873.560508 499.157579 16.809375 0.000000 0.074374
534.000000 53.288000 9.000000 5.000000 5.000000 101.588528 -39.933632 1875.995674 653.167159 18.761273 0.000000 0.075084
536.000000 79.867000 5.000000 6.000000 5.000000 135.744601 -28.234170 1552.930627 -312.815889 12.511029 0.000000 0.114906
537.000000 72.312000 6.000000 6.000000 5.000000 127.018167 -30.811952 1616.904505 -3.959169 13.819845 0.000000 0.071723
538.000000 65.268000 7.000000 6.000000 5.000000 119.308322 -32.497513 1660.609391 224.633886 15.313023 0.000000 0.033284
539.000000 58.885000 8.000000 6.000000 5.000000 112.524041 -33.683848 1692.360784 404.599031 16.974864 0.000000 0.016092
540.000000 53.198000 9.000000 6.000000 5.000000 106.555648 -34.563448 1716.472732 552.474339 18.791398 0.000000 0.034277
541.000000 48.181000 10.000000 6.000000 5.000000 101.295150 -35.241361 1735.406269 677.791298 20.750160 0.000000 0.054028
543.000000 75.552000 5.000000 7.000000 5.000000 138.223607 -16.843974 1300.853946 -317.772932 13.225309 0.000000 0.055264
544.000000 69.276000 6.000000 7.000000 5.000000 130.307943 -21.740713 1404.195663 -41.937190 14.424958 0.000000 0.035858
545.000000 63.243000 7.000000 7.000000 5.000000 123.066474 -24.997072 1476.817300 167.848035 15.802722 0.000000 0.021208
546.000000 57.627000 8.000000 7.000000 5.000000 116.536752 -27.305360 1530.644418 336.117781 17.344409 0.000000 0.029469
547.000000 52.508000 9.000000 7.000000 5.000000 110.685252 -29.021882 1572.137125 476.264042 19.037296 0.000000 0.044904
548.000000 47.902000 10.000000 7.000000 5.000000 105.452097 -30.346155 1605.099222 596.251644 20.869943 0.000000 0.058806
550.000000 70.990000 5.000000 8.000000 5.000000 139.044350 -6.072557 1089.501308 -306.069928 14.074974 0.000000 0.017035
551.000000 65.847000 6.000000 8.000000 5.000000 132.215479 -12.836905 1220.257207 -60.484671 15.175814 0.000000 0.029022
552.000000 60.757000 7.000000 8.000000 5.000000 125.673410 -17.502426 1314.404392 130.854956 16.448766 0.000000 0.042694
553.000000 55.896000 8.000000 8.000000 5.000000 119.586933 -20.873630 1385.429334 286.980133 17.880947 0.000000 0.056293
554.000000 51.363000 9.000000 8.000000 5.000000 114.006163 -23.407372 1440.918544 418.679012 19.460728 0.000000 0.067884
555.000000 47.203000 10.000000 8.000000 5.000000 108.926081 -25.374136 1485.466838 532.551113 21.177587 0.000000 0.077106
557.000000 66.457000 5.000000 9.000000 5.000000 138.648478 3.469738 909.741591 -284.146304 15.035075 0.000000 0.009945
558.000000 62.274000 6.000000 9.000000 5.000000 132.998360 -4.495534 1059.621788 -65.700213 16.046218 0.000000 0.032267
559.000000 58.022000 7.000000 9.000000 5.000000 127.285115 -10.261323 1169.845377 108.205152 17.223734 0.000000 0.056051
560.000000 53.861000 8.000000 9.000000 5.000000 121.770524 -14.548083 1254.312486 252.355707 18.555879 0.000000 0.073036
561.000000 49.896000 9.000000 9.000000 5.000000 116.576993 -17.826362 1321.106622 375.418074 20.031990 0.000000 0.085125
562.000000 46.188000 10.000000 9.000000 5.000000 111.751793 -20.399008 1375.249037 482.830365 21.642364 0.000000 0.093565
565.000000 58.726000 6.000000 10.000000 5.000000 132.933296 3.024896 918.124839 -61.717637 17.015901 0.000000 0.032977
566.000000 55.193000 7.000000 10.000000 5.000000 128.082909 -3.474578 1040.349648 96.042579 18.106263 0.000000 0.061377
567.000000 51.658000 8.000000 10.000000 5.000000 123.207269 -8.473055 1135.335828 228.723424 19.346782 0.000000 0.081878
568.000000 48.220000 9.000000 10.000000 5.000000 118.477039 -12.381582 1211.275963 343.275929 20.727653 0.000000 0.095964
571.000000 58.047000 5.000000 11.000000 5.000000 135.803260 18.237551 620.350639 -224.447464 17.214097 0.000000 0.050576
572.000000 55.304000 6.000000 11.000000 5.000000 132.273044 9.621740 792.538355 -51.387444 18.068930 0.000000 0.030661
573.000000 52.378000 7.000000 11.000000 5.000000 128.248614 2.729950 923.679370 91.596237 19.079463 0.000000 0.060639
574.000000 49.388000 8.000000 11.000000 5.000000 124.025827 -2.760077 1026.887863 213.480277 20.235832 0.000000 0.084681
575.000000 46.425000 9.000000 11.000000 5.000000 119.796878 -7.161305 1110.229169 319.832691 21.528990 0.000000 0.101408
578.000000 54.289000 5.000000 12.000000 5.000000 133.917657 23.717104 502.156576 -190.984705 18.406170 0.000000 0.069762
579.000000 52.066000 6.000000 12.000000 5.000000 131.223307 15.311766 680.321628 -36.703390 19.192608 0.000000 0.028251
580.000000 49.645000 7.000000 12.000000 5.000000 127.946366 8.298258 818.019068 92.848062 20.129805 0.000000 0.055489
581.000000 47.122000 8.000000 12.000000 5.000000 124.351255 2.520071 927.630224 204.678006 21.208677 0.000000 0.082877
584.000000 50.845000 5.000000 13.000000 5.000000 131.948934 28.213734 397.563868 -156.792726 19.653132 0.000000 0.089305
585.000000 49.041000 6.000000 13.000000 5.000000 129.938338 20.179050 579.447571 -19.076293 20.376691 0.000000 0.029922
586.000000 47.036000 7.000000 13.000000 5.000000 127.313222 13.234155 721.880475 98.311275 21.246323 0.000000 0.047275
589.000000 47.705000 5.000000 14.000000 5.000000 129.986894 31.927362 304.352461 -122.601077 20.947244 0.000000 0.109265
590.000000 46.237000 6.000000 14.000000 5.000000 128.527327 24.333391 488.279170 0.486279 21.612828 0.000000 0.037757
596.000000 51.798000 9.000000 4.000000 6.000000 99.847698 -50.029025 2258.997963 650.166691 19.300716 0.000000 0.254212
599.000000 58.052000 8.000000 5.000000 6.000000 111.571179 -45.761188 2080.278697 331.083047 17.218359 0.000000 0.188922
600.000000 52.445000 9.000000 5.000000 6.000000 105.695146 -45.084068 2054.457325 512.664391 19.060923 0.000000 0.154960
601.000000 47.508000 10.000000 5.000000 6.000000 100.518762 -44.559950 2034.887383 660.523880 21.043912 0.000000 0.139009
603.000000 63.366000 7.000000 6.000000 6.000000 123.584900 -39.579899 1864.752240 13.732227 15.771453 0.000000 0.151674
605.000000 67.113000 6.000000 7.000000 6.000000 135.143394 -30.133326 1599.742637 -309.717584 14.888784 0.000000 0.127890
606.000000 61.684000 7.000000 7.000000 6.000000 127.714947 -32.011637 1647.847310 -40.558710 16.200891 0.000000 0.088465
607.000000 56.561000 8.000000 7.000000 6.000000 121.036190 -33.314601 1682.385877 166.016508 17.669856 0.000000 0.053091
608.000000 51.831000 9.000000 7.000000 6.000000 115.047568 -34.270551 1708.387857 332.360179 19.284251 0.000000 0.028234
609.000000 47.524000 10.000000 7.000000 6.000000 109.679919 -35.001452 1728.670018 471.062277 21.033735 0.000000 0.026286
611.000000 59.538000 7.000000 8.000000 6.000000 130.692794 -24.197065 1458.639559 -73.671554 16.784184 0.000000 0.049331
612.000000 50.814000 9.000000 8.000000 6.000000 118.533426 -28.554421 1560.704451 274.768571 19.669155 0.000000 0.011425
615.000000 57.115000 7.000000 9.000000 6.000000 132.623731 -16.418205 1292.142279 -91.632757 17.495900 0.000000 0.030371
616.000000 53.220000 8.000000 9.000000 6.000000 126.747093 -20.057120 1367.954648 85.492487 18.777743 0.000000 0.030157
617.000000 45.961000 10.000000 9.000000 6.000000 116.200828 -24.862281 1473.738224 357.279618 21.747302 0.000000 0.048566
619.000000 54.557000 7.000000 10.000000 6.000000 133.657711 -8.949610 1144.498085 -98.667782 18.315919 0.000000 0.026617
620.000000 47.937000 9.000000 10.000000 6.000000 123.306216 -17.034317 1304.761212 201.392677 20.848640 0.000000 0.055940
623.000000 54.764000 6.000000 11.000000 6.000000 138.494918 4.919401 882.361899 -279.809045 18.245298 0.000000 0.013709
624.000000 51.968000 7.000000 11.000000 6.000000 133.966509 -2.004856 1012.676359 -97.786063 19.228116 0.000000 0.027674
625.000000 49.106000 8.000000 11.000000 6.000000 129.318258 -7.317861 1113.217505 52.251396 20.350477 0.000000 0.050102
626.000000 46.259000 9.000000 11.000000 6.000000 124.733555 -11.457477 1193.142811 179.633385 21.604153 0.000000 0.066980
628.000000 49.421000 7.000000 12.000000 6.000000 133.720552 4.289943 894.263003 -91.159875 20.219416 0.000000 0.027945
631.000000 48.920000 6.000000 13.000000 6.000000 136.100106 17.213161 641.560335 -229.882750 20.425672 0.000000 0.047385
632.000000 46.960000 7.000000 13.000000 6.000000 133.071957 9.892009 787.311260 -80.375232 21.279104 0.000000 0.027316
642.000000 46.678000 10.000000 5.000000 7.000000 103.932123 -49.113182 2218.085905 533.102212 21.416510 0.000000 0.238505
645.000000 51.212000 9.000000 6.000000 7.000000 114.206986 -45.118487 2055.755041 255.294070 19.517267 0.000000 0.188791
646.000000 46.953000 10.000000 6.000000 7.000000 108.908337 -44.576144 2035.486774 423.432424 21.289530 0.000000 0.154516
648.000000 55.054000 8.000000 7.000000 7.000000 124.625141 -39.557001 1864.028376 -22.931531 18.152593 0.000000 0.159237
649.000000 50.749000 9.000000 7.000000 7.000000 118.647049 -39.678861 1867.886123 177.051380 19.693995 0.000000 0.118817
650.000000 46.782000 10.000000 7.000000 7.000000 113.261286 -39.771609 1870.831423 339.044109 21.366099 0.000000 0.090806
653.000000 53.770000 8.000000 8.000000 7.000000 128.217337 -32.918179 1671.770500 -68.577805 18.585105 0.000000 0.101686
654.000000 49.880000 9.000000 8.000000 7.000000 122.330144 -33.959007 1699.849816 119.723095 20.036041 0.000000 0.068989
655.000000 46.241000 10.000000 8.000000 7.000000 116.976583 -34.748090 1721.598756 274.250514 21.614789 0.000000 0.043428
658.000000 55.765000 7.000000 9.000000 7.000000 137.035926 -23.329658 1439.186138 -317.531899 17.918140 0.000000 0.085904
659.000000 52.177000 8.000000 9.000000 7.000000 130.928766 -26.064164 1501.436656 -97.916763 19.151883 0.000000 0.062561
660.000000 48.705000 9.000000 9.000000 7.000000 125.271560 -28.057543 1548.663093 78.361977 20.518627 0.000000 0.037367
663.000000 53.505000 7.000000 10.000000 7.000000 138.432533 -15.249168 1268.414699 -316.937251 18.674681 0.000000 0.048766
664.000000 50.383000 8.000000 10.000000 7.000000 132.823090 -19.184505 1349.478990 -115.116559 19.833379 0.000000 0.038275
665.000000 47.313000 9.000000 10.000000 7.000000 127.511952 -22.094279 1411.912601 49.292072 21.121693 0.000000 0.027207
668.000000 51.175000 7.000000 11.000000 7.000000 139.012144 -7.546190 1117.579633 -308.486475 19.524850 0.000000 0.021594
669.000000 48.475000 8.000000 11.000000 7.000000 133.992846 -12.472967 1213.075974 -123.223394 20.613664 0.000000 0.026605
670.000000 45.780000 9.000000 11.000000 7.000000 129.112929 -16.196685 1287.624871 29.748291 21.828823 0.000000 0.033074
673.000000 48.846000 7.000000 12.000000 7.000000 138.938502 -0.446219 983.382336 -294.491692 20.455989 0.000000 0.001894
674.000000 46.521000 8.000000 12.000000 7.000000 134.548540 -6.096469 1089.955592 -124.491176 21.479626 0.000000 0.023774
677.000000 46.566000 7.000000 13.000000 7.000000 138.372812 5.929597 863.213868 -276.616149 21.457626 0.000000 0.016334
686.000000 45.764000 10.000000 7.000000 8.000000 116.225861 -44.593243 2036.119983 196.442483 21.839921 0.000000 0.189659
688.000000 48.662000 9.000000 8.000000 8.000000 125.417289 -39.539025 1863.460466 -51.453578 20.536646 0.000000 0.165120
692.000000 47.651000 9.000000 9.000000 8.000000 128.596195 -33.626996 1690.819411 -90.726027 20.971377 0.000000 0.112361
694.000000 46.424000 9.000000 10.000000 8.000000 131.080411 -27.528464 1535.963111 -117.055106 21.525225 0.000000 0.074313
697.000000 47.570000 8.000000 11.000000 8.000000 138.012945 -18.250249 1329.913819 -318.231286 21.004851 0.000000 0.061299
#UB matrix in q= (UB) B0 G* 
#[[-0.273171387 -0.679493716 -0.67940032 ]
# [-0.624075427  0.663390066 -0.412569439]
# [ 0.732056866  0.311684362 -0.606149278]]
#B0 matrix in q= UB (B0) G*
#[[ 0.19670273 -0.          0.03056101]
# [ 0.          0.19187965 -0.        ]
# [ 0.          0.          0.18806537]]
#UBB0 matrix in q= (UB B0) G* i.e. recip. basis vectors are columns in LT frame: astar = UBB0[:,0], bstar = UBB0[:,1], cstar = UBB0[:,2]. (abcstar as columns on xyzlab1, xlab1 = ui, ui = unit vector along incident beam)
#[[-0.05373356 -0.13038102 -0.13612007]
# [-0.12275734  0.12729106 -0.0966624 ]
# [ 0.14399759  0.05980589 -0.09162329]]
#Euler angles phi theta psi (deg)
#[113.084 127.272 121.223]
#deviatoric strain in direct crystal frame (10-3 unit)
#[[-3.22  0.03  0.48]
# [ 0.03 -2.59  0.94]
# [ 0.48  0.94  5.81]]
#deviatoric strain in sample2 frame (10-3 unit)
#[[ 4.65  3.05 -0.82]
# [ 3.05 -1.7  -0.04]
# [-0.81 -0.03 -2.95]]
#new lattice parameters
#[ 5.1505     5.2148519  5.3198999 89.9441646 99.1962173 89.9966707]
#CCDLabel
#sCMOS
#DetectorParameters
#[79.0, 975.0, 941.0, 0.0, 0.0]
#pixelsize
#0.0734
#Frame dimensions
#[2018, 2016]
#
