#Strain and Orientation Refinement from experimental file: /home/micha/LaueProjects/DepthEffects/testZrO2_115.cor
#File created at Wed Jun 28 14:25:22 2023 with indexingSpotsSet.py
#Number of indexed spots: 537
#Element
#ZrO2
#grainIndex
#G_0
#Mean Deviation(pixel): 0.113
##spot_index intensity h k l 2theta Chi Xexp Yexp Energy GrainIndex PixDev
11.000000 45.879000 3.000000 7.000000 -13.000000 105.351526 -46.926687 2126.227466 508.335096 21.798506 0.000000 0.186275
12.000000 47.827000 4.000000 7.000000 -13.000000 113.237783 -45.813077 2082.283207 277.958800 20.908181 0.000000 0.192038
13.000000 49.245000 5.000000 7.000000 -13.000000 120.949997 -44.468979 2031.526591 36.574381 20.303497 0.000000 0.211652
17.000000 45.737000 4.000000 8.000000 -13.000000 111.354590 -40.096697 1881.217903 390.889936 21.864241 0.000000 0.082808
18.000000 47.112000 5.000000 8.000000 -13.000000 118.693083 -38.293189 1824.798283 190.429812 21.223875 0.000000 0.092964
19.000000 48.008000 6.000000 8.000000 -13.000000 125.780511 -36.119742 1760.415492 -19.267630 20.825508 0.000000 0.113624
20.000000 48.445000 7.000000 8.000000 -13.000000 132.548228 -33.458223 1686.255615 -243.135343 20.635756 0.000000 0.135371
23.000000 45.776000 6.000000 9.000000 -13.000000 122.789285 -30.423837 1607.060153 136.944544 21.842012 0.000000 0.032422
24.000000 46.264000 7.000000 9.000000 -13.000000 129.168174 -27.440574 1533.865290 -46.965883 21.609891 0.000000 0.054002
25.000000 46.369000 8.000000 9.000000 -13.000000 135.161744 -23.836959 1450.531893 -242.326941 21.559249 0.000000 0.070565
31.000000 48.476000 1.000000 3.000000 -6.000000 99.164175 -50.396430 2275.851249 668.625543 10.316324 0.000000 0.258192
32.000000 51.308000 1.000000 2.000000 -4.000000 107.978361 -49.583031 2238.882921 402.305883 6.496944 0.000000 0.257320
35.000000 46.371000 2.000000 7.000000 -12.000000 98.040180 -44.737546 2041.478843 726.970933 21.569913 0.000000 0.138519
36.000000 49.024000 3.000000 7.000000 -12.000000 106.444349 -43.442224 1994.304437 503.470669 20.400109 0.000000 0.122004
37.000000 51.073000 4.000000 7.000000 -12.000000 114.709941 -41.887100 1940.266289 275.732474 19.578685 0.000000 0.125607
38.000000 52.487000 5.000000 7.000000 -12.000000 122.739197 -39.988463 1877.748890 37.799148 19.048997 0.000000 0.145239
42.000000 46.571000 3.000000 8.000000 -12.000000 104.475824 -37.968861 1814.951656 588.534932 21.475323 0.000000 0.051104
43.000000 48.513000 1.000000 2.000000 -3.000000 112.291155 -36.013805 1757.369851 395.518716 5.153223 0.000000 0.033553
44.000000 49.894000 5.000000 8.000000 -12.000000 119.866577 -33.674900 1692.118028 198.313580 20.040058 0.000000 0.043506
45.000000 50.716000 3.000000 4.000000 -6.000000 127.112708 -30.837463 1617.554343 -7.458712 9.856547 0.000000 0.066632
46.000000 51.013000 7.000000 8.000000 -12.000000 133.943911 -27.342669 1531.532347 -226.803382 19.596661 0.000000 0.087572
50.000000 45.886000 4.000000 9.000000 -12.000000 109.586157 -30.928043 1619.864522 494.564751 21.794425 0.000000 0.040500
51.000000 47.228000 5.000000 9.000000 -12.000000 116.707779 -28.328784 1555.222422 325.823103 21.172683 0.000000 0.025152
52.000000 48.077000 2.000000 3.000000 -4.000000 123.505629 -25.251195 1482.640777 153.185676 6.932183 0.000000 0.020342
53.000000 48.457000 7.000000 9.000000 -12.000000 129.897826 -21.573584 1400.561142 -26.639213 20.631412 0.000000 0.029211
54.000000 48.413000 8.000000 9.000000 -12.000000 135.803615 -17.142654 1306.988640 -217.379774 20.648878 0.000000 0.038704
55.000000 47.999000 3.000000 3.000000 -4.000000 141.139967 -11.773376 1199.327691 -423.477089 6.941808 0.000000 0.039231
58.000000 45.883000 7.000000 10.000000 -12.000000 125.791521 -16.970403 1303.448345 129.665134 21.790261 0.000000 0.046465
59.000000 45.951000 4.000000 5.000000 -6.000000 131.324353 -12.663582 1216.834646 -28.953477 10.878138 0.000000 0.031820
60.000000 45.682000 9.000000 10.000000 -12.000000 136.328286 -7.624806 1119.082628 -196.448510 21.882895 0.000000 0.016288
67.000000 48.420000 1.000000 6.000000 -11.000000 90.765139 -48.083410 2173.851039 919.483742 20.659886 0.000000 0.209456
68.000000 52.251000 2.000000 6.000000 -11.000000 100.177614 -47.059005 2131.569965 657.369510 19.141856 0.000000 0.181314
69.000000 55.339000 3.000000 6.000000 -11.000000 109.530970 -45.816771 2082.426087 393.202043 18.070935 0.000000 0.175820
70.000000 57.583000 4.000000 6.000000 -11.000000 118.690772 -44.280616 2024.600931 118.252733 17.364095 0.000000 0.192474
73.000000 46.045000 1.000000 7.000000 -11.000000 89.678024 -42.618919 1965.359419 949.219273 21.726089 0.000000 0.127562
74.000000 49.569000 2.000000 7.000000 -11.000000 98.590514 -41.158804 1915.858345 725.042414 20.178455 0.000000 0.089451
75.000000 52.443000 3.000000 7.000000 -11.000000 107.426630 -39.415695 1859.571939 503.700924 19.069685 0.000000 0.064460
76.000000 54.581000 4.000000 7.000000 -11.000000 116.060289 -37.302893 1795.002402 279.297628 18.320345 0.000000 0.064496
77.000000 55.952000 5.000000 7.000000 -11.000000 124.369832 -34.696927 1720.176088 45.664619 17.869082 0.000000 0.085959
78.000000 56.584000 6.000000 7.000000 -11.000000 132.240679 -31.418047 1632.438235 -204.222255 17.667752 0.000000 0.111229
81.000000 46.754000 2.000000 8.000000 -11.000000 96.619995 -35.929548 1754.953357 786.737803 21.394625 0.000000 0.071012
82.000000 49.417000 3.000000 8.000000 -11.000000 104.919338 -33.843405 1696.697593 595.729576 20.238765 0.000000 0.044597
83.000000 51.443000 4.000000 8.000000 -11.000000 113.010003 -31.365954 1631.095307 405.688054 19.439002 0.000000 0.019961
84.000000 52.803000 5.000000 8.000000 -11.000000 120.777512 -28.388183 1556.663293 212.349601 18.935969 0.000000 0.011738
85.000000 53.513000 6.000000 8.000000 -11.000000 128.111587 -24.763688 1471.490274 11.226909 18.682798 0.000000 0.031757
86.000000 53.625000 7.000000 8.000000 -11.000000 134.904979 -20.297055 1373.070458 -202.749374 18.642002 0.000000 0.048367
87.000000 53.218000 8.000000 8.000000 -11.000000 141.048461 -14.734479 1258.052888 -435.686213 18.783231 0.000000 0.052679
90.000000 46.380000 3.000000 9.000000 -11.000000 102.188840 -29.035039 1572.460387 675.098700 21.565112 0.000000 0.082223
91.000000 48.293000 4.000000 9.000000 -11.000000 109.751475 -26.354627 1508.215181 509.713182 20.708325 0.000000 0.071736
92.000000 49.631000 5.000000 9.000000 -11.000000 117.000391 -23.207554 1436.468295 344.309235 20.147699 0.000000 0.059434
93.000000 50.402000 6.000000 9.000000 -11.000000 123.834436 -19.485266 1355.824344 175.716799 19.837469 0.000000 0.045799
94.000000 50.643000 7.000000 9.000000 -11.000000 130.156175 -15.055952 1264.518998 0.589219 19.740837 0.000000 0.032104
95.000000 50.417000 8.000000 9.000000 -11.000000 135.870439 -9.767953 1160.288404 -184.824679 19.827879 0.000000 0.019288
96.000000 49.796000 9.000000 9.000000 -11.000000 140.882218 -3.465524 1040.178945 -384.965034 20.074011 0.000000 0.008496
99.000000 46.524000 5.000000 10.000000 -11.000000 113.204907 -18.942539 1344.390891 453.172065 21.494591 0.000000 0.098285
100.000000 47.338000 6.000000 10.000000 -11.000000 119.586880 -15.262674 1268.687297 307.563854 21.122901 0.000000 0.084623
101.000000 47.687000 7.000000 10.000000 -11.000000 125.496214 -11.003603 1184.280649 159.017449 20.966406 0.000000 0.066588
102.000000 47.617000 8.000000 10.000000 -11.000000 130.852593 -6.076628 1089.578636 4.983010 20.995539 0.000000 0.044535
103.000000 47.186000 9.000000 10.000000 -11.000000 135.581062 -0.403258 982.575279 -157.376272 21.185911 0.000000 0.019995
104.000000 46.457000 10.000000 10.000000 -11.000000 139.613698 6.061578 860.707269 -331.368084 21.517227 0.000000 0.023733
109.000000 49.401000 0.000000 2.000000 -4.000000 81.572694 -51.651516 2335.456476 1198.005894 8.101000 0.000000 0.318704
110.000000 54.935000 1.000000 5.000000 -10.000000 92.090531 -50.949018 2301.697273 878.639543 18.209043 0.000000 0.273747
111.000000 59.623000 2.000000 5.000000 -10.000000 102.698813 -50.089240 2261.742382 562.988249 16.774233 0.000000 0.255329
114.000000 47.116000 0.000000 3.000000 -5.000000 81.106762 -45.837083 2083.211854 1182.729308 10.617658 0.000000 0.200104
115.000000 52.152000 1.000000 6.000000 -10.000000 91.075236 -44.618433 2037.053518 912.620485 19.181465 0.000000 0.148664
116.000000 56.448000 1.000000 3.000000 -5.000000 101.100142 -43.148360 1983.883671 651.570761 8.859297 0.000000 0.112298
117.000000 59.800000 3.000000 6.000000 -10.000000 111.009558 -41.342810 1921.973416 390.423588 16.722541 0.000000 0.100501
118.000000 62.097000 2.000000 3.000000 -5.000000 120.632580 -39.077355 1848.974537 119.991863 8.050822 0.000000 0.116728
119.000000 63.327000 5.000000 6.000000 -10.000000 129.808908 -36.161384 1761.614910 -170.053473 15.786770 0.000000 0.145847
122.000000 49.111000 1.000000 7.000000 -10.000000 89.548860 -38.964916 1845.475228 951.899619 20.370165 0.000000 0.100270
123.000000 53.020000 2.000000 7.000000 -10.000000 98.944716 -37.056426 1787.708994 728.725742 18.865165 0.000000 0.063175
124.000000 56.123000 3.000000 7.000000 -10.000000 108.205343 -34.760326 1721.939261 510.129964 17.819387 0.000000 0.028992
125.000000 58.322000 4.000000 7.000000 -10.000000 117.172171 -31.955399 1646.378905 289.844708 17.145073 0.000000 0.009587
126.000000 59.599000 5.000000 7.000000 -10.000000 125.691654 -28.470629 1558.665938 61.473233 16.775489 0.000000 0.037493
127.000000 60.009000 6.000000 7.000000 -10.000000 133.616820 -24.062838 1455.612165 -182.146598 16.658981 0.000000 0.061717
130.000000 45.988000 1.000000 8.000000 -10.000000 87.691983 -33.978195 1700.373863 993.311447 21.754388 0.000000 0.099676
131.000000 49.530000 1.000000 4.000000 -5.000000 96.456814 -31.780147 1641.814524 797.710863 10.097956 0.000000 0.084514
132.000000 52.388000 3.000000 8.000000 -10.000000 105.072465 -29.188773 1576.243791 608.988772 19.090988 0.000000 0.071382
133.000000 54.481000 2.000000 4.000000 -5.000000 113.395535 -26.102195 1502.322253 422.459934 9.177599 0.000000 0.057668
134.000000 55.785000 5.000000 8.000000 -10.000000 121.285511 -22.387697 1418.346133 233.661966 17.923848 0.000000 0.043454
135.000000 56.336000 3.000000 4.000000 -5.000000 128.607248 -17.874967 1322.114349 37.993212 8.873266 0.000000 0.031132
136.000000 56.214000 7.000000 8.000000 -10.000000 135.229521 -12.353993 1210.732786 -169.670287 17.783386 0.000000 0.023039
137.000000 55.526000 4.000000 4.000000 -5.000000 141.020703 -5.588751 1080.318229 -395.447908 9.001237 0.000000 0.015127
140.000000 46.110000 2.000000 9.000000 -10.000000 93.808317 -27.238961 1529.065623 860.419777 21.694891 0.000000 0.110989
141.000000 48.736000 3.000000 9.000000 -10.000000 101.812258 -24.495492 1465.393295 693.646776 20.523187 0.000000 0.108359
142.000000 50.716000 4.000000 9.000000 -10.000000 109.533812 -21.300276 1394.635579 531.152344 19.719327 0.000000 0.101176
143.000000 52.026000 5.000000 9.000000 -10.000000 116.848692 -17.557400 1315.540111 369.555468 19.220388 0.000000 0.088636
144.000000 52.687000 6.000000 9.000000 -10.000000 123.638284 -13.154496 1226.540906 205.577193 18.977023 0.000000 0.070845
145.000000 52.757000 7.000000 9.000000 -10.000000 129.790899 -7.968171 1125.653627 35.815655 18.949990 0.000000 0.048220
146.000000 52.318000 8.000000 9.000000 -10.000000 135.202012 -1.879874 1010.325878 -143.494383 19.107688 0.000000 0.021702
147.000000 51.462000 9.000000 9.000000 -10.000000 139.775839 5.191092 877.218271 -336.774254 19.424388 0.000000 0.021319
150.000000 47.119000 2.000000 5.000000 -5.000000 105.734097 -17.341766 1311.089206 623.336307 10.613015 0.000000 0.129383
151.000000 48.417000 2.000000 4.000000 -4.000000 112.534301 -13.680188 1236.978010 481.390558 8.261888 0.000000 0.120120
152.000000 49.158000 3.000000 5.000000 -5.000000 118.859359 -9.480913 1154.741325 339.634999 10.170481 0.000000 0.104303
153.000000 49.384000 7.000000 10.000000 -10.000000 124.615872 -4.672389 1062.965337 195.597020 20.246041 0.000000 0.082194
154.000000 49.156000 4.000000 5.000000 -5.000000 129.720551 0.804422 959.888041 46.702820 10.169316 0.000000 0.054534
155.000000 48.545000 9.000000 10.000000 -10.000000 134.102619 6.977064 843.285011 -109.879020 20.593116 0.000000 0.027513
156.000000 47.628000 3.000000 3.000000 -3.000000 137.708165 13.816552 710.307055 -277.425382 6.296501 0.000000 0.044483
158.000000 45.810000 6.000000 11.000000 -10.000000 114.344263 -6.562949 1098.826234 450.820965 21.829679 0.000000 0.128463
159.000000 46.157000 7.000000 11.000000 -10.000000 119.760596 -2.120772 1014.856651 325.161233 21.663544 0.000000 0.108941
160.000000 46.101000 8.000000 11.000000 -10.000000 124.607293 2.828997 921.814404 197.405875 21.687902 0.000000 0.083028
161.000000 45.699000 9.000000 11.000000 -10.000000 128.829657 8.291688 818.145110 65.568436 21.877215 0.000000 0.052162
167.000000 46.400000 -1.000000 5.000000 -9.000000 70.310989 -49.281516 2225.491298 1531.389269 21.566452 0.000000 0.317827
168.000000 53.528000 0.000000 5.000000 -9.000000 81.380584 -48.354918 2185.339919 1186.513572 18.691236 0.000000 0.243397
169.000000 59.970000 1.000000 5.000000 -9.000000 92.744750 -47.225980 2138.349770 865.019103 16.680096 0.000000 0.188900
170.000000 65.296000 2.000000 5.000000 -9.000000 104.173655 -45.821552 2082.610984 550.958954 15.316710 0.000000 0.161134
171.000000 69.193000 3.000000 5.000000 -9.000000 115.422282 -44.029301 2015.429539 229.475409 14.451405 0.000000 0.167815
174.000000 50.482000 0.000000 2.000000 -3.000000 80.527800 -42.265648 1953.173494 1183.655041 6.606633 0.000000 0.156869
175.000000 56.252000 1.000000 6.000000 -9.000000 91.171387 -40.591604 1897.222221 912.018703 17.783588 0.000000 0.104441
176.000000 61.072000 2.000000 6.000000 -9.000000 101.833446 -38.550413 1832.670392 652.652133 16.377176 0.000000 0.060436
177.000000 66.972000 4.000000 6.000000 -9.000000 122.322831 -32.791264 1668.392082 130.905349 14.929236 0.000000 0.050808
178.000000 67.959000 5.000000 6.000000 -9.000000 131.718156 -28.592768 1561.638459 -151.833447 14.710484 0.000000 0.081371
180.000000 47.219000 0.000000 7.000000 -9.000000 79.219128 -36.861448 1781.972736 1197.148863 21.190217 0.000000 0.124634
181.000000 52.350000 1.000000 7.000000 -9.000000 89.117187 -34.809291 1723.302872 961.199397 19.110082 0.000000 0.095271
182.000000 56.684000 2.000000 7.000000 -9.000000 98.992607 -32.358863 1656.953649 739.362247 17.646067 0.000000 0.074113
183.000000 60.013000 3.000000 7.000000 -9.000000 108.646527 -29.393983 1581.311743 524.150772 16.664451 0.000000 0.055695
184.000000 62.233000 4.000000 7.000000 -9.000000 117.878126 -25.755837 1494.277884 308.856575 16.067600 0.000000 0.038696
185.000000 63.348000 5.000000 7.000000 -9.000000 126.493025 -21.227849 1393.068998 86.829647 15.782560 0.000000 0.027849
186.000000 63.457000 6.000000 7.000000 -9.000000 134.304107 -15.521366 1273.915091 -149.221806 15.753725 0.000000 0.027856
187.000000 62.718000 7.000000 7.000000 -9.000000 141.124178 -8.277318 1131.579230 -408.071949 15.937969 0.000000 0.024941
190.000000 48.481000 1.000000 8.000000 -9.000000 86.798918 -29.821251 1591.929791 1010.382083 20.636644 0.000000 0.110151
191.000000 52.363000 2.000000 8.000000 -9.000000 95.917567 -27.138158 1526.672400 815.641467 19.103569 0.000000 0.107950
192.000000 55.416000 3.000000 8.000000 -9.000000 104.809220 -23.970280 1453.528295 629.588195 18.048379 0.000000 0.102935
193.000000 57.548000 4.000000 8.000000 -9.000000 113.297984 -20.198903 1370.975793 447.147228 17.377014 0.000000 0.092128
194.000000 58.753000 5.000000 8.000000 -9.000000 121.213559 -15.677410 1277.074846 263.625396 17.018580 0.000000 0.075019
195.000000 59.093000 6.000000 8.000000 -9.000000 128.395170 -10.233861 1169.312638 74.298840 16.918629 0.000000 0.052074
196.000000 58.685000 7.000000 8.000000 -9.000000 134.692161 -3.688048 1044.375374 -126.000226 17.034653 0.000000 0.023958
197.000000 57.671000 8.000000 8.000000 -9.000000 139.964933 4.102583 897.801494 -343.375560 17.332979 0.000000 0.018279
200.000000 48.253000 2.000000 9.000000 -9.000000 92.791544 -22.745199 1426.221615 884.094291 20.732304 0.000000 0.130035
201.000000 51.043000 1.000000 3.000000 -3.000000 100.986602 -19.519981 1356.558249 719.309084 6.532024 0.000000 0.131904
202.000000 53.074000 4.000000 9.000000 -9.000000 108.808728 -15.776075 1279.075222 560.067457 18.843728 0.000000 0.126083
203.000000 54.328000 5.000000 9.000000 -9.000000 116.113075 -11.418344 1192.377618 402.771586 18.406156 0.000000 0.112129
204.000000 54.848000 2.000000 3.000000 -3.000000 122.765576 -6.347002 1094.717770 244.018448 6.076629 0.000000 0.090236
205.000000 54.713000 7.000000 9.000000 -9.000000 128.646359 -0.472509 983.876223 80.349573 18.272917 0.000000 0.061063
206.000000 54.033000 8.000000 9.000000 -9.000000 133.653259 6.257132 856.991019 -92.004455 18.501783 0.000000 0.029610
209.000000 46.977000 3.000000 10.000000 -9.000000 97.300750 -15.844094 1280.455400 797.663590 21.293858 0.000000 0.148666
210.000000 48.896000 4.000000 10.000000 -9.000000 104.532989 -12.211821 1207.935502 655.530608 20.455431 0.000000 0.147090
211.000000 50.169000 5.000000 10.000000 -9.000000 111.305481 -8.081063 1127.816444 517.041943 19.934121 0.000000 0.137038
212.000000 50.818000 6.000000 10.000000 -9.000000 117.507369 -3.394381 1038.837743 379.555730 19.677313 0.000000 0.118605
213.000000 50.901000 7.000000 10.000000 -9.000000 123.042377 1.892120 939.443827 240.532091 19.643421 0.000000 0.092075
214.000000 50.496000 8.000000 10.000000 -9.000000 127.832362 7.793400 827.692322 97.374278 19.799144 0.000000 0.058594
215.000000 49.694000 9.000000 10.000000 -9.000000 131.821523 14.276513 701.125844 -52.735538 20.117498 0.000000 0.030871
216.000000 48.584000 10.000000 10.000000 -9.000000 134.981769 21.243657 556.589207 -213.028109 20.576388 0.000000 0.064639
219.000000 46.320000 5.000000 11.000000 -9.000000 106.836647 -5.412330 1076.973454 613.837699 21.592375 0.000000 0.153045
220.000000 47.057000 6.000000 11.000000 -9.000000 112.648442 -1.086628 995.414622 491.833121 21.251638 0.000000 0.138535
221.000000 47.307000 7.000000 11.000000 -9.000000 117.885538 3.698463 905.428155 370.290699 21.137629 0.000000 0.115900
222.000000 47.125000 8.000000 11.000000 -9.000000 122.485733 8.942612 805.636623 247.269005 21.217169 0.000000 0.085423
223.000000 46.582000 9.000000 11.000000 -9.000000 126.405912 14.615015 694.345122 120.776063 21.463253 0.000000 0.049065
224.000000 45.747000 10.000000 11.000000 -9.000000 129.624791 20.646786 569.444224 -11.339713 21.853676 0.000000 0.032797
228.000000 70.247000 1.000000 4.000000 -8.000000 94.741369 -50.750710 2292.351732 799.905474 14.239336 0.000000 0.266434
230.000000 49.672000 -1.000000 5.000000 -8.000000 68.936634 -45.843220 2083.449388 1536.036774 20.146670 0.000000 0.260322
231.000000 58.120000 0.000000 5.000000 -8.000000 80.911485 -44.468733 2031.517528 1182.262919 17.214877 0.000000 0.181162
232.000000 65.667000 1.000000 5.000000 -8.000000 93.203438 -42.770248 1970.621788 858.939783 15.233258 0.000000 0.119151
233.000000 71.717000 2.000000 5.000000 -8.000000 105.504214 -40.622283 1898.222087 547.639093 13.945172 0.000000 0.078099
234.000000 75.873000 3.000000 5.000000 -8.000000 117.484408 -37.828543 1810.718531 232.116763 13.178771 0.000000 0.079336
235.000000 78.016000 4.000000 5.000000 -8.000000 128.825851 -34.068169 1702.834305 -104.620801 12.814650 0.000000 0.112662
238.000000 46.650000 -1.000000 6.000000 -8.000000 68.454242 -40.003497 1878.230081 1495.770157 21.452435 0.000000 0.186796
239.000000 54.049000 0.000000 3.000000 -4.000000 79.578928 -38.149176 1820.415224 1192.710163 9.256238 0.000000 0.129350
240.000000 60.680000 1.000000 6.000000 -8.000000 90.926614 -35.905168 1754.255097 919.508522 16.486365 0.000000 0.089514
241.000000 66.079000 1.000000 3.000000 -4.000000 102.225395 -33.143868 1677.802255 662.482930 7.568130 0.000000 0.058729
242.000000 69.929000 3.000000 6.000000 -8.000000 113.182220 -29.681712 1588.452205 410.486028 14.300268 0.000000 0.032202
243.000000 72.727000 5.000000 6.000000 -8.000000 132.916609 -19.463165 1355.357264 -120.387991 13.745928 0.000000 0.034559
245.000000 49.885000 0.000000 7.000000 -8.000000 77.836619 -32.672908 1665.250190 1216.590930 20.058760 0.000000 0.117512
246.000000 55.677000 1.000000 7.000000 -8.000000 88.254824 -30.094829 1598.776209 978.902432 17.968851 0.000000 0.107648
247.000000 60.469000 2.000000 7.000000 -8.000000 98.581976 -27.004762 1523.512003 758.695194 16.541884 0.000000 0.103189
248.000000 64.009000 3.000000 7.000000 -8.000000 108.565069 -23.258001 1437.590558 547.543487 15.624240 0.000000 0.094551
249.000000 66.193000 4.000000 7.000000 -8.000000 117.950965 -18.665142 1338.575844 338.201047 15.106357 0.000000 0.078722
250.000000 67.065000 5.000000 7.000000 -8.000000 126.498227 -12.987165 1223.228163 123.730252 14.907996 0.000000 0.055828
251.000000 66.784000 6.000000 7.000000 -8.000000 133.980536 -5.948387 1087.142930 -103.281711 14.969046 0.000000 0.026677
252.000000 65.576000 7.000000 7.000000 -8.000000 140.186144 2.703604 924.175394 -351.612263 15.243583 0.000000 0.014359
255.000000 45.854000 0.000000 2.000000 -2.000000 75.883564 -27.963238 1546.390316 1247.453569 5.455883 0.000000 0.116068
256.000000 50.904000 1.000000 8.000000 -8.000000 85.433297 -25.208197 1481.653731 1036.015807 19.655310 0.000000 0.123691
257.000000 55.146000 1.000000 4.000000 -4.000000 94.867074 -21.982708 1409.473303 842.166551 9.070102 0.000000 0.131152
258.000000 58.383000 3.000000 8.000000 -8.000000 103.971569 -18.181706 1328.486801 659.144334 17.131617 0.000000 0.130668
259.000000 61.576000 5.000000 8.000000 -8.000000 120.355229 -8.338538 1132.753771 303.937157 16.238441 0.000000 0.099350
260.000000 61.653000 3.000000 4.000000 -4.000000 127.254446 -2.020252 1012.965923 121.925882 8.108247 0.000000 0.068957
261.000000 60.912000 7.000000 8.000000 -8.000000 133.078140 5.369037 873.847049 -69.843300 16.412433 0.000000 0.032851
264.000000 46.487000 1.000000 9.000000 -8.000000 82.619807 -21.097456 1390.252496 1090.423834 21.523957 0.000000 0.131282
265.000000 50.242000 2.000000 9.000000 -8.000000 91.254816 -17.857509 1321.752338 916.231357 19.912245 0.000000 0.145532
266.000000 53.191000 3.000000 9.000000 -8.000000 99.585345 -14.128272 1245.911093 753.572234 18.805651 0.000000 0.150700
267.000000 55.251000 4.000000 9.000000 -8.000000 107.436054 -9.829645 1161.481840 597.929510 18.101687 0.000000 0.145308
268.000000 56.422000 5.000000 9.000000 -8.000000 114.643775 -4.881363 1066.918316 445.441615 17.723834 0.000000 0.129219
269.000000 56.768000 6.000000 9.000000 -8.000000 121.065521 0.783594 960.279356 292.560189 17.613808 0.000000 0.102692
270.000000 56.402000 7.000000 9.000000 -8.000000 126.585000 7.196762 839.094218 135.766619 17.726433 0.000000 0.066626
271.000000 55.460000 8.000000 9.000000 -8.000000 131.119443 14.324353 700.168778 -28.702127 18.026152 0.000000 0.031839
272.000000 54.082000 9.000000 9.000000 -8.000000 134.628146 22.038843 539.299880 -205.164292 18.484598 0.000000 0.066959
275.000000 45.808000 1.000000 5.000000 -4.000000 87.837548 -14.441735 1252.181225 982.966780 10.920724 0.000000 0.150928
276.000000 48.487000 3.000000 10.000000 -8.000000 95.492466 -10.847393 1181.236930 835.624637 20.631573 0.000000 0.160462
277.000000 50.448000 2.000000 5.000000 -4.000000 102.728023 -6.791250 1103.173620 696.175610 9.913401 0.000000 0.159665
278.000000 51.679000 5.000000 10.000000 -8.000000 109.411391 -2.227432 1016.863139 561.449639 19.352139 0.000000 0.148454
279.000000 52.219000 3.000000 5.000000 -4.000000 115.427696 2.876191 920.925664 428.654792 9.575012 0.000000 0.126974
280.000000 52.144000 7.000000 10.000000 -8.000000 120.685572 8.525584 813.655384 295.173204 19.175546 0.000000 0.095448
281.000000 51.555000 4.000000 5.000000 -4.000000 125.121875 14.686118 692.918185 158.385010 9.696572 0.000000 0.055246
282.000000 50.559000 9.000000 10.000000 -8.000000 128.705959 21.270520 556.008223 15.494628 19.774302 0.000000 0.031038
283.000000 49.257000 5.000000 5.000000 -4.000000 131.443021 28.136012 399.442725 -136.665296 10.147939 0.000000 0.087122
286.000000 46.125000 4.000000 11.000000 -8.000000 98.424253 -4.345340 1056.783548 781.141629 21.687262 0.000000 0.166654
287.000000 47.374000 5.000000 11.000000 -8.000000 104.653212 -0.134246 977.521807 659.577898 21.112535 0.000000 0.159966
288.000000 48.046000 6.000000 11.000000 -8.000000 110.315808 4.493733 890.412265 541.300336 20.815222 0.000000 0.143532
289.000000 48.191000 7.000000 11.000000 -8.000000 115.338031 9.534248 794.228686 424.225399 20.750639 0.000000 0.117438
290.000000 47.881000 8.000000 11.000000 -8.000000 119.668715 14.956904 687.475329 306.370115 20.883210 0.000000 0.081806
291.000000 47.198000 9.000000 11.000000 -8.000000 123.281903 20.699706 568.308599 185.738036 21.184256 0.000000 0.038867
292.000000 46.222000 10.000000 11.000000 -8.000000 126.178100 26.668155 434.429685 60.205160 21.630406 0.000000 0.038152
297.000000 56.610000 -1.000000 4.000000 -7.000000 67.256762 -48.699074 2200.080151 1624.589165 17.677610 0.000000 0.324532
298.000000 68.291000 0.000000 4.000000 -7.000000 81.294194 -47.443276 2147.237055 1184.683213 14.650635 0.000000 0.226401
299.000000 78.543000 1.000000 4.000000 -7.000000 95.798972 -45.827980 2082.859628 784.134126 12.735164 0.000000 0.159047
300.000000 86.273000 2.000000 4.000000 -7.000000 110.285833 -43.677164 2002.708738 390.934354 11.591335 0.000000 0.137311
301.000000 90.850000 3.000000 4.000000 -7.000000 124.245750 -40.682212 1900.177929 -25.201181 11.005028 0.000000 0.167468
302.000000 53.040000 -1.000000 5.000000 -7.000000 67.052099 -41.823757 1938.121481 1552.521100 18.868111 0.000000 0.214038
303.000000 63.125000 0.000000 5.000000 -7.000000 80.011810 -39.866418 1873.850360 1187.958774 15.850539 0.000000 0.138291
304.000000 72.009000 1.000000 5.000000 -7.000000 93.294712 -37.414968 1798.334727 862.991038 13.891908 0.000000 0.082972
305.000000 78.862000 2.000000 5.000000 -7.000000 106.477193 -34.268840 1708.340785 555.780812 12.681708 0.000000 0.036513
306.000000 83.186000 3.000000 5.000000 -7.000000 119.105270 -30.114234 1599.263254 248.319300 12.020020 0.000000 0.007459
307.000000 84.922000 4.000000 5.000000 -7.000000 130.737608 -24.447811 1464.312075 -77.290247 11.772305 0.000000 0.045382
310.000000 49.075000 -1.000000 6.000000 -7.000000 66.248894 -35.821857 1751.872249 1525.092122 20.393670 0.000000 0.160355
311.000000 57.687000 0.000000 6.000000 -7.000000 78.102361 -33.406140 1684.850805 1212.642878 17.345857 0.000000 0.118111
312.000000 65.313000 1.000000 6.000000 -7.000000 90.156107 -30.462823 1608.045463 937.597908 15.317209 0.000000 0.103679
313.000000 71.338000 2.000000 6.000000 -7.000000 102.049416 -26.819921 1519.145132 683.563489 14.020653 0.000000 0.095412
314.000000 75.372000 3.000000 6.000000 -7.000000 113.394853 -22.237459 1415.048626 437.945128 13.267677 0.000000 0.081291
315.000000 77.331000 4.000000 6.000000 -7.000000 123.811262 -16.386519 1291.495478 189.658166 12.929375 0.000000 0.058907
316.000000 77.409000 5.000000 6.000000 -7.000000 132.939987 -8.844145 1142.468391 -72.606636 12.914614 0.000000 0.029566
317.000000 75.975000 6.000000 6.000000 -7.000000 140.443418 0.841914 959.183608 -362.166155 13.157143 0.000000 0.009311
319.000000 58.931000 1.000000 7.000000 -7.000000 86.792978 -24.778446 1471.826526 1007.421610 16.977494 0.000000 0.125048
320.000000 64.205000 2.000000 7.000000 -7.000000 97.511381 -20.960540 1387.300414 789.029313 15.579902 0.000000 0.131978
321.000000 67.926000 3.000000 7.000000 -7.000000 107.719702 -16.346186 1290.672485 582.616532 14.723734 0.000000 0.127412
322.000000 70.002000 4.000000 7.000000 -7.000000 117.106304 -10.739852 1179.143369 380.260714 14.284717 0.000000 0.109479
323.000000 70.540000 5.000000 7.000000 -7.000000 125.386821 -3.931992 1048.978173 174.686209 14.173909 0.000000 0.078551
324.000000 69.784000 6.000000 7.000000 -7.000000 132.316987 4.246690 895.080037 -41.633743 14.325973 0.000000 0.037650
327.000000 47.506000 0.000000 8.000000 -7.000000 73.567973 -23.392557 1440.588125 1286.851306 21.065986 0.000000 0.113464
328.000000 53.097000 1.000000 8.000000 -7.000000 83.454778 -20.129622 1369.498865 1072.522703 18.844565 0.000000 0.134333
329.000000 57.709000 2.000000 8.000000 -7.000000 93.142475 -16.321141 1290.161617 879.428505 17.335319 0.000000 0.149476
330.000000 61.112000 3.000000 8.000000 -7.000000 102.373361 -11.861347 1201.052545 699.734366 16.367186 0.000000 0.151922
331.000000 63.217000 4.000000 8.000000 -7.000000 110.898365 -6.637626 1100.247806 527.265142 15.819829 0.000000 0.140431
332.000000 64.073000 5.000000 8.000000 -7.000000 118.494989 -0.547396 985.283072 356.715101 15.606129 0.000000 0.115130
333.000000 63.840000 6.000000 8.000000 -7.000000 124.981131 6.469642 852.949390 183.072035 15.661465 0.000000 0.076738
334.000000 62.731000 7.000000 8.000000 -7.000000 130.227495 14.383300 698.988958 1.114984 15.936892 0.000000 0.033885
335.000000 60.976000 8.000000 8.000000 -7.000000 134.172026 23.023078 517.628465 -195.123723 16.394657 0.000000 0.069904
338.000000 47.891000 1.000000 9.000000 -7.000000 80.275774 -16.304077 1289.813615 1133.170852 20.894560 0.000000 0.134763
339.000000 51.930000 2.000000 9.000000 -7.000000 89.073641 -12.601961 1215.618958 958.832667 19.266168 0.000000 0.155328
340.000000 55.024000 3.000000 9.000000 -7.000000 97.471299 -8.372536 1133.406189 798.331098 18.179760 0.000000 0.163330
341.000000 57.093000 4.000000 9.000000 -7.000000 105.270689 -3.551565 1041.801306 646.585488 17.518440 0.000000 0.157906
342.000000 58.154000 5.000000 9.000000 -7.000000 112.296782 1.910544 939.097352 499.404676 17.196674 0.000000 0.139157
343.000000 58.304000 6.000000 9.000000 -7.000000 118.409054 8.030779 823.147057 353.064235 17.150433 0.000000 0.107302
344.000000 57.692000 7.000000 9.000000 -7.000000 123.510410 14.771121 691.211076 203.978029 17.330836 0.000000 0.063191
345.000000 56.485000 8.000000 9.000000 -7.000000 127.554413 22.018764 539.738814 48.399956 17.699916 0.000000 0.028868
346.000000 54.846000 9.000000 9.000000 -7.000000 130.550275 29.581308 364.044100 -117.897627 18.227741 0.000000 0.092805
349.000000 46.855000 2.000000 10.000000 -7.000000 85.350960 -9.577640 1156.609542 1029.761060 21.354537 0.000000 0.153985
350.000000 49.660000 3.000000 10.000000 -7.000000 93.037310 -5.600155 1080.534519 883.617106 20.145483 0.000000 0.166476
351.000000 51.651000 4.000000 10.000000 -7.000000 100.218785 -1.158522 996.765657 746.940109 19.366187 0.000000 0.166357
352.000000 52.827000 5.000000 10.000000 -7.000000 106.756129 3.770265 904.073617 616.243760 18.932543 0.000000 0.153774
353.000000 53.247000 6.000000 10.000000 -7.000000 112.537757 9.185783 800.952426 488.550891 18.781046 0.000000 0.128889
354.000000 53.011000 7.000000 10.000000 -7.000000 117.486159 15.053171 685.537025 361.149654 18.862852 0.000000 0.091731
355.000000 52.241000 8.000000 10.000000 -7.000000 121.562028 21.294498 555.489452 231.394676 19.139776 0.000000 0.043384
356.000000 51.059000 9.000000 10.000000 -7.000000 124.765992 27.787318 407.838825 96.521265 19.581533 0.000000 0.035757
357.000000 49.582000 10.000000 10.000000 -7.000000 127.137210 34.374417 238.751604 -46.555369 20.163799 0.000000 0.115672
360.000000 46.855000 4.000000 11.000000 -7.000000 95.701138 0.745231 961.000130 833.540870 21.350341 0.000000 0.168706
361.000000 48.084000 5.000000 11.000000 -7.000000 101.811939 5.223643 876.601730 714.977643 20.802118 0.000000 0.161568
362.000000 48.686000 6.000000 11.000000 -7.000000 107.293573 10.074231 783.782173 600.656670 20.542657 0.000000 0.143095
363.000000 48.728000 7.000000 11.000000 -7.000000 112.081791 15.267520 681.214901 488.386452 20.523148 0.000000 0.113293
364.000000 48.295000 8.000000 11.000000 -7.000000 116.141348 20.747639 567.279288 376.133729 20.705198 0.000000 0.071954
365.000000 47.483000 9.000000 11.000000 -7.000000 119.466672 26.431959 439.974381 261.897243 21.058187 0.000000 0.020641
366.000000 46.381000 10.000000 11.000000 -7.000000 122.080437 32.216043 296.800369 143.587350 21.557399 0.000000 0.053799
372.000000 61.223000 -1.000000 4.000000 -6.000000 65.041668 -44.274935 2024.392740 1640.626971 16.346493 0.000000 0.259197
373.000000 88.199000 1.000000 4.000000 -6.000000 96.513878 -39.623780 1866.140730 781.451093 11.341045 0.000000 0.081374
374.000000 56.261000 -1.000000 5.000000 -6.000000 64.451575 -37.113450 1789.392215 1586.166543 17.789183 0.000000 0.178710
375.000000 68.356000 0.000000 5.000000 -6.000000 78.449292 -34.408638 1712.192442 1207.617158 14.638253 0.000000 0.119285
376.000000 78.836000 1.000000 5.000000 -6.000000 92.741882 -30.984246 1621.300142 880.875502 12.689233 0.000000 0.096953
377.000000 86.541000 2.000000 5.000000 -6.000000 106.736641 -26.546771 1512.717961 579.201360 11.556684 0.000000 0.082036
378.000000 90.867000 3.000000 5.000000 -6.000000 119.800630 -20.654667 1380.724838 282.242016 11.004058 0.000000 0.060120
379.000000 90.255000 5.000000 5.000000 -6.000000 140.733197 -1.750656 1007.896105 -376.145001 11.075310 0.000000 0.005432
381.000000 51.120000 -1.000000 6.000000 -6.000000 63.312167 -31.050266 1622.988677 1572.520658 19.579022 0.000000 0.138678
382.000000 69.892000 1.000000 6.000000 -6.000000 88.601174 -24.190075 1458.481745 969.811940 14.314483 0.000000 0.126763
383.000000 81.651000 5.000000 6.000000 -6.000000 131.264595 2.784665 922.649184 -4.486340 12.243959 0.000000 0.044583
385.000000 46.221000 -1.000000 7.000000 -6.000000 61.895557 -25.958200 1498.972153 1580.290590 21.655265 0.000000 0.113935
386.000000 54.523000 0.000000 7.000000 -6.000000 73.182649 -22.704993 1425.333865 1293.635780 18.354685 0.000000 0.112673
387.000000 61.844000 1.000000 7.000000 -6.000000 84.520337 -18.846831 1342.382406 1050.099083 16.178858 0.000000 0.138350
388.000000 67.607000 2.000000 7.000000 -6.000000 95.530911 -14.244389 1248.231731 833.472652 14.796784 0.000000 0.153785
389.000000 71.462000 3.000000 7.000000 -6.000000 105.821820 -8.739190 1140.449659 632.414044 13.995737 0.000000 0.151094
390.000000 73.353000 4.000000 7.000000 -6.000000 115.027770 -2.173300 1015.844770 438.118783 13.632772 0.000000 0.129500
391.000000 73.475000 5.000000 7.000000 -6.000000 122.844759 5.564320 870.145074 242.895592 13.608282 0.000000 0.089583
392.000000 72.181000 6.000000 7.000000 -6.000000 129.056788 14.457729 697.498377 39.105267 13.850727 0.000000 0.037683
393.000000 69.872000 7.000000 7.000000 -6.000000 133.562729 24.272016 489.667194 -181.863427 14.307403 0.000000 0.073782
395.000000 48.674000 0.000000 4.000000 -3.000000 70.543753 -18.401327 1333.063138 1341.699353 10.280855 0.000000 0.104345
396.000000 54.827000 1.000000 8.000000 -6.000000 80.703637 -14.603146 1255.416767 1123.061215 18.251047 0.000000 0.137933
397.000000 59.807000 1.000000 4.000000 -3.000000 90.561417 -10.201227 1168.679699 930.284118 8.364081 0.000000 0.160172
398.000000 63.351000 3.000000 8.000000 -6.000000 99.814464 -5.105254 1071.156183 754.070310 15.789562 0.000000 0.164984
399.000000 65.384000 2.000000 4.000000 -3.000000 108.184099 0.761166 960.700742 587.432199 7.648140 0.000000 0.151912
400.000000 66.005000 5.000000 8.000000 -6.000000 115.441847 7.434302 834.558505 424.633601 15.150185 0.000000 0.121233
401.000000 65.437000 3.000000 4.000000 -3.000000 121.428963 14.874540 689.132296 260.475969 7.640002 0.000000 0.073409
402.000000 63.956000 7.000000 8.000000 -6.000000 126.070281 22.932581 519.634082 89.726230 15.632721 0.000000 0.026222
403.000000 61.834000 4.000000 4.000000 -3.000000 129.382005 31.340991 319.547698 -93.452217 8.084044 0.000000 0.100395
406.000000 48.804000 1.000000 9.000000 -6.000000 77.227039 -11.186129 1187.841231 1189.719096 20.504977 0.000000 0.130504
407.000000 53.121000 2.000000 9.000000 -6.000000 86.120522 -7.032989 1107.781394 1014.540426 18.835521 0.000000 0.157659
408.000000 56.347000 1.000000 3.000000 -2.000000 94.509800 -2.340812 1018.996355 856.037671 5.918112 0.000000 0.168552
409.000000 58.405000 4.000000 9.000000 -6.000000 102.180090 2.926534 919.977558 708.385021 17.126012 0.000000 0.162964
410.000000 59.340000 5.000000 9.000000 -6.000000 108.955119 8.775742 808.847408 566.966164 16.853738 0.000000 0.141220
411.000000 59.289000 2.000000 3.000000 -2.000000 114.710978 15.167188 683.239083 427.834718 5.622155 0.000000 0.103384
412.000000 58.437000 7.000000 9.000000 -6.000000 119.384393 22.001044 540.126082 287.322828 17.110861 0.000000 0.049590
413.000000 56.983000 8.000000 9.000000 -6.000000 122.975359 29.114918 375.575184 141.710461 17.546128 0.000000 0.032797
414.000000 55.114000 3.000000 3.000000 -2.000000 125.543347 36.300133 184.379392 -13.109453 6.046837 0.000000 0.127200
417.000000 47.425000 1.000000 5.000000 -3.000000 82.184016 -4.497784 1059.664303 1089.196275 10.549758 0.000000 0.149947
418.000000 50.345000 3.000000 10.000000 -6.000000 89.846662 -0.176451 978.314626 943.880451 19.872776 0.000000 0.165749
419.000000 52.357000 2.000000 5.000000 -3.000000 96.921134 4.585767 888.672509 809.931663 9.553206 0.000000 0.166454
420.000000 53.474000 5.000000 10.000000 -6.000000 103.268469 9.783963 789.401915 683.454270 18.704862 0.000000 0.152485
421.000000 53.777000 3.000000 5.000000 -3.000000 108.788423 15.383950 678.863507 561.235121 9.298652 0.000000 0.124033
422.000000 53.390000 7.000000 10.000000 -6.000000 113.425043 21.316033 555.023409 440.443978 18.730132 0.000000 0.080823
423.000000 52.457000 4.000000 5.000000 -3.000000 117.167896 27.474434 415.326914 318.403595 9.531012 0.000000 0.022370
424.000000 51.117000 9.000000 10.000000 -6.000000 120.049098 33.725070 256.520359 192.387892 19.560618 0.000000 0.055852
425.000000 49.496000 5.000000 5.000000 -3.000000 122.136333 39.921416 74.394545 59.415391 10.100103 0.000000 0.154057
428.000000 47.137000 4.000000 11.000000 -6.000000 92.306968 5.895722 863.857017 897.409880 21.223808 0.000000 0.164912
429.000000 48.345000 5.000000 11.000000 -6.000000 98.270470 10.568959 774.180460 781.852152 20.691066 0.000000 0.157497
430.000000 48.883000 6.000000 11.000000 -6.000000 103.554761 15.550951 675.486202 671.656360 20.461075 0.000000 0.137082
431.000000 48.833000 7.000000 11.000000 -6.000000 108.109641 20.791259 566.342031 564.494222 20.480003 0.000000 0.103665
432.000000 48.296000 8.000000 11.000000 -6.000000 111.918480 26.217229 444.995487 458.268431 20.706068 0.000000 0.056825
433.000000 47.377000 9.000000 11.000000 -6.000000 114.996225 31.738059 309.279059 350.970090 21.106343 0.000000 0.006675
434.000000 46.176000 10.000000 11.000000 -6.000000 117.384886 37.252943 156.479573 240.550027 21.654530 0.000000 0.082881
440.000000 65.639000 -1.000000 4.000000 -5.000000 61.851119 -38.906927 1843.674880 1681.031393 15.247934 0.000000 0.210074
441.000000 83.807000 0.000000 4.000000 -5.000000 78.918566 -35.860935 1752.989314 1201.103226 11.939347 0.000000 0.121950
442.000000 58.858000 -1.000000 5.000000 -5.000000 60.852169 -31.600004 1637.140765 1645.727197 17.005658 0.000000 0.151322
443.000000 85.697000 1.000000 5.000000 -5.000000 91.121003 -23.335623 1439.319059 918.063183 11.673970 0.000000 0.128875
445.000000 52.360000 -1.000000 6.000000 -5.000000 59.418710 -25.635884 1491.502872 1646.491736 19.117273 0.000000 0.118410
446.000000 63.949000 0.000000 6.000000 -5.000000 72.645682 -21.774890 1404.939951 1303.190874 15.649634 0.000000 0.111387
447.000000 73.930000 1.000000 6.000000 -5.000000 85.922585 -17.067695 1305.447186 1021.257985 13.533570 0.000000 0.143721
448.000000 81.237000 2.000000 6.000000 -5.000000 98.626098 -11.291244 1189.893771 774.501654 12.313410 0.000000 0.157864
449.000000 85.349000 3.000000 6.000000 -5.000000 110.122967 -4.200596 1054.049372 545.580732 11.717621 0.000000 0.145297
450.000000 86.391000 4.000000 6.000000 -5.000000 119.863431 4.406810 892.054978 321.184676 11.574332 0.000000 0.106028
451.000000 84.947000 5.000000 6.000000 -5.000000 127.452863 14.554661 695.555630 89.200631 11.769452 0.000000 0.044259
452.000000 81.780000 6.000000 6.000000 -5.000000 132.710719 25.907180 452.212900 -163.552866 12.224271 0.000000 0.079146
454.000000 46.532000 -1.000000 7.000000 -5.000000 57.833521 -20.774084 1383.288872 1664.967482 21.512266 0.000000 0.095934
455.000000 55.864000 0.000000 7.000000 -5.000000 69.529538 -16.900788 1302.019379 1360.913875 17.915878 0.000000 0.099867
456.000000 64.005000 1.000000 7.000000 -5.000000 81.192916 -12.335543 1210.369601 1111.696236 15.633839 0.000000 0.141729
457.000000 70.241000 2.000000 7.000000 -5.000000 92.359962 -6.950844 1106.215107 896.314897 14.242983 0.000000 0.165036
458.000000 74.178000 3.000000 7.000000 -5.000000 102.568369 -0.628635 986.809305 701.029069 13.484193 0.000000 0.163484
459.000000 75.820000 4.000000 7.000000 -5.000000 111.421627 6.701407 848.537694 515.831316 13.189931 0.000000 0.137214
460.000000 75.483000 5.000000 7.000000 -5.000000 118.639101 15.003088 686.545640 332.489106 13.247062 0.000000 0.086564
461.000000 73.644000 6.000000 7.000000 -5.000000 124.087991 24.073099 494.156615 143.238248 13.576432 0.000000 0.023208
462.000000 70.800000 7.000000 7.000000 -5.000000 127.796787 33.525435 261.929035 -60.345947 14.121000 0.000000 0.111074
464.000000 49.072000 0.000000 8.000000 -5.000000 66.669190 -13.014697 1223.772929 1417.450712 20.396737 0.000000 0.083858
465.000000 55.782000 1.000000 8.000000 -5.000000 77.014929 -8.682374 1139.357330 1192.063834 17.940102 0.000000 0.131062
466.000000 61.113000 2.000000 8.000000 -5.000000 86.941671 -3.719453 1044.967794 998.626348 16.372107 0.000000 0.160975
467.000000 64.772000 3.000000 8.000000 -5.000000 96.108077 1.930308 938.725664 825.758464 15.444472 0.000000 0.168300
468.000000 66.709000 4.000000 8.000000 -5.000000 104.221005 8.286279 818.248866 665.358187 14.993528 0.000000 0.153447
469.000000 67.087000 5.000000 8.000000 -5.000000 111.069048 15.304360 680.471177 511.115627 14.907003 0.000000 0.116798
470.000000 66.199000 6.000000 8.000000 -5.000000 116.542211 22.853812 521.377613 357.590738 15.105315 0.000000 0.057917
471.000000 64.381000 7.000000 8.000000 -5.000000 120.637054 30.713243 335.606695 199.540029 15.530483 0.000000 0.029601
472.000000 61.949000 8.000000 8.000000 -5.000000 123.447050 38.599065 115.834332 31.305562 16.139262 0.000000 0.143350
474.000000 49.001000 1.000000 9.000000 -5.000000 73.366776 -5.798628 1084.299955 1264.190682 20.424042 0.000000 0.116076
475.000000 53.579000 2.000000 9.000000 -5.000000 82.281220 -1.234752 998.198267 1086.913821 18.676051 0.000000 0.150877
476.000000 56.921000 3.000000 9.000000 -5.000000 90.588483 3.846628 902.632797 929.920067 17.576602 0.000000 0.165207
477.000000 58.961000 4.000000 9.000000 -5.000000 98.066734 9.444976 795.952503 786.361807 16.965657 0.000000 0.159693
478.000000 59.777000 5.000000 9.000000 -5.000000 104.551122 15.520690 676.098583 651.053355 16.731829 0.000000 0.134985
479.000000 59.545000 6.000000 9.000000 -5.000000 109.946987 21.985289 540.470299 519.755407 16.795206 0.000000 0.091048
480.000000 58.489000 7.000000 9.000000 -5.000000 114.233062 28.700491 385.734112 388.692061 17.096963 0.000000 0.026880
481.000000 56.837000 8.000000 9.000000 -5.000000 117.455406 35.490852 207.546013 254.174383 17.592839 0.000000 0.060371
482.000000 54.791000 9.000000 9.000000 -5.000000 119.713551 42.168979 0.137264 112.247688 18.248891 0.000000 0.175149
484.000000 47.351000 2.000000 10.000000 -5.000000 78.267583 0.728436 961.315683 1164.543032 21.134008 0.000000 0.137628
485.000000 50.376000 3.000000 10.000000 -5.000000 85.855124 5.332327 874.542689 1019.336104 19.861897 0.000000 0.157452
486.000000 52.407000 4.000000 10.000000 -5.000000 92.781391 10.328359 778.853825 887.849599 19.089448 0.000000 0.159433
487.000000 53.474000 2.000000 4.000000 -2.000000 98.914956 15.683560 672.800522 765.640210 7.482501 0.000000 0.144417
488.000000 53.680000 6.000000 10.000000 -5.000000 104.173641 21.335478 554.602444 649.183124 18.632200 0.000000 0.112802
489.000000 53.174000 7.000000 10.000000 -5.000000 108.527199 27.192131 422.046733 535.491619 18.807752 0.000000 0.064653
490.000000 52.117000 8.000000 10.000000 -5.000000 111.993908 33.138254 272.348176 421.843170 19.187735 0.000000 0.015717
491.000000 50.663000 9.000000 10.000000 -5.000000 114.632317 39.047639 101.951356 305.555437 19.737257 0.000000 0.093466
492.000000 48.946000 4.000000 4.000000 -2.000000 116.529801 44.798631 -93.755350 183.771850 8.171576 0.000000 0.205540
494.000000 46.862000 4.000000 11.000000 -5.000000 88.214627 11.023827 765.325052 975.179564 21.350212 0.000000 0.154999
495.000000 48.057000 5.000000 11.000000 -5.000000 94.015508 15.810605 670.224250 862.474626 20.816819 0.000000 0.147778
496.000000 48.548000 6.000000 11.000000 -5.000000 99.103928 20.831123 565.485006 756.467507 20.603949 0.000000 0.126015
497.000000 48.431000 7.000000 11.000000 -5.000000 103.446005 26.021171 449.563823 654.650443 20.651492 0.000000 0.090214
498.000000 47.821000 8.000000 11.000000 -5.000000 107.043649 31.301312 320.569052 554.840289 20.913482 0.000000 0.043169
499.000000 46.831000 9.000000 11.000000 -5.000000 109.929618 36.583406 176.156867 455.013347 21.354172 0.000000 0.044117
500.000000 45.567000 10.000000 11.000000 -5.000000 112.160374 41.779115 13.387566 353.165286 21.945340 0.000000 0.125508
504.000000 77.981000 -1.000000 3.000000 -4.000000 57.779677 -41.558481 1929.184969 1847.496041 12.835243 0.000000 0.269780
506.000000 68.899000 -1.000000 4.000000 -4.000000 57.209193 -32.387485 1657.707378 1762.107326 14.528061 0.000000 0.175759
507.000000 59.991000 -1.000000 5.000000 -4.000000 55.887958 -25.190187 1481.240514 1746.653663 16.686232 0.000000 0.130593
508.000000 77.251000 0.000000 5.000000 -4.000000 71.847623 -20.447327 1376.282553 1317.604993 12.955172 0.000000 0.109084
509.000000 52.158000 -1.000000 6.000000 -4.000000 54.313148 -19.556716 1357.335219 1761.346747 19.193115 0.000000 0.105266
510.000000 65.394000 0.000000 3.000000 -2.000000 68.063593 -14.851370 1260.401811 1389.442843 7.652690 0.000000 0.092257
511.000000 76.633000 1.000000 6.000000 -4.000000 81.722370 -9.173953 1148.819551 1099.614069 13.057496 0.000000 0.146020
512.000000 88.509000 3.000000 6.000000 -4.000000 105.688608 5.779600 866.061161 637.153660 11.300201 0.000000 0.154098
513.000000 86.660000 5.000000 6.000000 -4.000000 121.312765 25.535265 460.820565 215.397603 11.537867 0.000000 0.020729
515.000000 45.571000 -1.000000 7.000000 -4.000000 52.730784 -15.107216 1265.551909 1789.321160 21.968041 0.000000 0.092857
516.000000 55.911000 0.000000 7.000000 -4.000000 64.715922 -10.597947 1176.383085 1458.218842 17.902431 0.000000 0.070345
517.000000 64.849000 1.000000 7.000000 -4.000000 76.564880 -5.345709 1075.710885 1199.229852 15.432013 0.000000 0.130433
518.000000 71.518000 2.000000 7.000000 -4.000000 87.731390 0.736945 961.155805 983.641366 13.989898 0.000000 0.162754
519.000000 75.500000 3.000000 7.000000 -4.000000 97.703463 7.691941 829.633462 794.091180 13.249358 0.000000 0.162641
520.000000 76.883000 4.000000 7.000000 -4.000000 106.091710 15.472535 677.072714 618.836616 13.008827 0.000000 0.131382
521.000000 76.121000 5.000000 7.000000 -4.000000 112.685538 23.902905 497.986745 448.888829 13.137205 0.000000 0.068819
522.000000 73.819000 6.000000 7.000000 -4.000000 117.468093 32.671047 284.799139 276.314078 13.545539 0.000000 0.028109
523.000000 70.555000 7.000000 7.000000 -4.000000 120.592045 41.381259 26.744436 92.947473 14.171348 0.000000 0.167302
525.000000 48.355000 0.000000 2.000000 -1.000000 61.818641 -7.289378 1112.673671 1522.351656 5.175260 0.000000 0.046904
526.000000 55.582000 1.000000 8.000000 -4.000000 72.244946 -2.461566 1021.268697 1285.947480 18.006205 0.000000 0.110515
527.000000 61.233000 1.000000 4.000000 -2.000000 82.134085 2.980350 918.963930 1089.897007 8.170815 0.000000 0.149834
528.000000 64.990000 3.000000 8.000000 -4.000000 91.119800 9.043910 803.686099 919.697186 15.393894 0.000000 0.160558
529.000000 67.018000 5.000000 8.000000 -4.000000 105.346953 22.784629 522.907281 620.610013 14.923728 0.000000 0.102309
530.000000 65.881000 3.000000 4.000000 -2.000000 110.368571 30.161816 349.541645 478.828129 7.589829 0.000000 0.035079
531.000000 63.820000 7.000000 8.000000 -4.000000 114.045964 37.580614 146.721798 335.025943 15.668470 0.000000 0.069790
533.000000 48.236000 1.000000 9.000000 -4.000000 68.615705 -0.221097 979.153298 1362.457958 20.749719 0.000000 0.089400
534.000000 53.048000 2.000000 9.000000 -4.000000 77.477039 4.683378 886.826850 1180.862132 18.864555 0.000000 0.133700
535.000000 56.497000 3.000000 9.000000 -4.000000 85.641334 10.049311 784.265038 1024.313532 17.709885 0.000000 0.152538
536.000000 58.533000 4.000000 9.000000 -4.000000 92.891119 15.838116 669.665933 884.499595 17.091446 0.000000 0.147911
537.000000 59.264000 5.000000 9.000000 -4.000000 99.083958 21.971191 540.778267 755.437647 16.878250 0.000000 0.121238
538.000000 58.907000 6.000000 9.000000 -4.000000 104.161125 28.329837 394.752054 632.481410 16.978758 0.000000 0.073905
539.000000 57.718000 7.000000 9.000000 -4.000000 108.142408 34.765189 227.925390 511.698786 17.327070 0.000000 0.030157
540.000000 55.946000 8.000000 9.000000 -4.000000 111.110528 41.117393 35.513143 389.427660 17.874537 0.000000 0.110241
541.000000 53.806000 9.000000 9.000000 -4.000000 113.189902 47.238491 -188.859475 261.896995 18.584462 0.000000 0.240828
543.000000 46.470000 1.000000 5.000000 -2.000000 73.564359 6.018108 861.532987 1260.257754 10.768229 0.000000 0.116520
544.000000 49.593000 3.000000 10.000000 -4.000000 81.035211 10.825824 769.183089 1113.866866 20.177160 0.000000 0.141369
545.000000 51.653000 2.000000 5.000000 -2.000000 87.789631 15.956193 667.267953 984.206788 9.684921 0.000000 0.145507
546.000000 52.696000 5.000000 10.000000 -4.000000 93.709716 21.353126 554.220317 866.072423 18.984119 0.000000 0.130542
547.000000 52.847000 3.000000 5.000000 -2.000000 98.734853 26.936145 428.110749 755.510318 9.463839 0.000000 0.098023
548.000000 52.274000 7.000000 10.000000 -4.000000 102.860056 32.605459 286.536607 649.316232 19.133320 0.000000 0.054123
549.000000 51.154000 4.000000 5.000000 -2.000000 106.127529 38.251658 126.467501 544.696607 9.775484 0.000000 0.059690
550.000000 49.648000 9.000000 10.000000 -4.000000 108.614153 43.767951 -55.974060 439.012308 20.142540 0.000000 0.147737
551.000000 47.896000 5.000000 5.000000 -2.000000 110.417687 49.061696 -265.830902 329.552535 10.439278 0.000000 0.272877
553.000000 45.932000 4.000000 11.000000 -4.000000 83.430033 16.049342 665.374234 1069.987215 21.784405 0.000000 0.139566
554.000000 47.132000 5.000000 11.000000 -4.000000 89.068440 20.867696 564.698334 959.729316 21.226813 0.000000 0.133574
555.000000 47.607000 6.000000 11.000000 -4.000000 93.979757 25.841454 453.737988 857.800646 21.013061 0.000000 0.112325
556.000000 47.462000 7.000000 11.000000 -4.000000 98.146221 30.900732 330.832475 761.448921 21.074927 0.000000 0.079125
557.000000 46.823000 8.000000 11.000000 -4.000000 101.585694 35.968046 193.943172 668.370256 21.361119 0.000000 0.053543
558.000000 45.809000 9.000000 11.000000 -4.000000 104.344192 40.965175 40.539576 576.511548 21.832327 0.000000 0.093110
559.000000 81.549000 -1.000000 3.000000 -3.000000 51.282042 -33.608842 1690.327638 1977.012468 12.275163 0.000000 0.229983
560.000000 69.099000 -1.000000 4.000000 -3.000000 50.464315 -24.533604 1466.258119 1917.516967 14.487865 0.000000 0.164925
561.000000 58.347000 -1.000000 5.000000 -3.000000 49.143025 -17.848170 1321.558701 1918.969247 17.158248 0.000000 0.139600
562.000000 78.447000 0.000000 5.000000 -3.000000 65.780565 -11.894314 1201.699230 1435.767660 12.759273 0.000000 0.077954
563.000000 49.693000 -1.000000 6.000000 -3.000000 47.754339 -12.844274 1220.402822 1943.574687 20.147350 0.000000 0.135079
564.000000 76.884000 1.000000 6.000000 -3.000000 75.620187 -0.717071 988.470795 1216.962842 13.016624 0.000000 0.126887
565.000000 85.273000 2.000000 6.000000 -3.000000 88.244784 6.955157 843.702665 974.226336 11.733067 0.000000 0.160047
566.000000 89.020000 4.000000 6.000000 -3.000000 107.176380 25.223915 467.985543 573.252421 11.234720 0.000000 0.082517
567.000000 86.116000 5.000000 6.000000 -3.000000 112.961569 35.118383 218.051694 383.509200 11.612134 0.000000 0.034649
569.000000 54.067000 0.000000 7.000000 -3.000000 58.575885 -3.899174 1048.358787 1600.120468 18.515220 0.000000 0.017162
570.000000 63.705000 1.000000 7.000000 -3.000000 70.447027 1.951565 938.325905 1323.477882 15.710767 0.000000 0.100471
571.000000 70.757000 2.000000 7.000000 -3.000000 81.463570 8.562046 812.954982 1104.373706 14.142001 0.000000 0.144638
572.000000 74.793000 3.000000 7.000000 -3.000000 91.097982 15.880836 668.798673 919.553464 13.376141 0.000000 0.147627
573.000000 76.000000 4.000000 7.000000 -3.000000 99.007677 23.755633 501.292881 754.589709 13.161380 0.000000 0.113293
574.000000 74.966000 5.000000 7.000000 -3.000000 105.077746 31.930728 304.264689 599.345593 13.341240 0.000000 0.048225
575.000000 72.397000 6.000000 7.000000 -3.000000 109.400018 40.085079 69.154985 445.602256 13.813362 0.000000 0.088574
576.000000 68.926000 7.000000 7.000000 -3.000000 112.209483 47.902379 -216.257892 285.513560 14.507969 0.000000 0.251871
578.000000 46.174000 0.000000 8.000000 -3.000000 55.915011 -1.315725 999.720072 1669.486909 21.680701 0.000000 0.016588
579.000000 53.839000 1.000000 8.000000 -3.000000 66.309531 3.928000 901.097180 1414.358596 18.591229 0.000000 0.074952
580.000000 59.768000 2.000000 8.000000 -3.000000 76.065380 9.721817 790.603819 1211.937035 16.743896 0.000000 0.125967
581.000000 63.633000 3.000000 8.000000 -3.000000 84.810192 16.020557 665.959620 1042.707451 15.723978 0.000000 0.141830
582.000000 65.459000 4.000000 8.000000 -3.000000 92.281913 22.723383 524.260161 894.502773 15.282886 0.000000 0.126556
583.000000 65.537000 5.000000 8.000000 -3.000000 98.358201 29.673675 361.747815 759.001455 15.262548 0.000000 0.084655
584.000000 64.287000 6.000000 8.000000 -3.000000 103.051635 36.675399 173.473618 629.910269 15.557646 0.000000 0.051373
585.000000 62.135000 7.000000 8.000000 -3.000000 106.479633 43.523810 -47.215508 501.885481 16.095305 0.000000 0.137415
588.000000 46.285000 1.000000 9.000000 -3.000000 62.945663 5.447304 872.363632 1493.179341 21.626335 0.000000 0.053235
589.000000 51.298000 2.000000 9.000000 -3.000000 71.689546 10.597634 773.623006 1303.348769 19.509850 0.000000 0.107067
590.000000 54.858000 1.000000 3.000000 -1.000000 79.671749 16.124703 663.840850 1145.176493 6.080367 0.000000 0.131636
591.000000 56.926000 4.000000 9.000000 -3.000000 86.689191 21.958501 541.055424 1008.132591 17.575664 0.000000 0.129801
592.000000 57.643000 5.000000 9.000000 -3.000000 92.627632 27.996396 402.811011 885.059281 17.354841 0.000000 0.105211
593.000000 57.253000 2.000000 3.000000 -1.000000 97.463023 34.111022 245.991994 770.712163 5.823703 0.000000 0.069345
594.000000 56.036000 7.000000 9.000000 -3.000000 101.247436 40.165062 66.585225 660.914774 17.849024 0.000000 0.083823
595.000000 54.254000 8.000000 9.000000 -3.000000 104.086369 46.029087 -140.668249 552.008309 18.434099 0.000000 0.180885
598.000000 47.869000 3.000000 10.000000 -3.000000 75.409949 16.205326 662.199112 1232.745810 20.905819 0.000000 0.119729
599.000000 49.981000 4.000000 10.000000 -3.000000 81.988865 21.369213 553.871892 1103.659125 20.019795 0.000000 0.127389
600.000000 51.045000 5.000000 10.000000 -3.000000 87.718598 26.702969 433.610496 988.997543 19.599917 0.000000 0.115449
601.000000 51.203000 6.000000 10.000000 -3.000000 92.559612 32.119634 299.327814 884.190753 19.537143 0.000000 0.089871
602.000000 50.637000 7.000000 10.000000 -3.000000 96.527703 37.523796 148.419935 785.716479 19.753977 0.000000 0.075030
603.000000 49.530000 8.000000 10.000000 -3.000000 99.681503 42.821342 -22.404363 690.662473 20.193838 0.000000 0.120335
604.000000 48.051000 9.000000 10.000000 -3.000000 102.107556 47.928887 -217.366415 596.421051 20.814443 0.000000 0.219389
606.000000 45.517000 5.000000 11.000000 -3.000000 83.487362 25.676121 457.566890 1077.330316 21.982068 0.000000 0.119287
607.000000 46.016000 6.000000 11.000000 -3.000000 88.254071 30.532040 340.203256 979.088354 21.741247 0.000000 0.103452
608.000000 45.895000 7.000000 11.000000 -3.000000 92.293058 35.400668 210.098576 888.127090 21.796798 0.000000 0.085399
610.000000 63.120000 -1.000000 4.000000 -2.000000 40.888474 -15.282184 1269.081099 2229.578143 15.862295 0.000000 0.238843
611.000000 52.280000 -1.000000 5.000000 -2.000000 40.270410 -9.647322 1157.956049 2229.676690 19.151518 0.000000 0.236927
612.000000 74.788000 0.000000 5.000000 -2.000000 57.181058 -2.524937 1022.461364 1635.802590 13.385569 0.000000 0.008481
613.000000 60.097000 0.000000 3.000000 -1.000000 53.711648 0.710708 961.648749 1731.340727 8.329209 0.000000 0.041703
614.000000 73.445000 1.000000 6.000000 -2.000000 67.397081 7.972330 824.266714 1393.455313 13.628012 0.000000 0.083911
615.000000 86.159000 3.000000 6.000000 -2.000000 89.796799 24.959463 474.042490 945.210342 11.611547 0.000000 0.120028
616.000000 82.801000 5.000000 6.000000 -2.000000 102.777089 43.128148 -33.170600 606.570517 12.078974 0.000000 0.125172
617.000000 49.796000 0.000000 7.000000 -2.000000 51.054488 3.038013 917.877746 1812.096728 20.105231 0.000000 0.076295
618.000000 59.967000 1.000000 7.000000 -2.000000 62.786802 9.332090 798.131023 1501.876734 16.692114 0.000000 0.059588
619.000000 67.354000 2.000000 7.000000 -2.000000 73.543834 16.239173 661.509468 1272.128567 14.858493 0.000000 0.113684
620.000000 71.531000 3.000000 7.000000 -2.000000 82.818739 23.626946 504.175667 1089.017646 13.988147 0.000000 0.123539
621.000000 72.765000 4.000000 7.000000 -2.000000 90.337530 31.283268 321.033247 933.580794 13.748513 0.000000 0.097498
622.000000 71.734000 5.000000 7.000000 -2.000000 96.073050 38.944323 105.164458 793.768091 13.944316 0.000000 0.084132
623.000000 69.201000 6.000000 7.000000 -2.000000 100.188042 46.345337 -153.063331 660.801280 14.453351 0.000000 0.182824
625.000000 50.257000 1.000000 8.000000 -2.000000 59.226472 10.331792 778.787180 1592.489829 19.918432 0.000000 0.051111
626.000000 56.422000 1.000000 4.000000 -1.000000 68.779265 16.322006 659.820744 1376.465601 8.869449 0.000000 0.096964
627.000000 60.435000 3.000000 8.000000 -2.000000 77.266698 22.668782 525.465226 1204.572244 16.558106 0.000000 0.118905
628.000000 62.349000 2.000000 4.000000 -1.000000 84.462527 29.238576 372.528126 1060.581299 8.023567 0.000000 0.111257
629.000000 62.497000 5.000000 8.000000 -2.000000 90.291895 35.865914 196.868284 934.233801 16.007206 0.000000 0.092131
630.000000 61.326000 3.000000 4.000000 -1.000000 94.810495 42.376565 -6.984760 818.387730 8.155559 0.000000 0.121319
631.000000 59.276000 7.000000 8.000000 -2.000000 98.162336 48.613836 -246.410686 707.499658 16.873684 0.000000 0.232072
633.000000 48.188000 2.000000 9.000000 -2.000000 64.980788 16.384725 658.541138 1464.586980 20.771408 0.000000 0.084604
634.000000 51.873000 3.000000 9.000000 -2.000000 72.767350 21.947018 541.306174 1300.924747 19.292885 0.000000 0.111382
635.000000 54.038000 4.000000 9.000000 -2.000000 79.578527 27.694852 410.056230 1164.566795 18.517176 0.000000 0.115845
636.000000 54.840000 5.000000 9.000000 -2.000000 85.327467 33.518430 262.118384 1046.514213 18.244025 0.000000 0.104888
637.000000 54.539000 6.000000 9.000000 -2.000000 90.016934 39.299027 94.093868 940.588929 18.342659 0.000000 0.106030
638.000000 53.423000 7.000000 9.000000 -2.000000 93.718577 44.923026 -98.406265 842.206601 18.724054 0.000000 0.161057
639.000000 51.757000 8.000000 9.000000 -2.000000 96.546871 50.294511 -321.150053 747.649655 19.325508 0.000000 0.274146
641.000000 47.344000 2.000000 5.000000 -1.000000 75.477218 26.489691 438.621234 1252.509163 10.568473 0.000000 0.115572
642.000000 48.490000 5.000000 10.000000 -2.000000 81.056436 31.674892 310.918500 1140.028757 20.634775 0.000000 0.112933
643.000000 48.733000 3.000000 5.000000 -1.000000 85.774886 36.855874 168.190815 1040.372295 10.264833 0.000000 0.108714
644.000000 48.259000 7.000000 10.000000 -2.000000 89.662334 41.949378 7.620781 949.528678 20.729624 0.000000 0.130539
645.000000 47.253000 4.000000 5.000000 -1.000000 92.785775 46.880290 -174.360369 864.379925 10.584519 0.000000 0.198358
646.000000 45.883000 9.000000 10.000000 -2.000000 95.233910 51.587585 -382.341140 782.316639 21.799848 0.000000 0.310310
648.000000 84.548000 0.000000 4.000000 -1.000000 48.968404 4.787087 884.865313 1880.929636 11.841574 0.000000 0.105927
649.000000 64.342000 0.000000 5.000000 -1.000000 45.922216 7.234167 838.380298 1991.555434 15.560656 0.000000 0.152986
650.000000 83.652000 1.000000 5.000000 -1.000000 61.887940 16.433863 657.538041 1540.468931 11.965968 0.000000 0.078483
652.000000 51.583000 0.000000 6.000000 -1.000000 43.816144 8.860577 807.215439 2076.264601 19.409778 0.000000 0.188157
653.000000 65.506000 1.000000 6.000000 -1.000000 57.166760 16.505899 656.066574 1665.358888 15.281842 0.000000 0.084539
654.000000 74.812000 2.000000 6.000000 -1.000000 69.015345 24.732065 479.229988 1395.510310 13.377893 0.000000 0.110160
655.000000 79.072000 3.000000 6.000000 -1.000000 78.712387 33.242607 269.549117 1197.855472 12.654430 0.000000 0.118787
656.000000 79.197000 4.000000 6.000000 -1.000000 86.075652 41.673872 16.936837 1039.848302 12.632478 0.000000 0.140012
657.000000 76.587000 5.000000 6.000000 -1.000000 91.303524 49.681576 -293.295674 903.149235 13.061314 0.000000 0.262844
659.000000 53.364000 1.000000 7.000000 -1.000000 53.740766 16.556165 655.039141 1764.583433 18.759703 0.000000 0.103901
660.000000 61.051000 2.000000 7.000000 -1.000000 64.186492 23.513537 506.711525 1508.757314 16.394548 0.000000 0.106297
661.000000 65.524000 3.000000 7.000000 -1.000000 73.153167 30.712365 335.629010 1320.081806 15.272557 0.000000 0.122460
662.000000 67.078000 4.000000 7.000000 -1.000000 80.431246 37.933377 136.120349 1171.039118 14.916415 0.000000 0.131504
663.000000 66.406000 5.000000 7.000000 -1.000000 86.048848 44.953296 -99.541065 1046.046762 15.065434 0.000000 0.182480
664.000000 64.268000 6.000000 7.000000 -1.000000 90.194272 51.583885 -382.161094 935.126838 15.565185 0.000000 0.315168
666.000000 51.131000 2.000000 8.000000 -1.000000 60.458164 22.619802 526.545447 1601.806888 19.576584 0.000000 0.107546
667.000000 55.356000 3.000000 8.000000 -1.000000 68.710223 28.848362 382.118631 1419.831499 18.079442 0.000000 0.122515
668.000000 57.508000 4.000000 8.000000 -1.000000 75.711158 35.138013 217.500430 1276.206015 17.400247 0.000000 0.132456
669.000000 57.924000 5.000000 8.000000 -1.000000 81.419929 41.339456 28.138376 1157.288309 17.273233 0.000000 0.154585
670.000000 57.048000 6.000000 8.000000 -1.000000 85.913383 47.315440 -191.999778 1054.423888 17.536518 0.000000 0.224340
673.000000 47.561000 3.000000 9.000000 -1.000000 65.099848 27.420850 416.605036 1503.838778 21.044033 0.000000 0.122183
674.000000 49.900000 4.000000 9.000000 -1.000000 71.750061 32.979219 276.601181 1364.078891 20.054893 0.000000 0.133400
675.000000 50.901000 5.000000 9.000000 -1.000000 77.385640 38.508413 118.618828 1248.806207 19.658149 0.000000 0.146434
676.000000 50.821000 6.000000 9.000000 -1.000000 82.025128 43.908333 -61.042676 1150.288526 19.686971 0.000000 0.182616
677.000000 49.942000 7.000000 9.000000 -1.000000 85.747117 49.092385 -267.174448 1063.223409 20.031797 0.000000 0.262487
680.000000 45.489000 6.000000 10.000000 -1.000000 78.536133 41.143926 34.634613 1230.841481 21.996179 0.000000 0.164595
682.000000 126.354000 1.000000 3.000000 0.000000 56.907085 32.486573 289.679471 1772.562958 7.921934 0.000000 0.193737
683.000000 138.776000 2.000000 3.000000 0.000000 73.707945 47.980363 -219.522318 1410.936361 7.210382 0.000000 0.292616
684.000000 88.315000 1.000000 4.000000 0.000000 51.409872 28.496459 390.706004 1918.293249 11.335210 0.000000 0.202652
685.000000 102.369000 2.000000 4.000000 0.000000 66.360531 40.397939 59.068520 1559.603401 9.776303 0.000000 0.216450
687.000000 66.858000 1.000000 5.000000 0.000000 47.891057 26.113462 447.415258 2024.400700 14.973778 0.000000 0.219701
688.000000 78.897000 2.000000 5.000000 0.000000 60.943001 35.673064 202.371105 1677.129026 12.686069 0.000000 0.197788
689.000000 83.187000 3.000000 5.000000 0.000000 71.013603 45.003036 -101.408362 1464.728071 12.029434 0.000000 0.253344
691.000000 53.375000 1.000000 6.000000 0.000000 45.463296 24.534449 483.722707 2105.135305 18.757016 0.000000 0.237493
693.000000 52.174000 2.000000 7.000000 0.000000 53.824769 30.205296 348.448593 1851.655248 19.186460 0.000000 0.196369
694.000000 57.104000 3.000000 7.000000 0.000000 62.569504 37.031813 163.016735 1640.767125 17.527039 0.000000 0.201625
695.000000 59.266000 4.000000 7.000000 0.000000 69.760642 43.702760 -53.628351 1489.928249 16.885126 0.000000 0.240436
696.000000 59.290000 5.000000 7.000000 0.000000 75.444183 50.053046 -310.091970 1376.254775 16.876141 0.000000 0.329688
698.000000 48.654000 3.000000 8.000000 0.000000 59.468663 34.480158 235.832088 1711.061616 20.572122 0.000000 0.195405
699.000000 52.051000 5.000000 8.000000 0.000000 72.061047 46.129244 -144.578375 1443.777409 19.224609 0.000000 0.266478
701.000000 46.001000 5.000000 9.000000 0.000000 69.038381 42.974701 -27.772507 1504.549477 21.754423 0.000000 0.234151
#UB matrix in q= (UB) B0 G* 
#[[-6.52077140e-01 -2.80499806e-01  7.03506478e-01]
# [ 6.46895222e-01  2.78127623e-01  7.10505013e-01]
# [-3.95375739e-01  9.19246631e-01  1.30271000e-04]]
#B0 matrix in q= UB (B0) G*
#[[ 0.19670273 -0.          0.03056101]
# [ 0.          0.19187965 -0.        ]
# [ 0.          0.          0.18806537]]
#UBB0 matrix in q= (UB B0) G* i.e. recip. basis vectors are columns in LT frame: astar = UBB0[:,0], bstar = UBB0[:,1], cstar = UBB0[:,2]. (abcstar as columns on xyzlab1, xlab1 = ui, ui = unit vector along incident beam)
#[[-0.12826536 -0.05382221  0.11237707]
# [ 0.12724606  0.05336703  0.15339116]
# [-0.07777149  0.17638472 -0.01205858]]
#Euler angles phi theta psi (deg)
#[203.289  89.995  44.769]
#deviatoric strain in direct crystal frame (10-3 unit)
#[[ 4.93  0.34 -0.78]
# [ 0.34  4.27 -0.28]
# [-0.78 -0.28 -9.2 ]]
#deviatoric strain in sample2 frame (10-3 unit)
#[[ 1.06 -5.43  2.62]
# [-5.44 -2.96  4.61]
# [ 2.62  4.6   1.9 ]]
#new lattice parameters
#[ 5.1505     5.2081636  5.3172769 90.0227894 99.2775494 89.9612362]
#CCDLabel
#sCMOS
#DetectorParameters
#[79.0, 975.0, 941.0, 0.0, 0.0]
#pixelsize
#0.0734
#Frame dimensions
#[2018, 2016]
#
