#Strain and Orientation Refinement from experimental file: /home/micha/LaueProjects/DepthEffects/testZrO2_39.cor
#File created at Wed Jun 28 14:20:40 2023 with indexingSpotsSet.py
#Number of indexed spots: 548
#Element
#ZrO2
#grainIndex
#G_0
#Mean Deviation(pixel): 0.117
##spot_index intensity h k l 2theta Chi Xexp Yexp Energy GrainIndex PixDev
9.000000 176.603000 0.000000 2.000000 1.000000 55.941393 13.057428 725.381343 1687.883907 5.667412 0.000000 0.070905
10.000000 190.342000 1.000000 2.000000 1.000000 69.651288 -13.885319 1241.063244 1352.189711 5.257200 0.000000 0.101080
11.000000 156.656000 2.000000 2.000000 1.000000 71.543321 -34.436465 1712.960654 1376.546205 6.386898 0.000000 0.137322
12.000000 121.410000 3.000000 2.000000 1.000000 69.099844 -47.423443 2146.422831 1548.471966 8.240766 0.000000 0.285535
15.000000 91.632000 0.000000 3.000000 1.000000 40.290314 10.812901 769.434707 2233.506071 10.924708 0.000000 0.247399
16.000000 109.625000 1.000000 3.000000 1.000000 52.147035 -7.322350 1113.303238 1784.331677 9.130605 0.000000 0.066202
17.000000 106.208000 2.000000 3.000000 1.000000 58.243327 -23.247219 1437.350628 1666.072861 9.423134 0.000000 0.109528
18.000000 93.376000 3.000000 3.000000 1.000000 60.253010 -35.518675 1743.242653 1696.692415 10.716988 0.000000 0.186138
19.000000 79.618000 4.000000 3.000000 1.000000 60.270229 -44.494369 2032.463517 1802.674135 12.568306 0.000000 0.293426
24.000000 69.715000 1.000000 4.000000 1.000000 41.626658 -3.935036 1049.035612 2154.985940 14.359153 0.000000 0.207072
25.000000 73.750000 2.000000 4.000000 1.000000 48.403772 -16.593356 1295.721363 1937.970190 13.572339 0.000000 0.140117
26.000000 70.800000 3.000000 4.000000 1.000000 52.332158 -27.357006 1531.873730 1876.518153 14.136606 0.000000 0.168287
27.000000 64.725000 4.000000 4.000000 1.000000 54.275348 -36.041082 1758.153266 1898.337108 15.462174 0.000000 0.228932
32.000000 53.348000 2.000000 5.000000 1.000000 41.266159 -12.290291 1209.479063 2196.350971 18.764331 0.000000 0.222771
33.000000 54.253000 3.000000 5.000000 1.000000 45.838388 -21.627798 1401.739212 2065.409213 18.450086 0.000000 0.193787
34.000000 52.300000 4.000000 5.000000 1.000000 48.801585 -29.642630 1587.479916 2025.043677 19.137556 0.000000 0.215839
35.000000 48.940000 5.000000 5.000000 1.000000 50.594630 -36.348740 1767.027253 2038.864764 20.450017 0.000000 0.262441
36.000000 163.204000 -1.000000 2.000000 2.000000 68.200476 42.363759 -6.544044 1523.605598 6.130709 0.000000 0.228328
37.000000 174.930000 2.000000 2.000000 2.000000 99.488104 -30.864842 1618.252162 731.442230 5.716893 0.000000 0.082704
38.000000 138.635000 3.000000 2.000000 2.000000 93.030811 -45.465617 2068.931114 859.745817 7.214094 0.000000 0.155965
42.000000 104.627000 -1.000000 3.000000 2.000000 54.070502 31.968107 303.289431 1860.382797 9.565632 0.000000 0.208190
43.000000 133.390000 0.000000 3.000000 2.000000 69.610194 15.311603 680.324913 1355.775176 7.501787 0.000000 0.101800
44.000000 140.448000 1.000000 3.000000 2.000000 79.483451 -3.163607 1034.488434 1141.105880 7.123648 0.000000 0.143802
45.000000 129.403000 2.000000 3.000000 2.000000 82.777080 -20.049852 1367.799935 1086.205235 7.730963 0.000000 0.135932
46.000000 111.597000 3.000000 3.000000 2.000000 81.859107 -33.302049 1682.048306 1125.213235 8.964160 0.000000 0.114736
47.000000 94.200000 4.000000 3.000000 2.000000 79.206185 -43.004637 1978.823500 1221.588148 10.619630 0.000000 0.170703
48.000000 79.564000 5.000000 3.000000 2.000000 76.166282 -50.041005 2259.543440 1353.673240 12.573442 0.000000 0.300133
51.000000 70.318000 -1.000000 4.000000 2.000000 44.322085 26.038026 449.171693 2167.562004 14.234694 0.000000 0.260254
52.000000 96.627000 1.000000 4.000000 2.000000 64.649027 -0.748835 989.067580 1450.977502 10.357079 0.000000 0.064056
53.000000 87.788000 3.000000 4.000000 2.000000 71.567126 -25.228902 1482.128930 1337.547243 11.397826 0.000000 0.114424
54.000000 69.005000 5.000000 4.000000 2.000000 70.527246 -41.707517 1934.196564 1450.757469 14.499218 0.000000 0.195304
57.000000 62.036000 0.000000 5.000000 2.000000 46.776174 11.709116 751.931576 1974.047351 16.135656 0.000000 0.152148
58.000000 69.377000 1.000000 5.000000 2.000000 54.362471 0.693878 961.964957 1712.674428 14.427326 0.000000 0.032224
59.000000 71.312000 2.000000 5.000000 2.000000 59.715066 -9.987150 1164.530830 1579.227273 14.034712 0.000000 0.046276
60.000000 69.067000 3.000000 5.000000 2.000000 62.916943 -19.683547 1360.020489 1525.521203 14.489648 0.000000 0.088887
61.000000 64.467000 4.000000 5.000000 2.000000 64.453725 -28.063150 1548.798357 1523.973950 15.522532 0.000000 0.122078
62.000000 58.976000 5.000000 5.000000 2.000000 64.880634 -35.091874 1731.204256 1557.716551 16.967144 0.000000 0.161761
63.000000 53.465000 6.000000 5.000000 2.000000 64.643260 -40.907302 1907.555450 1615.896570 18.715430 0.000000 0.216507
64.000000 48.352000 7.000000 5.000000 2.000000 64.043614 -45.705940 2078.148483 1691.249423 20.694104 0.000000 0.287170
65.000000 51.882000 1.000000 6.000000 2.000000 46.934299 1.652011 943.958567 1947.388835 19.294205 0.000000 0.126745
66.000000 54.947000 3.000000 6.000000 2.000000 55.855222 -15.708052 1277.695898 1699.251272 18.215426 0.000000 0.076383
67.000000 50.135000 5.000000 6.000000 2.000000 59.610073 -29.842866 1592.469345 1668.701855 19.961072 0.000000 0.145331
69.000000 167.859000 -1.000000 2.000000 3.000000 91.835749 47.150289 -185.271149 890.276202 5.958197 0.000000 0.200145
70.000000 194.474000 0.000000 2.000000 3.000000 112.188559 26.485251 438.725350 450.550019 5.141225 0.000000 0.058662
71.000000 190.166000 1.000000 2.000000 3.000000 121.674602 -1.520771 1003.574206 276.692019 5.256960 0.000000 0.101816
72.000000 166.258000 2.000000 2.000000 3.000000 119.269387 -26.741835 1517.304649 265.520549 6.013056 0.000000 0.026736
73.000000 138.329000 3.000000 2.000000 3.000000 111.606340 -43.223977 1986.555541 356.008520 7.227787 0.000000 0.131888
76.000000 123.011000 -1.000000 3.000000 3.000000 76.601420 35.830953 197.867846 1257.228182 8.133006 0.000000 0.134521
77.000000 142.002000 0.000000 3.000000 3.000000 91.131871 19.821090 587.062628 918.396033 7.043849 0.000000 0.140293
78.000000 144.130000 1.000000 3.000000 3.000000 99.781772 1.218094 952.114796 755.402361 6.938899 0.000000 0.168577
79.000000 133.109000 2.000000 3.000000 3.000000 101.828983 -16.568018 1295.203201 705.817837 7.513002 0.000000 0.142239
80.000000 100.005000 4.000000 3.000000 3.000000 95.305136 -41.372627 1922.967587 807.819664 10.000466 0.000000 0.099139
81.000000 85.464000 5.000000 3.000000 3.000000 90.778419 -48.947983 2210.867096 918.733478 11.702519 0.000000 0.225327
85.000000 89.875000 -1.000000 4.000000 3.000000 64.537680 29.150500 374.699163 1527.822513 11.134173 0.000000 0.133181
86.000000 103.427000 0.000000 4.000000 3.000000 75.688447 16.440144 657.409781 1227.279373 9.673942 0.000000 0.123297
87.000000 107.912000 1.000000 4.000000 3.000000 83.478229 2.548924 927.087155 1064.164397 9.270714 0.000000 0.155601
88.000000 104.199000 2.000000 4.000000 3.000000 87.329970 -11.020611 1184.612247 992.135539 9.600271 0.000000 0.157436
89.000000 95.643000 3.000000 4.000000 3.000000 87.972331 -22.951653 1430.788372 982.381412 10.458693 0.000000 0.132988
90.000000 85.412000 4.000000 4.000000 3.000000 86.638016 -32.714357 1666.349569 1016.147242 11.711301 0.000000 0.106773
91.000000 75.405000 5.000000 4.000000 3.000000 84.354441 -40.429923 1891.967908 1080.773686 13.265566 0.000000 0.128121
92.000000 66.440000 6.000000 4.000000 3.000000 81.755301 -46.476844 2108.259901 1167.463509 15.055818 0.000000 0.206817
93.000000 58.725000 7.000000 4.000000 3.000000 79.168636 -51.244936 2315.792118 1269.957336 17.034159 0.000000 0.314867
97.000000 67.062000 -1.000000 5.000000 3.000000 55.383725 24.851378 476.510542 1759.752689 14.924032 0.000000 0.142896
98.000000 76.966000 0.000000 5.000000 3.000000 64.386911 14.409217 698.470036 1473.734319 13.002550 0.000000 0.080049
99.000000 81.823000 1.000000 5.000000 3.000000 71.342478 3.334664 912.287915 1305.032757 12.229452 0.000000 0.107547
100.000000 81.638000 2.000000 5.000000 3.000000 75.813960 -7.589317 1118.404072 1215.469622 12.256217 0.000000 0.128691
101.000000 77.785000 3.000000 5.000000 3.000000 77.999865 -17.639005 1317.227268 1181.062702 12.862400 0.000000 0.129836
102.000000 71.967000 4.000000 5.000000 3.000000 78.473320 -26.394051 1509.137844 1186.040008 13.901744 0.000000 0.121125
103.000000 65.502000 5.000000 5.000000 3.000000 77.853577 -33.762265 1694.490142 1219.642681 15.273400 0.000000 0.122141
104.000000 59.178000 6.000000 5.000000 3.000000 76.627830 -39.859026 1873.614694 1274.310550 16.905567 0.000000 0.152425
105.000000 53.368000 7.000000 5.000000 3.000000 75.119774 -44.880665 2046.820190 1344.599961 18.745741 0.000000 0.212235
106.000000 48.203000 8.000000 5.000000 3.000000 73.523179 -49.028861 2214.395247 1426.511082 20.754640 0.000000 0.291837
107.000000 51.417000 -1.000000 6.000000 3.000000 48.407669 21.883718 542.687706 1970.505066 19.467171 0.000000 0.182560
108.000000 63.370000 1.000000 6.000000 3.000000 62.153056 3.853100 902.510682 1510.881198 15.793226 0.000000 0.047289
109.000000 64.718000 2.000000 6.000000 3.000000 66.720182 -5.272623 1074.326118 1406.043923 15.462976 0.000000 0.080104
110.000000 60.426000 4.000000 6.000000 3.000000 71.200795 -21.683197 1402.943928 1335.282878 16.559242 0.000000 0.110808
111.000000 56.481000 5.000000 6.000000 3.000000 71.720292 -28.532765 1560.177301 1345.678001 17.715273 0.000000 0.119156
112.000000 48.016000 7.000000 6.000000 3.000000 70.933423 -39.476275 1861.480269 1422.931782 20.837587 0.000000 0.171854
113.000000 46.241000 0.000000 7.000000 3.000000 49.466032 12.093907 744.382215 1882.236501 21.646980 0.000000 0.120411
114.000000 50.193000 1.000000 7.000000 3.000000 55.039340 4.220750 895.569997 1695.575062 19.941157 0.000000 0.034945
115.000000 52.118000 2.000000 7.000000 3.000000 59.477380 -3.608320 1042.871607 1576.818713 19.203422 0.000000 0.024452
116.000000 52.201000 3.000000 7.000000 3.000000 62.724869 -11.114067 1186.434980 1506.531759 19.171994 0.000000 0.062892
117.000000 50.872000 4.000000 7.000000 3.000000 64.883720 -18.081406 1326.400638 1471.756673 19.671675 0.000000 0.088250
118.000000 48.622000 5.000000 7.000000 3.000000 66.145735 -24.385579 1462.902145 1463.537313 20.580784 0.000000 0.107425
119.000000 45.876000 6.000000 7.000000 3.000000 66.725864 -29.986733 1596.066535 1475.496818 21.812174 0.000000 0.127342
121.000000 167.638000 0.000000 2.000000 4.000000 124.927449 32.880251 279.240124 46.032388 5.962936 0.000000 0.074489
122.000000 164.726000 1.000000 2.000000 4.000000 134.376627 5.461168 872.100817 -116.927468 6.067654 0.000000 0.027637
123.000000 149.541000 2.000000 2.000000 4.000000 133.050200 -21.983042 1409.480613 -143.256303 6.683886 0.000000 0.047183
124.000000 129.922000 3.000000 2.000000 4.000000 125.693633 -40.640596 1898.819388 -77.983068 7.693820 0.000000 0.176388
127.000000 101.958000 -2.000000 3.000000 4.000000 77.027825 50.765867 -343.063230 1332.992423 9.811651 0.000000 0.333162
128.000000 123.121000 -1.000000 3.000000 4.000000 92.963559 39.516650 87.246028 868.771668 8.123224 0.000000 0.097859
129.000000 135.200000 0.000000 3.000000 4.000000 106.343105 24.286018 489.350672 594.748368 7.396050 0.000000 0.095397
130.000000 135.642000 1.000000 3.000000 4.000000 114.362855 5.786211 865.935714 451.116408 7.371029 0.000000 0.130534
131.000000 126.965000 2.000000 3.000000 4.000000 116.165053 -12.791282 1219.355838 398.755888 7.874502 0.000000 0.109907
132.000000 113.800000 3.000000 3.000000 4.000000 113.454513 -28.182663 1551.684687 411.222561 8.785716 0.000000 0.044213
133.000000 99.806000 4.000000 3.000000 4.000000 108.632504 -39.580005 1864.755573 470.160348 10.018102 0.000000 0.066659
134.000000 86.891000 5.000000 3.000000 4.000000 103.299935 -47.756923 2160.195314 562.549223 11.507976 0.000000 0.197202
138.000000 96.873000 -1.000000 4.000000 4.000000 80.614251 32.187095 297.559814 1151.210990 10.326844 0.000000 0.117033
139.000000 108.835000 1.000000 4.000000 4.000000 98.275721 5.941318 862.991313 783.605950 9.189374 0.000000 0.166733
140.000000 104.829000 2.000000 4.000000 4.000000 101.532402 -8.000804 1126.278689 719.232870 9.539926 0.000000 0.161642
141.000000 96.921000 3.000000 4.000000 4.000000 101.542393 -20.517003 1377.774020 706.309161 10.318105 0.000000 0.128791
142.000000 78.007000 5.000000 4.000000 4.000000 96.423011 -39.059610 1848.421540 784.960195 12.820509 0.000000 0.079500
143.000000 61.669000 7.000000 4.000000 4.000000 89.679003 -50.494122 2280.376493 950.478723 16.218359 0.000000 0.262976
146.000000 65.082000 -2.000000 5.000000 4.000000 60.509151 36.370174 182.351902 1696.972586 15.376195 0.000000 0.205904
147.000000 76.208000 -1.000000 5.000000 4.000000 70.476804 27.387708 417.394960 1370.800858 13.129781 0.000000 0.118818
148.000000 83.841000 0.000000 5.000000 4.000000 79.101922 17.117229 643.534328 1157.828683 11.933105 0.000000 0.132006
149.000000 86.926000 1.000000 5.000000 4.000000 85.532671 6.032137 861.266524 1025.556891 11.508437 0.000000 0.158542
150.000000 85.730000 2.000000 5.000000 4.000000 89.406511 -5.099742 1071.051821 952.193324 11.668080 0.000000 0.165741
151.000000 81.450000 3.000000 5.000000 4.000000 90.942557 -15.491827 1273.317497 922.625001 12.280621 0.000000 0.153012
152.000000 75.482000 4.000000 5.000000 4.000000 90.722088 -24.630568 1468.460737 926.077172 13.251305 0.000000 0.126931
153.000000 68.934000 5.000000 5.000000 4.000000 89.384423 -32.354973 1656.851239 954.689255 14.510087 0.000000 0.102206
154.000000 62.500000 6.000000 5.000000 4.000000 87.443683 -38.750520 1838.833549 1002.614685 16.004071 0.000000 0.108399
155.000000 56.536000 7.000000 5.000000 4.000000 85.246755 -44.010021 2014.729166 1065.433053 17.692561 0.000000 0.158627
156.000000 51.182000 8.000000 5.000000 4.000000 83.002414 -48.343127 2184.838435 1139.755247 19.543740 0.000000 0.235193
157.000000 46.456000 9.000000 5.000000 4.000000 80.825317 -51.936317 2349.442263 1222.951652 21.532370 0.000000 0.325907
158.000000 60.607000 -1.000000 6.000000 4.000000 62.316676 24.044433 494.802443 1559.319316 16.512118 0.000000 0.111828
159.000000 69.900000 1.000000 6.000000 4.000000 75.421987 6.091775 860.133590 1222.502255 14.314487 0.000000 0.127052
160.000000 68.228000 3.000000 6.000000 4.000000 81.841421 -11.992893 1203.633870 1098.745261 14.663224 0.000000 0.145720
161.000000 60.377000 5.000000 6.000000 4.000000 82.664893 -27.160536 1527.203315 1096.717652 16.569047 0.000000 0.121510
162.000000 51.311000 7.000000 6.000000 4.000000 80.640023 -38.545766 1832.527682 1167.831103 19.496377 0.000000 0.130061
163.000000 48.930000 -1.000000 7.000000 4.000000 55.738825 21.597205 548.925683 1729.486073 20.454812 0.000000 0.119787
164.000000 53.842000 0.000000 7.000000 4.000000 62.048701 14.022724 706.196254 1529.644656 18.587464 0.000000 0.071608
165.000000 56.878000 1.000000 7.000000 4.000000 67.321658 6.133938 859.332485 1393.335385 17.594288 0.000000 0.084582
166.000000 57.954000 2.000000 7.000000 4.000000 71.354931 -1.782523 1008.495287 1304.331610 17.266291 0.000000 0.107672
167.000000 57.320000 3.000000 7.000000 4.000000 74.126569 -9.434089 1153.837328 1251.247119 17.456183 0.000000 0.121027
168.000000 55.410000 4.000000 7.000000 4.000000 75.766129 -16.582706 1295.503554 1225.869493 18.057170 0.000000 0.124314
169.000000 52.686000 5.000000 7.000000 4.000000 76.487967 -23.079876 1433.631668 1222.136880 18.989934 0.000000 0.121587
170.000000 49.543000 6.000000 7.000000 4.000000 76.525317 -28.867603 1568.352583 1235.485972 20.194327 0.000000 0.119368
171.000000 46.267000 7.000000 7.000000 4.000000 76.087400 -33.956847 1699.790831 1262.423086 21.623913 0.000000 0.125843
172.000000 46.910000 1.000000 8.000000 4.000000 60.747458 6.165324 858.736045 1547.323375 21.335082 0.000000 0.042407
173.000000 48.461000 3.000000 8.000000 4.000000 67.599478 -7.488528 1116.477598 1388.444218 20.650065 0.000000 0.086765
174.000000 45.973000 5.000000 8.000000 4.000000 70.924065 -19.820149 1362.917403 1336.630654 21.765491 0.000000 0.108951
182.000000 115.839000 -1.000000 3.000000 5.000000 104.804234 43.008822 -28.970529 552.001953 8.632011 0.000000 0.119609
183.000000 123.663000 0.000000 3.000000 5.000000 117.132241 28.654242 386.862811 312.494491 8.084428 0.000000 0.017653
184.000000 123.631000 1.000000 3.000000 5.000000 124.844875 10.491734 775.681248 178.964826 8.085709 0.000000 0.071981
185.000000 117.285000 2.000000 3.000000 5.000000 126.901840 -8.717599 1140.034521 123.395884 8.522948 0.000000 0.065629
186.000000 107.347000 3.000000 3.000000 5.000000 124.421495 -25.230311 1482.161290 125.671734 9.312221 0.000000 0.021503
187.000000 96.218000 4.000000 3.000000 5.000000 119.540307 -37.605914 1804.035169 171.096683 10.389846 0.000000 0.086951
188.000000 85.402000 5.000000 3.000000 5.000000 113.897303 -46.455198 2107.402825 248.776973 11.706626 0.000000 0.206398
193.000000 84.986000 -2.000000 4.000000 5.000000 81.364945 44.811526 -94.236544 1171.393510 11.770539 0.000000 0.195498
194.000000 96.462000 -1.000000 4.000000 5.000000 93.146416 35.134191 217.607788 868.654616 10.368334 0.000000 0.086089
195.000000 103.217000 0.000000 4.000000 5.000000 103.022604 23.176905 514.213130 670.216796 9.688432 0.000000 0.111053
196.000000 104.456000 1.000000 4.000000 5.000000 109.742313 9.407812 796.669872 549.467712 9.572530 0.000000 0.140327
197.000000 100.940000 2.000000 4.000000 5.000000 112.781344 -4.831073 1065.966801 487.368252 9.905438 0.000000 0.137994
198.000000 94.313000 3.000000 4.000000 5.000000 112.606081 -17.917790 1323.002664 470.004106 10.601333 0.000000 0.106599
199.000000 86.233000 4.000000 4.000000 5.000000 110.271629 -28.877548 1568.596191 487.022009 11.594962 0.000000 0.054103
200.000000 77.900000 5.000000 4.000000 5.000000 106.812509 -37.587855 1803.494804 530.599910 12.835830 0.000000 0.044783
201.000000 70.004000 6.000000 4.000000 5.000000 102.948080 -44.383609 2028.382218 594.750597 14.284249 0.000000 0.130885
202.000000 62.859000 7.000000 4.000000 5.000000 99.088271 -49.694709 2243.885083 674.839813 15.908592 0.000000 0.237094
207.000000 59.734000 -3.000000 5.000000 5.000000 63.081730 45.819299 -132.523832 1725.113000 16.751062 0.000000 0.316904
208.000000 70.548000 -2.000000 5.000000 5.000000 73.282842 38.563759 116.919613 1354.414673 14.181774 0.000000 0.163177
209.000000 79.472000 -1.000000 5.000000 5.000000 82.924558 29.880361 356.594152 1095.072284 12.587554 0.000000 0.115463
210.000000 87.151000 1.000000 5.000000 5.000000 97.159869 8.775843 808.845465 804.196646 11.476013 0.000000 0.163856
211.000000 85.639000 2.000000 5.000000 5.000000 100.676285 -2.522983 1022.424583 737.896564 11.677899 0.000000 0.167448
212.000000 81.591000 3.000000 5.000000 5.000000 101.863030 -13.240580 1228.246899 708.740269 12.256960 0.000000 0.151327
213.000000 76.073000 4.000000 5.000000 5.000000 101.258246 -22.768098 1426.727444 708.645373 13.145815 0.000000 0.119839
214.000000 63.882000 6.000000 5.000000 5.000000 97.078772 -37.577345 1803.180411 772.357213 15.655097 0.000000 0.072310
215.000000 58.140000 7.000000 5.000000 5.000000 94.397766 -43.090600 1981.847213 827.653400 17.201601 0.000000 0.119754
216.000000 52.903000 8.000000 5.000000 5.000000 91.672481 -47.621114 2154.565281 894.375569 18.905250 0.000000 0.196510
217.000000 48.214000 9.000000 5.000000 5.000000 89.030726 -51.366332 2321.626846 970.165942 20.744412 0.000000 0.286324
218.000000 50.187000 -3.000000 6.000000 5.000000 57.635844 40.672151 50.150686 1840.323479 19.939850 0.000000 0.277515
219.000000 58.508000 -2.000000 6.000000 5.000000 66.201560 33.920341 251.205477 1513.016386 17.102623 0.000000 0.156884
220.000000 65.493000 -1.000000 6.000000 5.000000 74.274446 26.182896 445.796580 1278.702292 15.276932 0.000000 0.118007
221.000000 70.317000 0.000000 6.000000 5.000000 81.283483 17.568487 634.230764 1114.087053 14.227495 0.000000 0.136150
222.000000 72.559000 1.000000 6.000000 5.000000 86.755016 8.362017 816.795688 1002.677589 13.786747 0.000000 0.158764
223.000000 72.316000 2.000000 6.000000 5.000000 90.452825 -0.998647 993.761366 932.492261 13.832115 0.000000 0.168316
224.000000 70.085000 3.000000 6.000000 5.000000 92.428968 -10.031066 1165.381501 894.636025 14.271867 0.000000 0.163278
225.000000 66.521000 4.000000 6.000000 5.000000 92.959260 -18.345306 1331.894694 882.382034 15.035984 0.000000 0.146088
226.000000 62.240000 5.000000 6.000000 5.000000 92.417531 -25.723340 1493.525558 890.561566 16.070096 0.000000 0.121479
227.000000 57.711000 6.000000 6.000000 5.000000 91.165500 -32.112513 1650.485720 915.148008 17.331343 0.000000 0.099142
228.000000 53.244000 7.000000 6.000000 5.000000 89.495098 -37.570468 1802.974755 952.966597 18.785478 0.000000 0.098076
229.000000 49.019000 8.000000 6.000000 5.000000 87.616251 -42.207506 1951.181024 1001.487767 20.404811 0.000000 0.130741
230.000000 48.773000 -2.000000 7.000000 5.000000 60.131548 30.376571 344.133355 1657.464166 20.518551 0.000000 0.156787
231.000000 54.313000 -1.000000 7.000000 5.000000 67.034516 23.460293 507.900564 1438.194826 18.424176 0.000000 0.108101
232.000000 58.374000 0.000000 7.000000 5.000000 73.143938 15.956457 667.262601 1280.169753 17.141136 0.000000 0.115142
233.000000 60.654000 1.000000 7.000000 5.000000 78.141912 8.070037 822.394848 1169.248933 16.495606 0.000000 0.136885
234.000000 61.152000 2.000000 7.000000 5.000000 81.851324 0.081794 973.463501 1095.112514 16.360101 0.000000 0.151583
235.000000 60.124000 3.000000 7.000000 5.000000 84.265699 -7.705513 1120.626160 1050.064067 16.639008 0.000000 0.155259
236.000000 57.961000 4.000000 7.000000 5.000000 85.523043 -15.031793 1264.032382 1028.256412 17.259205 0.000000 0.148931
237.000000 55.073000 5.000000 7.000000 5.000000 85.844511 -21.723648 1403.824181 1025.175680 18.163817 0.000000 0.135475
238.000000 51.809000 6.000000 7.000000 5.000000 85.471182 -27.702895 1540.136505 1037.288454 19.307942 0.000000 0.119768
239.000000 48.429000 7.000000 7.000000 5.000000 84.620886 -32.967936 1673.097666 1061.794906 20.655658 0.000000 0.110090
240.000000 48.886000 0.000000 8.000000 5.000000 66.383694 14.747533 691.684926 1427.616897 20.470476 0.000000 0.088318
241.000000 51.070000 1.000000 8.000000 5.000000 70.970868 7.853006 826.551500 1315.724279 19.593732 0.000000 0.105751
242.000000 51.968000 2.000000 8.000000 5.000000 74.598624 0.887068 958.335195 1237.524180 19.254093 0.000000 0.124155
243.000000 51.704000 3.000000 8.000000 5.000000 77.235825 -5.948260 1087.140523 1186.140318 19.351520 0.000000 0.134874
244.000000 50.506000 4.000000 8.000000 5.000000 78.946795 -12.472528 1213.067324 1156.329666 19.809368 0.000000 0.137301
245.000000 48.642000 5.000000 8.000000 5.000000 79.860668 -18.552072 1336.211025 1144.030081 20.567919 0.000000 0.133158
246.000000 46.360000 6.000000 8.000000 5.000000 80.135159 -24.109456 1456.662882 1146.050098 21.579962 0.000000 0.125481
251.000000 106.501000 -1.000000 3.000000 6.000000 113.508985 46.298466 -151.217271 263.354040 9.387409 0.000000 0.212066
252.000000 111.638000 1.000000 3.000000 6.000000 132.478530 15.275426 681.055312 -80.592656 8.953238 0.000000 0.029090
253.000000 107.077000 2.000000 3.000000 6.000000 134.996289 -4.356531 1056.994984 -138.273227 9.334352 0.000000 0.024878
254.000000 91.045000 4.000000 3.000000 6.000000 128.451736 -35.426807 1740.640673 -107.827204 10.978762 0.000000 0.124789
257.000000 92.446000 -1.000000 4.000000 6.000000 102.901065 37.980834 134.686392 628.236570 10.816782 0.000000 0.059391
258.000000 97.934000 1.000000 4.000000 6.000000 118.631570 12.924825 728.004865 338.141969 10.208342 0.000000 0.096853
259.000000 89.768000 3.000000 4.000000 6.000000 121.590013 -15.148569 1266.385486 255.290529 11.136398 0.000000 0.076707
260.000000 76.066000 5.000000 4.000000 6.000000 115.695678 -36.005137 1757.121010 300.816657 13.143262 0.000000 0.044359
261.000000 62.740000 7.000000 4.000000 6.000000 107.448356 -48.842164 2206.268115 426.990399 15.936609 0.000000 0.233373
264.000000 63.202000 -3.000000 5.000000 6.000000 73.989161 47.632504 -205.036358 1399.303033 15.829158 0.000000 0.279498
265.000000 72.069000 -2.000000 5.000000 6.000000 83.869716 40.690335 49.556704 1093.454930 13.879719 0.000000 0.138419
266.000000 79.062000 -1.000000 5.000000 6.000000 93.087282 32.321294 294.035013 872.306424 12.650383 0.000000 0.092269
267.000000 83.341000 0.000000 5.000000 6.000000 100.887485 22.508847 528.989603 716.911209 11.999463 0.000000 0.119293
268.000000 84.598000 1.000000 5.000000 6.000000 106.617010 11.554130 754.966342 613.151223 11.820158 0.000000 0.144244
269.000000 83.115000 2.000000 5.000000 6.000000 109.950035 0.134674 972.470161 550.322437 12.030433 0.000000 0.149216
270.000000 79.569000 3.000000 5.000000 6.000000 111.004223 -10.884970 1181.968824 520.187177 12.566238 0.000000 0.134343
271.000000 74.747000 4.000000 5.000000 6.000000 110.246567 -20.802347 1383.896287 516.323136 13.376833 0.000000 0.102682
272.000000 69.334000 5.000000 5.000000 6.000000 108.267349 -29.286538 1578.655695 533.666342 14.421503 0.000000 0.060061
273.000000 63.823000 6.000000 5.000000 6.000000 105.591222 -36.334745 1766.622071 568.184056 15.667198 0.000000 0.040869
274.000000 58.523000 7.000000 5.000000 6.000000 102.600939 -42.118699 1948.144725 616.636627 17.086810 0.000000 0.096002
275.000000 53.597000 8.000000 5.000000 6.000000 99.542345 -46.860113 2123.549422 676.401429 18.657895 0.000000 0.174598
276.000000 49.114000 9.000000 5.000000 6.000000 96.558852 -50.767509 2293.140332 745.340885 20.361712 0.000000 0.263267
277.000000 67.230000 -1.000000 6.000000 6.000000 84.415470 28.293600 395.630317 1060.516820 14.879370 0.000000 0.117211
278.000000 72.571000 1.000000 6.000000 6.000000 96.327169 10.657238 772.463926 819.564760 13.781838 0.000000 0.161208
279.000000 62.564000 5.000000 6.000000 6.000000 101.028095 -24.218396 1459.121253 710.999090 15.984275 0.000000 0.113610
280.000000 54.066000 7.000000 6.000000 6.000000 97.507182 -36.547674 1772.802620 764.449268 18.497281 0.000000 0.069850
281.000000 46.763000 -3.000000 7.000000 6.000000 62.930998 38.157892 129.319992 1640.510641 21.398396 0.000000 0.209740
282.000000 52.481000 -2.000000 7.000000 6.000000 70.163780 32.092537 300.037211 1399.289193 19.065407 0.000000 0.134711
283.000000 57.187000 -1.000000 7.000000 6.000000 76.903327 25.308048 466.053051 1217.979432 17.495162 0.000000 0.119958
284.000000 60.486000 0.000000 7.000000 6.000000 82.796806 17.890712 627.559080 1083.940546 16.539617 0.000000 0.138354
285.000000 62.184000 1.000000 7.000000 6.000000 87.555735 10.024970 784.736600 987.655436 16.086712 0.000000 0.158083
286.000000 62.322000 2.000000 7.000000 6.000000 91.019637 1.981797 937.757321 921.832756 16.050064 0.000000 0.168527
287.000000 61.131000 3.000000 7.000000 6.000000 93.184217 -5.929484 1086.783991 880.801131 16.362014 0.000000 0.168077
288.000000 58.944000 4.000000 7.000000 6.000000 94.181972 -13.428283 1231.970971 860.090398 16.968810 0.000000 0.157717
289.000000 56.104000 5.000000 7.000000 6.000000 94.228965 -20.315518 1373.464768 856.135860 17.827212 0.000000 0.139531
290.000000 52.914000 6.000000 7.000000 6.000000 93.565651 -26.490790 1511.404530 866.065395 18.902042 0.000000 0.116993
291.000000 49.601000 7.000000 7.000000 6.000000 92.413508 -31.937905 1645.922501 887.543586 20.164385 0.000000 0.096923
292.000000 46.326000 8.000000 7.000000 6.000000 90.953648 -36.696558 1777.144445 918.655836 21.590260 0.000000 0.092209
293.000000 48.836000 -1.000000 8.000000 6.000000 70.441053 23.017960 517.741975 1356.460396 20.489421 0.000000 0.111103
294.000000 53.421000 1.000000 8.000000 6.000000 80.075092 9.555373 793.820638 1131.975273 18.728274 0.000000 0.142231
295.000000 53.446000 3.000000 8.000000 6.000000 85.874150 -4.373564 1057.316813 1018.864579 18.717399 0.000000 0.160591
296.000000 50.151000 5.000000 8.000000 6.000000 87.976115 -17.243846 1309.071520 980.824278 19.946039 0.000000 0.147499
297.000000 46.110000 1.000000 9.000000 6.000000 73.672552 9.192868 800.815852 1260.392474 21.700186 0.000000 0.118624
298.000000 46.872000 2.000000 9.000000 6.000000 76.974178 2.986639 918.845474 1190.331748 21.346220 0.000000 0.134252
299.000000 46.069000 4.000000 9.000000 6.000000 81.230646 -9.121901 1147.816397 1109.156362 21.716588 0.000000 0.146621
302.000000 100.824000 1.000000 3.000000 7.000000 138.122688 20.071817 581.732427 -337.135478 9.912763 0.000000 0.071734
303.000000 97.531000 2.000000 3.000000 7.000000 141.156041 0.267793 969.969513 -395.553537 10.247164 0.000000 0.004920
304.000000 92.034000 3.000000 3.000000 7.000000 139.881791 -18.418553 1333.422587 -405.281360 10.859319 0.000000 0.068171
309.000000 80.654000 -2.000000 4.000000 7.000000 100.193964 49.379894 -279.842631 643.723850 12.398425 0.000000 0.244500
310.000000 87.005000 -1.000000 4.000000 7.000000 110.553164 40.718775 48.627076 408.558193 11.491666 0.000000 0.095594
311.000000 90.476000 0.000000 4.000000 7.000000 119.317432 29.725670 360.453325 244.993262 11.049433 0.000000 0.008024
312.000000 90.902000 1.000000 4.000000 7.000000 125.571719 16.466581 656.869839 138.330967 10.996788 0.000000 0.049268
313.000000 88.662000 2.000000 4.000000 7.000000 128.735038 1.916181 938.991343 77.161459 11.274091 0.000000 0.062312
314.000000 84.472000 3.000000 4.000000 7.000000 128.897466 -12.206333 1207.827579 52.532606 11.833283 0.000000 0.047020
315.000000 79.112000 4.000000 4.000000 7.000000 126.774405 -24.447074 1464.295376 57.354456 12.635205 0.000000 0.025937
316.000000 73.247000 5.000000 4.000000 7.000000 123.275453 -34.301123 1709.229100 85.965251 13.647634 0.000000 0.072148
317.000000 67.348000 6.000000 4.000000 7.000000 119.140535 -41.979119 1943.389717 133.810567 14.843804 0.000000 0.150824
318.000000 61.708000 7.000000 4.000000 7.000000 114.845640 -47.931427 2167.472697 197.202981 16.201307 0.000000 0.245490
323.000000 64.037000 -3.000000 5.000000 7.000000 83.153685 49.378166 -279.766059 1139.479549 15.620380 0.000000 0.272409
324.000000 71.176000 -2.000000 5.000000 7.000000 92.613045 42.747341 -19.823554 874.111573 14.051612 0.000000 0.128839
325.000000 76.620000 -1.000000 5.000000 7.000000 101.376666 34.703539 229.640149 677.576399 13.051552 0.000000 0.057554
326.000000 79.840000 0.000000 5.000000 7.000000 108.801194 25.168969 469.246162 536.135691 12.523814 0.000000 0.081442
327.000000 80.678000 1.000000 5.000000 7.000000 114.309956 14.354400 699.567463 439.141698 12.392630 0.000000 0.111126
328.000000 79.362000 2.000000 5.000000 7.000000 117.574253 2.865157 921.133467 378.239153 12.597614 0.000000 0.120288
329.000000 76.375000 3.000000 5.000000 7.000000 118.639846 -8.426088 1134.434090 346.799963 13.090049 0.000000 0.109167
330.000000 72.288000 4.000000 5.000000 7.000000 117.890208 -18.729505 1339.923366 339.515413 13.830198 0.000000 0.080309
331.000000 67.619000 5.000000 5.000000 7.000000 115.865431 -27.614615 1538.022672 352.097172 14.785325 0.000000 0.036615
332.000000 62.769000 6.000000 5.000000 7.000000 113.077604 -35.017651 1729.123612 381.054837 15.928218 0.000000 0.023660
333.000000 58.009000 7.000000 5.000000 7.000000 109.918460 -41.090303 1913.590602 423.528244 17.236074 0.000000 0.090880
334.000000 53.500000 8.000000 5.000000 7.000000 106.649870 -46.057170 2091.763189 477.159520 18.689636 0.000000 0.168715
335.000000 49.324000 9.000000 5.000000 7.000000 103.430861 -50.137746 2263.958135 539.994412 20.272534 0.000000 0.254754
338.000000 56.329000 -3.000000 6.000000 7.000000 77.306371 44.007664 -64.643567 1278.057607 17.759947 0.000000 0.202465
339.000000 62.260000 -2.000000 6.000000 7.000000 85.450206 37.697151 143.230722 1049.242652 16.066202 0.000000 0.114628
340.000000 66.890000 -1.000000 6.000000 7.000000 92.965214 30.371476 344.261943 876.381081 14.952497 0.000000 0.099523
341.000000 69.833000 0.000000 6.000000 7.000000 99.400684 22.062502 538.782528 748.728277 14.321105 0.000000 0.124222
342.000000 70.947000 1.000000 6.000000 7.000000 104.376384 12.970388 727.103718 657.904581 14.095084 0.000000 0.145903
343.000000 70.354000 2.000000 6.000000 7.000000 107.679899 3.481638 909.517229 597.292316 14.213033 0.000000 0.154002
344.000000 68.369000 3.000000 6.000000 7.000000 109.322169 -5.903822 1086.296755 561.607219 14.625354 0.000000 0.147857
345.000000 65.389000 4.000000 6.000000 7.000000 109.515915 -14.716874 1257.699342 546.588254 15.291548 0.000000 0.128913
346.000000 61.806000 5.000000 6.000000 7.000000 108.589716 -22.643025 1423.966634 548.769408 16.178219 0.000000 0.099444
347.000000 57.941000 6.000000 6.000000 7.000000 106.890278 -29.555942 1585.326006 565.309341 17.257583 0.000000 0.063999
348.000000 54.033000 7.000000 6.000000 7.000000 104.716887 -35.474530 1741.991610 593.862513 18.506336 0.000000 0.043234
349.000000 50.238000 8.000000 6.000000 7.000000 102.296860 -40.497635 1894.165312 632.480532 19.904785 0.000000 0.076479
350.000000 46.650000 9.000000 6.000000 7.000000 99.788191 -44.752550 2042.037571 679.535786 21.436177 0.000000 0.136241
351.000000 49.345000 -3.000000 7.000000 7.000000 71.840112 39.685710 81.896623 1399.746976 20.275796 0.000000 0.179226
352.000000 54.267000 -2.000000 7.000000 7.000000 78.916547 33.779711 255.035566 1194.660340 18.435066 0.000000 0.122053
353.000000 58.199000 -1.000000 7.000000 7.000000 85.453587 27.136869 423.358163 1037.169945 17.188173 0.000000 0.119455
354.000000 62.126000 1.000000 7.000000 7.000000 95.689177 11.994405 746.336445 831.383735 16.099063 0.000000 0.158968
355.000000 62.058000 2.000000 7.000000 7.000000 98.974946 3.914229 901.357085 770.616699 16.115747 0.000000 0.167974
356.000000 60.850000 3.000000 7.000000 7.000000 100.978524 -4.107570 1052.292666 731.670520 16.435015 0.000000 0.166279
357.000000 58.773000 4.000000 7.000000 7.000000 101.817888 -11.772094 1199.302560 710.961269 17.015439 0.000000 0.154702
358.000000 56.110000 5.000000 7.000000 7.000000 101.695778 -18.854247 1342.537956 705.560045 17.822820 0.000000 0.134808
359.000000 53.113000 6.000000 7.000000 7.000000 100.845575 -25.229487 1482.142377 713.054220 18.828684 0.000000 0.109075
360.000000 46.855000 8.000000 7.000000 7.000000 97.808001 -35.791209 1750.996908 759.052838 21.343933 0.000000 0.069283
361.000000 47.304000 -2.000000 8.000000 7.000000 73.065492 30.679195 336.471715 1322.043098 21.151262 0.000000 0.124839
362.000000 50.650000 -1.000000 8.000000 7.000000 78.827899 24.644222 481.228810 1174.869550 19.752405 0.000000 0.122224
363.000000 53.037000 0.000000 8.000000 7.000000 83.907693 18.132311 622.540870 1061.879334 18.861916 0.000000 0.139616
364.000000 54.367000 1.000000 8.000000 7.000000 88.116884 11.269577 760.529429 977.082575 18.399590 0.000000 0.157123
365.000000 54.656000 2.000000 8.000000 7.000000 91.342221 4.234495 895.310373 915.712898 18.301251 0.000000 0.167756
366.000000 54.023000 3.000000 8.000000 7.000000 93.561414 -2.765728 1026.994259 873.934866 18.514937 0.000000 0.170047
367.000000 52.647000 4.000000 8.000000 7.000000 94.837796 -9.529863 1155.686625 848.631256 18.998129 0.000000 0.164351
368.000000 50.730000 5.000000 8.000000 7.000000 95.296956 -15.894966 1281.488265 837.245870 19.715697 0.000000 0.151737
369.000000 48.461000 6.000000 8.000000 7.000000 95.095679 -21.754483 1404.495495 837.665701 20.638362 0.000000 0.133849
370.000000 46.002000 7.000000 8.000000 7.000000 94.393998 -27.059181 1524.800400 848.131422 21.741527 0.000000 0.113340
371.000000 46.332000 0.000000 9.000000 7.000000 77.605990 16.816323 649.712987 1188.086840 21.594510 0.000000 0.128517
372.000000 47.659000 1.000000 9.000000 7.000000 81.515624 10.710175 771.434117 1104.399681 20.991797 0.000000 0.145273
373.000000 48.177000 2.000000 9.000000 7.000000 84.652141 4.481145 890.650175 1042.060575 20.765134 0.000000 0.157622
374.000000 47.953000 3.000000 9.000000 7.000000 86.988020 -1.726276 1007.437707 997.657578 20.861103 0.000000 0.163446
375.000000 47.105000 4.000000 9.000000 7.000000 88.554532 -7.770537 1121.870172 968.410398 21.235947 0.000000 0.162655
376.000000 45.773000 5.000000 9.000000 7.000000 89.428984 -13.531338 1234.018095 952.033081 21.853478 0.000000 0.155946
384.000000 81.242000 -1.000000 4.000000 8.000000 116.626181 43.342357 -40.751713 199.065659 12.305479 0.000000 0.168794
385.000000 84.105000 1.000000 4.000000 8.000000 131.041240 20.006197 583.129074 -56.141137 11.884487 0.000000 0.032394
386.000000 79.072000 3.000000 4.000000 8.000000 134.866551 -9.091332 1147.227417 -143.921340 12.640304 0.000000 0.024421
387.000000 69.942000 5.000000 4.000000 8.000000 129.749237 -32.464703 1659.743286 -119.918099 14.291067 0.000000 0.101857
392.000000 63.225000 -3.000000 5.000000 8.000000 90.849348 51.056927 -356.816202 915.614393 15.818693 0.000000 0.292000
393.000000 68.941000 -2.000000 5.000000 8.000000 99.850332 44.733095 -91.313158 677.931364 14.505265 0.000000 0.146418
394.000000 73.192000 -1.000000 5.000000 8.000000 108.166918 37.021267 163.327556 498.648138 13.661025 0.000000 0.044481
395.000000 75.648000 0.000000 5.000000 8.000000 115.251953 27.790636 407.759181 367.152640 13.216137 0.000000 0.034276
396.000000 76.232000 1.000000 5.000000 8.000000 120.593626 17.163445 642.583608 274.983096 13.113970 0.000000 0.071721
397.000000 75.117000 2.000000 5.000000 8.000000 123.859440 5.658632 868.356325 215.329519 13.308116 0.000000 0.086574
398.000000 72.647000 3.000000 5.000000 8.000000 125.026177 -5.866636 1085.590807 182.665802 13.760185 0.000000 0.080638
399.000000 69.236000 4.000000 5.000000 8.000000 124.390801 -16.546459 1294.762411 172.474402 14.438144 0.000000 0.057061
400.000000 65.273000 5.000000 5.000000 8.000000 122.434874 -25.843603 1496.311852 181.037694 15.315053 0.000000 0.021186
401.000000 61.076000 6.000000 5.000000 8.000000 119.649527 -33.620680 1690.648299 205.278034 16.368092 0.000000 0.039861
402.000000 56.875000 7.000000 5.000000 8.000000 116.429635 -40.001063 1878.152150 242.633869 17.577803 0.000000 0.102418
403.000000 52.822000 8.000000 5.000000 8.000000 113.049853 -45.209063 2059.177517 290.962864 18.927494 0.000000 0.175921
404.000000 49.005000 9.000000 5.000000 8.000000 109.683475 -49.474744 2234.054457 348.465465 20.402759 0.000000 0.257976
406.000000 56.663000 -3.000000 6.000000 8.000000 85.124382 45.603263 -124.200751 1072.227310 17.652791 0.000000 0.192580
407.000000 65.292000 -1.000000 6.000000 8.000000 100.168319 32.411959 291.647727 712.336292 15.316393 0.000000 0.070132
408.000000 68.408000 1.000000 6.000000 8.000000 111.144554 15.294074 680.678857 509.447190 14.616311 0.000000 0.119857
409.000000 66.078000 3.000000 6.000000 8.000000 115.979511 -3.742667 1045.405715 415.411640 15.130448 0.000000 0.126788
410.000000 60.336000 5.000000 6.000000 8.000000 115.213716 -20.994721 1388.036884 398.183928 16.570390 0.000000 0.081577
411.000000 53.375000 7.000000 6.000000 8.000000 111.183388 -34.348037 1710.521215 435.797517 18.732362 0.000000 0.019814
412.000000 46.576000 9.000000 6.000000 8.000000 105.967801 -44.006049 2014.584920 512.830529 21.468305 0.000000 0.128527
413.000000 45.676000 -4.000000 7.000000 8.000000 72.500300 46.198812 -147.302714 1431.275383 21.903628 0.000000 0.261439
414.000000 50.489000 -3.000000 7.000000 8.000000 79.643340 41.178912 33.475102 1202.334765 19.813673 0.000000 0.159439
415.000000 54.667000 -2.000000 7.000000 8.000000 86.516843 35.435964 209.100239 1021.405379 18.297678 0.000000 0.105896
416.000000 57.925000 -1.000000 7.000000 8.000000 92.833506 28.943383 379.789901 880.126260 17.266724 0.000000 0.105468
417.000000 60.068000 0.000000 7.000000 8.000000 98.306367 21.743243 545.749252 771.827415 16.649358 0.000000 0.127440
418.000000 61.024000 1.000000 7.000000 8.000000 102.696005 13.973808 707.172241 691.130885 16.387501 0.000000 0.146574
419.000000 60.850000 2.000000 7.000000 8.000000 105.857443 5.875425 864.242357 633.659100 16.433467 0.000000 0.155983
420.000000 59.706000 3.000000 7.000000 8.000000 107.768973 -2.241794 1017.133325 595.818335 16.747730 0.000000 0.154768
421.000000 57.809000 4.000000 7.000000 8.000000 108.528944 -10.063493 1166.009745 574.635680 17.297255 0.000000 0.143615
422.000000 55.384000 5.000000 7.000000 8.000000 108.321542 -17.338782 1311.027688 567.634739 18.054216 0.000000 0.123741
423.000000 52.642000 6.000000 7.000000 8.000000 107.368405 -23.917230 1452.335236 572.739764 18.995009 0.000000 0.096909
424.000000 49.750000 7.000000 7.000000 8.000000 105.886165 -29.746795 1590.072992 588.200926 20.099480 0.000000 0.066782
425.000000 46.836000 8.000000 7.000000 8.000000 104.060717 -34.847732 1724.374540 612.535512 21.350318 0.000000 0.046916
426.000000 51.279000 -1.000000 8.000000 8.000000 86.216513 26.256875 444.069830 1020.364708 19.507265 0.000000 0.121544
427.000000 54.288000 1.000000 8.000000 8.000000 95.187266 12.992647 726.663361 840.723552 18.423611 0.000000 0.157103
428.000000 53.743000 3.000000 8.000000 8.000000 100.372358 -1.126306 996.160240 743.961669 18.608727 0.000000 0.168136
429.000000 50.600000 5.000000 8.000000 8.000000 101.872372 -14.505072 1253.450286 707.281530 19.763716 0.000000 0.148111
430.000000 46.135000 7.000000 8.000000 8.000000 100.699443 -25.974222 1499.344492 714.794127 21.676730 0.000000 0.105650
431.000000 47.208000 0.000000 9.000000 8.000000 84.757644 18.320175 618.629223 1045.025281 21.190595 0.000000 0.140376
432.000000 48.276000 1.000000 9.000000 8.000000 88.530162 12.235223 741.604250 969.258658 20.720787 0.000000 0.156113
433.000000 48.617000 2.000000 9.000000 8.000000 91.531397 5.991976 862.029298 912.067971 20.574372 0.000000 0.166593
434.000000 48.296000 3.000000 9.000000 8.000000 93.734936 -0.265258 979.982869 870.739383 20.710196 0.000000 0.170539
435.000000 47.416000 4.000000 9.000000 8.000000 95.169708 -6.390249 1095.540273 843.014459 21.093800 0.000000 0.167997
436.000000 46.099000 5.000000 9.000000 8.000000 95.909366 -12.254443 1208.773790 827.000472 21.696120 0.000000 0.159559
442.000000 77.629000 0.000000 4.000000 9.000000 129.396386 35.934081 194.916793 -150.728243 12.875962 0.000000 0.145570
443.000000 77.839000 1.000000 4.000000 9.000000 135.393354 23.516885 506.636723 -249.014469 12.840351 0.000000 0.075134
444.000000 76.485000 2.000000 4.000000 9.000000 138.914732 9.091119 802.776692 -309.123557 13.067212 0.000000 0.026954
445.000000 73.891000 3.000000 4.000000 9.000000 139.766249 -5.807918 1084.476265 -337.665279 13.525671 0.000000 0.015430
446.000000 70.436000 4.000000 4.000000 9.000000 138.317849 -19.340468 1352.766519 -340.057744 14.189514 0.000000 0.064431
453.000000 66.043000 -2.000000 5.000000 9.000000 105.874041 46.646717 -165.009788 495.165138 15.140026 0.000000 0.190549
454.000000 69.391000 -1.000000 5.000000 9.000000 113.767564 39.269800 95.010273 328.767191 14.407834 0.000000 0.086002
455.000000 71.296000 0.000000 5.000000 9.000000 120.547073 30.363976 344.451206 204.845463 14.021737 0.000000 0.019809
456.000000 71.720000 1.000000 5.000000 9.000000 125.756873 19.967801 583.945769 116.412637 13.937757 0.000000 0.034553
457.000000 70.796000 2.000000 5.000000 9.000000 129.063844 8.503619 814.077246 57.736390 14.119064 0.000000 0.052788
458.000000 68.771000 3.000000 5.000000 9.000000 130.383903 -3.211144 1035.384186 24.083375 14.534580 0.000000 0.052113
459.000000 65.943000 4.000000 5.000000 9.000000 129.929840 -14.251035 1248.364616 11.522129 15.157902 0.000000 0.037169
460.000000 62.605000 5.000000 5.000000 9.000000 128.120196 -23.968124 1453.479775 16.769812 15.966447 0.000000 0.029819
461.000000 59.006000 6.000000 5.000000 9.000000 125.418907 -32.138160 1651.157456 37.071934 16.940795 0.000000 0.065410
462.000000 55.339000 7.000000 5.000000 9.000000 122.219063 -38.846276 1841.794981 70.107165 18.064145 0.000000 0.122523
463.000000 51.739000 8.000000 5.000000 9.000000 118.804894 -44.312275 2025.761865 113.911418 19.321894 0.000000 0.191412
466.000000 51.174000 -4.000000 6.000000 9.000000 84.031116 52.109786 -408.048171 1124.232238 19.545957 0.000000 0.338928
467.000000 59.983000 -2.000000 6.000000 9.000000 99.352281 41.287652 29.863288 705.097654 16.671670 0.000000 0.096648
468.000000 62.997000 -1.000000 6.000000 9.000000 106.252137 34.411021 237.741788 560.693451 15.872472 0.000000 0.038550
469.000000 65.426000 1.000000 6.000000 9.000000 116.849996 17.620695 633.151415 369.323007 15.280950 0.000000 0.087691
470.000000 64.887000 2.000000 6.000000 9.000000 120.027843 8.125298 821.335760 312.595307 15.407143 0.000000 0.102169
471.000000 61.160000 4.000000 6.000000 9.000000 121.917631 -10.791271 1180.144172 258.537412 16.345484 0.000000 0.088092
472.000000 58.434000 5.000000 6.000000 9.000000 121.013517 -19.271220 1351.306082 255.543211 17.108129 0.000000 0.062560
473.000000 52.283000 7.000000 6.000000 9.000000 116.974187 -33.165054 1678.370041 286.609964 19.121602 0.000000 0.018940
474.000000 49.152000 8.000000 6.000000 9.000000 114.362379 -38.617050 1834.718945 317.225318 20.340640 0.000000 0.071794
475.000000 46.464000 -4.000000 7.000000 9.000000 79.517747 47.496832 -199.438717 1235.738637 21.529292 0.000000 0.248715
476.000000 50.603000 -3.000000 7.000000 9.000000 86.461173 42.636700 -15.976419 1031.477657 19.766677 0.000000 0.147517
477.000000 54.124000 -2.000000 7.000000 9.000000 93.107386 37.059448 162.201869 867.781477 18.478919 0.000000 0.087241
478.000000 56.819000 -1.000000 7.000000 9.000000 99.199680 30.724476 335.321188 738.221314 17.600726 0.000000 0.081645
479.000000 58.553000 0.000000 7.000000 9.000000 104.480918 23.652933 503.593980 637.540928 17.078251 0.000000 0.104614
480.000000 59.283000 1.000000 7.000000 9.000000 108.731418 15.958506 667.220955 561.407464 16.866690 0.000000 0.125508
481.000000 59.064000 2.000000 7.000000 9.000000 111.809370 7.861344 826.391892 506.222757 16.928461 0.000000 0.136589
482.000000 58.023000 3.000000 7.000000 9.000000 113.680050 -0.334647 981.286371 468.978704 17.231804 0.000000 0.136974
483.000000 56.329000 4.000000 7.000000 9.000000 114.419840 -8.303133 1132.074453 447.145171 17.749696 0.000000 0.127291
484.000000 54.164000 5.000000 7.000000 9.000000 114.191373 -15.768289 1278.917297 438.582233 18.458998 0.000000 0.108554
485.000000 51.698000 6.000000 7.000000 9.000000 113.201335 -22.552328 1421.967739 441.470829 19.339786 0.000000 0.082009
486.000000 49.072000 7.000000 7.000000 9.000000 111.659372 -28.581782 1561.370823 454.257485 20.374807 0.000000 0.049841
487.000000 46.399000 8.000000 7.000000 9.000000 109.750586 -33.864211 1697.264287 475.609914 21.549046 0.000000 0.025060
488.000000 45.589000 -3.000000 8.000000 9.000000 81.358294 38.920144 105.915046 1151.245454 21.942970 0.000000 0.134979
489.000000 48.657000 -2.000000 8.000000 9.000000 87.274972 33.672579 257.944914 1002.555810 20.557641 0.000000 0.103792
490.000000 51.059000 -1.000000 8.000000 9.000000 92.708815 27.853569 406.247748 883.404552 19.588823 0.000000 0.110118
491.000000 52.688000 0.000000 8.000000 9.000000 97.467460 21.503570 550.958944 789.370781 18.982007 0.000000 0.129673
492.000000 53.502000 1.000000 8.000000 9.000000 101.390932 14.721518 692.207413 716.798266 18.691797 0.000000 0.146779
493.000000 53.533000 2.000000 8.000000 9.000000 104.376311 7.666713 830.115975 662.640587 18.680083 0.000000 0.156639
494.000000 52.868000 3.000000 8.000000 9.000000 106.393775 0.542883 964.801705 624.342222 18.914635 0.000000 0.158332
495.000000 51.629000 4.000000 8.000000 9.000000 107.487895 -6.434198 1096.376273 599.746220 19.368012 0.000000 0.152146
496.000000 49.955000 5.000000 8.000000 9.000000 107.763431 -13.073976 1224.946246 587.021784 20.016704 0.000000 0.138793
497.000000 47.981000 6.000000 8.000000 9.000000 107.361235 -19.238355 1350.613382 584.606959 20.840453 0.000000 0.119244
498.000000 45.823000 7.000000 8.000000 9.000000 106.432993 -24.850740 1473.474891 591.162858 21.821707 0.000000 0.094928
499.000000 45.816000 -1.000000 9.000000 9.000000 86.800193 25.565220 460.129267 1007.700929 21.833061 0.000000 0.123355
500.000000 48.194000 1.000000 9.000000 9.000000 94.783140 13.765898 711.315920 848.276610 20.753143 0.000000 0.155546
501.000000 48.412000 2.000000 9.000000 9.000000 97.675563 7.517269 832.973136 794.689238 20.659119 0.000000 0.165299
502.000000 47.178000 4.000000 9.000000 9.000000 101.126103 -4.981751 1068.818126 728.527554 21.197947 0.000000 0.165457
503.000000 45.919000 5.000000 9.000000 9.000000 101.776269 -10.945965 1183.157219 712.457673 21.778931 0.000000 0.156433
511.000000 62.889000 -2.000000 5.000000 10.000000 110.923261 48.488027 -241.017250 320.130775 15.898084 0.000000 0.251250
512.000000 65.554000 -1.000000 5.000000 10.000000 118.424001 41.445585 24.595998 163.859051 15.249963 0.000000 0.145755
513.000000 67.378000 1.000000 5.000000 10.000000 130.027456 22.754141 523.580875 -39.290429 14.835053 0.000000 0.036571
514.000000 66.620000 2.000000 5.000000 10.000000 133.394996 11.387201 758.231191 -97.056684 15.003132 0.000000 0.028310
515.000000 64.962000 3.000000 5.000000 10.000000 134.895415 -0.466127 983.756340 -131.407678 15.385884 0.000000 0.026128
516.000000 62.621000 4.000000 5.000000 10.000000 134.662670 -11.842273 1200.678464 -145.826674 15.961148 0.000000 0.025654
517.000000 56.744000 6.000000 5.000000 10.000000 130.489990 -30.564162 1610.610340 -126.192448 17.614846 0.000000 0.089117
518.000000 53.563000 7.000000 5.000000 10.000000 127.369300 -37.620870 1804.482900 -96.759842 18.661893 0.000000 0.144556
522.000000 54.598000 -3.000000 6.000000 10.000000 97.610352 48.648772 -247.913176 723.333724 18.316099 0.000000 0.225769
523.000000 60.368000 -1.000000 6.000000 10.000000 111.412953 36.365202 182.495967 416.847623 16.562191 0.000000 0.040286
524.000000 62.291000 1.000000 6.000000 10.000000 121.678544 19.942597 584.481641 234.455704 16.048653 0.000000 0.053303
525.000000 60.541000 3.000000 6.000000 10.000000 126.557439 0.757512 960.769405 142.843351 16.511276 0.000000 0.075411
526.000000 56.298000 5.000000 6.000000 10.000000 126.095732 -17.470597 1313.747137 118.326538 17.755913 0.000000 0.045008
527.000000 50.908000 7.000000 6.000000 10.000000 122.158183 -31.922309 1645.515754 143.745805 19.636702 0.000000 0.039928
528.000000 46.476000 -4.000000 7.000000 10.000000 85.699019 48.760043 -252.712458 1063.790940 21.521453 0.000000 0.249641
529.000000 50.013000 -3.000000 7.000000 10.000000 92.418006 44.058501 -66.491159 877.756147 19.997590 0.000000 0.146665
530.000000 52.974000 -2.000000 7.000000 10.000000 98.827690 38.648599 114.309848 726.974724 18.877993 0.000000 0.074241
531.000000 55.207000 -1.000000 7.000000 10.000000 104.699924 32.477317 289.923818 606.294439 18.112697 0.000000 0.052067
532.000000 56.619000 0.000000 7.000000 10.000000 109.804352 25.546089 460.570813 511.421738 17.659643 0.000000 0.075137
533.000000 57.187000 1.000000 7.000000 10.000000 113.938573 17.943750 626.458619 438.755425 17.483178 0.000000 0.098940
534.000000 56.958000 2.000000 7.000000 10.000000 116.962884 9.867605 787.783593 385.257168 17.552876 0.000000 0.112615
535.000000 56.031000 3.000000 7.000000 10.000000 118.829356 1.610901 944.731435 348.349682 17.842616 0.000000 0.115351
536.000000 54.541000 4.000000 7.000000 10.000000 119.591911 -6.492099 1097.477904 325.835965 18.329849 0.000000 0.107850
537.000000 52.631000 5.000000 7.000000 10.000000 119.390194 -14.142207 1246.189473 315.834691 18.995001 0.000000 0.091068
538.000000 50.438000 6.000000 7.000000 10.000000 118.413847 -21.133194 1391.023935 316.728133 19.821006 0.000000 0.065969
539.000000 48.082000 7.000000 7.000000 10.000000 116.863392 -27.367807 1532.130960 327.119896 20.792910 0.000000 0.033542
540.000000 45.657000 8.000000 7.000000 10.000000 114.921374 -32.838660 1669.652614 345.800371 21.897559 0.000000 0.008090
541.000000 45.602000 -3.000000 8.000000 10.000000 87.404380 40.255788 63.662966 1004.933300 21.934089 0.000000 0.122020
542.000000 50.259000 -1.000000 8.000000 10.000000 98.410849 29.432100 367.744655 758.275818 19.898414 0.000000 0.090601
543.000000 52.255000 1.000000 8.000000 10.000000 106.833164 16.453058 657.146039 601.464443 19.135999 0.000000 0.129336
544.000000 51.599000 3.000000 8.000000 10.000000 111.714146 2.239748 932.905155 512.054959 19.377628 0.000000 0.143125
545.000000 48.952000 5.000000 8.000000 10.000000 113.035376 -11.601683 1195.964427 473.810733 20.424986 0.000000 0.125560
546.000000 45.637000 -1.000000 9.000000 10.000000 92.595789 26.995141 426.715642 886.238480 21.916325 0.000000 0.113772
547.000000 46.915000 0.000000 9.000000 10.000000 96.803989 21.317028 555.001864 803.152595 21.317729 0.000000 0.131299
548.000000 47.612000 1.000000 9.000000 10.000000 100.348886 15.300036 680.558476 737.233341 21.004528 0.000000 0.146754
549.000000 47.744000 2.000000 9.000000 10.000000 103.154970 9.055042 803.471681 686.275222 20.945567 0.000000 0.156638
550.000000 47.362000 3.000000 9.000000 10.000000 105.192627 2.722264 923.824088 648.395824 21.114068 0.000000 0.160091
551.000000 46.539000 4.000000 9.000000 10.000000 106.480226 -3.545923 1041.694899 621.980356 21.486882 0.000000 0.157180
562.000000 61.855000 -1.000000 5.000000 11.000000 122.327380 43.546131 -48.013324 1.283677 16.160947 0.000000 0.211029
563.000000 63.058000 0.000000 5.000000 11.000000 128.579513 35.331984 212.038813 -111.401142 15.851543 0.000000 0.131198
564.000000 63.312000 1.000000 5.000000 11.000000 133.582858 25.509648 461.411485 -193.972684 15.786880 0.000000 0.075989
565.000000 62.693000 2.000000 5.000000 11.000000 137.017320 14.295337 700.749312 -250.786729 15.942084 0.000000 0.038049
566.000000 61.332000 3.000000 5.000000 11.000000 138.708557 2.359816 930.646054 -285.529298 16.295542 0.000000 0.009102
567.000000 59.390000 4.000000 5.000000 11.000000 138.718773 -9.320715 1151.649538 -301.332158 16.828382 0.000000 0.024131
568.000000 57.033000 5.000000 5.000000 11.000000 137.335803 -19.883662 1364.266007 -300.865995 17.524054 0.000000 0.061657
569.000000 54.414000 6.000000 5.000000 11.000000 134.955834 -28.892559 1568.963997 -286.416051 18.367984 0.000000 0.108541
575.000000 52.874000 -3.000000 6.000000 11.000000 102.597681 50.099009 -312.188289 566.021906 18.911621 0.000000 0.266463
576.000000 55.622000 -2.000000 6.000000 11.000000 109.479044 44.679262 -89.311169 405.607730 17.975482 0.000000 0.160815
577.000000 57.627000 -1.000000 6.000000 11.000000 115.813971 38.271607 125.859678 277.854150 17.348593 0.000000 0.081454
578.000000 58.813000 0.000000 6.000000 11.000000 121.335019 30.787536 333.717141 178.201203 16.997367 0.000000 0.028608
579.000000 59.174000 1.000000 6.000000 11.000000 125.783738 22.252213 534.627849 102.791523 16.892911 0.000000 0.026348
580.000000 58.763000 2.000000 6.000000 11.000000 128.956090 12.877812 728.934326 48.346563 17.010232 0.000000 0.043724
581.000000 57.686000 3.000000 6.000000 11.000000 130.755807 3.086892 916.956944 12.067548 17.327603 0.000000 0.049644
582.000000 56.072000 4.000000 6.000000 11.000000 131.229559 -6.571851 1098.995681 -8.444349 17.826045 0.000000 0.044159
583.000000 54.062000 5.000000 6.000000 11.000000 130.556083 -15.591355 1275.331721 -15.252802 18.488907 0.000000 0.032156
584.000000 51.787000 6.000000 6.000000 11.000000 128.991097 -23.645021 1446.228902 -10.139232 19.301517 0.000000 0.032648
585.000000 49.360000 7.000000 6.000000 11.000000 126.801453 -30.616419 1611.935036 5.353712 20.250899 0.000000 0.061647
586.000000 46.875000 8.000000 6.000000 11.000000 124.219802 -36.543567 1772.683102 29.886248 21.325536 0.000000 0.105836
587.000000 45.949000 -4.000000 7.000000 11.000000 91.147341 49.988648 -307.161589 907.473455 21.766392 0.000000 0.263954
588.000000 48.965000 -3.000000 7.000000 11.000000 97.631180 45.443945 -118.103778 735.465346 20.423667 0.000000 0.160057
589.000000 51.457000 -2.000000 7.000000 11.000000 103.804740 40.202129 65.392260 594.747929 19.432564 0.000000 0.079200
590.000000 53.316000 -1.000000 7.000000 11.000000 109.465723 34.199373 243.568393 481.058733 18.753614 0.000000 0.026489
591.000000 54.476000 0.000000 7.000000 11.000000 114.407569 27.418852 416.652670 390.791557 18.353043 0.000000 0.041364
592.000000 54.925000 1.000000 7.000000 11.000000 118.443255 19.924783 584.860283 320.879427 18.201777 0.000000 0.069331
593.000000 54.704000 2.000000 7.000000 11.000000 121.434996 11.889538 748.394471 268.701411 18.274658 0.000000 0.086220
594.000000 53.891000 3.000000 7.000000 11.000000 123.322553 3.591408 907.447333 232.007824 18.549800 0.000000 0.091748
595.000000 52.591000 4.000000 7.000000 11.000000 124.138057 -4.631945 1062.200581 208.859751 19.008079 0.000000 0.086898
596.000000 50.918000 5.000000 7.000000 11.000000 123.997799 -12.460291 1212.826235 197.579817 19.632706 0.000000 0.072761
597.000000 48.982000 6.000000 7.000000 11.000000 123.073095 -19.658377 1359.487259 196.711839 20.408883 0.000000 0.050466
598.000000 46.882000 7.000000 7.000000 11.000000 121.553733 -26.102877 1502.338150 204.987581 21.323520 0.000000 0.022109
599.000000 47.368000 -2.000000 8.000000 11.000000 98.325295 36.570647 176.528505 744.890931 21.112374 0.000000 0.068279
600.000000 49.082000 -1.000000 8.000000 11.000000 103.423846 30.990423 328.541989 641.341940 20.373468 0.000000 0.065494
601.000000 50.206000 0.000000 8.000000 11.000000 107.899076 24.838343 476.807902 557.952377 19.916202 0.000000 0.086806
602.000000 50.725000 1.000000 8.000000 11.000000 111.612609 18.184112 621.463140 492.176045 19.711270 0.000000 0.107053
603.000000 50.666000 2.000000 8.000000 11.000000 114.466212 11.161575 762.638010 441.829026 19.733297 0.000000 0.119868
604.000000 50.089000 3.000000 8.000000 11.000000 116.417605 3.961938 900.456625 405.029731 19.960198 0.000000 0.124350
605.000000 49.074000 4.000000 8.000000 11.000000 117.487257 -3.192733 1035.037264 380.150330 20.372664 0.000000 0.120802
606.000000 47.713000 5.000000 8.000000 11.000000 117.752640 -10.088416 1166.492714 365.777125 20.953740 0.000000 0.109820
607.000000 46.097000 6.000000 8.000000 11.000000 117.331505 -16.554685 1294.930585 360.678030 21.688472 0.000000 0.092074
608.000000 46.117000 0.000000 9.000000 11.000000 101.850219 22.805986 522.435234 696.013300 21.684514 0.000000 0.115749
609.000000 46.686000 1.000000 9.000000 11.000000 105.302000 16.835445 649.320935 633.332345 21.419215 0.000000 0.132027
610.000000 46.761000 2.000000 9.000000 11.000000 108.040219 10.603208 773.514618 584.365819 21.384114 0.000000 0.142705
611.000000 46.384000 3.000000 9.000000 11.000000 110.032319 4.245577 895.101055 547.493418 21.556887 0.000000 0.146941
612.000000 45.619000 4.000000 9.000000 11.000000 111.289990 -2.083816 1014.161496 521.309472 21.918008 0.000000 0.144800
620.000000 59.056000 2.000000 5.000000 12.000000 140.060681 17.213242 641.558665 -404.714439 16.923282 0.000000 0.067022
621.000000 57.935000 3.000000 5.000000 12.000000 141.942314 5.256013 875.988549 -439.543387 17.250525 0.000000 0.022108
622.000000 56.318000 4.000000 5.000000 12.000000 142.204675 -6.688699 1101.220312 -456.294514 17.745735 0.000000 0.024245
627.000000 54.906000 -1.000000 6.000000 12.000000 119.588363 40.127906 67.779758 141.725764 18.207198 0.000000 0.131578
628.000000 56.169000 1.000000 6.000000 12.000000 129.290644 24.542220 483.546300 -27.106346 17.795588 0.000000 0.040495
629.000000 51.816000 5.000000 6.000000 12.000000 134.478223 -13.632544 1236.030201 -146.505609 19.289226 0.000000 0.027380
630.000000 47.723000 7.000000 6.000000 12.000000 130.964980 -29.243912 1577.603524 -129.948613 20.944516 0.000000 0.081080
631.000000 47.635000 -3.000000 7.000000 12.000000 102.205960 46.792851 -170.850462 600.936719 20.992047 0.000000 0.187115
632.000000 49.740000 -2.000000 7.000000 12.000000 108.149586 41.719016 15.415805 468.317453 20.102009 0.000000 0.104623
633.000000 51.295000 -1.000000 7.000000 12.000000 113.610228 35.888423 196.224263 360.312033 19.490946 0.000000 0.040699
634.000000 52.256000 0.000000 7.000000 12.000000 118.402402 29.267622 371.811330 273.823583 19.131127 0.000000 0.007211
635.000000 52.619000 1.000000 7.000000 12.000000 122.353015 21.896907 542.399961 206.188349 18.998379 0.000000 0.039750
636.000000 52.415000 2.000000 7.000000 12.000000 125.326518 13.922245 708.200596 155.105961 19.071533 0.000000 0.059520
637.000000 51.707000 3.000000 7.000000 12.000000 127.251857 5.602974 869.412027 118.582511 19.331973 0.000000 0.067713
638.000000 50.578000 4.000000 7.000000 12.000000 128.140761 -2.724722 1026.222190 94.883790 19.763262 0.000000 0.065679
639.000000 49.118000 5.000000 7.000000 12.000000 128.086506 -10.722664 1178.808897 82.496654 20.350829 0.000000 0.054853
640.000000 47.415000 6.000000 7.000000 12.000000 127.241378 -18.126608 1327.340510 80.096928 21.081716 0.000000 0.037553
641.000000 45.552000 7.000000 7.000000 12.000000 125.783223 -24.785030 1471.976559 86.522617 21.944361 0.000000 0.023623
642.000000 47.677000 -1.000000 8.000000 12.000000 107.839830 32.526665 288.620510 530.172295 20.972389 0.000000 0.037776
643.000000 49.041000 1.000000 8.000000 12.000000 115.817981 19.911524 585.142041 387.174345 20.386769 0.000000 0.081672
644.000000 48.445000 3.000000 8.000000 12.000000 120.580932 5.706846 867.441660 301.796627 20.635896 0.000000 0.103421
645.000000 46.330000 5.000000 8.000000 12.000000 121.975939 -8.534641 1136.518581 261.561103 21.577828 0.000000 0.092690
646.000000 45.535000 1.000000 9.000000 12.000000 109.713194 18.369922 617.591967 534.643949 21.958903 0.000000 0.113061
647.000000 45.572000 2.000000 9.000000 12.000000 112.398363 12.159595 743.091311 487.239213 21.940187 0.000000 0.125058
661.000000 52.279000 -1.000000 6.000000 13.000000 122.843903 41.932309 8.200299 7.057796 19.121147 0.000000 0.184845
662.000000 53.087000 0.000000 6.000000 13.000000 128.014853 34.928122 223.381098 -85.189111 18.828938 0.000000 0.121659
663.000000 53.325000 1.000000 6.000000 13.000000 132.300583 26.805664 431.191077 -156.285388 18.743856 0.000000 0.076141
664.000000 53.029000 2.000000 6.000000 13.000000 135.507965 17.676232 632.002578 -208.836219 18.847906 0.000000 0.044242
665.000000 52.259000 3.000000 6.000000 13.000000 137.508602 7.873286 826.163282 -245.104079 19.125118 0.000000 0.020952
666.000000 51.093000 4.000000 6.000000 13.000000 138.282587 -2.075135 1013.998214 -267.059559 19.561273 0.000000 0.008516
667.000000 49.616000 5.000000 6.000000 13.000000 137.934093 -11.593874 1195.811561 -276.423692 20.143663 0.000000 0.029173
668.000000 47.911000 6.000000 6.000000 13.000000 136.662109 -20.241677 1371.888313 -274.703380 20.860904 0.000000 0.059602
669.000000 46.053000 7.000000 6.000000 13.000000 134.703681 -27.801256 1542.495755 -263.221162 21.702761 0.000000 0.097265
670.000000 46.147000 -3.000000 7.000000 13.000000 106.234059 48.105209 -224.769003 471.693649 21.667377 0.000000 0.224612
671.000000 47.932000 -2.000000 7.000000 13.000000 111.957139 43.198491 -35.654273 345.769849 20.858721 0.000000 0.142416
672.000000 49.242000 -1.000000 7.000000 13.000000 117.229016 37.542559 147.859454 242.515108 20.302253 0.000000 0.079020
673.000000 50.046000 0.000000 7.000000 13.000000 121.882886 31.089086 326.017375 159.221368 19.974791 0.000000 0.035021
674.000000 50.343000 1.000000 7.000000 13.000000 125.758452 23.855553 499.050580 93.537473 19.855909 0.000000 0.023444
675.000000 50.161000 2.000000 7.000000 13.000000 128.722987 15.960667 667.177052 43.415240 19.927539 0.000000 0.036546
676.000000 49.547000 3.000000 7.000000 13.000000 130.696412 7.641268 830.602585 7.064815 20.173643 0.000000 0.045065
677.000000 48.569000 4.000000 7.000000 13.000000 131.671857 -0.773002 989.521623 -17.082490 20.579932 0.000000 0.045218
678.000000 47.296000 5.000000 7.000000 13.000000 131.720403 -8.929867 1144.118032 -30.405286 21.133639 0.000000 0.038389
679.000000 45.802000 6.000000 7.000000 13.000000 130.975005 -16.536841 1294.565811 -34.118232 21.823316 0.000000 0.029911
680.000000 46.146000 -1.000000 8.000000 13.000000 111.740041 34.039134 247.960266 423.075399 21.666446 0.000000 0.020436
681.000000 46.941000 0.000000 8.000000 13.000000 115.971508 28.115137 399.946908 346.578241 21.298365 0.000000 0.028029
682.000000 47.289000 1.000000 8.000000 13.000000 119.527120 21.632183 548.165468 285.201095 21.140624 0.000000 0.054851
683.000000 47.210000 2.000000 8.000000 13.000000 122.312066 14.694278 692.754360 237.260571 21.175059 0.000000 0.072699
684.000000 46.744000 3.000000 8.000000 13.000000 124.272442 7.471630 833.845299 201.279450 21.385538 0.000000 0.081511
685.000000 45.944000 4.000000 8.000000 13.000000 125.405517 0.182928 971.563704 175.957594 21.757687 0.000000 0.082033
696.000000 50.662000 1.000000 6.000000 14.000000 134.895621 29.036084 377.513939 -285.538367 19.728388 0.000000 0.114930
697.000000 49.760000 3.000000 6.000000 14.000000 140.225133 10.315429 779.104756 -373.203039 20.085004 0.000000 0.035832
698.000000 47.496000 5.000000 6.000000 14.000000 140.985020 -9.475837 1154.643320 -405.779088 21.042254 0.000000 0.031462
699.000000 46.107000 -2.000000 7.000000 14.000000 115.307494 44.640022 -87.854269 225.738028 21.683284 0.000000 0.186580
700.000000 47.218000 -1.000000 7.000000 14.000000 120.402038 39.160182 98.440600 126.551986 21.171561 0.000000 0.122023
701.000000 48.144000 1.000000 7.000000 14.000000 128.735318 25.796336 454.783922 -17.924188 20.761938 0.000000 0.043888
702.000000 47.983000 2.000000 7.000000 14.000000 131.696413 17.999659 625.297881 -67.163541 20.830938 0.000000 0.030514
703.000000 47.453000 3.000000 7.000000 14.000000 133.723524 9.701579 790.995128 -103.309792 21.063308 0.000000 0.028146
704.000000 46.604000 4.000000 7.000000 14.000000 134.793214 1.220110 952.076915 -127.795621 21.446511 0.000000 0.026651
705.000000 45.495000 5.000000 7.000000 14.000000 134.955509 -7.082905 1108.733437 -141.887837 21.969258 0.000000 0.024338
706.000000 45.528000 1.000000 8.000000 14.000000 122.807326 23.343048 510.515514 185.328365 21.956897 0.000000 0.029939
718.000000 45.836000 0.000000 7.000000 15.000000 127.601303 34.638459 231.447561 -66.465323 21.807421 0.000000 0.114866
719.000000 46.046000 1.000000 7.000000 15.000000 131.346776 27.715118 409.570560 -128.848289 21.707202 0.000000 0.076078
720.000000 45.905000 2.000000 7.000000 15.000000 134.307233 20.034067 582.536033 -177.242754 21.772906 0.000000 0.048225
#UB matrix in q= (UB) B0 G* 
#[[-0.383413677 -0.04111747  -0.921811886]
# [-0.919478449  0.111030873  0.37748331 ]
# [ 0.086909923  0.993438975 -0.080524889]]
#B0 matrix in q= UB (B0) G*
#[[ 0.19670273 -0.          0.03056101]
# [ 0.          0.19187965 -0.        ]
# [ 0.          0.          0.18806537]]
#UBB0 matrix in q= (UB B0) G* i.e. recip. basis vectors are columns in LT frame: astar = UBB0[:,0], bstar = UBB0[:,1], cstar = UBB0[:,2]. (abcstar as columns on xyzlab1, xlab1 = ui, ui = unit vector along incident beam)
#[[-0.07541852 -0.00788961 -0.1850784 ]
# [-0.18086392  0.02130457  0.04289135]
# [ 0.01709542  0.19062073 -0.01248789]]
#Euler angles phi theta psi (deg)
#[174.998  94.608  67.767]
#deviatoric strain in direct crystal frame (10-3 unit)
#[[-2.45 -0.02  0.39]
# [-0.02 -2.83  0.17]
# [ 0.39  0.17  5.29]]
#deviatoric strain in sample2 frame (10-3 unit)
#[[ 1.85 -1.96 -3.49]
# [-1.97 -1.61  1.45]
# [-3.49  1.45 -0.24]]
#new lattice parameters
#[ 5.1505     5.2096039  5.3211806 89.9895887 99.1994756 90.0024679]
#CCDLabel
#sCMOS
#DetectorParameters
#[79.0, 975.0, 941.0, 0.0, 0.0]
#pixelsize
#0.0734
#Frame dimensions
#[2018, 2016]
#
