#Strain and Orientation Refinement from experimental file: /home/micha/LaueProjects/DepthEffects/testZrO2_175.cor
#File created at Wed Jun 28 14:28:43 2023 with indexingSpotsSet.py
#Number of indexed spots: 518
#Element
#ZrO2
#grainIndex
#G_0
#Mean Deviation(pixel): 0.119
##spot_index intensity h k l 2theta Chi Xexp Yexp Energy GrainIndex PixDev
5.000000 45.802000 -8.000000 -1.000000 -9.000000 91.075795 48.475793 -240.494222 910.512830 21.851226 0.000000 0.230090
6.000000 46.044000 -7.000000 -1.000000 -9.000000 85.258834 50.400320 -326.031082 1081.042862 21.738762 0.000000 0.288735
10.000000 46.923000 -11.000000 -2.000000 -8.000000 112.909236 47.390657 -195.078245 269.136397 21.321496 0.000000 0.232560
11.000000 48.629000 -5.000000 -1.000000 -4.000000 109.086501 49.522928 -286.200303 367.296001 10.287270 0.000000 0.268394
17.000000 46.384000 -11.000000 -1.000000 -8.000000 109.831787 41.163233 33.994894 425.398083 21.570668 0.000000 0.101836
18.000000 48.048000 -10.000000 -1.000000 -8.000000 106.013724 43.156857 -34.183560 517.547949 20.824697 0.000000 0.125581
19.000000 49.584000 -9.000000 -1.000000 -8.000000 101.631848 45.203641 -108.972325 626.554287 20.181343 0.000000 0.156864
20.000000 50.868000 -8.000000 -1.000000 -8.000000 96.590397 47.300314 -191.381746 757.636929 19.673187 0.000000 0.197890
21.000000 51.728000 -7.000000 -1.000000 -8.000000 90.780297 49.442912 -282.639120 918.455286 19.348232 0.000000 0.251858
22.000000 51.916000 -6.000000 -1.000000 -8.000000 84.081439 51.626784 -384.250232 1120.735731 19.280261 0.000000 0.323582
25.000000 46.961000 -5.000000 0.000000 -4.000000 102.269768 37.212939 157.665016 647.080838 10.654338 0.000000 0.061780
26.000000 48.362000 -9.000000 0.000000 -8.000000 97.846271 39.099785 100.326069 749.878526 20.692842 0.000000 0.085285
27.000000 49.490000 -2.000000 0.000000 -2.000000 92.764567 41.045083 37.903810 872.088743 5.055728 0.000000 0.115686
28.000000 50.165000 -7.000000 0.000000 -8.000000 86.914513 43.046902 -30.309097 1020.388311 19.952711 0.000000 0.155437
29.000000 50.137000 -3.000000 0.000000 -4.000000 80.174285 45.102646 -105.157605 1205.091155 9.983120 0.000000 0.208333
30.000000 49.071000 -5.000000 0.000000 -8.000000 72.416616 47.209027 -187.659459 1443.081914 20.402295 0.000000 0.280440
32.000000 46.581000 -9.000000 1.000000 -8.000000 93.465927 33.474725 263.298950 862.850772 21.486354 0.000000 0.091459
33.000000 47.462000 -8.000000 1.000000 -8.000000 88.305309 35.246496 214.449111 979.991978 21.089383 0.000000 0.105775
34.000000 47.853000 -7.000000 1.000000 -8.000000 82.382524 37.079503 161.610137 1121.424314 20.918887 0.000000 0.128100
35.000000 47.505000 -6.000000 1.000000 -8.000000 75.578551 38.973030 104.272594 1297.007127 21.074542 0.000000 0.162596
36.000000 46.089000 -5.000000 1.000000 -8.000000 67.769695 40.925787 41.836442 1523.207290 21.724566 0.000000 0.215611
40.000000 46.170000 -13.000000 -2.000000 -7.000000 124.473247 41.313479 29.003648 -42.847905 21.665562 0.000000 0.184874
41.000000 48.329000 -12.000000 -2.000000 -7.000000 121.812434 43.584277 -49.378144 19.285473 20.698582 0.000000 0.206241
42.000000 50.571000 -11.000000 -2.000000 -7.000000 118.731358 45.922673 -136.529350 92.817821 19.781526 0.000000 0.232971
48.000000 45.699000 -13.000000 -1.000000 -7.000000 121.097730 34.781736 227.464686 150.570825 21.890140 0.000000 0.068233
49.000000 47.827000 -12.000000 -1.000000 -7.000000 118.436348 36.837813 168.720621 212.764665 20.916930 0.000000 0.077014
50.000000 50.038000 -11.000000 -1.000000 -7.000000 115.362023 38.971175 104.330245 284.777810 19.993915 0.000000 0.089863
51.000000 52.288000 -10.000000 -1.000000 -7.000000 111.795373 41.180018 33.438401 369.168094 19.134412 0.000000 0.108194
52.000000 54.506000 -9.000000 -1.000000 -7.000000 107.640111 43.461512 -44.991942 469.474937 18.356906 0.000000 0.133761
53.000000 56.572000 -8.000000 -1.000000 -7.000000 102.780123 45.811720 -132.230750 590.743231 17.687828 0.000000 0.168891
54.000000 58.296000 -7.000000 -1.000000 -7.000000 97.077145 48.225543 -229.850218 740.424253 17.166332 0.000000 0.216892
55.000000 59.386000 -6.000000 -1.000000 -7.000000 90.370440 50.696705 -339.820369 930.014063 16.853008 0.000000 0.282740
60.000000 45.553000 -12.000000 1.000000 -7.000000 109.821796 25.298441 466.273861 511.893875 21.964983 0.000000 0.074387
61.000000 47.465000 -11.000000 1.000000 -7.000000 106.570772 26.974856 427.195492 581.644656 21.081445 0.000000 0.077098
62.000000 49.362000 -10.000000 1.000000 -7.000000 102.830561 28.727576 385.072627 661.461072 20.272579 0.000000 0.080567
63.000000 51.160000 -9.000000 1.000000 -7.000000 98.506329 30.558423 339.535062 754.061532 19.561538 0.000000 0.085583
64.000000 52.726000 -8.000000 1.000000 -7.000000 93.483549 32.468745 290.150038 863.342049 18.982155 0.000000 0.093615
65.000000 53.856000 -7.000000 1.000000 -7.000000 87.625661 34.459305 236.408438 995.124550 18.585891 0.000000 0.107276
66.000000 54.244000 -6.000000 1.000000 -7.000000 80.773709 36.530155 177.707179 1158.571860 18.455050 0.000000 0.130900
67.000000 53.454000 -5.000000 1.000000 -7.000000 72.750644 38.680515 113.326479 1369.089400 18.729943 0.000000 0.171349
68.000000 50.904000 -4.000000 1.000000 -7.000000 63.374795 40.908650 42.400195 1654.935910 19.670942 0.000000 0.239638
70.000000 45.501000 -11.000000 2.000000 -7.000000 101.456774 21.976355 540.665475 705.779427 21.993494 0.000000 0.117714
71.000000 47.102000 -10.000000 2.000000 -7.000000 97.557953 23.508362 506.827141 785.270230 21.247818 0.000000 0.119142
72.000000 48.547000 -9.000000 2.000000 -7.000000 93.075580 25.112653 470.537043 877.133035 20.616779 0.000000 0.119667
73.000000 49.697000 -8.000000 2.000000 -7.000000 87.899352 26.791769 431.518700 985.225715 20.141521 0.000000 0.119571
74.000000 50.342000 -7.000000 2.000000 -7.000000 81.899136 28.547977 389.452439 1115.399950 19.885552 0.000000 0.120309
75.000000 50.180000 -6.000000 2.000000 -7.000000 74.925472 30.383177 343.966609 1277.044873 19.952334 0.000000 0.126455
76.000000 48.792000 -5.000000 2.000000 -7.000000 66.814797 32.298799 294.626581 1486.351987 20.522558 0.000000 0.148774
77.000000 45.640000 -4.000000 2.000000 -7.000000 57.403446 34.295677 240.920809 1774.063425 21.942736 0.000000 0.205122
79.000000 46.143000 -8.000000 3.000000 -7.000000 81.984821 21.785833 544.821671 1104.210998 21.696068 0.000000 0.129152
80.000000 46.248000 -7.000000 3.000000 -7.000000 75.833545 23.319144 511.048079 1236.839852 21.649110 0.000000 0.120468
92.000000 46.060000 -14.000000 -1.000000 -6.000000 128.329730 29.409589 368.301998 -35.790576 21.716649 0.000000 0.066623
93.000000 48.470000 -13.000000 -1.000000 -6.000000 126.337605 31.556961 313.973293 11.900142 20.637293 0.000000 0.071186
94.000000 51.066000 -12.000000 -1.000000 -6.000000 124.013807 33.810120 254.208452 66.816414 19.588734 0.000000 0.077413
95.000000 53.845000 -11.000000 -1.000000 -6.000000 121.288611 36.169589 188.148596 130.736760 18.578567 0.000000 0.086342
96.000000 56.786000 -10.000000 -1.000000 -6.000000 118.074902 38.634504 114.743854 206.076049 17.617108 0.000000 0.099435
97.000000 59.841000 -9.000000 -1.000000 -6.000000 114.263528 41.202364 32.697155 296.198233 16.718730 0.000000 0.118670
98.000000 62.910000 -8.000000 -1.000000 -6.000000 109.717712 43.868806 -59.613087 405.933696 15.904079 0.000000 0.146681
99.000000 65.813000 -7.000000 -1.000000 -6.000000 104.266896 46.627428 -164.241226 542.476579 15.203916 0.000000 0.187093
100.000000 68.233000 -6.000000 -1.000000 -6.000000 97.701267 49.469678 -283.829076 717.033156 14.666172 0.000000 0.245229
101.000000 69.649000 -5.000000 -1.000000 -6.000000 89.770161 52.384843 -421.832072 948.073785 14.369871 0.000000 0.329490
105.000000 47.586000 -13.000000 0.000000 -6.000000 121.908311 25.211005 468.281836 200.293380 21.022273 0.000000 0.020488
106.000000 50.076000 -4.000000 0.000000 -2.000000 119.497677 27.156420 422.894345 256.683101 6.659246 0.000000 0.016345
107.000000 52.729000 -11.000000 0.000000 -6.000000 116.689532 29.204618 373.365613 321.130641 18.973298 0.000000 0.013635
108.000000 55.521000 -10.000000 0.000000 -6.000000 113.397708 31.358304 319.101767 395.635450 18.020041 0.000000 0.017493
109.000000 58.398000 -3.000000 0.000000 -2.000000 109.513785 33.619278 259.389678 482.958427 5.711185 0.000000 0.029702
110.000000 61.251000 -8.000000 0.000000 -6.000000 104.901243 35.988186 193.365449 587.037266 16.336479 0.000000 0.049126
111.000000 63.891000 -7.000000 0.000000 -6.000000 99.388857 38.464265 119.972345 713.713706 15.662980 0.000000 0.076776
112.000000 66.998000 -5.000000 0.000000 -6.000000 84.772941 43.726306 -54.474998 1077.252678 14.940229 0.000000 0.171368
113.000000 66.087000 -4.000000 0.000000 -6.000000 75.123302 46.501506 -159.237224 1356.365904 15.148422 0.000000 0.253758
115.000000 46.305000 -13.000000 1.000000 -6.000000 116.962537 19.734753 588.894174 359.322525 21.605902 0.000000 0.074399
116.000000 48.612000 -12.000000 1.000000 -6.000000 114.397254 21.394708 553.319566 416.703971 20.581442 0.000000 0.077370
117.000000 51.044000 -11.000000 1.000000 -6.000000 111.430219 23.146807 514.881988 481.565750 19.601659 0.000000 0.080328
118.000000 53.568000 -10.000000 1.000000 -6.000000 107.976208 24.995382 473.221340 555.698187 18.679277 0.000000 0.083344
119.000000 56.116000 -9.000000 1.000000 -6.000000 103.928268 26.944448 427.914490 641.577024 17.832360 0.000000 0.086642
120.000000 58.567000 -8.000000 1.000000 -6.000000 99.152135 28.997536 378.460850 742.748241 17.087438 0.000000 0.090822
121.000000 60.713000 -7.000000 1.000000 -6.000000 93.480051 31.157496 324.263804 864.513897 16.485128 0.000000 0.097360
122.000000 62.208000 -6.000000 1.000000 -6.000000 86.705249 33.426267 264.606520 1015.239334 16.090918 0.000000 0.109616
123.000000 62.501000 -5.000000 1.000000 -6.000000 78.580283 35.804623 198.620064 1209.064119 16.017631 0.000000 0.134468
124.000000 60.765000 -4.000000 1.000000 -6.000000 68.826134 38.291907 125.240802 1472.177901 16.477645 0.000000 0.184341
125.000000 55.871000 -3.000000 1.000000 -6.000000 57.164772 40.885764 43.152627 1859.712281 17.923768 0.000000 0.280544
127.000000 46.721000 -6.000000 1.000000 -3.000000 108.893146 16.451619 657.175431 556.921467 10.708261 0.000000 0.119628
128.000000 48.852000 -11.000000 2.000000 -6.000000 105.716297 17.940216 626.531960 622.658720 20.483413 0.000000 0.123397
129.000000 51.009000 -5.000000 1.000000 -3.000000 102.044236 19.512485 593.600238 697.365715 9.809309 0.000000 0.126265
130.000000 53.109000 -9.000000 2.000000 -6.000000 97.772395 21.173108 558.114016 783.459246 18.844374 0.000000 0.127799
131.000000 55.013000 -4.000000 1.000000 -3.000000 92.770839 22.926712 519.764074 884.441627 9.096869 0.000000 0.127522
132.000000 56.496000 -7.000000 2.000000 -6.000000 86.879242 24.777757 478.189184 1005.631019 17.718095 0.000000 0.125220
133.000000 57.201000 -3.000000 1.000000 -3.000000 79.903087 26.730399 432.964702 1155.589999 8.750942 0.000000 0.122203
134.000000 56.587000 -5.000000 2.000000 -6.000000 71.614310 28.788316 383.588005 1349.186799 17.694289 0.000000 0.125537
135.000000 53.880000 -2.000000 1.000000 -3.000000 61.762870 30.954506 329.459733 1614.995386 9.293001 0.000000 0.156378
136.000000 48.084000 -3.000000 2.000000 -6.000000 50.110240 33.231053 269.859345 2016.469155 20.829149 0.000000 0.249106
137.000000 46.246000 -11.000000 3.000000 -6.000000 99.736049 13.486751 716.867825 751.091682 21.640614 0.000000 0.148367
138.000000 47.969000 -10.000000 3.000000 -6.000000 95.819896 14.820175 690.225307 827.521344 20.864907 0.000000 0.148794
139.000000 49.544000 -3.000000 1.000000 -2.000000 91.298921 16.228491 661.727141 915.583001 6.734328 0.000000 0.146502
140.000000 50.820000 -8.000000 3.000000 -6.000000 86.050009 17.716339 631.172465 1019.017891 19.698054 0.000000 0.140395
141.000000 51.557000 -7.000000 3.000000 -6.000000 79.924283 19.288465 598.330341 1143.620203 19.418363 0.000000 0.129426
142.000000 51.405000 -2.000000 1.000000 -2.000000 72.745635 20.949662 562.933907 1298.950509 6.492809 0.000000 0.114408
143.000000 49.856000 -5.000000 3.000000 -6.000000 64.314287 22.704677 524.673114 1502.139585 20.086222 0.000000 0.106843
144.000000 46.233000 -4.000000 3.000000 -6.000000 54.420995 24.558106 483.185614 1787.531692 21.663003 0.000000 0.145966
145.000000 45.615000 -9.000000 4.000000 -6.000000 84.725238 12.004269 746.142776 1042.588166 21.946502 0.000000 0.147146
146.000000 46.244000 -4.000000 2.000000 -3.000000 79.241766 13.265172 721.265519 1151.107072 10.825088 0.000000 0.133380
147.000000 46.243000 -7.000000 4.000000 -6.000000 72.906031 14.596825 694.710021 1283.026901 21.653271 0.000000 0.112404
157.000000 45.832000 -15.000000 -1.000000 -5.000000 134.706367 22.913790 520.050194 -215.582643 21.822419 0.000000 0.065525
158.000000 48.394000 -14.000000 -1.000000 -5.000000 133.348342 25.090834 471.036873 -180.823286 20.667634 0.000000 0.070370
159.000000 51.212000 -13.000000 -1.000000 -5.000000 131.745658 27.408079 416.909483 -140.928817 19.531003 0.000000 0.075733
160.000000 54.311000 -12.000000 -1.000000 -5.000000 129.842605 29.871178 356.823560 -94.684750 18.416710 0.000000 0.081979
161.000000 57.718000 -11.000000 -1.000000 -5.000000 127.568060 32.484360 289.737892 -40.464589 17.330328 0.000000 0.089730
162.000000 61.446000 -10.000000 -1.000000 -5.000000 124.830509 35.249884 214.353664 23.959729 16.279452 0.000000 0.100025
163.000000 65.491000 -9.000000 -1.000000 -5.000000 121.511343 38.167450 129.029551 101.722034 15.274707 0.000000 0.114534
164.000000 69.805000 -8.000000 -1.000000 -5.000000 117.455902 41.233578 31.660839 197.370322 14.331431 0.000000 0.135845
165.000000 74.261000 -7.000000 -1.000000 -5.000000 112.461856 44.441040 -80.496528 317.758671 13.472603 0.000000 0.167854
166.000000 78.573000 -6.000000 -1.000000 -5.000000 106.265187 47.778408 -211.088659 473.707049 12.734291 0.000000 0.216461
167.000000 82.183000 -5.000000 -1.000000 -5.000000 98.526131 51.229817 -365.067574 683.325771 12.176511 0.000000 0.290981
170.000000 46.356000 -14.000000 1.000000 -5.000000 123.184289 13.367317 719.239240 217.513445 21.579901 0.000000 0.070312
171.000000 48.901000 -13.000000 1.000000 -5.000000 121.255447 14.945414 687.706542 264.876678 20.457457 0.000000 0.074539
172.000000 51.673000 -12.000000 1.000000 -5.000000 119.018391 16.628995 653.549570 317.888811 19.360781 0.000000 0.078814
173.000000 54.680000 -11.000000 1.000000 -5.000000 116.403960 18.425785 616.426498 377.754762 18.296659 0.000000 0.083081
174.000000 57.919000 -10.000000 1.000000 -5.000000 113.323205 20.343687 575.933438 446.086988 17.274487 0.000000 0.087263
175.000000 61.356000 -9.000000 1.000000 -5.000000 109.660752 22.390618 531.589685 525.107659 16.307668 0.000000 0.091269
176.000000 64.910000 -8.000000 1.000000 -5.000000 105.265896 24.574270 482.818546 617.990426 15.415988 0.000000 0.095046
177.000000 68.404000 -7.000000 1.000000 -5.000000 99.941002 26.901805 428.922118 729.471927 14.629944 0.000000 0.098772
178.000000 71.495000 -6.000000 1.000000 -5.000000 93.427447 29.379456 369.047684 867.024979 13.999117 0.000000 0.103495
179.000000 73.550000 -5.000000 1.000000 -5.000000 85.391456 32.012037 302.142256 1043.316742 13.609871 0.000000 0.113093
180.000000 73.469000 -4.000000 1.000000 -5.000000 75.417886 34.802364 226.890119 1281.989101 13.627233 0.000000 0.138973
181.000000 69.486000 -3.000000 1.000000 -5.000000 63.032758 37.750615 141.625438 1633.596714 14.410850 0.000000 0.206784
183.000000 47.116000 -13.000000 2.000000 -5.000000 115.392444 10.242584 780.518153 421.838329 21.234768 0.000000 0.114866
184.000000 49.596000 -12.000000 2.000000 -5.000000 112.892296 11.628156 753.517269 477.003113 20.173603 0.000000 0.120973
185.000000 52.244000 -11.000000 2.000000 -5.000000 109.996422 13.105152 724.436461 538.863629 19.152333 0.000000 0.126773
186.000000 55.033000 -10.000000 2.000000 -5.000000 106.615700 14.680759 693.025773 608.982159 18.182838 0.000000 0.131917
187.000000 57.905000 -9.000000 2.000000 -5.000000 102.635745 16.362556 658.993523 689.529639 17.282232 0.000000 0.135869
188.000000 60.743000 -8.000000 2.000000 -5.000000 97.908994 18.158445 621.997223 783.642974 16.476107 0.000000 0.137823
189.000000 63.331000 -7.000000 2.000000 -5.000000 92.244865 20.076533 581.632009 896.079276 15.804523 0.000000 0.136647
190.000000 65.283000 -6.000000 2.000000 -5.000000 85.398688 22.124968 537.415767 1034.506807 15.333917 0.000000 0.131101
191.000000 65.941000 -5.000000 2.000000 -5.000000 77.062431 24.311705 488.769781 1212.306866 15.183081 0.000000 0.121769
192.000000 64.242000 -4.000000 2.000000 -5.000000 66.865602 26.644192 434.993267 1455.475164 15.587404 0.000000 0.121537
193.000000 58.609000 -3.000000 2.000000 -5.000000 54.405342 29.128966 375.229391 1822.941746 17.088429 0.000000 0.179554
195.000000 47.116000 -12.000000 3.000000 -5.000000 106.555829 7.469940 833.877588 618.307386 21.238057 0.000000 0.148047
196.000000 49.332000 -11.000000 3.000000 -5.000000 103.352454 8.688313 810.528496 682.568605 20.285547 0.000000 0.152607
197.000000 51.586000 -10.000000 3.000000 -5.000000 99.644171 9.985282 785.505342 755.291815 19.400581 0.000000 0.155593
198.000000 53.792000 -9.000000 3.000000 -5.000000 95.318998 11.367238 758.621392 838.790306 18.606292 0.000000 0.156066
199.000000 55.803000 -8.000000 3.000000 -5.000000 90.235223 12.841041 729.661070 936.467986 17.937739 0.000000 0.152620
200.000000 57.367000 -7.000000 3.000000 -5.000000 84.214109 14.414005 698.374160 1053.602698 17.450731 0.000000 0.143215
201.000000 58.076000 -6.000000 3.000000 -5.000000 77.032969 16.093860 664.468564 1198.938788 17.239833 0.000000 0.125374
202.000000 57.290000 -5.000000 3.000000 -5.000000 68.422176 17.888684 627.601149 1388.276797 17.479097 0.000000 0.099958
203.000000 54.056000 -4.000000 3.000000 -5.000000 58.074152 19.806792 587.366095 1653.775394 18.527772 0.000000 0.099748
204.000000 47.102000 -3.000000 3.000000 -5.000000 45.679856 21.856568 543.279896 2073.452771 21.265918 0.000000 0.205921
205.000000 46.077000 -11.000000 4.000000 -5.000000 96.654997 5.004061 880.759591 814.940976 21.721516 0.000000 0.163846
206.000000 47.757000 -10.000000 4.000000 -5.000000 92.626172 6.078042 860.394490 891.354013 20.958803 0.000000 0.162618
207.000000 49.265000 -9.000000 4.000000 -5.000000 87.969821 7.219312 838.663835 979.457516 20.319124 0.000000 0.157291
208.000000 50.430000 -8.000000 4.000000 -5.000000 82.553771 8.433401 815.425514 1083.207053 19.852069 0.000000 0.145840
209.000000 50.985000 -7.000000 4.000000 -5.000000 76.216333 9.726308 790.516987 1208.888563 19.638019 0.000000 0.125375
210.000000 50.533000 -6.000000 4.000000 -5.000000 68.763707 11.104510 763.751478 1367.231684 19.816422 0.000000 0.092976
211.000000 48.495000 -5.000000 4.000000 -5.000000 59.972792 12.574974 734.913282 1578.369697 20.652278 0.000000 0.061495
220.000000 47.721000 -15.000000 -1.000000 -4.000000 139.288658 17.220318 641.412981 -368.507303 20.957693 0.000000 0.061056
221.000000 50.612000 -14.000000 -1.000000 -4.000000 138.342216 19.486364 594.152462 -342.306313 19.760602 0.000000 0.068097
222.000000 53.841000 -13.000000 -1.000000 -4.000000 137.197976 21.940731 541.443437 -311.960603 18.575756 0.000000 0.075718
223.000000 57.461000 -12.000000 -1.000000 -4.000000 135.804541 24.597709 482.286064 -276.431799 17.406009 0.000000 0.084122
224.000000 61.530000 -11.000000 -1.000000 -4.000000 134.094264 27.470537 415.419919 -234.311303 16.255171 0.000000 0.093650
225.000000 66.114000 -10.000000 -1.000000 -4.000000 131.977162 30.570338 339.233196 -183.642327 15.128455 0.000000 0.104900
226.000000 71.277000 -9.000000 -1.000000 -4.000000 129.332191 33.904737 251.631081 -121.629980 14.033184 0.000000 0.118926
227.000000 77.064000 -8.000000 -1.000000 -4.000000 125.994649 37.476209 149.840169 -44.148735 12.979978 0.000000 0.137591
228.000000 83.467000 -7.000000 -1.000000 -4.000000 121.737958 41.280251 30.109479 55.137371 11.984846 0.000000 0.164176
229.000000 90.347000 -6.000000 -1.000000 -4.000000 116.247702 45.303615 -112.761894 186.445288 11.073102 0.000000 0.204421
230.000000 46.942000 -15.000000 0.000000 -4.000000 134.016054 11.092171 763.992184 -118.745393 21.306814 0.000000 0.027455
231.000000 49.743000 -7.000000 0.000000 -2.000000 132.889759 12.874328 729.003196 -84.577787 10.053793 0.000000 0.029014
232.000000 52.864000 -13.000000 0.000000 -4.000000 131.562466 14.803344 690.563591 -46.081400 18.920572 0.000000 0.029986
233.000000 56.356000 -6.000000 0.000000 -2.000000 129.984898 16.893194 648.136442 -2.341795 8.874346 0.000000 0.030143
234.000000 60.272000 -11.000000 0.000000 -4.000000 128.092275 19.158559 601.067332 47.843420 16.595870 0.000000 0.029187
235.000000 64.671000 -5.000000 0.000000 -2.000000 125.798331 21.614476 548.550358 106.091894 7.733758 0.000000 0.026734
236.000000 69.607000 -9.000000 0.000000 -4.000000 122.986609 24.275803 489.581603 174.640034 14.371305 0.000000 0.022382
237.000000 81.165000 -7.000000 0.000000 -4.000000 115.110271 30.268139 346.867029 356.974988 12.326284 0.000000 0.014449
239.000000 45.820000 -15.000000 1.000000 -4.000000 128.366034 6.200750 858.062761 83.964015 21.830733 0.000000 0.059323
240.000000 48.460000 -14.000000 1.000000 -4.000000 126.990615 7.610239 831.195921 123.025650 20.641537 0.000000 0.064592
241.000000 51.387000 -13.000000 1.000000 -4.000000 125.396034 9.130695 802.014133 166.414767 19.466364 0.000000 0.070159
242.000000 54.638000 -12.000000 1.000000 -4.000000 123.531728 10.773347 770.204730 214.962002 18.308648 0.000000 0.076007
243.000000 58.253000 -11.000000 1.000000 -4.000000 121.331738 12.550488 735.396082 269.746279 17.173043 0.000000 0.082100
244.000000 62.270000 -10.000000 1.000000 -4.000000 118.708869 14.475466 697.143013 332.203149 16.066021 0.000000 0.088362
245.000000 66.713000 -9.000000 1.000000 -4.000000 115.546240 16.562596 654.907658 404.298984 14.996852 0.000000 0.094645
246.000000 71.574000 -8.000000 1.000000 -4.000000 111.684969 18.826974 608.034014 488.825008 13.979301 0.000000 0.100700
247.000000 76.767000 -7.000000 1.000000 -4.000000 106.906181 21.284138 555.713624 589.923667 13.034726 0.000000 0.106109
248.000000 82.040000 -6.000000 1.000000 -4.000000 100.905192 23.949527 496.938552 714.102111 12.198156 0.000000 0.110319
249.000000 86.797000 -5.000000 1.000000 -4.000000 93.256334 26.837684 430.435821 872.372263 11.531306 0.000000 0.113130
250.000000 89.749000 -4.000000 1.000000 -4.000000 83.372079 29.961139 354.574160 1085.353874 11.153976 0.000000 0.117798
251.000000 88.346000 -3.000000 1.000000 -4.000000 70.479378 33.328937 267.228411 1397.682378 11.333405 0.000000 0.144722
252.000000 78.169000 -2.000000 1.000000 -4.000000 53.690768 36.944846 165.577301 1930.576414 12.811901 0.000000 0.258365
254.000000 46.802000 -7.000000 1.000000 -2.000000 120.830752 3.386392 911.312864 297.492990 10.687595 0.000000 0.101880
255.000000 49.458000 -13.000000 2.000000 -4.000000 118.922411 4.596579 888.468101 344.385328 20.227876 0.000000 0.109547
256.000000 52.372000 -6.000000 1.000000 -2.000000 116.715273 5.898400 863.806179 396.437764 9.551575 0.000000 0.117462
257.000000 55.562000 -11.000000 2.000000 -4.000000 114.140228 7.301164 837.101303 454.700138 18.007209 0.000000 0.125464
258.000000 59.035000 -5.000000 1.000000 -2.000000 111.106998 8.815190 808.088649 520.575413 8.474374 0.000000 0.133275
259.000000 62.774000 -9.000000 2.000000 -4.000000 107.496200 10.451876 776.455561 595.999830 15.940350 0.000000 0.140415
260.000000 66.711000 -4.000000 1.000000 -2.000000 103.148093 12.223733 741.830227 683.753737 7.500474 0.000000 0.146069
261.000000 70.678000 -7.000000 2.000000 -4.000000 97.846800 14.144386 703.767007 788.032787 14.160392 0.000000 0.148861
262.000000 76.912000 -5.000000 2.000000 -4.000000 83.107123 18.491568 615.053093 1078.193403 13.016231 0.000000 0.135557
263.000000 72.529000 -3.000000 2.000000 -4.000000 59.563094 23.618813 504.357687 1631.208261 13.808136 0.000000 0.117382
264.000000 59.597000 -1.000000 1.000000 -2.000000 42.880371 26.514248 438.045253 2236.257391 8.403633 0.000000 0.269324
265.000000 47.148000 -13.000000 3.000000 -4.000000 112.316324 0.932209 957.487027 499.162808 21.221328 0.000000 0.137764
266.000000 49.654000 -12.000000 3.000000 -4.000000 109.747396 1.976401 937.858810 554.396102 20.151354 0.000000 0.145248
267.000000 52.332000 -11.000000 3.000000 -4.000000 106.776322 3.096247 916.780687 616.058532 19.121336 0.000000 0.152182
268.000000 55.155000 -10.000000 3.000000 -4.000000 103.310364 4.299322 894.085843 685.650701 18.143737 0.000000 0.158012
269.000000 58.062000 -9.000000 3.000000 -4.000000 99.229130 5.594072 869.580854 765.279891 17.236808 0.000000 0.161845
270.000000 60.925000 -8.000000 3.000000 -4.000000 94.375119 6.989906 843.040156 858.037188 16.428378 0.000000 0.162240
271.000000 63.504000 -7.000000 3.000000 -4.000000 88.541372 8.497274 814.199088 968.710243 15.763102 0.000000 0.156839
272.000000 65.360000 -6.000000 3.000000 -4.000000 81.456523 10.127744 782.745031 1105.247590 15.317429 0.000000 0.141783
273.000000 65.729000 -5.000000 3.000000 -4.000000 72.769992 11.894046 748.306032 1282.110042 15.234034 0.000000 0.111448
274.000000 63.332000 -4.000000 3.000000 -4.000000 62.046660 13.810078 710.436025 1529.154191 15.813346 0.000000 0.070465
275.000000 56.226000 -3.000000 3.000000 -4.000000 48.795081 15.890846 668.595408 1920.831846 17.814897 0.000000 0.140283
276.000000 46.601000 -3.000000 1.000000 -1.000000 102.790624 -1.219295 997.907771 696.601819 5.368640 0.000000 0.160656
277.000000 48.722000 -11.000000 4.000000 -4.000000 99.436885 -0.313558 980.890217 762.106007 20.541206 0.000000 0.164551
278.000000 50.850000 -5.000000 2.000000 -2.000000 95.558859 0.654790 962.699319 836.241793 9.841421 0.000000 0.166119
279.000000 52.887000 -9.000000 4.000000 -4.000000 91.038877 1.691859 943.209393 921.474173 18.926564 0.000000 0.164000
280.000000 54.661000 -4.000000 2.000000 -2.000000 85.727258 2.804476 922.276138 1021.508475 9.157160 0.000000 0.156050
281.000000 55.887000 -7.000000 4.000000 -4.000000 79.434113 4.000271 899.733062 1142.250114 17.914684 0.000000 0.138826
282.000000 56.104000 -3.000000 2.000000 -2.000000 71.921407 5.287763 875.387039 1293.843727 8.923984 0.000000 0.106810
283.000000 54.588000 -5.000000 4.000000 -4.000000 62.899247 6.676460 849.012766 1495.546102 18.346374 0.000000 0.054063
284.000000 50.275000 -2.000000 2.000000 -2.000000 52.035729 8.176940 820.345768 1789.438531 9.961721 0.000000 0.075248
285.000000 46.339000 -10.000000 5.000000 -4.000000 88.024791 -2.325924 1018.716224 978.149371 21.602399 0.000000 0.160491
286.000000 47.545000 -9.000000 5.000000 -4.000000 83.130482 -1.484040 1002.883754 1070.708473 21.056354 0.000000 0.150612
287.000000 48.320000 -8.000000 5.000000 -4.000000 77.447436 -0.585218 985.993623 1180.657344 20.721059 0.000000 0.132222
288.000000 48.370000 -7.000000 5.000000 -4.000000 70.809611 0.376032 967.936189 1315.610965 20.702152 0.000000 0.100690
289.000000 47.263000 -6.000000 5.000000 -4.000000 63.019370 1.405843 948.586108 1489.106071 21.190037 0.000000 0.048627
304.000000 47.447000 -15.000000 1.000000 -3.000000 131.503311 -0.518750 984.744919 -11.374663 21.081174 0.000000 0.046303
305.000000 50.377000 -14.000000 1.000000 -3.000000 130.429048 0.726506 961.351945 23.986758 19.855169 0.000000 0.052218
306.000000 53.669000 -13.000000 1.000000 -3.000000 129.178326 2.087359 935.771859 63.291145 18.637722 0.000000 0.058750
307.000000 57.386000 -12.000000 1.000000 -3.000000 127.707837 3.578918 907.682894 107.284117 17.430954 0.000000 0.065921
308.000000 61.604000 -11.000000 1.000000 -3.000000 125.959862 5.218618 876.696913 156.927776 16.237747 0.000000 0.073750
309.000000 66.415000 -10.000000 1.000000 -3.000000 123.856119 7.026552 842.341361 213.492252 15.062128 0.000000 0.082240
310.000000 71.919000 -9.000000 1.000000 -3.000000 121.288359 9.025794 804.035000 278.701603 13.909887 0.000000 0.091349
311.000000 78.223000 -8.000000 1.000000 -3.000000 118.103670 11.242677 761.054752 354.978147 12.789676 0.000000 0.100933
312.000000 85.404000 -7.000000 1.000000 -3.000000 114.081022 13.706940 712.489626 445.877196 11.715011 0.000000 0.110627
314.000000 45.925000 -15.000000 2.000000 -3.000000 125.143522 -3.999688 1050.255940 181.495850 21.781699 0.000000 0.080166
315.000000 48.612000 -14.000000 2.000000 -3.000000 123.714437 -3.039922 1032.158216 221.797018 20.578252 0.000000 0.088325
316.000000 51.600000 -13.000000 2.000000 -3.000000 122.069981 -1.999329 1012.572403 266.216635 19.387101 0.000000 0.097131
317.000000 54.933000 -12.000000 2.000000 -3.000000 120.160699 -0.868030 991.307092 315.497941 18.211375 0.000000 0.106568
318.000000 58.659000 -11.000000 2.000000 -3.000000 117.921612 0.365364 968.136580 370.600027 17.055361 0.000000 0.116564
319.000000 62.825000 -10.000000 2.000000 -3.000000 115.265964 1.714015 942.792822 432.792654 15.925097 0.000000 0.126964
320.000000 67.471000 -9.000000 2.000000 -3.000000 112.075901 3.193143 914.955020 503.810698 14.829372 0.000000 0.137441
321.000000 72.607000 -8.000000 2.000000 -3.000000 108.188350 4.820355 884.235969 586.119752 13.781481 0.000000 0.147365
322.000000 78.166000 -7.000000 2.000000 -3.000000 103.373354 6.615999 850.163935 683.403998 12.802552 0.000000 0.155529
323.000000 83.905000 -6.000000 2.000000 -3.000000 97.300787 8.603515 812.158264 801.539178 11.928303 0.000000 0.159614
324.000000 89.181000 -5.000000 2.000000 -3.000000 89.490255 10.809753 769.496012 950.748731 11.224264 0.000000 0.155106
325.000000 90.559000 -3.000000 2.000000 -3.000000 65.564964 16.003790 666.300533 1449.739514 11.058318 0.000000 0.087390
326.000000 77.155000 -2.000000 2.000000 -3.000000 47.204842 19.062678 603.084666 1995.306727 12.982523 0.000000 0.173260
327.000000 46.497000 -14.000000 3.000000 -3.000000 116.952992 -6.007773 1088.270708 390.690047 21.516698 0.000000 0.117247
328.000000 49.115000 -13.000000 3.000000 -3.000000 114.908325 -5.194721 1072.850472 439.149514 20.370438 0.000000 0.126302
329.000000 51.982000 -4.000000 1.000000 -1.000000 112.553448 -4.317395 1056.255593 492.735552 6.415951 0.000000 0.135540
330.000000 55.112000 -11.000000 3.000000 -3.000000 109.816710 -3.368323 1038.346539 552.484415 18.155718 0.000000 0.144697
331.000000 58.506000 -10.000000 3.000000 -3.000000 106.604111 -2.338921 1018.960765 619.791057 17.103677 0.000000 0.153324
332.000000 65.912000 -8.000000 3.000000 -3.000000 98.207700 0.001980 974.962814 785.755983 15.184229 0.000000 0.165387
333.000000 69.636000 -7.000000 3.000000 -3.000000 92.625360 1.338128 949.858860 891.634924 14.373843 0.000000 0.165227
334.000000 74.801000 -5.000000 3.000000 -3.000000 77.078643 4.418798 891.828452 1188.662740 13.385393 0.000000 0.130144
335.000000 73.792000 -4.000000 3.000000 -3.000000 66.094241 6.201686 858.044983 1420.885806 13.571150 0.000000 0.073757
337.000000 46.313000 -13.000000 4.000000 -3.000000 107.822242 -7.747013 1121.420076 591.791512 21.605989 0.000000 0.145605
338.000000 48.667000 -12.000000 4.000000 -3.000000 105.043855 -7.052641 1108.156204 649.519256 20.562155 0.000000 0.152826
339.000000 51.150000 -11.000000 4.000000 -3.000000 101.840030 -6.306690 1093.951198 713.991703 19.565224 0.000000 0.159032
340.000000 53.720000 -10.000000 4.000000 -3.000000 98.113436 -5.503473 1078.701204 786.852570 18.630557 0.000000 0.163422
341.000000 56.291000 -9.000000 4.000000 -3.000000 93.737842 -4.636490 1062.286510 870.454457 17.781048 0.000000 0.164725
342.000000 58.703000 -8.000000 4.000000 -3.000000 88.548341 -3.698280 1044.568388 968.331998 17.052377 0.000000 0.160864
343.000000 60.663000 -7.000000 4.000000 -3.000000 82.328746 -2.680263 1025.385169 1086.129637 16.503398 0.000000 0.148342
344.000000 61.661000 -6.000000 4.000000 -3.000000 74.796743 -1.572535 1004.547295 1233.598576 16.238588 0.000000 0.121031
345.000000 60.831000 -5.000000 4.000000 -3.000000 65.590288 -0.363640 981.831032 1429.458570 16.462891 0.000000 0.067642
346.000000 56.779000 -4.000000 4.000000 -3.000000 54.266269 0.959703 956.970407 1715.465738 17.640696 0.000000 0.034010
347.000000 47.485000 -3.000000 4.000000 -3.000000 40.338502 2.412922 929.646744 2209.519849 21.096487 0.000000 0.224069
348.000000 46.961000 -11.000000 5.000000 -3.000000 94.128935 -8.667871 1139.078558 862.406260 21.313677 0.000000 0.161272
349.000000 48.726000 -10.000000 5.000000 -3.000000 89.959137 -8.028607 1126.811321 941.775202 20.543108 0.000000 0.159762
350.000000 50.298000 -9.000000 5.000000 -3.000000 85.116135 -7.343207 1113.701518 1033.726170 19.902974 0.000000 0.153166
351.000000 51.474000 -8.000000 5.000000 -3.000000 79.447550 -6.606711 1099.659254 1142.838988 19.450452 0.000000 0.138638
352.000000 51.931000 -7.000000 5.000000 -3.000000 72.762501 -5.813456 1084.581377 1276.667162 19.281863 0.000000 0.111577
353.000000 51.165000 -6.000000 5.000000 -3.000000 64.825892 -4.956961 1068.348936 1448.770824 19.573073 0.000000 0.064706
354.000000 48.427000 -5.000000 5.000000 -3.000000 55.358707 -4.029782 1050.824038 1686.474167 20.682977 0.000000 0.029710
363.000000 47.094000 -16.000000 0.000000 -2.000000 141.139378 -5.900401 1086.231807 -401.857871 21.236166 0.000000 0.019810
364.000000 50.073000 -15.000000 0.000000 -2.000000 140.807997 -4.704629 1063.575035 -383.505850 19.972947 0.000000 0.015270
365.000000 53.446000 -14.000000 0.000000 -2.000000 140.412231 -3.368478 1038.349456 -362.834521 18.712371 0.000000 0.010880
366.000000 57.297000 -13.000000 0.000000 -2.000000 139.934168 -1.867434 1010.091942 -339.368620 17.455034 0.000000 0.007477
367.000000 61.729000 -12.000000 0.000000 -2.000000 139.349263 -0.171463 978.220916 -312.491539 16.201729 0.000000 0.007294
368.000000 66.883000 -11.000000 0.000000 -2.000000 138.623204 1.756400 941.995901 -281.387684 14.953528 0.000000 0.010763
369.000000 72.940000 -10.000000 0.000000 -2.000000 137.706934 3.961798 900.459269 -244.953615 13.711918 0.000000 0.015644
370.000000 80.147000 -9.000000 0.000000 -2.000000 136.528505 6.501125 852.350344 -201.655888 12.479030 0.000000 0.020767
371.000000 88.841000 -8.000000 0.000000 -2.000000 134.979294 9.443799 795.975224 -149.293369 11.258024 0.000000 0.025479
372.000000 46.017000 -16.000000 1.000000 -2.000000 134.764665 -9.206650 1149.449840 -140.420079 21.735149 0.000000 0.027291
373.000000 48.841000 -15.000000 1.000000 -2.000000 134.067615 -8.341099 1132.802912 -111.960963 20.478465 0.000000 0.029687
374.000000 52.025000 -14.000000 1.000000 -2.000000 133.264097 -7.386982 1114.537554 -80.453474 19.225419 0.000000 0.033619
375.000000 55.639000 -13.000000 1.000000 -2.000000 132.328958 -6.330591 1094.405687 -45.361879 17.976854 0.000000 0.039035
376.000000 59.773000 -12.000000 1.000000 -2.000000 131.228785 -5.155402 1072.105804 -6.010943 16.733892 0.000000 0.045868
377.000000 64.540000 -11.000000 1.000000 -2.000000 129.918331 -3.841358 1047.267761 38.465395 15.498067 0.000000 0.054093
378.000000 70.089000 -10.000000 1.000000 -2.000000 128.334990 -2.363968 1019.432070 89.201336 14.271527 0.000000 0.063741
379.000000 76.609000 -9.000000 1.000000 -2.000000 126.389962 -0.693141 988.021214 147.720391 13.057378 0.000000 0.074882
380.000000 84.344000 -8.000000 1.000000 -2.000000 123.953673 1.208285 952.299141 216.134664 11.860285 0.000000 0.087596
381.000000 47.244000 -15.000000 2.000000 -2.000000 127.256727 -11.064338 1185.464943 106.862664 21.172684 0.000000 0.057863
382.000000 50.163000 -7.000000 1.000000 -1.000000 126.029213 -10.357848 1171.718573 145.219656 9.970671 0.000000 0.065865
383.000000 53.442000 -13.000000 2.000000 -2.000000 124.615974 -9.584936 1156.750492 187.553126 18.718022 0.000000 0.074914
384.000000 57.148000 -6.000000 1.000000 -1.000000 122.973026 -8.736100 1140.390255 234.570770 8.752397 0.000000 0.085038
385.000000 61.357000 -11.000000 2.000000 -2.000000 121.041805 -7.800010 1122.434167 287.178583 16.304496 0.000000 0.096250
386.000000 66.161000 -5.000000 1.000000 -1.000000 118.742795 -6.763068 1102.636756 346.564512 7.560575 0.000000 0.108527
387.000000 71.665000 -9.000000 2.000000 -2.000000 115.965650 -5.608853 1080.699485 414.333209 13.960634 0.000000 0.121740
388.000000 85.165000 -7.000000 2.000000 -2.000000 108.276856 -2.864249 1028.849427 585.087314 11.749288 0.000000 0.149115
389.000000 47.926000 -14.000000 3.000000 -2.000000 118.828009 -12.632248 1216.216393 333.921826 20.874574 0.000000 0.095741
390.000000 50.797000 -13.000000 3.000000 -2.000000 116.945849 -12.048359 1204.723051 381.557833 19.695414 0.000000 0.105647
391.000000 53.981000 -12.000000 3.000000 -2.000000 114.773019 -11.413811 1192.288991 434.275898 18.534418 0.000000 0.116129
392.000000 57.513000 -11.000000 3.000000 -2.000000 112.239597 -10.721888 1178.793787 493.084703 17.396857 0.000000 0.127020
393.000000 61.424000 -10.000000 3.000000 -2.000000 109.252398 -9.964673 1164.095548 559.333082 16.290265 0.000000 0.138003
394.000000 65.722000 -9.000000 3.000000 -2.000000 105.685040 -9.132773 1148.025899 634.890028 15.225788 0.000000 0.148492
395.000000 70.374000 -8.000000 3.000000 -2.000000 101.362890 -8.214974 1130.383511 722.463943 14.220652 0.000000 0.157408
396.000000 75.236000 -7.000000 3.000000 -2.000000 96.040048 -7.197801 1110.925617 826.211668 13.302964 0.000000 0.162752
397.000000 79.940000 -6.000000 3.000000 -2.000000 89.364162 -6.064949 1089.356776 953.011872 12.521900 0.000000 0.160692
398.000000 83.626000 -5.000000 3.000000 -2.000000 80.824226 -4.796554 1065.313769 1115.465647 11.972025 0.000000 0.143534
399.000000 84.424000 -4.000000 3.000000 -2.000000 69.680896 -3.368240 1038.344973 1340.231013 11.861344 0.000000 0.094682
400.000000 78.532000 -3.000000 3.000000 -2.000000 54.904944 -1.749892 1007.881732 1697.646421 12.754278 0.000000 0.027948
402.000000 47.812000 -13.000000 4.000000 -2.000000 109.430271 -13.971391 1242.779543 549.763492 20.927678 0.000000 0.127899
403.000000 50.423000 -6.000000 2.000000 -1.000000 106.766742 -13.483526 1233.068115 607.537966 9.922523 0.000000 0.136687
404.000000 53.223000 -11.000000 4.000000 -2.000000 103.684076 -12.956423 1222.620053 672.098626 18.802232 0.000000 0.144916
405.000000 56.184000 -5.000000 2.000000 -1.000000 100.081627 -12.385252 1211.348238 745.079290 8.906243 0.000000 0.151902
406.000000 59.238000 -9.000000 4.000000 -2.000000 95.826542 -11.764375 1199.151253 828.813718 16.895663 0.000000 0.156521
407.000000 62.238000 -4.000000 2.000000 -1.000000 90.741455 -11.087173 1185.910319 926.806167 8.041466 0.000000 0.156885
408.000000 64.895000 -7.000000 4.000000 -2.000000 84.587486 -10.345836 1171.485415 1044.662322 15.426186 0.000000 0.149745
409.000000 66.666000 -3.000000 2.000000 -1.000000 77.041914 -9.531089 1155.710307 1192.119423 7.509338 0.000000 0.129353
410.000000 66.554000 -5.000000 4.000000 -2.000000 67.672652 -8.631843 1138.386114 1388.084782 15.046487 0.000000 0.085788
411.000000 62.826000 -2.000000 2.000000 -1.000000 55.920750 -7.634756 1119.272879 1675.650252 7.971162 0.000000 0.041489
412.000000 52.733000 -3.000000 4.000000 -2.000000 41.126268 -6.523655 1098.078387 2181.671340 18.996540 0.000000 0.214456
413.000000 46.632000 -12.000000 5.000000 -2.000000 99.053645 -15.127239 1265.955498 763.342518 21.461589 0.000000 0.146811
414.000000 48.701000 -11.000000 5.000000 -2.000000 95.494529 -14.715682 1257.675400 833.957182 20.551232 0.000000 0.150788
415.000000 50.742000 -10.000000 5.000000 -2.000000 91.373681 -14.273311 1248.810111 914.368533 19.726315 0.000000 0.152027
416.000000 52.631000 -9.000000 5.000000 -2.000000 86.561332 -13.796591 1239.295321 1007.593975 19.020117 0.000000 0.148890
417.000000 54.158000 -8.000000 5.000000 -2.000000 80.890893 -13.281433 1229.056940 1118.312396 18.485781 0.000000 0.138811
418.000000 54.974000 -7.000000 5.000000 -2.000000 74.148962 -12.723088 1218.009161 1254.288893 18.213730 0.000000 0.117860
419.000000 54.510000 -6.000000 5.000000 -2.000000 66.065470 -12.116008 1206.052054 1429.608134 18.371317 0.000000 0.081727
420.000000 51.877000 -5.000000 5.000000 -2.000000 56.309052 -11.453678 1193.068532 1673.133424 19.306721 0.000000 0.058739
421.000000 45.775000 -4.000000 5.000000 -2.000000 44.500069 -10.728400 1178.920504 2055.727090 21.883589 0.000000 0.172264
422.000000 46.229000 -9.000000 6.000000 -2.000000 77.979901 -15.409508 1271.653011 1178.713554 21.657549 0.000000 0.129468
423.000000 46.552000 -4.000000 3.000000 -1.000000 71.899457 -15.007764 1263.548503 1305.221825 10.754758 0.000000 0.109622
424.000000 45.974000 -7.000000 6.000000 -2.000000 64.794248 -14.575877 1254.869829 1464.444569 21.782632 0.000000 0.081344
432.000000 46.960000 -16.000000 1.000000 -1.000000 136.361987 -17.666831 1317.802911 -243.588250 21.298092 0.000000 0.047588
433.000000 49.941000 -15.000000 1.000000 -1.000000 135.832648 -17.198874 1308.145564 -218.906417 20.026813 0.000000 0.043235
434.000000 53.322000 -14.000000 1.000000 -1.000000 135.225995 -16.678237 1297.458195 -191.459303 18.757098 0.000000 0.038883
435.000000 57.188000 -13.000000 1.000000 -1.000000 134.524022 -16.095595 1285.566733 -160.746771 17.489314 0.000000 0.034861
436.000000 61.649000 -12.000000 1.000000 -1.000000 133.702741 -15.439315 1272.255542 -126.137497 16.223950 0.000000 0.031825
437.000000 66.851000 -11.000000 1.000000 -1.000000 132.729513 -14.694706 1257.254227 -86.821553 14.961678 0.000000 0.030886
438.000000 72.991000 -10.000000 1.000000 -1.000000 131.558822 -13.842960 1240.219073 -41.739932 13.703440 0.000000 0.033357
439.000000 80.337000 -9.000000 1.000000 -1.000000 130.125350 -12.859635 1220.706392 10.523917 12.450608 0.000000 0.040011
440.000000 89.268000 -8.000000 1.000000 -1.000000 128.332125 -11.712428 1198.133312 71.918406 11.205256 0.000000 0.050887
441.000000 45.527000 -16.000000 2.000000 -1.000000 129.618780 -19.180142 1349.387107 -2.347388 21.970647 0.000000 0.030942
442.000000 48.280000 -15.000000 2.000000 -1.000000 128.663157 -18.846256 1342.370328 31.079457 20.717896 0.000000 0.032151
443.000000 51.377000 -14.000000 2.000000 -1.000000 127.573649 -18.480049 1334.706350 67.908330 19.469490 0.000000 0.035625
444.000000 54.882000 -13.000000 2.000000 -1.000000 126.320419 -18.076627 1326.301299 108.712847 18.226469 0.000000 0.041441
445.000000 58.876000 -12.000000 2.000000 -1.000000 124.864188 -17.630059 1317.042229 154.212469 16.990239 0.000000 0.049476
446.000000 63.463000 -11.000000 2.000000 -1.000000 123.152248 -17.133096 1306.792010 205.326213 15.762738 0.000000 0.059592
447.000000 68.771000 -10.000000 2.000000 -1.000000 121.112298 -16.576786 1295.382493 263.254372 14.546719 0.000000 0.071704
448.000000 74.960000 -9.000000 2.000000 -1.000000 118.642640 -15.949952 1282.605216 329.608520 13.346230 0.000000 0.085759
449.000000 82.226000 -8.000000 2.000000 -1.000000 115.596007 -15.238456 1268.198548 406.630113 12.167477 0.000000 0.101639
450.000000 90.790000 -7.000000 2.000000 -1.000000 111.751850 -14.424179 1251.829587 497.584561 11.020478 0.000000 0.118973
451.000000 46.288000 -15.000000 3.000000 -1.000000 121.581074 -20.094976 1368.760769 236.460015 21.612039 0.000000 0.054042
452.000000 49.036000 -14.000000 3.000000 -1.000000 120.028359 -19.827890 1363.081715 279.685182 20.401354 0.000000 0.062686
453.000000 52.099000 -13.000000 3.000000 -1.000000 118.249801 -19.537167 1356.921697 327.360606 19.202383 0.000000 0.072417
454.000000 55.525000 -12.000000 3.000000 -1.000000 116.193517 -19.219539 1350.216913 380.297597 18.018264 0.000000 0.083172
455.000000 59.366000 -11.000000 3.000000 -1.000000 113.790889 -18.871113 1342.891754 439.548335 16.853370 0.000000 0.094853
456.000000 63.673000 -10.000000 3.000000 -1.000000 110.949480 -18.487212 1334.855941 506.516032 15.713975 0.000000 0.107263
457.000000 68.492000 -9.000000 3.000000 -1.000000 107.542209 -18.062169 1326.000786 583.138624 14.609414 0.000000 0.120005
458.000000 73.830000 -8.000000 3.000000 -1.000000 103.390423 -17.589048 1316.194245 672.214491 13.554219 0.000000 0.132287
459.000000 79.604000 -7.000000 3.000000 -1.000000 98.236892 -17.059283 1305.274291 778.025562 12.572302 0.000000 0.142536
460.000000 85.506000 -6.000000 3.000000 -1.000000 91.702106 -16.462162 1293.039889 907.649601 11.705998 0.000000 0.147587
461.000000 90.696000 -5.000000 3.000000 -1.000000 83.213839 -15.784124 1279.238508 1074.095246 11.038030 0.000000 0.140932
462.000000 87.992000 -3.000000 3.000000 -1.000000 56.453812 -14.110380 1245.553733 1676.833725 11.382492 0.000000 0.071954
464.000000 46.388000 -14.000000 4.000000 -1.000000 112.664122 -20.873067 1385.417225 460.001077 21.568864 0.000000 0.090072
465.000000 48.961000 -13.000000 4.000000 -1.000000 110.402282 -20.657185 1380.778855 513.175210 20.436128 0.000000 0.099697
466.000000 51.763000 -12.000000 4.000000 -1.000000 107.801648 -20.423712 1375.777362 572.223409 19.330857 0.000000 0.109562
467.000000 54.797000 -11.000000 4.000000 -1.000000 104.783498 -20.170417 1370.368366 638.404560 18.261393 0.000000 0.119345
468.000000 58.048000 -10.000000 4.000000 -1.000000 101.244147 -19.894675 1364.499950 713.445555 17.239837 0.000000 0.128504
469.000000 61.459000 -9.000000 4.000000 -1.000000 97.045038 -19.593378 1358.110985 799.813577 16.284437 0.000000 0.136118
470.000000 64.894000 -8.000000 4.000000 -1.000000 91.998390 -19.262820 1351.128996 901.218075 15.424055 0.000000 0.140621
471.000000 68.065000 -7.000000 4.000000 -1.000000 85.846523 -18.898547 1343.467396 1023.612881 14.707197 0.000000 0.139325
472.000000 70.397000 -6.000000 4.000000 -1.000000 78.233107 -18.495158 1335.021882 1177.411130 14.222159 0.000000 0.127785
473.000000 70.776000 -5.000000 4.000000 -1.000000 68.666896 -18.046042 1325.665656 1383.093663 14.148343 0.000000 0.101079
474.000000 67.153000 -4.000000 4.000000 -1.000000 56.488725 -17.543023 1315.243014 1688.451580 14.914623 0.000000 0.090256
475.000000 56.075000 -3.000000 4.000000 -1.000000 40.884326 -16.975871 1303.560613 2240.831680 17.864059 0.000000 0.243455
476.000000 45.593000 -13.000000 5.000000 -1.000000 102.847610 -21.542710 1399.890659 677.095996 21.948867 0.000000 0.118433
477.000000 47.761000 -12.000000 5.000000 -1.000000 99.771176 -21.366768 1396.075136 741.969337 20.953585 0.000000 0.125650
478.000000 49.996000 -11.000000 5.000000 -1.000000 96.227889 -21.177548 1391.981907 815.040285 20.018305 0.000000 0.131694
479.000000 52.229000 -10.000000 5.000000 -1.000000 92.111512 -20.973495 1387.579507 898.501875 19.164053 0.000000 0.135685
480.000000 54.335000 -9.000000 5.000000 -1.000000 87.284692 -20.752798 1382.831535 995.586648 18.422984 0.000000 0.136283
481.000000 56.095000 -8.000000 5.000000 -1.000000 81.568916 -20.513342 1377.695637 1111.330551 17.846855 0.000000 0.131512
482.000000 57.134000 -7.000000 5.000000 -1.000000 74.732132 -20.252639 1372.122248 1254.152671 17.524659 0.000000 0.118939
483.000000 56.822000 -6.000000 5.000000 -1.000000 66.475531 -19.967742 1366.052979 1439.500038 17.623447 0.000000 0.099228
484.000000 54.144000 -5.000000 5.000000 -1.000000 56.424994 -19.655134 1359.418570 1699.612797 18.497956 0.000000 0.102346
485.000000 47.570000 -4.000000 5.000000 -1.000000 44.141955 -19.310590 1352.136232 2116.136800 21.057142 0.000000 0.208472
486.000000 46.492000 -10.000000 6.000000 -1.000000 83.616548 -21.826188 1406.057730 1070.709068 21.532470 0.000000 0.131598
487.000000 47.481000 -9.000000 6.000000 -1.000000 78.323351 -21.660494 1402.450113 1180.332303 21.085766 0.000000 0.125249
488.000000 47.893000 -8.000000 6.000000 -1.000000 72.148903 -21.482287 1398.579269 1313.496395 20.906644 0.000000 0.113640
489.000000 47.352000 -7.000000 6.000000 -1.000000 64.899843 -21.290096 1394.415297 1482.104916 21.148184 0.000000 0.100645
491.000000 47.610000 -16.000000 1.000000 0.000000 137.051337 -26.793597 1518.524409 -354.331368 21.006817 0.000000 0.108618
492.000000 50.690000 -15.000000 1.000000 0.000000 136.587695 -26.817181 1519.080527 -333.759408 19.730589 0.000000 0.105379
493.000000 54.194000 -14.000000 1.000000 0.000000 136.058109 -26.843540 1519.702334 -310.676849 18.455219 0.000000 0.101678
494.000000 58.214000 -13.000000 1.000000 0.000000 135.447464 -26.873192 1520.402200 -284.590670 17.180909 0.000000 0.097410
495.000000 62.872000 -12.000000 1.000000 0.000000 134.735651 -26.906797 1521.195808 -254.868380 15.907932 0.000000 0.092436
496.000000 68.334000 -11.000000 1.000000 0.000000 133.895330 -26.945202 1522.103344 -220.684241 14.636662 0.000000 0.086573
497.000000 74.822000 -10.000000 1.000000 0.000000 132.888371 -26.989514 1523.151237 -180.938075 13.367627 0.000000 0.079572
498.000000 82.651000 -9.000000 1.000000 0.000000 131.659968 -27.041210 1524.374778 -134.128387 12.101600 0.000000 0.071094
499.000000 92.275000 -8.000000 1.000000 0.000000 130.128457 -27.102302 1525.822169 -78.145730 10.839756 0.000000 0.060679
500.000000 104.368000 -7.000000 1.000000 0.000000 128.166692 -27.175608 1527.561027 -9.918431 9.583971 0.000000 0.047740
501.000000 119.977000 -6.000000 1.000000 0.000000 125.565586 -27.265198 1529.689249 75.236258 8.337445 0.000000 0.031841
502.000000 140.774000 -5.000000 1.000000 0.000000 121.956444 -27.377175 1532.354104 184.910799 7.106106 0.000000 0.016837
503.000000 169.500000 -4.000000 1.000000 0.000000 116.626523 -27.521127 1535.787840 332.557646 5.902325 0.000000 0.031174
504.000000 48.979000 -15.000000 2.000000 0.000000 129.211884 -27.137210 1526.649925 -45.806879 20.421896 0.000000 0.054565
505.000000 55.824000 -13.000000 2.000000 0.000000 126.963982 -27.218046 1528.568727 30.159102 17.918540 0.000000 0.040150
506.000000 64.794000 -11.000000 2.000000 0.000000 123.920058 -27.317894 1530.942664 126.359575 15.438655 0.000000 0.023284
507.000000 76.959000 -9.000000 2.000000 0.000000 119.574231 -27.444355 1533.955463 252.765123 12.999072 0.000000 0.019125
508.000000 94.053000 -7.000000 2.000000 0.000000 112.890621 -27.609701 1537.905112 428.163963 10.637765 0.000000 0.048434
509.000000 105.173000 -6.000000 2.000000 0.000000 108.014003 -27.713027 1540.379320 545.648342 9.513810 0.000000 0.068991
510.000000 118.256000 -5.000000 2.000000 0.000000 101.409568 -27.835122 1543.309036 695.373744 8.462272 0.000000 0.091285
511.000000 132.610000 -4.000000 2.000000 0.000000 92.041325 -27.981611 1546.832801 897.559443 7.547666 0.000000 0.111470
512.000000 144.186000 -3.000000 2.000000 0.000000 77.971243 -28.160613 1551.151681 1201.130175 6.943510 0.000000 0.120906
513.000000 136.616000 -2.000000 2.000000 0.000000 55.471873 -28.384298 1556.569016 1782.682819 7.330879 0.000000 0.163277
514.000000 49.764000 -14.000000 3.000000 0.000000 120.422676 -27.420989 1533.398260 228.970315 20.102536 0.000000 0.017042
515.000000 52.938000 -13.000000 3.000000 0.000000 118.663553 -27.468783 1534.538232 277.876628 18.897759 0.000000 0.022332
516.000000 60.510000 -11.000000 3.000000 0.000000 114.241742 -27.578701 1537.163702 394.224392 16.534359 0.000000 0.042254
517.000000 65.029000 -10.000000 3.000000 0.000000 111.414578 -27.642332 1538.685968 464.501948 15.385934 0.000000 0.054980
518.000000 75.792000 -8.000000 3.000000 0.000000 103.854209 -27.792032 1542.274319 640.944080 13.202828 0.000000 0.083818
519.000000 81.992000 -7.000000 3.000000 0.000000 98.664771 -27.880903 1544.409261 755.441707 12.205740 0.000000 0.098565
520.000000 94.140000 -5.000000 3.000000 0.000000 83.363825 -28.096689 1549.607698 1082.948211 10.633671 0.000000 0.119507
521.000000 96.878000 -4.000000 3.000000 0.000000 71.666907 -28.229447 1552.816331 1345.785020 10.335374 0.000000 0.121971
523.000000 49.684000 -13.000000 4.000000 0.000000 110.624335 -27.659299 1539.092186 483.662960 20.138099 0.000000 0.058376
524.000000 55.739000 -11.000000 4.000000 0.000000 104.978302 -27.771422 1541.779724 615.558118 17.952399 0.000000 0.080073
525.000000 62.697000 -9.000000 4.000000 0.000000 97.163078 -27.904882 1544.985915 787.940076 15.962428 0.000000 0.102061
526.000000 69.646000 -7.000000 4.000000 0.000000 85.771119 -28.066407 1548.876930 1031.189622 14.372964 0.000000 0.118145
527.000000 72.416000 -5.000000 4.000000 0.000000 68.111002 -28.265886 1553.698415 1431.971136 13.827402 0.000000 0.124133
529.000000 46.197000 -13.000000 5.000000 0.000000 102.909303 -27.808960 1542.680724 662.101206 21.661258 0.000000 0.086814
530.000000 48.432000 -12.000000 5.000000 0.000000 99.801974 -27.862252 1543.960917 730.670837 20.663105 0.000000 0.095690
531.000000 50.738000 -11.000000 5.000000 0.000000 96.216226 -27.919638 1545.340896 808.326056 19.725246 0.000000 0.104089
532.000000 55.218000 -9.000000 5.000000 0.000000 87.133466 -28.048742 1548.450824 1002.064646 18.127935 0.000000 0.117103
533.000000 57.025000 -8.000000 5.000000 0.000000 81.304848 -28.121703 1550.211663 1127.635599 17.555232 0.000000 0.120259
534.000000 58.061000 -7.000000 5.000000 0.000000 74.310141 -28.201289 1552.135099 1284.049596 17.244363 0.000000 0.121339
535.000000 57.639000 -6.000000 5.000000 0.000000 65.831989 -28.288443 1554.244745 1489.488027 17.373096 0.000000 0.126865
537.000000 45.728000 -11.000000 6.000000 0.000000 88.009678 -28.037168 1548.171721 983.376142 21.889884 0.000000 0.116320
538.000000 47.797000 -7.000000 6.000000 0.000000 64.247932 -28.303781 1554.616371 1530.690414 20.950883 0.000000 0.129626
553.000000 46.433000 -16.000000 2.000000 1.000000 129.777863 -35.201983 1734.297884 -155.564609 21.541255 0.000000 0.135420
554.000000 49.299000 -15.000000 2.000000 1.000000 128.804204 -35.621147 1746.152042 -123.716359 20.289424 0.000000 0.132666
555.000000 52.529000 -14.000000 2.000000 1.000000 127.690249 -36.081676 1759.320149 -87.934127 19.042169 0.000000 0.129487
556.000000 56.193000 -13.000000 2.000000 1.000000 126.403869 -36.589939 1774.033482 -47.420547 17.800614 0.000000 0.125822
557.000000 60.382000 -12.000000 2.000000 1.000000 124.902490 -37.153672 1790.580987 -1.139740 16.566281 0.000000 0.121615
558.000000 65.205000 -11.000000 2.000000 1.000000 123.128564 -37.782348 1809.328433 52.282664 15.341290 0.000000 0.116848
559.000000 70.803000 -10.000000 2.000000 1.000000 121.002491 -38.487694 1830.745774 114.716659 14.128678 0.000000 0.111600
560.000000 77.352000 -9.000000 2.000000 1.000000 118.411247 -39.284390 1855.447081 188.786008 12.932959 0.000000 0.106200
561.000000 85.064000 -8.000000 2.000000 1.000000 115.189386 -40.191030 1884.250375 278.316320 11.761148 0.000000 0.101561
562.000000 94.168000 -7.000000 2.000000 1.000000 111.086048 -41.231495 1918.269965 389.168578 10.624765 0.000000 0.099894
563.000000 104.839000 -6.000000 2.000000 1.000000 105.705086 -42.436910 1959.063947 530.935984 9.544147 0.000000 0.105800
564.000000 116.922000 -5.000000 2.000000 1.000000 98.391514 -43.848504 2008.879572 720.844503 8.558883 0.000000 0.127066
565.000000 129.021000 -4.000000 2.000000 1.000000 88.008911 -45.521871 2071.081623 994.404869 7.757651 0.000000 0.175496
566.000000 135.501000 -3.000000 2.000000 1.000000 72.509923 -47.533427 2150.945723 1443.324448 7.388487 0.000000 0.277229
568.000000 47.205000 -15.000000 3.000000 1.000000 121.526902 -34.800016 1723.044461 136.944638 21.191891 0.000000 0.067891
569.000000 50.059000 -14.000000 3.000000 1.000000 119.926269 -35.165445 1733.270378 183.129385 19.983858 0.000000 0.061365
570.000000 53.246000 -13.000000 3.000000 1.000000 118.086702 -35.563702 1744.520148 234.929616 18.788263 0.000000 0.054576
571.000000 56.816000 -12.000000 3.000000 1.000000 115.951927 -35.999376 1756.955643 293.520112 17.608525 0.000000 0.048039
572.000000 60.822000 -11.000000 3.000000 1.000000 113.447080 -36.477940 1770.774754 360.459353 16.449445 0.000000 0.042955
573.000000 65.317000 -10.000000 3.000000 1.000000 110.470653 -37.005979 1786.222004 437.875214 15.317980 0.000000 0.041601
574.000000 70.342000 -9.000000 3.000000 1.000000 106.882096 -37.591477 1803.603138 528.778967 14.224602 0.000000 0.046690
575.000000 75.889000 -8.000000 3.000000 1.000000 102.482300 -38.244207 1823.305571 637.630897 13.185849 0.000000 0.059445
576.000000 81.832000 -7.000000 3.000000 1.000000 96.982286 -38.976254 1845.827601 771.443235 12.229451 0.000000 0.079746
577.000000 87.753000 -6.000000 3.000000 1.000000 89.952455 -39.802720 1871.821140 942.162540 11.405730 0.000000 0.108287
578.000000 92.548000 -5.000000 3.000000 1.000000 80.741465 -40.742709 1902.155852 1172.572217 10.816495 0.000000 0.148956
579.000000 93.544000 -4.000000 3.000000 1.000000 68.356969 -41.820708 1938.018351 1514.068025 10.703517 0.000000 0.215489
582.000000 47.267000 -14.000000 4.000000 1.000000 112.369385 -34.459960 1713.609662 403.787000 21.166984 0.000000 0.019717
583.000000 49.926000 -13.000000 4.000000 1.000000 110.024406 -34.782671 1722.561350 463.405988 20.040682 0.000000 0.024395
584.000000 52.819000 -12.000000 4.000000 1.000000 107.319604 -35.131986 1732.330277 530.605485 18.943793 0.000000 0.033466
585.000000 55.947000 -11.000000 4.000000 1.000000 104.169506 -35.511305 1743.033712 607.173708 17.885516 0.000000 0.045454
586.000000 59.286000 -10.000000 4.000000 1.000000 100.461008 -35.924631 1754.812484 695.600638 16.879329 0.000000 0.059722
587.000000 62.762000 -9.000000 4.000000 1.000000 96.042260 -36.376701 1767.837216 799.501035 15.945814 0.000000 0.076185
588.000000 66.205000 -8.000000 4.000000 1.000000 90.706573 -36.873166 1782.316648 924.407341 15.118036 0.000000 0.095196
589.000000 69.260000 -7.000000 4.000000 1.000000 84.169391 -37.420817 1798.508899 1079.388051 14.452706 0.000000 0.117936
590.000000 71.226000 -6.000000 4.000000 1.000000 76.036912 -38.027881 1816.736999 1280.736145 14.055926 0.000000 0.147945
591.000000 70.754000 -5.000000 4.000000 1.000000 65.768824 -38.704420 1837.410654 1561.734222 14.151898 0.000000 0.195859
592.000000 65.411000 -4.000000 4.000000 1.000000 52.652540 -39.462860 1861.057412 2004.843597 15.310646 0.000000 0.292135
594.000000 46.371000 -13.000000 5.000000 1.000000 102.285409 -34.168553 1705.585595 657.719698 21.580148 0.000000 0.055668
595.000000 48.582000 -12.000000 5.000000 1.000000 99.086582 -34.456644 1713.518047 732.237708 20.599138 0.000000 0.067397
596.000000 50.846000 -11.000000 5.000000 1.000000 95.391684 -34.766676 1722.116005 817.342667 19.683038 0.000000 0.079962
597.000000 53.082000 -10.000000 5.000000 1.000000 91.085846 -35.101233 1731.466885 916.065391 18.855373 0.000000 0.093481
598.000000 55.142000 -9.000000 5.000000 1.000000 86.020246 -35.463320 1741.674115 1032.934732 18.152603 0.000000 0.108337
599.000000 56.769000 -8.000000 5.000000 1.000000 80.001295 -35.856447 1752.860979 1175.124186 17.634416 0.000000 0.125694
600.000000 57.522000 -7.000000 5.000000 1.000000 72.777726 -36.284744 1765.175612 1354.885542 17.405749 0.000000 0.148840
601.000000 56.670000 -6.000000 5.000000 1.000000 64.027947 -36.753095 1778.797609 1595.368471 17.669677 0.000000 0.186509
602.000000 53.053000 -5.000000 5.000000 1.000000 53.355309 -37.267321 1793.946830 1947.045350 18.877143 0.000000 0.259379
603.000000 45.747000 -11.000000 6.000000 1.000000 87.172616 -34.175632 1705.779874 1005.249924 21.880284 0.000000 0.105098
604.000000 47.007000 -10.000000 6.000000 1.000000 82.405062 -34.453568 1713.433058 1115.040941 21.295538 0.000000 0.116740
605.000000 47.876000 -9.000000 6.000000 1.000000 76.869282 -34.751878 1721.704164 1246.576020 20.911155 0.000000 0.130509
606.000000 48.072000 -8.000000 6.000000 1.000000 70.397129 -35.072870 1730.671179 1409.354929 20.827979 0.000000 0.149528
607.000000 47.172000 -7.000000 6.000000 1.000000 62.783583 -35.419211 1740.425787 1620.233348 21.228158 0.000000 0.181046
616.000000 47.103000 -15.000000 3.000000 2.000000 120.274967 -42.119501 1948.172131 93.939719 21.237917 0.000000 0.164189
617.000000 49.891000 -14.000000 3.000000 2.000000 118.521034 -42.784603 1971.122319 144.049570 20.051313 0.000000 0.164338
618.000000 52.986000 -13.000000 3.000000 2.000000 116.500990 -43.506598 1996.600702 201.102894 18.880938 0.000000 0.165169
619.000000 56.423000 -12.000000 3.000000 2.000000 114.152172 -44.292850 2025.049392 266.733593 17.731312 0.000000 0.167149
620.000000 60.239000 -11.000000 3.000000 2.000000 111.391546 -45.151997 2057.019962 343.162612 16.608810 0.000000 0.171026
621.000000 64.457000 -10.000000 3.000000 2.000000 108.107182 -46.094223 2093.209568 433.502563 15.522712 0.000000 0.177983
622.000000 69.069000 -9.000000 3.000000 2.000000 104.145423 -47.131600 2134.512363 542.283209 14.487076 0.000000 0.189863
623.000000 73.992000 -8.000000 3.000000 2.000000 99.291315 -48.278510 2182.094376 676.417441 13.524270 0.000000 0.209523
624.000000 78.976000 -7.000000 3.000000 2.000000 93.238609 -49.552185 2237.505344 847.125232 12.672175 0.000000 0.241422
625.000000 83.407000 -6.000000 3.000000 2.000000 85.544508 -50.973377 2302.850693 1074.186391 12.000448 0.000000 0.292932
629.000000 49.652000 -13.000000 4.000000 2.000000 108.588256 -41.811285 1937.699686 455.362328 20.151318 0.000000 0.101490
630.000000 55.372000 -11.000000 4.000000 2.000000 102.345890 -43.113859 1982.666809 618.295554 18.071625 0.000000 0.113899
631.000000 61.580000 -9.000000 4.000000 2.000000 93.683485 -44.648273 2038.160458 843.606173 16.252004 0.000000 0.146868
632.000000 66.829000 -7.000000 4.000000 2.000000 81.080158 -46.479546 2108.366917 1186.311896 14.978682 0.000000 0.216596
634.000000 46.086000 -13.000000 5.000000 2.000000 100.965591 -40.467218 1893.177682 666.886049 21.713416 0.000000 0.080982
635.000000 48.179000 -12.000000 5.000000 2.000000 97.615886 -40.978114 1909.886771 750.377935 20.771179 0.000000 0.092932
636.000000 50.284000 -11.000000 5.000000 2.000000 93.747521 -41.526530 1928.113561 846.833970 19.903346 0.000000 0.108641
637.000000 52.300000 -10.000000 5.000000 2.000000 89.242537 -42.116647 1948.074673 960.183116 19.137355 0.000000 0.128813
638.000000 54.060000 -9.000000 5.000000 2.000000 83.949596 -42.753267 1970.030007 1096.362903 18.516021 0.000000 0.154737
639.000000 55.278000 -8.000000 5.000000 2.000000 77.674474 -43.441935 1994.294128 1264.897065 18.110078 0.000000 0.188864
640.000000 55.483000 -7.000000 5.000000 2.000000 70.169807 -44.189081 2021.251429 1482.292969 18.045351 0.000000 0.236054
641.000000 53.924000 -6.000000 5.000000 2.000000 61.127545 -45.002192 2051.376648 1780.327463 18.569368 0.000000 0.306339
643.000000 46.895000 -9.000000 6.000000 2.000000 75.025082 -41.262668 1919.305808 1323.984622 21.348567 0.000000 0.177303
653.000000 46.472000 -14.000000 4.000000 3.000000 109.077310 -47.744680 2159.686549 387.455420 21.529760 0.000000 0.217919
654.000000 48.861000 -13.000000 4.000000 3.000000 106.363453 -48.545587 2193.481503 463.638439 20.477822 0.000000 0.227748
655.000000 51.392000 -12.000000 4.000000 3.000000 103.232543 -49.405465 2230.976525 552.054421 19.470530 0.000000 0.241185
656.000000 54.026000 -11.000000 4.000000 3.000000 99.589168 -50.330645 2272.814465 656.155508 18.522271 0.000000 0.259656
657.000000 56.686000 -10.000000 4.000000 3.000000 95.309601 -51.328314 2319.796243 780.920620 17.654356 0.000000 0.285205
658.000000 59.222000 -9.000000 4.000000 3.000000 90.232215 -52.406658 2372.932622 933.849552 16.899757 0.000000 0.320838
664.000000 47.230000 -12.000000 5.000000 3.000000 95.434386 -47.265790 2139.972519 790.113224 21.189259 0.000000 0.189422
665.000000 49.064000 -11.000000 5.000000 3.000000 91.341700 -48.021124 2171.232533 903.311390 20.398569 0.000000 0.211002
666.000000 50.728000 -10.000000 5.000000 3.000000 86.587302 -48.830191 2205.748972 1038.499219 19.730826 0.000000 0.239989
667.000000 52.030000 -9.000000 5.000000 3.000000 81.021377 -49.698574 2244.058639 1203.916428 19.238765 0.000000 0.279072
668.000000 52.661000 -8.000000 5.000000 3.000000 74.456089 -50.632600 2286.823184 1412.978058 19.010317 0.000000 0.332576
#UB matrix in q= (UB) B0 G* 
#[[ 0.951068596  0.308352607 -0.013699287]
# [ 0.137265923 -0.462339284 -0.876950056]
# [-0.276815086  0.832559191 -0.482268792]]
#B0 matrix in q= UB (B0) G*
#[[ 0.19670273 -0.          0.03056101]
# [ 0.          0.19187965 -0.        ]
# [ 0.          0.          0.18806537]]
#UBB0 matrix in q= (UB B0) G* i.e. recip. basis vectors are columns in LT frame: astar = UBB0[:,0], bstar = UBB0[:,1], cstar = UBB0[:,2]. (abcstar as columns on xyzlab1, xlab1 = ui, ui = unit vector along incident beam)
#[[ 0.18707779  0.05916659  0.02648925]
# [ 0.02700058 -0.0887135  -0.16072895]
# [-0.05445028  0.15975117 -0.09915781]]
#Euler angles phi theta psi (deg)
#[198.412 118.788 179.105]
#deviatoric strain in direct crystal frame (10-3 unit)
#[[-0.45  0.3   0.19]
# [ 0.3  -1.44  0.37]
# [ 0.19  0.37  1.89]]
#deviatoric strain in sample2 frame (10-3 unit)
#[[-0.79  0.67 -0.33]
# [ 0.67  1.35  1.11]
# [-0.33  1.12 -0.56]]
#new lattice parameters
#[ 5.1505     5.2064558  5.3125315 89.9832441 99.2270749 89.9651782]
#CCDLabel
#sCMOS
#DetectorParameters
#[79.0, 975.0, 941.0, 0.0, 0.0]
#pixelsize
#0.0734
#Frame dimensions
#[2018, 2016]
#
