#Strain and Orientation Refinement from experimental file: /home/micha/LaueProjects/DepthEffects/testZrO2_89.cor
#File created at Wed Jun 28 14:23:49 2023 with indexingSpotsSet.py
#Number of indexed spots: 523
#Element
#ZrO2
#grainIndex
#G_0
#Mean Deviation(pixel): 0.114
##spot_index intensity h k l 2theta Chi Xexp Yexp Energy GrainIndex PixDev
3.000000 49.593000 4.000000 -6.000000 -1.000000 50.600966 -27.864633 1544.018140 1940.992523 20.177518 0.000000 0.176273
4.000000 47.092000 5.000000 -6.000000 -1.000000 52.168346 -20.937009 1386.793610 1835.898939 21.249679 0.000000 0.122175
7.000000 56.502000 3.000000 -5.000000 -1.000000 46.472664 -31.003751 1621.798753 2133.744649 17.710608 0.000000 0.233161
8.000000 54.129000 4.000000 -5.000000 -1.000000 49.002064 -22.431341 1419.305409 1953.119859 18.487624 0.000000 0.154740
9.000000 50.266000 5.000000 -5.000000 -1.000000 50.349836 -15.257946 1268.591868 1865.566662 19.908749 0.000000 0.108417
10.000000 45.967000 6.000000 -5.000000 -1.000000 50.934951 -9.341400 1152.048599 1826.331668 21.770985 0.000000 0.082612
13.000000 62.440000 3.000000 -4.000000 -1.000000 44.018849 -24.683672 1469.668503 2166.807256 16.027358 0.000000 0.215502
14.000000 58.125000 4.000000 -4.000000 -1.000000 46.417292 -15.632448 1276.163916 2004.666887 17.217658 0.000000 0.150464
15.000000 52.550000 5.000000 -4.000000 -1.000000 47.563074 -8.471150 1135.299255 1935.918903 19.044392 0.000000 0.119925
16.000000 47.034000 6.000000 -4.000000 -1.000000 47.997132 -2.827984 1028.166520 1911.379038 21.278159 0.000000 0.111324
19.000000 66.760000 3.000000 -3.000000 -1.000000 39.899655 -16.229489 1288.293180 2281.675228 14.991338 0.000000 0.236093
20.000000 60.069000 4.000000 -3.000000 -1.000000 42.290847 -7.158883 1110.182960 2133.507978 16.661504 0.000000 0.192008
21.000000 52.855000 5.000000 -3.000000 -1.000000 43.420725 -0.469980 983.828722 2078.363203 18.935700 0.000000 0.178832
22.000000 46.422000 6.000000 -3.000000 -1.000000 43.912343 4.540242 889.533140 2062.472294 21.559668 0.000000 0.180774
27.000000 45.458000 1.000000 -3.000000 0.000000 61.892205 -45.298324 2062.560999 1758.263499 7.335869 0.000000 0.283310
30.000000 51.114000 3.000000 -8.000000 0.000000 62.805830 -42.828215 1972.644388 1695.029611 19.572474 0.000000 0.243120
31.000000 50.157000 2.000000 -4.000000 0.000000 64.863167 -35.730885 1749.275976 1563.119281 9.972958 0.000000 0.164906
32.000000 48.211000 5.000000 -8.000000 0.000000 66.023783 -29.216880 1576.936741 1489.434646 20.751414 0.000000 0.126079
33.000000 45.672000 3.000000 -4.000000 0.000000 66.482440 -23.363159 1439.932702 1451.210629 10.952856 0.000000 0.105937
36.000000 58.117000 3.000000 -7.000000 0.000000 63.808747 -39.723404 1869.299637 1629.300368 17.214067 0.000000 0.202982
37.000000 56.160000 4.000000 -7.000000 0.000000 65.624023 -31.930420 1645.727268 1515.631661 17.814278 0.000000 0.139463
38.000000 53.072000 5.000000 -7.000000 0.000000 66.411477 -24.966741 1476.123863 1459.408424 18.851274 0.000000 0.110598
39.000000 49.447000 6.000000 -7.000000 0.000000 66.462340 -18.878768 1343.052368 1436.481783 20.233882 0.000000 0.094700
40.000000 45.697000 2.000000 -2.000000 0.000000 66.028646 -13.623843 1235.857129 1433.407288 6.255615 0.000000 0.082441
42.000000 63.218000 2.000000 -3.000000 0.000000 66.244820 -27.190671 1527.918620 1473.548482 7.912835 0.000000 0.118019
43.000000 58.413000 5.000000 -6.000000 0.000000 66.493595 -19.833655 1363.204077 1438.648858 17.127895 0.000000 0.096954
44.000000 48.403000 7.000000 -6.000000 0.000000 65.161761 -8.427294 1134.457250 1444.627586 20.671260 0.000000 0.069062
46.000000 81.635000 2.000000 -5.000000 0.000000 63.297406 -41.368556 1922.831766 1662.385103 12.254828 0.000000 0.222943
47.000000 77.856000 3.000000 -5.000000 0.000000 65.854229 -30.468193 1608.181237 1500.781729 12.850050 0.000000 0.131836
48.000000 71.303000 4.000000 -5.000000 0.000000 66.512962 -21.210157 1392.686552 1442.680574 14.031510 0.000000 0.100305
49.000000 56.960000 6.000000 -5.000000 0.000000 64.959843 -7.495300 1116.607007 1448.136136 17.565937 0.000000 0.066444
50.000000 50.692000 7.000000 -5.000000 0.000000 63.648551 -2.546874 1022.874250 1474.668001 19.738396 0.000000 0.051663
51.000000 69.144000 5.000000 -4.000000 0.000000 64.645327 -6.158245 1091.129414 1453.979255 14.470707 0.000000 0.062572
52.000000 59.845000 3.000000 -2.000000 0.000000 62.964763 -0.433711 983.147358 1490.249094 8.359853 0.000000 0.045434
53.000000 52.158000 7.000000 -4.000000 0.000000 61.280239 4.012984 899.493069 1532.185924 19.184520 0.000000 0.037061
54.000000 45.870000 2.000000 -1.000000 0.000000 59.709947 7.527504 832.777529 1575.150001 5.453626 0.000000 0.042290
55.000000 87.813000 4.000000 -3.000000 0.000000 64.098596 -4.081875 1051.807516 1464.982170 11.394333 0.000000 0.056341
56.000000 72.736000 5.000000 -3.000000 0.000000 61.832583 2.649071 925.202038 1517.932664 13.756820 0.000000 0.038401
57.000000 52.286000 7.000000 -3.000000 0.000000 57.852551 11.176944 762.338045 1630.478003 19.138065 0.000000 0.061262
58.000000 72.946000 5.000000 -2.000000 0.000000 57.025575 12.669483 733.048916 1656.696987 13.717961 0.000000 0.072141
59.000000 59.929000 3.000000 -1.000000 0.000000 54.904735 16.211850 662.066194 1728.618290 8.348925 0.000000 0.103916
60.000000 50.559000 7.000000 -2.000000 0.000000 53.225323 18.782500 608.966327 1790.676616 19.792881 0.000000 0.132041
61.000000 87.132000 4.000000 -1.000000 0.000000 51.876911 20.725842 567.747440 1844.065433 11.484907 0.000000 0.156275
62.000000 67.868000 5.000000 -1.000000 0.000000 49.864912 23.459475 507.918825 1930.217926 14.745037 0.000000 0.195147
63.000000 55.357000 6.000000 -1.000000 0.000000 48.446364 25.284843 466.586324 1996.106285 18.077559 0.000000 0.224582
64.000000 46.641000 7.000000 -1.000000 0.000000 47.397181 26.587693 436.321100 2047.850016 21.455974 0.000000 0.247495
69.000000 46.712000 3.000000 -10.000000 1.000000 71.813144 -47.886651 2165.600727 1468.280423 21.413459 0.000000 0.269402
70.000000 46.207000 4.000000 -10.000000 1.000000 73.709449 -41.623307 1931.361997 1361.770616 21.647586 0.000000 0.176869
73.000000 52.448000 3.000000 -9.000000 1.000000 73.700169 -45.825844 2082.777006 1392.647838 19.070950 0.000000 0.226606
74.000000 51.407000 4.000000 -9.000000 1.000000 75.433531 -38.950906 1845.040002 1300.632980 19.457360 0.000000 0.149459
75.000000 49.548000 5.000000 -9.000000 1.000000 76.308235 -32.536840 1661.648385 1252.025070 20.187705 0.000000 0.123774
76.000000 47.165000 6.000000 -9.000000 1.000000 76.493460 -26.681275 1515.878979 1230.334166 21.208318 0.000000 0.120323
79.000000 59.532000 3.000000 -8.000000 1.000000 75.895381 -43.252744 1987.573716 1312.309222 16.801237 0.000000 0.183926
80.000000 57.623000 4.000000 -8.000000 1.000000 77.334893 -35.671624 1747.587919 1238.726414 17.358114 0.000000 0.128706
81.000000 54.769000 5.000000 -8.000000 1.000000 77.781704 -28.753922 1565.571125 1206.842902 18.263061 0.000000 0.120255
82.000000 51.407000 6.000000 -8.000000 1.000000 77.491057 -22.589331 1422.782946 1199.626310 19.458162 0.000000 0.123172
83.000000 47.868000 7.000000 -8.000000 1.000000 76.698218 -17.180876 1307.775116 1207.345665 20.897675 0.000000 0.124610
85.000000 69.911000 2.000000 -7.000000 1.000000 76.019114 -49.092481 2217.178667 1350.212864 14.306544 0.000000 0.271390
86.000000 68.398000 3.000000 -7.000000 1.000000 78.450236 -39.964775 1876.991134 1227.974020 14.623204 0.000000 0.145127
87.000000 65.068000 4.000000 -7.000000 1.000000 79.387456 -31.583165 1636.704791 1177.731338 15.371855 0.000000 0.119044
88.000000 60.729000 5.000000 -7.000000 1.000000 79.207899 -24.166413 1457.947660 1165.867677 16.470647 0.000000 0.123994
89.000000 56.016000 6.000000 -7.000000 1.000000 78.288419 -17.761796 1319.768824 1175.284341 17.857177 0.000000 0.128307
90.000000 51.344000 7.000000 -7.000000 1.000000 76.933762 -12.304549 1209.759626 1196.666055 19.483041 0.000000 0.127266
91.000000 46.943000 8.000000 -7.000000 1.000000 75.360708 -7.678149 1120.102752 1224.685445 21.310116 0.000000 0.122022
93.000000 83.092000 2.000000 -6.000000 1.000000 79.477806 -46.114206 2093.990397 1229.378453 12.036579 0.000000 0.204928
94.000000 79.612000 3.000000 -6.000000 1.000000 81.397975 -35.650093 1746.975220 1141.362810 12.562880 0.000000 0.118467
95.000000 73.934000 4.000000 -6.000000 1.000000 81.503337 -26.405610 1509.408476 1120.518676 13.528313 0.000000 0.122506
96.000000 67.389000 5.000000 -6.000000 1.000000 80.430387 -18.568937 1336.563559 1132.419534 14.842876 0.000000 0.132117
97.000000 60.847000 6.000000 -6.000000 1.000000 78.710452 -12.070731 1205.162484 1160.718582 16.439589 0.000000 0.133042
98.000000 54.761000 7.000000 -6.000000 1.000000 76.706886 -6.724135 1101.895181 1197.049870 18.267576 0.000000 0.127475
99.000000 49.311000 8.000000 -6.000000 1.000000 74.638849 -2.319746 1018.599964 1236.918347 20.287497 0.000000 0.118358
101.000000 101.142000 2.000000 -5.000000 1.000000 83.839403 -41.906916 1940.938148 1097.099557 9.888019 0.000000 0.139282
102.000000 93.845000 3.000000 -5.000000 1.000000 84.697818 -29.820450 1591.909788 1056.130849 10.657179 0.000000 0.115200
103.000000 84.271000 4.000000 -5.000000 1.000000 83.466377 -19.765762 1361.763417 1071.985356 11.868647 0.000000 0.135147
104.000000 74.514000 5.000000 -5.000000 1.000000 81.174324 -11.736218 1198.599449 1111.681256 13.423702 0.000000 0.140118
105.000000 65.590000 6.000000 -5.000000 1.000000 78.499033 -5.407956 1076.890552 1160.972578 15.250968 0.000000 0.134265
106.000000 57.833000 7.000000 -5.000000 1.000000 75.806449 -0.405573 982.618763 1213.222238 17.297559 0.000000 0.123240
107.000000 51.242000 8.000000 -5.000000 1.000000 73.266620 3.591474 907.446095 1265.224119 19.523455 0.000000 0.110585
108.000000 45.687000 9.000000 -5.000000 1.000000 70.943972 6.829254 846.102296 1315.432115 21.897815 0.000000 0.098518
109.000000 134.149000 1.000000 -4.000000 1.000000 86.274684 -52.391055 2372.145313 1055.832006 7.454433 0.000000 0.311682
110.000000 126.457000 2.000000 -4.000000 1.000000 89.328162 -35.603988 1745.664335 956.522811 7.907981 0.000000 0.096687
111.000000 111.614000 3.000000 -4.000000 1.000000 88.085812 -21.721797 1403.783873 979.720660 8.960255 0.000000 0.134165
112.000000 95.697000 4.000000 -4.000000 1.000000 84.814687 -11.218160 1188.466537 1040.574796 10.451526 0.000000 0.148538
113.000000 81.493000 5.000000 -4.000000 1.000000 80.994864 -3.477741 1040.409292 1111.881848 12.274245 0.000000 0.142658
114.000000 69.694000 6.000000 -4.000000 1.000000 77.305529 2.269051 932.353849 1183.634500 14.353338 0.000000 0.128798
115.000000 60.139000 7.000000 -4.000000 1.000000 73.984333 6.623656 850.018150 1252.016902 16.634815 0.000000 0.113288
116.000000 52.437000 8.000000 -4.000000 1.000000 71.076079 10.001255 785.195974 1315.693868 19.078849 0.000000 0.099562
117.000000 46.200000 9.000000 -4.000000 1.000000 68.553179 12.680243 732.836570 1374.380054 21.655423 0.000000 0.089689
118.000000 185.341000 1.000000 -3.000000 1.000000 95.996526 -47.097714 2133.137928 774.922752 5.394677 0.000000 0.175759
119.000000 162.022000 2.000000 -3.000000 1.000000 95.878564 -25.479893 1487.902468 818.242967 6.171587 0.000000 0.115540
120.000000 132.374000 3.000000 -3.000000 1.000000 90.719070 -10.308614 1170.762986 927.270026 7.554888 0.000000 0.156982
121.000000 106.818000 4.000000 -3.000000 1.000000 84.683157 -0.383108 982.196737 1041.166163 9.363553 0.000000 0.152329
122.000000 87.118000 5.000000 -3.000000 1.000000 79.258600 6.246484 857.193448 1146.392908 11.482092 0.000000 0.134234
123.000000 72.316000 6.000000 -3.000000 1.000000 74.722136 10.873765 768.249433 1240.369020 13.833353 0.000000 0.115175
124.000000 61.137000 7.000000 -3.000000 1.000000 70.992879 14.246372 701.728623 1323.511022 16.363832 0.000000 0.100635
125.000000 52.559000 8.000000 -3.000000 1.000000 67.921742 16.797408 650.100735 1397.019255 19.035261 0.000000 0.093158
126.000000 45.854000 9.000000 -3.000000 1.000000 65.371009 18.787199 608.867851 1462.193430 21.819542 0.000000 0.093025
127.000000 152.119000 3.000000 -2.000000 1.000000 90.561440 5.329360 874.598899 930.407291 6.574288 0.000000 0.159041
128.000000 114.468000 4.000000 -2.000000 1.000000 81.755204 12.694556 732.554071 1100.863230 8.738126 0.000000 0.135891
129.000000 89.498000 5.000000 -2.000000 1.000000 75.248462 17.167351 642.503229 1237.610503 11.177359 0.000000 0.114791
130.000000 72.411000 6.000000 -2.000000 1.000000 70.382931 20.138352 580.315107 1349.592172 13.815862 0.000000 0.104253
131.000000 60.258000 7.000000 -2.000000 1.000000 66.653483 22.244787 534.790705 1442.916985 16.603202 0.000000 0.105172
132.000000 51.297000 8.000000 -2.000000 1.000000 63.722357 23.812212 500.023621 1521.861967 19.504638 0.000000 0.114106
133.000000 160.091000 3.000000 -1.000000 1.000000 84.310993 24.451524 485.603765 1058.783698 6.247400 0.000000 0.119577
134.000000 113.776000 4.000000 -1.000000 1.000000 74.716207 27.099211 424.251093 1271.383390 8.791991 0.000000 0.117266
135.000000 86.526000 5.000000 -1.000000 1.000000 68.478820 28.629504 387.466134 1424.542978 11.562062 0.000000 0.128342
136.000000 69.058000 6.000000 -1.000000 1.000000 64.131915 29.625181 362.953920 1541.360181 14.487566 0.000000 0.146192
137.000000 57.093000 7.000000 -1.000000 1.000000 60.940332 30.324351 345.450626 1633.862485 17.524750 0.000000 0.165497
138.000000 48.466000 8.000000 -1.000000 1.000000 58.502020 30.842154 332.326123 1709.128207 20.644871 0.000000 0.183942
145.000000 46.183000 3.000000 -11.000000 2.000000 79.798614 -50.243299 2268.795382 1243.852272 21.655679 0.000000 0.279206
146.000000 45.690000 4.000000 -11.000000 2.000000 81.530482 -44.205109 2021.837216 1164.572950 21.889315 0.000000 0.171289
147.000000 51.492000 3.000000 -10.000000 2.000000 82.266809 -48.536375 2193.086739 1161.730734 19.422031 0.000000 0.234709
148.000000 48.978000 5.000000 -10.000000 2.000000 84.603743 -35.632158 1746.465101 1066.088686 20.419462 0.000000 0.110088
150.000000 57.937000 3.000000 -9.000000 2.000000 85.134660 -46.421053 2106.052231 1073.900101 17.260867 0.000000 0.188092
151.000000 56.353000 4.000000 -9.000000 2.000000 86.433107 -39.097429 1849.600432 1027.448320 17.746191 0.000000 0.112329
152.000000 53.985000 5.000000 -9.000000 2.000000 86.789895 -32.289753 1655.135626 1012.407195 18.524968 0.000000 0.107319
153.000000 51.139000 6.000000 -9.000000 2.000000 86.413687 -26.114407 1502.606759 1016.125624 19.556605 0.000000 0.122819
154.000000 48.066000 7.000000 -9.000000 2.000000 85.511101 -20.610102 1379.769016 1031.274158 20.807663 0.000000 0.135568
155.000000 65.846000 3.000000 -8.000000 2.000000 88.483678 -43.739367 2004.944895 980.433751 15.187059 0.000000 0.140782
156.000000 59.735000 5.000000 -8.000000 2.000000 89.091391 -28.229719 1552.822891 960.373904 16.741594 0.000000 0.114665
157.000000 51.774000 7.000000 -8.000000 2.000000 86.588559 -16.074882 1285.145293 1007.770011 19.317353 0.000000 0.144959
159.000000 78.174000 2.000000 -7.000000 2.000000 90.614298 -50.173126 2265.577157 922.982041 12.791231 0.000000 0.246856
160.000000 75.640000 3.000000 -7.000000 2.000000 92.400084 -40.246928 1886.051311 881.896600 13.219841 0.000000 0.097171
161.000000 71.396000 4.000000 -7.000000 2.000000 92.508026 -31.180647 1626.330199 885.896657 14.006020 0.000000 0.098548
162.000000 66.266000 5.000000 -7.000000 2.000000 91.418318 -23.250286 1437.418875 911.996197 15.091132 0.000000 0.128976
163.000000 60.874000 6.000000 -7.000000 2.000000 89.588153 -16.500993 1293.833177 949.068954 16.428698 0.000000 0.146525
164.000000 55.620000 7.000000 -7.000000 2.000000 87.371164 -10.835633 1181.007909 991.314125 17.981400 0.000000 0.152985
165.000000 50.722000 8.000000 -7.000000 2.000000 85.007246 -6.099580 1090.014705 1035.561741 19.718928 0.000000 0.152338
166.000000 46.272000 9.000000 -7.000000 2.000000 82.644458 -2.132418 1015.075715 1080.033352 21.616412 0.000000 0.147422
168.000000 87.828000 3.000000 -6.000000 2.000000 96.948004 -35.553324 1744.225568 779.784360 11.384544 0.000000 0.071234
169.000000 73.521000 5.000000 -6.000000 2.000000 93.590638 -17.106218 1306.239228 870.335747 13.601475 0.000000 0.145481
170.000000 59.430000 7.000000 -6.000000 2.000000 87.673241 -4.824695 1065.846135 984.887436 16.828804 0.000000 0.157648
171.000000 48.137000 9.000000 -6.000000 2.000000 81.862744 3.246832 913.943279 1095.140881 20.779193 0.000000 0.143928
173.000000 111.887000 2.000000 -5.000000 2.000000 102.731116 -42.582743 1964.105201 610.744196 8.935427 0.000000 0.099645
174.000000 102.911000 3.000000 -5.000000 2.000000 102.089813 -29.021380 1572.124799 677.359624 9.715217 0.000000 0.082484
175.000000 92.047000 4.000000 -5.000000 2.000000 99.180292 -18.033264 1325.400167 758.072293 10.862840 0.000000 0.137979
176.000000 81.240000 5.000000 -5.000000 2.000000 95.282136 -9.536347 1155.811860 840.099270 12.308905 0.000000 0.159109
177.000000 71.431000 6.000000 -5.000000 2.000000 91.178223 -3.035567 1032.076163 918.832993 14.000441 0.000000 0.162352
178.000000 62.917000 7.000000 -5.000000 2.000000 87.253523 1.978917 937.811498 992.662602 15.896314 0.000000 0.156762
179.000000 55.678000 8.000000 -5.000000 2.000000 83.661747 5.908769 863.609322 1061.189948 17.964093 0.000000 0.147100
180.000000 49.573000 9.000000 -5.000000 2.000000 80.441228 9.044187 803.680766 1124.526741 20.177866 0.000000 0.136024
182.000000 137.410000 2.000000 -4.000000 2.000000 111.091184 -35.435317 1740.881442 431.510378 7.274797 0.000000 0.023391
183.000000 121.051000 3.000000 -4.000000 2.000000 107.472771 -19.630490 1358.896650 581.301899 8.258726 0.000000 0.113590
184.000000 104.012000 4.000000 -4.000000 2.000000 101.836899 -8.296374 1131.944791 713.041304 9.612799 0.000000 0.155505
185.000000 88.795000 5.000000 -4.000000 2.000000 95.960902 -0.349485 981.565110 828.617343 11.261508 0.000000 0.164272
186.000000 65.665000 7.000000 -4.000000 2.000000 85.830526 9.514100 794.617819 1020.555910 15.231203 0.000000 0.148204
187.000000 50.373000 9.000000 -4.000000 2.000000 78.257508 15.179373 682.993358 1172.810068 19.857678 0.000000 0.124326
189.000000 170.170000 2.000000 -3.000000 2.000000 120.799336 -23.025795 1432.431790 243.876074 5.873451 0.000000 0.042686
190.000000 141.166000 3.000000 -3.000000 2.000000 111.938316 -5.982887 1087.798074 505.121974 7.081418 0.000000 0.134629
191.000000 115.466000 4.000000 -3.000000 2.000000 102.773747 4.104696 897.761594 696.362980 8.659098 0.000000 0.156706
192.000000 95.015000 5.000000 -3.000000 2.000000 94.882797 10.405562 777.355034 847.517132 10.524396 0.000000 0.154358
193.000000 79.261000 6.000000 -3.000000 2.000000 88.405320 14.620511 694.234867 971.966340 12.617849 0.000000 0.143721
194.000000 67.148000 7.000000 -3.000000 2.000000 83.128155 17.608505 633.403493 1077.085489 14.895325 0.000000 0.131578
195.000000 57.741000 8.000000 -3.000000 2.000000 78.802838 19.826130 586.955656 1167.481002 17.323388 0.000000 0.121150
196.000000 50.328000 9.000000 -3.000000 2.000000 75.220087 21.532581 550.329244 1246.270719 19.876238 0.000000 0.114001
197.000000 159.166000 3.000000 -2.000000 2.000000 112.820515 12.744354 731.570949 476.674929 6.280413 0.000000 0.115028
198.000000 123.504000 4.000000 -2.000000 2.000000 100.442420 18.805898 608.475906 731.452780 8.095716 0.000000 0.127144
199.000000 98.157000 5.000000 -2.000000 2.000000 91.247032 22.247741 534.725912 915.686508 10.187980 0.000000 0.124722
200.000000 66.811000 7.000000 -2.000000 2.000000 78.953245 25.979264 450.538295 1174.740937 14.971207 0.000000 0.116572
201.000000 49.260000 9.000000 -2.000000 2.000000 71.294051 27.954813 403.812539 1353.569718 20.308049 0.000000 0.121490
202.000000 166.512000 3.000000 -1.000000 2.000000 106.471916 34.232805 242.649966 556.076125 6.003787 0.000000 0.040126
203.000000 124.045000 4.000000 -1.000000 2.000000 93.498120 34.254759 242.046474 861.399154 8.061066 0.000000 0.086044
204.000000 96.335000 5.000000 -1.000000 2.000000 84.571736 34.266993 241.710023 1064.756841 10.381571 0.000000 0.112103
205.000000 77.536000 6.000000 -1.000000 2.000000 78.126287 34.274793 241.495478 1214.850250 12.900138 0.000000 0.129681
206.000000 64.240000 7.000000 -1.000000 2.000000 73.281868 34.280199 241.346746 1332.235391 15.571473 0.000000 0.144236
207.000000 54.477000 8.000000 -1.000000 2.000000 69.520244 34.284167 241.237572 1427.504828 18.363114 0.000000 0.157564
208.000000 47.076000 9.000000 -1.000000 2.000000 66.520861 34.287203 241.154025 1506.851524 21.251189 0.000000 0.170154
210.000000 114.064000 4.000000 0.000000 2.000000 81.971075 48.397009 -237.131984 1169.652669 8.767775 0.000000 0.278731
211.000000 88.540000 5.000000 0.000000 2.000000 75.086276 45.472839 -119.206954 1349.779937 11.296829 0.000000 0.256443
212.000000 71.413000 6.000000 0.000000 2.000000 70.082608 43.545201 -47.980092 1479.032446 14.007445 0.000000 0.254395
213.000000 59.356000 7.000000 0.000000 2.000000 66.308011 42.181684 -0.297275 1578.339259 16.853938 0.000000 0.258219
214.000000 50.515000 8.000000 0.000000 2.000000 63.370002 41.167317 33.859500 1657.896697 19.804763 0.000000 0.263993
220.000000 49.434000 3.000000 -11.000000 3.000000 89.065650 -50.988639 2303.574015 968.885489 20.228331 0.000000 0.269177
221.000000 48.681000 4.000000 -11.000000 3.000000 90.564596 -44.616199 2036.970695 926.100033 20.541044 0.000000 0.145406
222.000000 47.381000 5.000000 -11.000000 3.000000 91.313348 -38.508605 1831.387084 909.466527 21.104964 0.000000 0.093214
223.000000 45.679000 6.000000 -11.000000 3.000000 91.419917 -32.777462 1668.025270 909.269421 21.891695 0.000000 0.095893
225.000000 55.048000 3.000000 -10.000000 3.000000 92.278225 -49.264393 2224.735712 875.384366 18.164550 0.000000 0.223829
226.000000 53.812000 4.000000 -10.000000 3.000000 93.548092 -42.224563 1951.765147 850.879399 18.581718 0.000000 0.109318
227.000000 51.934000 5.000000 -10.000000 3.000000 93.940555 -35.574179 1744.817595 849.847851 19.253854 0.000000 0.081912
228.000000 49.624000 6.000000 -10.000000 3.000000 93.618608 -29.442946 1582.523970 862.839612 20.150777 0.000000 0.102949
229.000000 47.066000 7.000000 -10.000000 3.000000 92.755625 -23.895149 1451.838950 884.339492 21.246887 0.000000 0.125761
231.000000 59.825000 4.000000 -9.000000 3.000000 96.895979 -39.263672 1854.797666 772.875120 16.713179 0.000000 0.076863
232.000000 57.134000 5.000000 -9.000000 3.000000 96.774889 -32.010976 1647.830043 790.209907 17.500792 0.000000 0.083754
233.000000 50.688000 7.000000 -9.000000 3.000000 94.444707 -19.711571 1360.614389 852.131344 19.728082 0.000000 0.137986
234.000000 47.354000 8.000000 -9.000000 3.000000 92.673677 -14.677010 1256.898974 889.043436 21.117883 0.000000 0.150932
236.000000 69.907000 3.000000 -8.000000 3.000000 100.315880 -44.302693 2025.410370 667.261047 14.301751 0.000000 0.125398
237.000000 66.873000 4.000000 -8.000000 3.000000 100.626802 -35.526065 1743.452234 692.866016 14.950972 0.000000 0.057079
238.000000 63.035000 5.000000 -8.000000 3.000000 99.770960 -27.631362 1538.423406 731.793394 15.861802 0.000000 0.096972
239.000000 58.818000 6.000000 -8.000000 3.000000 98.114311 -20.742918 1382.619309 776.909861 17.000045 0.000000 0.130539
240.000000 54.531000 7.000000 -8.000000 3.000000 95.973737 -14.841959 1260.212595 824.488408 18.337219 0.000000 0.149654
241.000000 50.380000 8.000000 -8.000000 3.000000 93.588482 -9.830812 1161.504419 872.496634 19.849406 0.000000 0.158766
242.000000 46.479000 9.000000 -8.000000 3.000000 91.122817 -5.583569 1080.219969 919.804754 21.516373 0.000000 0.161341
244.000000 79.744000 3.000000 -7.000000 3.000000 105.330132 -40.581133 1896.881175 552.514321 12.536501 0.000000 0.073783
245.000000 75.088000 4.000000 -7.000000 3.000000 104.714653 -30.708585 1614.274927 612.245979 13.314410 0.000000 0.062716
246.000000 69.641000 5.000000 -7.000000 3.000000 102.819886 -22.191858 1414.049154 676.484921 14.356604 0.000000 0.115480
247.000000 63.985000 6.000000 -7.000000 3.000000 100.178848 -15.068160 1264.764930 740.873356 15.626638 0.000000 0.144880
248.000000 58.495000 7.000000 -7.000000 3.000000 97.191289 -9.192413 1149.175370 803.431938 17.094474 0.000000 0.158868
249.000000 53.376000 8.000000 -7.000000 3.000000 94.118510 -4.358363 1057.029590 863.276012 18.735133 0.000000 0.163483
250.000000 48.718000 9.000000 -7.000000 3.000000 91.114662 -0.364757 981.852003 920.058152 20.527672 0.000000 0.162399
251.000000 96.943000 2.000000 -6.000000 3.000000 110.925178 -48.305614 2183.244552 322.290853 10.311226 0.000000 0.232552
252.000000 84.520000 4.000000 -6.000000 3.000000 109.031367 -24.372643 1462.609236 533.419716 11.827786 0.000000 0.085324
253.000000 76.847000 5.000000 -6.000000 3.000000 105.702357 -15.397497 1271.410241 627.154697 13.009743 0.000000 0.133297
254.000000 62.400000 7.000000 -6.000000 3.000000 97.886807 -2.697958 1025.718309 791.738978 16.024495 0.000000 0.163527
255.000000 56.181000 8.000000 -6.000000 3.000000 94.091952 1.750160 942.113219 863.966290 17.799592 0.000000 0.163538
256.000000 45.928000 10.000000 -6.000000 3.000000 87.331848 8.250360 818.937844 991.681709 21.776217 0.000000 0.152132
257.000000 114.653000 2.000000 -5.000000 3.000000 119.286403 -43.456107 1994.799250 109.410071 8.717408 0.000000 0.179021
258.000000 105.662000 3.000000 -5.000000 3.000000 117.495750 -28.011398 1547.550498 306.487648 9.459739 0.000000 0.024237
259.000000 95.002000 4.000000 -5.000000 3.000000 113.235247 -15.921283 1282.022778 460.482852 10.522081 0.000000 0.108014
260.000000 84.350000 5.000000 -5.000000 3.000000 108.024197 -6.948191 1106.164525 588.197201 11.852155 0.000000 0.144923
261.000000 74.567000 6.000000 -5.000000 3.000000 102.742122 -0.325523 981.114982 697.611093 13.408480 0.000000 0.158958
262.000000 65.968000 7.000000 -5.000000 3.000000 97.790647 4.640684 887.634174 793.260669 15.157726 0.000000 0.161198
263.000000 58.574000 8.000000 -5.000000 3.000000 93.311222 8.449959 815.107630 878.046376 17.072800 0.000000 0.157265
264.000000 52.275000 9.000000 -5.000000 3.000000 89.322923 11.439952 757.199885 953.977226 19.131458 0.000000 0.150265
265.000000 46.922000 10.000000 -5.000000 3.000000 85.793602 13.837202 709.895657 1022.524867 21.315263 0.000000 0.142028
266.000000 136.387000 2.000000 -4.000000 3.000000 129.315882 -35.200184 1734.247279 -137.678919 7.327225 0.000000 0.132214
267.000000 121.589000 3.000000 -4.000000 3.000000 123.993735 -16.883607 1301.666858 182.508085 8.219786 0.000000 0.056479
268.000000 105.915000 4.000000 -4.000000 3.000000 116.591046 -4.693865 1063.371474 400.429341 9.437448 0.000000 0.118786
269.000000 91.520000 5.000000 -4.000000 3.000000 109.159380 3.324736 912.475038 566.419566 10.923400 0.000000 0.143968
270.000000 79.142000 6.000000 -4.000000 3.000000 102.441441 8.801807 808.346084 700.715442 12.633337 0.000000 0.151013
271.000000 68.809000 7.000000 -4.000000 3.000000 96.596909 12.714531 732.159776 813.398399 14.532205 0.000000 0.149221
272.000000 60.273000 8.000000 -4.000000 3.000000 91.576210 15.624394 673.999224 910.247242 16.591898 0.000000 0.143326
273.000000 53.227000 9.000000 -4.000000 3.000000 87.270287 17.862518 628.143814 994.915116 18.789623 0.000000 0.135937
274.000000 47.387000 10.000000 -4.000000 3.000000 83.565139 19.632443 591.061999 1069.881088 21.106701 0.000000 0.128587
276.000000 137.902000 3.000000 -3.000000 3.000000 128.966423 -0.182709 978.432172 70.473505 7.246911 0.000000 0.059007
277.000000 115.864000 4.000000 -3.000000 3.000000 117.804697 9.587382 793.202249 365.381838 8.626870 0.000000 0.103581
278.000000 97.297000 5.000000 -3.000000 3.000000 108.280373 15.213442 682.306145 572.546184 10.274885 0.000000 0.121932
279.000000 70.440000 7.000000 -3.000000 3.000000 94.019750 21.280646 555.789158 859.830738 14.196099 0.000000 0.126216
280.000000 60.967000 8.000000 -3.000000 3.000000 88.723017 23.082912 516.300936 967.079949 16.403390 0.000000 0.122977
281.000000 47.194000 10.000000 -3.000000 3.000000 80.595802 25.525058 461.056031 1138.540992 21.193711 0.000000 0.117193
283.000000 151.047000 3.000000 -2.000000 3.000000 129.155066 22.256512 534.533577 -5.949726 6.616123 0.000000 0.031259
284.000000 122.470000 4.000000 -2.000000 3.000000 115.229629 25.964739 450.875898 376.918009 8.161728 0.000000 0.040026
285.000000 100.229000 5.000000 -2.000000 3.000000 104.591655 27.935364 404.280685 623.859448 9.974666 0.000000 0.072368
286.000000 83.297000 6.000000 -2.000000 3.000000 96.362442 29.155139 374.584894 803.577715 12.004099 0.000000 0.090919
287.000000 70.368000 7.000000 -2.000000 3.000000 89.877852 29.983834 354.006051 943.649073 14.211311 0.000000 0.102041
288.000000 60.371000 8.000000 -2.000000 3.000000 84.670393 30.583313 338.904373 1057.630164 16.566298 0.000000 0.109878
289.000000 52.516000 9.000000 -2.000000 3.000000 80.414297 31.037031 327.350014 1153.135908 19.045448 0.000000 0.116600
290.000000 46.244000 10.000000 -2.000000 3.000000 76.880411 31.392347 318.224467 1234.865366 21.629925 0.000000 0.123205
292.000000 122.800000 4.000000 -1.000000 3.000000 107.814119 42.084291 3.029380 474.991262 8.140553 0.000000 0.123800
293.000000 98.849000 5.000000 -1.000000 3.000000 97.744512 40.315310 61.741529 749.035299 10.114771 0.000000 0.101822
294.000000 81.292000 6.000000 -1.000000 3.000000 90.108680 39.200545 97.178748 938.365547 12.301121 0.000000 0.115044
295.000000 68.225000 7.000000 -1.000000 3.000000 84.174755 38.434248 120.891685 1081.178769 14.658753 0.000000 0.131112
296.000000 58.297000 8.000000 -1.000000 3.000000 79.456675 37.875294 137.872866 1194.780410 17.156675 0.000000 0.144909
297.000000 50.592000 9.000000 -1.000000 3.000000 75.628581 37.449633 150.632550 1288.370321 19.770946 0.000000 0.156673
305.000000 51.737000 3.000000 -11.000000 4.000000 97.885665 -51.818287 2343.624693 699.841866 19.324909 0.000000 0.286899
306.000000 50.796000 4.000000 -11.000000 4.000000 99.174306 -45.074116 2054.082405 694.853794 19.682879 0.000000 0.138161
307.000000 49.333000 5.000000 -11.000000 4.000000 99.656385 -38.613745 1834.617265 706.628282 20.266744 0.000000 0.064931
308.000000 47.491000 6.000000 -11.000000 4.000000 99.455339 -32.570363 1662.534744 728.301568 21.053136 0.000000 0.072283
309.000000 57.383000 3.000000 -10.000000 4.000000 101.728877 -50.085482 2261.570904 592.745208 17.422549 0.000000 0.245787
310.000000 53.901000 5.000000 -10.000000 4.000000 102.789516 -35.509037 1742.969393 640.860212 18.548394 0.000000 0.048335
311.000000 48.783000 7.000000 -10.000000 4.000000 100.827506 -23.194006 1436.167053 717.049925 20.495676 0.000000 0.115760
313.000000 64.036000 3.000000 -9.000000 4.000000 106.145291 -47.873542 2165.053263 476.491103 15.611127 0.000000 0.203510
314.000000 61.882000 4.000000 -9.000000 4.000000 106.700397 -39.453901 1860.775098 522.794075 16.154854 0.000000 0.060910
315.000000 59.047000 5.000000 -9.000000 4.000000 106.157643 -31.694011 1639.577484 574.514860 16.931068 0.000000 0.050351
316.000000 55.811000 6.000000 -9.000000 4.000000 104.796375 -24.765042 1471.521108 627.909728 17.913559 0.000000 0.097621
317.000000 52.401000 7.000000 -9.000000 4.000000 102.884193 -18.709737 1339.509400 681.072522 19.079911 0.000000 0.129069
318.000000 48.987000 8.000000 -9.000000 4.000000 100.642985 -13.483582 1233.069227 733.008218 20.410845 0.000000 0.148009
319.000000 45.680000 9.000000 -9.000000 4.000000 98.239514 -8.997837 1145.426609 783.204080 21.889685 0.000000 0.158453
320.000000 71.887000 3.000000 -8.000000 4.000000 111.228484 -44.962271 2049.877747 350.130682 13.905202 0.000000 0.161374
321.000000 64.789000 5.000000 -8.000000 4.000000 109.700258 -26.942084 1522.029631 508.706392 15.429615 0.000000 0.067083
322.000000 56.201000 7.000000 -8.000000 4.000000 104.764183 -13.460294 1232.606658 649.338944 17.789499 0.000000 0.140681
323.000000 48.053000 9.000000 -8.000000 4.000000 98.866353 -3.977048 1049.828572 772.699030 20.808425 0.000000 0.162455
325.000000 81.112000 3.000000 -7.000000 4.000000 117.057834 -40.983228 1910.055344 212.734895 12.322616 0.000000 0.121831
326.000000 76.460000 4.000000 -7.000000 4.000000 115.852265 -30.147337 1600.094575 337.911568 13.072958 0.000000 0.014164
327.000000 71.087000 5.000000 -7.000000 4.000000 113.278760 -20.956107 1387.204932 445.149154 14.061943 0.000000 0.086899
328.000000 65.510000 6.000000 -7.000000 4.000000 109.944863 -13.427733 1231.960056 539.456716 15.260006 0.000000 0.127028
329.000000 60.074000 7.000000 -7.000000 4.000000 106.294808 -7.345160 1113.738801 623.772219 16.642276 0.000000 0.148582
330.000000 54.973000 8.000000 -7.000000 4.000000 102.609689 -2.431763 1020.707823 700.011600 18.187672 0.000000 0.158983
331.000000 50.302000 9.000000 -7.000000 4.000000 99.049077 1.565174 945.591084 769.522596 19.878213 0.000000 0.162475
332.000000 46.085000 10.000000 -7.000000 4.000000 95.693625 4.850343 883.668622 833.306836 21.698469 0.000000 0.161639
333.000000 91.813000 3.000000 -6.000000 4.000000 123.641967 -35.288221 1736.726690 63.548836 10.885472 0.000000 0.088760
334.000000 77.788000 5.000000 -6.000000 4.000000 116.621576 -13.378984 1230.992320 386.475609 12.849849 0.000000 0.102523
335.000000 63.842000 7.000000 -6.000000 4.000000 107.239813 -0.307582 980.777950 607.006740 15.659631 0.000000 0.150448
336.000000 52.297000 9.000000 -6.000000 4.000000 98.645106 7.594985 831.487565 775.910692 19.119880 0.000000 0.157238
338.000000 103.864000 3.000000 -5.000000 4.000000 130.767064 -26.695275 1516.208412 -97.666200 9.621493 0.000000 0.064490
339.000000 94.296000 4.000000 -5.000000 4.000000 125.478767 -13.297983 1229.385183 152.753114 10.598682 0.000000 0.060852
340.000000 84.561000 5.000000 -5.000000 4.000000 119.254772 -3.872957 1047.864041 336.748528 11.820139 0.000000 0.107984
341.000000 75.431000 6.000000 -5.000000 4.000000 113.060183 2.784662 922.649243 482.263676 13.252288 0.000000 0.132400
342.000000 67.244000 7.000000 -5.000000 4.000000 107.304981 7.617354 831.059868 602.683516 14.867435 0.000000 0.143415
343.000000 60.077000 8.000000 -5.000000 4.000000 102.119168 11.237567 761.154541 705.368222 16.642538 0.000000 0.146687
344.000000 53.880000 9.000000 -5.000000 4.000000 97.508163 14.030167 706.047710 794.785323 18.558267 0.000000 0.145490
345.000000 48.548000 10.000000 -5.000000 4.000000 93.427700 16.240127 661.490036 873.854923 20.598284 0.000000 0.141822
347.000000 116.653000 3.000000 -4.000000 4.000000 137.611635 -13.136899 1226.192317 -269.861922 8.565924 0.000000 0.037860
348.000000 90.813000 5.000000 -4.000000 4.000000 120.460559 7.661908 830.207881 302.309579 11.006154 0.000000 0.095590
349.000000 69.926000 7.000000 -4.000000 4.000000 106.171671 16.254182 661.203595 615.889760 14.297285 0.000000 0.124117
350.000000 54.872000 9.000000 -4.000000 4.000000 95.509215 20.737653 567.493789 829.998300 18.223247 0.000000 0.126778
351.000000 128.690000 3.000000 -3.000000 4.000000 141.988791 7.794103 827.678868 -448.878463 7.764272 0.000000 0.029397
352.000000 111.259000 4.000000 -3.000000 4.000000 129.771806 16.296017 660.350750 7.665420 8.982154 0.000000 0.028967
353.000000 95.647000 5.000000 -3.000000 4.000000 119.371377 20.749358 567.242370 293.232823 10.449887 0.000000 0.053478
354.000000 82.419000 6.000000 -3.000000 4.000000 110.730355 23.458692 507.936316 496.948471 12.128899 0.000000 0.076105
355.000000 71.473000 7.000000 -3.000000 4.000000 103.564927 25.273232 466.853069 653.826692 13.988171 0.000000 0.090679
356.000000 62.483000 8.000000 -3.000000 4.000000 97.588970 26.571040 436.712234 780.668409 16.002470 0.000000 0.099513
357.000000 55.092000 9.000000 -3.000000 4.000000 92.562338 27.544413 413.655866 886.677341 18.151064 0.000000 0.104944
358.000000 48.982000 10.000000 -3.000000 4.000000 88.294520 28.301088 395.448879 977.397331 20.416760 0.000000 0.108619
360.000000 116.017000 4.000000 -2.000000 4.000000 126.338984 34.181918 244.047613 -16.071241 8.614015 0.000000 0.106189
361.000000 97.947000 5.000000 -2.000000 4.000000 115.294771 34.213667 243.175800 325.915678 10.204984 0.000000 0.038219
362.000000 71.474000 7.000000 -2.000000 4.000000 99.340201 34.245601 242.298259 726.847573 13.988784 0.000000 0.066103
363.000000 54.390000 9.000000 -2.000000 4.000000 88.648427 34.261637 241.857324 971.725466 18.386126 0.000000 0.100732
365.000000 96.667000 5.000000 -1.000000 4.000000 108.112439 46.673721 -166.086699 427.927389 10.341096 0.000000 0.213791
366.000000 81.534000 6.000000 -1.000000 4.000000 100.053040 44.349253 -77.119390 674.171128 12.262252 0.000000 0.156093
367.000000 69.628000 7.000000 -1.000000 4.000000 93.548005 42.755138 -20.095200 850.113925 14.360725 0.000000 0.141270
368.000000 60.210000 8.000000 -1.000000 4.000000 88.231506 41.595542 19.570974 985.436071 16.608575 0.000000 0.143724
369.000000 52.682000 9.000000 -1.000000 4.000000 83.828093 40.714777 48.757809 1094.554433 18.983442 0.000000 0.151301
370.000000 46.590000 10.000000 -1.000000 4.000000 80.133901 40.023369 71.133532 1185.439305 21.467215 0.000000 0.159777
372.000000 65.863000 7.000000 0.000000 4.000000 86.438574 50.502625 -330.771252 1046.318776 15.183090 0.000000 0.312171
373.000000 49.978000 9.000000 0.000000 4.000000 78.238014 46.768278 -169.866106 1268.183373 20.011987 0.000000 0.263180
378.000000 47.709000 4.000000 -12.000000 5.000000 103.680298 -47.669132 2156.552548 551.965313 20.954612 0.000000 0.192566
379.000000 46.574000 5.000000 -12.000000 5.000000 104.268012 -41.419578 1924.534868 576.005212 21.465212 0.000000 0.084123
381.000000 52.088000 4.000000 -11.000000 5.000000 107.297552 -45.587275 2073.587356 462.052637 19.191996 0.000000 0.158782
382.000000 50.539000 5.000000 -11.000000 5.000000 107.545285 -38.731337 1838.241216 504.780467 19.780526 0.000000 0.053236
383.000000 48.635000 6.000000 -11.000000 5.000000 107.069139 -32.339769 1656.451060 549.852529 20.555443 0.000000 0.042125
384.000000 46.500000 7.000000 -11.000000 5.000000 106.025199 -26.507797 1511.803424 595.549244 21.499523 0.000000 0.083856
386.000000 57.064000 4.000000 -10.000000 5.000000 111.321406 -42.989709 1978.299306 366.691625 17.517162 0.000000 0.125500
387.000000 52.489000 6.000000 -10.000000 5.000000 110.058210 -28.547617 1560.538799 493.631155 19.045202 0.000000 0.054641
388.000000 49.802000 7.000000 -10.000000 5.000000 108.439419 -22.412831 1418.898483 552.819012 20.073718 0.000000 0.097834
389.000000 47.032000 8.000000 -10.000000 5.000000 106.430242 -17.031788 1304.709245 609.053594 21.256705 0.000000 0.126279
391.000000 62.700000 4.000000 -9.000000 5.000000 115.777132 -39.673706 1867.722666 265.702993 15.941744 0.000000 0.094267
392.000000 59.868000 5.000000 -9.000000 5.000000 114.876488 -31.330457 1630.181063 356.742635 16.696261 0.000000 0.008615
393.000000 56.664000 6.000000 -9.000000 5.000000 113.111284 -23.953838 1453.158416 438.381984 17.641082 0.000000 0.071436
394.000000 53.295000 7.000000 -9.000000 5.000000 110.778786 -17.586433 1316.140184 512.587028 18.757222 0.000000 0.110904
395.000000 49.916000 8.000000 -9.000000 5.000000 108.122111 -12.161313 1206.942475 580.666554 20.028139 0.000000 0.135531
396.000000 46.633000 9.000000 -9.000000 5.000000 105.320682 -7.561542 1117.873086 643.555020 21.439354 0.000000 0.150404
398.000000 69.026000 4.000000 -8.000000 5.000000 120.655918 -35.328293 1737.857019 159.072440 14.479530 0.000000 0.067785
399.000000 65.234000 5.000000 -8.000000 5.000000 118.819043 -26.139711 1503.196434 281.371059 15.322059 0.000000 0.032025
400.000000 61.111000 6.000000 -8.000000 5.000000 116.104788 -18.356220 1332.122281 385.343852 16.356743 0.000000 0.086999
401.000000 56.915000 7.000000 -8.000000 5.000000 112.907480 -11.903181 1201.873197 476.195463 17.563618 0.000000 0.121001
402.000000 52.823000 8.000000 -8.000000 5.000000 109.511922 -6.592740 1099.393291 557.073359 18.925391 0.000000 0.141339
403.000000 48.943000 9.000000 -8.000000 5.000000 106.103734 -2.216498 1016.657437 630.034971 20.427013 0.000000 0.152822
405.000000 76.017000 4.000000 -7.000000 5.000000 125.870285 -29.469138 1583.172923 47.089879 13.146979 0.000000 0.049768
406.000000 70.981000 5.000000 -7.000000 5.000000 122.742122 -19.495900 1356.049123 206.819497 14.080669 0.000000 0.051672
407.000000 65.723000 6.000000 -7.000000 5.000000 118.832537 -11.534451 1194.648568 336.293794 15.208295 0.000000 0.097821
408.000000 60.550000 7.000000 -7.000000 5.000000 114.629701 -5.258016 1074.049409 445.473854 16.508837 0.000000 0.125939
409.000000 55.649000 8.000000 -7.000000 5.000000 110.432154 -0.293646 980.516148 540.036799 17.964205 0.000000 0.142045
410.000000 51.116000 9.000000 -7.000000 5.000000 106.403316 3.675754 905.856531 623.508549 19.558749 0.000000 0.150420
411.000000 46.987000 10.000000 -7.000000 5.000000 102.622102 6.893317 844.881461 698.228855 21.278860 0.000000 0.153742
413.000000 83.528000 4.000000 -6.000000 5.000000 131.164144 -21.354258 1395.804198 -69.402677 11.963903 0.000000 0.040154
414.000000 76.927000 5.000000 -6.000000 5.000000 126.311745 -10.964726 1183.522847 135.335682 12.991556 0.000000 0.062455
415.000000 70.313000 6.000000 -6.000000 5.000000 120.977588 -3.304568 1037.144826 293.793860 14.214873 0.000000 0.100348
416.000000 64.028000 7.000000 -6.000000 5.000000 115.684052 2.388618 930.104083 422.933322 15.611688 0.000000 0.123045
417.000000 58.246000 8.000000 -6.000000 5.000000 110.681632 6.707491 848.421822 531.896393 17.163062 0.000000 0.135625
418.000000 53.030000 9.000000 -6.000000 5.000000 106.069963 10.060869 784.041085 626.112667 18.852714 0.000000 0.141700
419.000000 48.379000 10.000000 -6.000000 5.000000 101.871543 12.723069 731.991220 709.052196 20.666575 0.000000 0.143578
421.000000 91.220000 4.000000 -5.000000 5.000000 135.947760 -9.968401 1164.167738 -188.556140 10.954369 0.000000 0.027345
422.000000 74.591000 6.000000 -5.000000 5.000000 122.103047 6.367653 854.889502 261.570491 13.399382 0.000000 0.089911
423.000000 67.110000 7.000000 -5.000000 5.000000 115.757643 10.949085 766.781988 412.051493 14.894541 0.000000 0.108811
424.000000 60.426000 8.000000 -5.000000 5.000000 110.043865 14.293990 700.776258 535.782625 16.543809 0.000000 0.119619
425.000000 54.542000 9.000000 -5.000000 5.000000 104.955939 16.827551 649.482790 640.633163 18.330241 0.000000 0.125105
427.000000 98.466000 4.000000 -4.000000 5.000000 139.083872 5.546972 870.474027 -306.643973 10.147903 0.000000 0.015239
428.000000 87.900000 5.000000 -4.000000 5.000000 129.907865 12.793695 730.596489 17.910377 11.369101 0.000000 0.035851
429.000000 78.148000 6.000000 -4.000000 5.000000 121.699419 17.213638 641.550517 245.111919 12.789470 0.000000 0.059759
430.000000 69.492000 7.000000 -4.000000 5.000000 114.533067 20.158379 579.888267 417.698525 14.384205 0.000000 0.078661
431.000000 61.968000 8.000000 -4.000000 5.000000 108.321609 22.250681 534.661461 555.925113 16.132457 0.000000 0.091654
432.000000 55.493000 9.000000 -4.000000 5.000000 102.938448 23.810065 500.071789 670.732683 18.016574 0.000000 0.100037
433.000000 49.940000 10.000000 -4.000000 5.000000 98.258369 25.015491 472.761418 768.613234 20.021510 0.000000 0.105236
435.000000 91.689000 5.000000 -3.000000 5.000000 128.287998 27.063478 425.097818 -13.112447 10.899387 0.000000 0.052466
436.000000 80.482000 6.000000 -3.000000 5.000000 119.317916 28.589770 388.434571 252.635893 12.418830 0.000000 0.005285
437.000000 70.829000 7.000000 -3.000000 5.000000 111.767255 29.586182 363.923036 446.788055 14.113093 0.000000 0.031121
438.000000 62.639000 8.000000 -3.000000 5.000000 105.381803 30.287447 346.380694 598.103613 15.960228 0.000000 0.055879
439.000000 55.726000 9.000000 -3.000000 5.000000 99.945350 30.807643 333.205240 721.273340 17.941810 0.000000 0.073426
440.000000 49.890000 10.000000 -3.000000 5.000000 95.281879 31.208819 322.946564 824.662709 20.042263 0.000000 0.086134
442.000000 93.292000 5.000000 -2.000000 5.000000 123.614663 41.006948 39.162486 -7.127288 10.712646 0.000000 0.184209
443.000000 81.073000 6.000000 -2.000000 5.000000 114.747895 39.642280 83.273357 296.710367 12.328941 0.000000 0.107776
444.000000 70.794000 7.000000 -2.000000 5.000000 107.372933 38.738712 111.531081 509.296773 14.120766 0.000000 0.074450
445.000000 62.234000 8.000000 -2.000000 5.000000 101.195113 38.096616 131.180122 670.321042 16.064921 0.000000 0.073553
446.000000 55.114000 9.000000 -2.000000 5.000000 95.975251 37.616953 145.634396 798.780869 18.142121 0.000000 0.085447
447.000000 49.172000 10.000000 -2.000000 5.000000 91.524843 37.245054 156.713449 905.009040 20.336206 0.000000 0.098704
449.000000 79.516000 6.000000 -1.000000 5.000000 108.118609 49.648772 -291.824736 397.077704 12.571458 0.000000 0.287791
450.000000 69.158000 7.000000 -1.000000 5.000000 101.458213 47.201485 -187.352528 619.907764 14.456015 0.000000 0.213092
451.000000 60.624000 8.000000 -1.000000 5.000000 95.852363 45.419154 -117.158125 783.830163 16.492748 0.000000 0.179001
452.000000 53.584000 9.000000 -1.000000 5.000000 91.104393 44.065589 -66.749003 912.124303 18.661371 0.000000 0.166693
453.000000 47.745000 10.000000 -1.000000 5.000000 87.051270 43.003777 -28.793314 1016.809962 20.945046 0.000000 0.164984
456.000000 47.290000 5.000000 -12.000000 6.000000 111.347972 -41.691172 1933.645790 377.661081 21.137849 0.000000 0.104009
458.000000 52.653000 4.000000 -11.000000 6.000000 114.898177 -46.166216 2096.025378 219.688744 18.983447 0.000000 0.205134
459.000000 51.083000 5.000000 -11.000000 6.000000 114.947608 -38.863729 1842.335613 297.973369 19.567369 0.000000 0.078175
460.000000 49.181000 6.000000 -11.000000 6.000000 114.231570 -32.081449 1649.672608 369.275357 20.324427 0.000000 0.006314
461.000000 47.063000 7.000000 -11.000000 6.000000 112.920941 -25.932712 1498.380007 434.935329 21.239750 0.000000 0.059926
463.000000 55.253000 5.000000 -10.000000 6.000000 118.815912 -35.351206 1738.503858 215.065750 18.089579 0.000000 0.055770
464.000000 50.207000 7.000000 -10.000000 6.000000 115.564405 -21.537436 1399.776138 387.501658 19.908934 0.000000 0.074304
465.000000 62.512000 4.000000 -9.000000 6.000000 124.102824 -39.930556 1875.897408 -9.393284 15.987538 0.000000 0.154784
466.000000 59.792000 5.000000 -9.000000 6.000000 122.908407 -30.909265 1619.385250 129.199573 16.715375 0.000000 0.040125
467.000000 53.491000 7.000000 -9.000000 6.000000 118.103725 -16.319185 1290.121717 342.093244 18.686141 0.000000 0.086321
468.000000 50.235000 8.000000 -9.000000 6.000000 115.086188 -10.689816 1178.169779 428.244812 19.898347 0.000000 0.115639
470.000000 64.654000 5.000000 -8.000000 6.000000 127.116469 -25.194330 1481.335565 40.890435 15.457425 0.000000 0.034319
471.000000 56.842000 7.000000 -8.000000 6.000000 120.383065 -10.137744 1167.448814 299.961193 17.583741 0.000000 0.093903
472.000000 49.244000 9.000000 -8.000000 6.000000 112.812007 -0.282508 980.306916 488.296623 20.299812 0.000000 0.134530
474.000000 74.292000 4.000000 -7.000000 6.000000 134.795027 -28.633447 1562.630006 -276.519429 13.450646 0.000000 0.108969
475.000000 69.734000 5.000000 -7.000000 6.000000 131.218412 -17.746511 1319.452264 -48.942570 14.330552 0.000000 0.033730
476.000000 64.931000 6.000000 -7.000000 6.000000 126.836690 -9.330242 1151.833322 123.944138 15.391707 0.000000 0.063042
477.000000 60.151000 7.000000 -7.000000 6.000000 122.182365 -2.887788 1029.292736 262.822678 16.616067 0.000000 0.094713
478.000000 55.568000 8.000000 -7.000000 6.000000 117.567747 2.085795 935.801282 378.725644 17.987910 0.000000 0.115575
479.000000 51.280000 9.000000 -7.000000 6.000000 113.157165 5.986985 862.124095 478.127158 19.493469 0.000000 0.128601
480.000000 47.333000 10.000000 -7.000000 6.000000 109.026569 9.102072 802.565664 565.110632 21.120639 0.000000 0.136205
481.000000 74.840000 5.000000 -6.000000 6.000000 134.808544 -8.037415 1126.980074 -138.731477 13.352215 0.000000 0.027705
482.000000 63.257000 7.000000 -6.000000 6.000000 123.216939 5.438805 872.524719 233.051038 15.799820 0.000000 0.085711
484.000000 79.665000 5.000000 -5.000000 6.000000 137.231656 4.285631 894.344462 -225.843613 12.543112 0.000000 0.015124
485.000000 72.595000 6.000000 -5.000000 6.000000 129.907862 10.504754 775.428276 25.483057 13.766040 0.000000 0.040903
486.000000 65.950000 7.000000 -5.000000 6.000000 123.163208 14.676457 693.112119 213.957445 15.154583 0.000000 0.062747
487.000000 59.884000 8.000000 -5.000000 6.000000 117.085595 17.639990 632.752361 363.415431 16.691459 0.000000 0.079621
488.000000 54.442000 9.000000 -5.000000 6.000000 111.657880 19.842978 586.597996 486.629110 18.361708 0.000000 0.091780
489.000000 49.608000 10.000000 -5.000000 6.000000 106.824523 21.540274 550.162234 591.108344 20.152316 0.000000 0.100132
490.000000 83.772000 5.000000 -4.000000 6.000000 137.630767 18.851982 607.509553 -305.849881 11.927975 0.000000 0.062322
491.000000 67.974000 7.000000 -4.000000 6.000000 121.721008 24.444340 485.766602 210.217149 14.703466 0.000000 0.021053
492.000000 55.302000 9.000000 -4.000000 6.000000 109.559072 27.081259 424.676548 511.528427 18.076583 0.000000 0.058294
493.000000 45.592000 11.000000 -4.000000 6.000000 100.222700 28.609562 387.952269 719.909347 21.929956 0.000000 0.082935
495.000000 69.055000 7.000000 -3.000000 6.000000 118.699221 34.204990 243.414133 228.530410 14.473939 0.000000 0.054904
496.000000 61.795000 8.000000 -3.000000 6.000000 112.136016 34.221020 242.973801 411.504666 16.176178 0.000000 0.030420
497.000000 50.076000 10.000000 -3.000000 6.000000 101.556734 34.241834 242.401799 674.769657 19.965426 0.000000 0.057963
499.000000 68.940000 7.000000 -2.000000 6.000000 114.081944 43.423242 -43.628234 278.676683 14.498914 0.000000 0.169579
500.000000 54.943000 9.000000 -2.000000 6.000000 102.416914 41.086782 36.525830 626.595029 18.196210 0.000000 0.104427
503.000000 59.950000 8.000000 -1.000000 6.000000 102.385405 49.315297 -276.983518 578.440254 16.676004 0.000000 0.264977
504.000000 53.561000 9.000000 -1.000000 6.000000 97.487172 47.481800 -198.820285 731.697561 18.667069 0.000000 0.218865
505.000000 48.128000 10.000000 -1.000000 6.000000 93.228699 46.041959 -141.169970 853.530974 20.775958 0.000000 0.195049
507.000000 46.197000 10.000000 0.000000 6.000000 88.123287 51.347369 -370.713370 997.462695 21.645571 0.000000 0.330183
510.000000 47.516000 5.000000 -12.000000 7.000000 117.998896 -41.995314 1943.940331 171.019412 21.034873 0.000000 0.144412
511.000000 46.043000 6.000000 -12.000000 7.000000 117.568994 -35.366038 1738.922764 251.911578 21.708148 0.000000 0.048143
513.000000 51.069000 5.000000 -11.000000 7.000000 121.850878 -39.013903 1846.998422 80.433156 19.570295 0.000000 0.124086
514.000000 49.220000 6.000000 -11.000000 7.000000 120.930255 -31.790095 1642.073165 182.254934 20.305972 0.000000 0.033778
515.000000 47.167000 7.000000 -11.000000 7.000000 119.386422 -25.289240 1483.514707 270.628846 21.190638 0.000000 0.035213
517.000000 54.914000 5.000000 -10.000000 7.000000 125.958833 -35.254341 1735.771883 -15.153243 18.199145 0.000000 0.106018
518.000000 52.604000 6.000000 -10.000000 7.000000 124.395568 -27.399620 1532.888908 111.064784 18.998811 0.000000 0.028616
519.000000 50.101000 7.000000 -10.000000 7.000000 122.193367 -20.550175 1378.484582 217.345680 19.948852 0.000000 0.049305
520.000000 47.512000 8.000000 -10.000000 7.000000 119.584412 -14.683908 1257.037447 309.336224 21.037139 0.000000 0.085290
522.000000 59.022000 5.000000 -9.000000 7.000000 130.260548 -30.415608 1606.852279 -115.952866 16.931585 0.000000 0.089839
523.000000 56.155000 6.000000 -9.000000 7.000000 127.861889 -21.954323 1408.853341 38.855401 17.796694 0.000000 0.031417
524.000000 53.123000 7.000000 -9.000000 7.000000 124.855304 -14.879946 1260.976427 165.405469 18.813579 0.000000 0.059221
525.000000 50.050000 8.000000 -9.000000 7.000000 121.527843 -9.044629 1146.327758 272.413294 19.969588 0.000000 0.090641
526.000000 47.030000 9.000000 -9.000000 7.000000 118.082703 -4.242396 1054.838854 365.152057 21.253440 0.000000 0.112890
528.000000 63.328000 5.000000 -8.000000 7.000000 134.617074 -24.064655 1455.653102 -222.092266 15.779304 0.000000 0.073483
529.000000 59.800000 6.000000 -8.000000 7.000000 131.152258 -15.164922 1266.715217 -33.579376 16.711115 0.000000 0.034244
530.000000 56.158000 7.000000 -8.000000 7.000000 127.194628 -8.123311 1128.626144 115.928670 17.796125 0.000000 0.063204
531.000000 52.545000 8.000000 -8.000000 7.000000 123.071906 -2.569128 1023.293138 239.419187 19.021127 0.000000 0.090403
532.000000 49.058000 9.000000 -8.000000 7.000000 118.984936 1.846756 940.296893 344.460361 20.374388 0.000000 0.109554
533.000000 45.758000 10.000000 -8.000000 7.000000 115.047368 5.402467 873.213483 435.787826 21.845450 0.000000 0.122494
535.000000 67.717000 5.000000 -7.000000 7.000000 138.754744 -15.617080 1275.852649 -333.536290 14.755819 0.000000 0.052180
536.000000 63.426000 6.000000 -7.000000 7.000000 133.984432 -6.740117 1102.199573 -105.029685 15.755305 0.000000 0.030699
537.000000 54.901000 8.000000 -7.000000 7.000000 124.021187 4.740098 885.754134 211.957672 18.204472 0.000000 0.082495
538.000000 50.923000 9.000000 -7.000000 7.000000 119.309461 8.520218 813.758446 330.035280 19.628131 0.000000 0.099228
539.000000 47.218000 10.000000 -7.000000 7.000000 114.902037 11.490220 756.216760 431.135981 21.169595 0.000000 0.110774
541.000000 72.004000 5.000000 -6.000000 7.000000 142.184804 -4.435529 1058.487715 -449.956544 13.876846 0.000000 0.017557
542.000000 66.865000 6.000000 -6.000000 7.000000 135.950303 3.478820 909.570373 -173.656462 14.944579 0.000000 0.019869
543.000000 61.808000 7.000000 -6.000000 7.000000 129.865873 8.896452 806.525096 31.221876 16.168524 0.000000 0.044345
544.000000 56.999000 8.000000 -6.000000 7.000000 124.157761 12.774013 730.985241 192.176929 17.534220 0.000000 0.064204
545.000000 52.526000 9.000000 -6.000000 7.000000 118.902786 15.662134 673.234696 323.871595 19.028935 0.000000 0.079664
546.000000 48.427000 10.000000 -6.000000 7.000000 114.109298 17.886258 627.651479 434.878869 20.641420 0.000000 0.091227
549.000000 69.893000 6.000000 -5.000000 7.000000 136.546301 15.280742 680.948002 -236.649229 14.296760 0.000000 0.039556
550.000000 64.099000 7.000000 -5.000000 7.000000 129.569093 18.836725 607.829549 1.259276 15.590629 0.000000 0.026692
551.000000 58.697000 8.000000 -5.000000 7.000000 123.273321 21.292511 555.532458 182.980600 17.027201 0.000000 0.032537
552.000000 53.758000 9.000000 -5.000000 7.000000 117.629638 23.084238 516.271497 328.581088 18.593182 0.000000 0.047973
553.000000 49.298000 10.000000 -5.000000 7.000000 112.580463 24.446724 485.712561 449.332757 20.276882 0.000000 0.062442
555.000000 72.239000 6.000000 -4.000000 7.000000 135.300521 27.896955 405.204741 -289.658659 13.832714 0.000000 0.110800
556.000000 65.765000 7.000000 -4.000000 7.000000 127.811076 29.115750 375.554706 -14.993474 15.195939 0.000000 0.065424
557.000000 59.837000 8.000000 -4.000000 7.000000 121.213731 29.946021 354.952467 188.336967 16.702931 0.000000 0.026670
558.000000 54.502000 9.000000 -4.000000 7.000000 115.398455 30.547774 339.804820 347.614983 18.339782 0.000000 0.007481
559.000000 49.747000 10.000000 -4.000000 7.000000 110.260846 31.003847 328.198787 477.480878 20.094323 0.000000 0.030183
560.000000 45.533000 11.000000 -4.000000 7.000000 105.707254 31.361389 319.022297 586.533297 21.955858 0.000000 0.049055
562.000000 66.590000 7.000000 -3.000000 7.000000 124.470398 39.097331 100.402607 -11.095310 15.008086 0.000000 0.159201
563.000000 60.268000 8.000000 -3.000000 7.000000 117.919275 38.351204 123.431101 213.741600 16.584166 0.000000 0.104679
564.000000 54.650000 9.000000 -3.000000 7.000000 112.181849 37.806043 139.958754 385.582692 18.290680 0.000000 0.071388
565.000000 49.698000 10.000000 -3.000000 7.000000 107.140749 37.390359 152.397818 523.199589 20.114931 0.000000 0.059058
568.000000 59.862000 8.000000 -2.000000 7.000000 113.441345 46.185720 -146.789505 266.926659 16.697603 0.000000 0.223797
569.000000 54.118000 9.000000 -2.000000 7.000000 108.024279 44.650483 -88.242479 448.717170 18.471489 0.000000 0.170845
570.000000 49.095000 10.000000 -2.000000 7.000000 103.259147 43.463738 -45.071296 591.576525 20.363317 0.000000 0.141072
572.000000 52.861000 9.000000 -1.000000 7.000000 103.034856 50.940505 -351.294453 545.568829 18.912290 0.000000 0.310873
573.000000 47.910000 10.000000 -1.000000 7.000000 98.699254 49.122117 -268.477672 689.365678 20.868235 0.000000 0.257174
574.000000 47.334000 5.000000 -12.000000 8.000000 124.217354 -42.338206 1955.665165 -49.182836 21.113846 0.000000 0.195651
576.000000 50.607000 5.000000 -11.000000 8.000000 128.258657 -39.185695 1852.356838 -154.011274 19.747147 0.000000 0.177284
577.000000 48.846000 6.000000 -11.000000 8.000000 127.166941 -31.458958 1633.493962 -15.576608 20.459675 0.000000 0.075706
578.000000 46.892000 7.000000 -11.000000 8.000000 125.421092 -24.564607 1466.962017 99.345449 21.313150 0.000000 0.027464
580.000000 49.586000 7.000000 -10.000000 8.000000 128.331153 -19.428860 1354.632514 38.659835 20.154368 0.000000 0.033434
583.000000 55.117000 6.000000 -9.000000 8.000000 134.318309 -20.704345 1381.791002 -182.544921 18.130186 0.000000 0.053125
584.000000 52.320000 7.000000 -9.000000 8.000000 131.045198 -13.233403 1228.104624 -21.662929 19.100400 0.000000 0.036563
585.000000 49.467000 8.000000 -9.000000 8.000000 127.452902 -7.196333 1110.897607 109.989012 20.203261 0.000000 0.063178
586.000000 46.641000 9.000000 -9.000000 8.000000 123.755485 -2.317602 1018.559634 221.105241 21.428684 0.000000 0.087008
588.000000 55.023000 7.000000 -8.000000 8.000000 133.362110 -5.809418 1084.504733 -80.700852 18.161618 0.000000 0.033785
589.000000 48.488000 9.000000 -8.000000 8.000000 124.628783 4.195575 896.045460 195.718784 20.611799 0.000000 0.079960
591.000000 61.452000 6.000000 -7.000000 8.000000 140.320150 -3.666959 1043.977591 -358.992328 16.260030 0.000000 0.013044
592.000000 57.596000 7.000000 -7.000000 8.000000 135.011929 2.918563 920.127672 -137.140997 17.349810 0.000000 0.024520
593.000000 53.802000 8.000000 -7.000000 8.000000 129.812409 7.706216 829.360410 35.694303 18.574406 0.000000 0.046770
594.000000 50.165000 9.000000 -7.000000 8.000000 124.872687 11.297598 759.982103 176.107804 19.922904 0.000000 0.064897
595.000000 46.737000 10.000000 -7.000000 8.000000 120.255444 14.071166 705.229304 293.766097 21.385538 0.000000 0.079237
597.000000 59.913000 7.000000 -6.000000 8.000000 135.674549 12.818195 730.112471 -189.103402 16.678430 0.000000 0.028433
598.000000 51.584000 9.000000 -6.000000 8.000000 124.337633 18.829057 607.990339 164.195318 19.374803 0.000000 0.039848
601.000000 61.824000 7.000000 -5.000000 8.000000 135.039257 23.457919 507.953557 -233.870030 16.162901 0.000000 0.074142
602.000000 57.074000 8.000000 -5.000000 8.000000 128.653177 25.261760 467.116581 -10.859812 17.509786 0.000000 0.042862
603.000000 52.652000 9.000000 -5.000000 8.000000 122.902823 26.554557 437.099256 162.515772 18.982067 0.000000 0.015919
604.000000 48.593000 10.000000 -5.000000 8.000000 117.730774 27.525629 414.104622 302.973305 20.569200 0.000000 0.015659
606.000000 53.272000 9.000000 -4.000000 8.000000 120.500722 34.200038 243.550132 174.443083 18.761352 0.000000 0.065719
608.000000 58.313000 8.000000 -3.000000 8.000000 122.816626 42.647283 -16.343802 -2.617044 17.138858 0.000000 0.208061
609.000000 53.359000 9.000000 -3.000000 8.000000 117.131891 41.507718 22.516754 204.521869 18.731779 0.000000 0.150514
610.000000 48.902000 10.000000 -3.000000 8.000000 112.070870 40.641095 51.164330 365.884043 20.440556 0.000000 0.112433
611.000000 52.844000 9.000000 -2.000000 8.000000 112.864636 48.283417 -232.302503 258.958824 18.915415 0.000000 0.271349
616.000000 48.148000 6.000000 -11.000000 9.000000 132.954013 -31.079319 1623.732469 -228.995617 20.754763 0.000000 0.117086
617.000000 46.314000 7.000000 -11.000000 9.000000 131.033758 -23.742709 1448.417339 -82.334484 21.577335 0.000000 0.049099
619.000000 50.926000 6.000000 -10.000000 9.000000 136.631023 -25.875904 1497.061167 -325.346549 19.621660 0.000000 0.100095
620.000000 48.756000 7.000000 -10.000000 9.000000 133.992557 -18.145261 1327.728494 -152.473562 20.495740 0.000000 0.041450
621.000000 46.490000 8.000000 -10.000000 9.000000 130.928059 -11.737007 1198.614906 -12.167512 21.495513 0.000000 0.039017
623.000000 51.199000 7.000000 -9.000000 9.000000 136.695011 -11.334701 1190.742788 -223.652102 19.517121 0.000000 0.030420
624.000000 48.581000 8.000000 -9.000000 9.000000 132.876146 -5.109502 1071.236621 -62.306484 20.570053 0.000000 0.036462
627.000000 53.575000 7.000000 -8.000000 9.000000 138.914499 -3.133455 1033.920324 -295.258048 18.651022 0.000000 0.012428
628.000000 50.578000 8.000000 -8.000000 9.000000 134.295379 2.506897 927.878176 -110.148112 19.757482 0.000000 0.028390
629.000000 47.628000 9.000000 -8.000000 9.000000 129.758254 6.790513 846.840428 39.267607 20.982519 0.000000 0.048549
632.000000 55.796000 7.000000 -7.000000 9.000000 140.356397 6.487166 852.615961 -366.373092 17.908202 0.000000 0.020211
633.000000 52.405000 8.000000 -7.000000 9.000000 134.969974 11.023514 765.331147 -154.377843 19.068313 0.000000 0.024454
634.000000 49.113000 9.000000 -7.000000 9.000000 129.868100 14.341117 699.833325 13.183603 20.347874 0.000000 0.032546
635.000000 45.975000 10.000000 -7.000000 9.000000 125.102052 16.857420 648.870286 150.543712 21.738043 0.000000 0.044736
637.000000 53.973000 8.000000 -6.000000 9.000000 134.686378 20.178157 579.466604 -193.186782 18.514410 0.000000 0.052184
638.000000 46.935000 10.000000 -6.000000 9.000000 124.088501 23.807939 500.119510 144.860467 21.293533 0.000000 0.019282
641.000000 55.181000 8.000000 -5.000000 9.000000 133.279986 29.547663 364.879490 -224.059809 18.109206 0.000000 0.110565
642.000000 51.257000 9.000000 -5.000000 9.000000 127.518510 30.250930 347.300329 -15.698380 19.497063 0.000000 0.073466
643.000000 47.600000 10.000000 -5.000000 9.000000 122.305214 30.773446 334.075718 148.932516 20.996786 0.000000 0.041377
646.000000 51.758000 9.000000 -4.000000 9.000000 124.919371 38.021444 133.457861 -12.786737 19.308753 0.000000 0.146287
647.000000 47.908000 10.000000 -4.000000 9.000000 119.731607 37.553342 147.537202 165.640217 20.862155 0.000000 0.103982
649.000000 47.810000 10.000000 -3.000000 9.000000 116.393143 43.977260 -63.540098 198.774983 20.905917 0.000000 0.192358
656.000000 45.504000 7.000000 -11.000000 10.000000 136.239820 -22.802969 1427.498073 -278.200814 21.959827 0.000000 0.076150
657.000000 47.696000 7.000000 -10.000000 10.000000 139.198664 -16.663021 1297.146725 -360.492732 20.949946 0.000000 0.059199
659.000000 49.857000 7.000000 -9.000000 10.000000 141.831520 -9.126423 1147.903529 -445.831610 20.041109 0.000000 0.035550
660.000000 47.476000 8.000000 -9.000000 10.000000 137.817525 -2.741541 1026.538851 -248.077996 21.047306 0.000000 0.014471
662.000000 46.557000 9.000000 -8.000000 10.000000 134.393024 9.659907 791.800707 -127.884121 21.463752 0.000000 0.024502
665.000000 50.815000 8.000000 -7.000000 10.000000 139.526004 14.731696 692.002998 -363.210462 19.663861 0.000000 0.051040
666.000000 47.858000 9.000000 -7.000000 10.000000 134.321817 17.671133 632.108084 -162.165374 20.880147 0.000000 0.038782
668.000000 48.921000 9.000000 -6.000000 10.000000 133.389988 25.950373 451.209710 -190.533376 20.426520 0.000000 0.080523
671.000000 49.680000 9.000000 -5.000000 10.000000 131.522586 34.162471 244.581291 -210.710728 20.114651 0.000000 0.146576
680.000000 46.222000 8.000000 -9.000000 11.000000 142.299006 -0.041510 975.779767 -451.512485 21.617225 0.000000 0.001960
685.000000 46.471000 9.000000 -7.000000 11.000000 138.261986 21.304240 555.278642 -353.880266 21.501895 0.000000 0.081041
#UB matrix in q= (UB) B0 G* 
#[[-0.346350517  0.424657819 -0.835284595]
# [ 0.528681617  0.824804131  0.200086099]
# [ 0.774943267 -0.372790798 -0.510927333]]
#B0 matrix in q= UB (B0) G*
#[[ 0.19670273 -0.          0.03056101]
# [ 0.          0.19187965 -0.        ]
# [ 0.          0.          0.18806537]]
#UBB0 matrix in q= (UB B0) G* i.e. recip. basis vectors are columns in LT frame: astar = UBB0[:,0], bstar = UBB0[:,1], cstar = UBB0[:,2]. (abcstar as columns on xyzlab1, xlab1 = ui, ui = unit vector along incident beam)
#[[-0.06812809  0.08148319 -0.16767293]
# [ 0.10399312  0.15826313  0.05378631]
# [ 0.15243346 -0.07153097 -0.07240469]]
#Euler angles phi theta psi (deg)
#[ 64.301 120.682  76.552]
#deviatoric strain in direct crystal frame (10-3 unit)
#[[-3.82  0.02  0.59]
# [ 0.02 -3.5  -0.75]
# [ 0.59 -0.75  7.32]]
#deviatoric strain in sample2 frame (10-3 unit)
#[[ 6.5  -1.82 -2.46]
# [-1.82 -3.26  0.32]
# [-2.45  0.32 -3.24]]
#new lattice parameters
#[ 5.1505     5.2132447  5.3211831 90.0453454 99.1876825 89.9976593]
#CCDLabel
#sCMOS
#DetectorParameters
#[79.0, 975.0, 941.0, 0.0, 0.0]
#pixelsize
#0.0734
#Frame dimensions
#[2018, 2016]
#
