#Strain and Orientation Refinement from experimental file: /home/micha/LaueProjects/DepthEffects/testZrO2_162.cor
#File created at Wed Jun 28 14:28:00 2023 with indexingSpotsSet.py
#Number of indexed spots: 542
#Element
#ZrO2
#grainIndex
#G_0
#Mean Deviation(pixel): 0.116
##spot_index intensity h k l 2theta Chi Xexp Yexp Energy GrainIndex PixDev
7.000000 178.873000 2.000000 1.000000 1.000000 67.630834 -28.981571 1571.147177 1447.345898 5.592639 0.000000 0.118808
8.000000 106.854000 3.000000 1.000000 1.000000 53.225728 -35.149789 1732.830412 1924.816703 9.363722 0.000000 0.241933
11.000000 145.564000 2.000000 2.000000 1.000000 65.797842 -8.468213 1135.242862 1430.086713 6.873135 0.000000 0.066566
12.000000 99.605000 3.000000 2.000000 1.000000 55.454089 -19.302615 1351.968034 1726.122026 10.045710 0.000000 0.106910
13.000000 70.968000 4.000000 2.000000 1.000000 47.875655 -25.773533 1494.687759 2021.861982 14.100214 0.000000 0.222461
15.000000 143.642000 0.000000 3.000000 1.000000 65.351710 42.577581 -13.926353 1611.680657 6.964105 0.000000 0.249444
16.000000 135.342000 1.000000 3.000000 1.000000 65.726257 21.515453 550.701045 1462.726411 7.391922 0.000000 0.095089
17.000000 110.593000 2.000000 3.000000 1.000000 60.896319 4.787997 884.848105 1542.246422 9.047248 0.000000 0.028223
18.000000 85.442000 3.000000 3.000000 1.000000 54.678476 -6.924701 1105.716740 1709.270197 11.711478 0.000000 0.059253
19.000000 65.771000 4.000000 3.000000 1.000000 49.003601 -14.958734 1262.561501 1909.303469 15.215008 0.000000 0.153699
20.000000 51.520000 5.000000 3.000000 1.000000 44.319858 -20.606723 1379.696571 2118.493337 19.424231 0.000000 0.245354
22.000000 96.737000 0.000000 4.000000 1.000000 56.614624 42.787336 -21.217621 1907.494815 10.342110 0.000000 0.325405
23.000000 95.119000 1.000000 4.000000 1.000000 57.999130 27.034905 425.774500 1696.073034 10.518729 0.000000 0.146850
24.000000 84.709000 2.000000 4.000000 1.000000 56.181124 13.212065 722.318328 1681.633801 11.812475 0.000000 0.077385
25.000000 71.245000 3.000000 4.000000 1.000000 52.686501 2.211897 933.429137 1761.928973 14.045660 0.000000 0.077361
26.000000 58.603000 4.000000 4.000000 1.000000 48.784911 -6.171311 1091.377723 1889.220231 17.076382 0.000000 0.134758
27.000000 48.137000 5.000000 4.000000 1.000000 45.113312 -12.519828 1213.999496 2039.158650 20.789948 0.000000 0.204905
30.000000 71.463000 1.000000 5.000000 1.000000 52.798089 30.367050 344.373622 1887.921762 14.001418 0.000000 0.216284
31.000000 66.759000 2.000000 5.000000 1.000000 52.330990 18.813894 608.308271 1818.826560 14.989006 0.000000 0.141047
32.000000 59.373000 3.000000 5.000000 1.000000 50.451177 8.916833 806.132834 1840.642728 16.854669 0.000000 0.121696
33.000000 51.378000 4.000000 5.000000 1.000000 47.886931 0.802639 959.921528 1914.048004 19.477995 0.000000 0.146156
36.000000 56.414000 1.000000 6.000000 1.000000 49.113519 32.583187 287.126009 2046.933273 17.736995 0.000000 0.278970
37.000000 54.198000 2.000000 6.000000 1.000000 49.287874 22.739104 523.913005 1945.208085 18.463243 0.000000 0.199396
38.000000 50.003000 3.000000 6.000000 1.000000 48.353998 13.920288 708.239604 1927.085171 20.013094 0.000000 0.167978
44.000000 194.388000 2.000000 1.000000 2.000000 96.756635 -35.555881 1744.298162 784.261744 5.143478 0.000000 0.073227
45.000000 130.529000 3.000000 1.000000 2.000000 77.802236 -39.681978 1867.984999 1243.311530 7.662262 0.000000 0.145232
46.000000 91.880000 4.000000 1.000000 2.000000 65.297484 -41.812315 1937.734505 1605.263491 10.887465 0.000000 0.226733
47.000000 67.941000 5.000000 1.000000 2.000000 56.656010 -43.109480 1982.512456 1911.039656 14.725376 0.000000 0.310292
49.000000 166.559000 2.000000 2.000000 2.000000 93.210480 -13.391750 1231.245691 878.940889 6.003603 0.000000 0.158160
50.000000 121.087000 3.000000 2.000000 2.000000 78.647775 -23.272430 1437.911726 1176.223828 8.260263 0.000000 0.120775
51.000000 68.073000 5.000000 2.000000 2.000000 59.429877 -32.632679 1664.184157 1695.931034 14.697240 0.000000 0.170990
52.000000 173.248000 0.000000 3.000000 2.000000 95.696706 41.631818 18.351856 797.353016 5.771060 0.000000 0.104652
53.000000 160.163000 1.000000 3.000000 2.000000 93.619780 18.767984 609.270526 869.088678 6.243221 0.000000 0.143409
54.000000 132.744000 2.000000 3.000000 2.000000 85.411132 1.479719 947.197480 1027.414941 7.534243 0.000000 0.158715
55.000000 104.804000 3.000000 3.000000 2.000000 75.939249 -10.060751 1165.956622 1214.772547 9.544446 0.000000 0.123255
56.000000 82.071000 4.000000 3.000000 2.000000 67.473124 -17.731192 1319.135044 1409.671112 12.189699 0.000000 0.088556
57.000000 64.975000 5.000000 3.000000 2.000000 60.489403 -23.023405 1432.378776 1602.926453 15.398501 0.000000 0.103239
58.000000 52.360000 6.000000 3.000000 2.000000 54.847114 -26.835123 1519.503746 1790.388710 19.109696 0.000000 0.157984
60.000000 122.909000 0.000000 4.000000 2.000000 81.514298 42.127584 1.551881 1157.514569 8.136719 0.000000 0.158309
61.000000 118.017000 1.000000 4.000000 2.000000 81.550919 25.338843 465.345031 1117.894021 8.474557 0.000000 0.119941
62.000000 104.440000 2.000000 4.000000 2.000000 77.614361 10.948017 766.802800 1181.737284 9.577409 0.000000 0.128736
63.000000 88.068000 3.000000 4.000000 2.000000 71.830354 -0.184242 978.460976 1294.237659 11.359192 0.000000 0.103049
64.000000 60.002000 5.000000 4.000000 2.000000 60.265402 -14.634254 1256.040890 1576.381950 16.675283 0.000000 0.062789
66.000000 91.903000 0.000000 5.000000 2.000000 72.041801 42.402665 -7.883525 1413.413279 10.883508 0.000000 0.206159
67.000000 90.172000 1.000000 5.000000 2.000000 72.845582 29.197065 373.551801 1321.585115 11.093032 0.000000 0.116821
68.000000 83.217000 2.000000 5.000000 2.000000 71.036868 17.187951 642.079268 1328.111538 12.021132 0.000000 0.100756
69.000000 73.602000 3.000000 5.000000 2.000000 67.579847 7.077583 841.368083 1388.469061 13.592635 0.000000 0.077013
70.000000 63.556000 4.000000 5.000000 2.000000 63.434741 -1.071981 995.139383 1479.246215 15.742495 0.000000 0.041934
71.000000 54.338000 5.000000 5.000000 2.000000 59.238153 -7.536222 1117.389115 1587.211036 18.414153 0.000000 0.031354
72.000000 46.415000 6.000000 5.000000 2.000000 55.312562 -12.667331 1216.908618 1704.496117 21.558188 0.000000 0.074838
74.000000 71.369000 1.000000 6.000000 2.000000 66.433107 31.713786 309.909305 1492.886035 14.017062 0.000000 0.139550
75.000000 61.904000 3.000000 6.000000 2.000000 63.694512 12.481187 736.762055 1485.944697 16.162289 0.000000 0.063739
76.000000 48.740000 5.000000 6.000000 2.000000 57.790782 -1.623671 1005.508635 1619.292871 20.529646 0.000000 0.014429
79.000000 58.129000 0.000000 7.000000 2.000000 60.406197 42.698613 -18.127522 1772.732861 17.210189 0.000000 0.289133
80.000000 58.211000 1.000000 7.000000 2.000000 61.569943 33.478778 263.189513 1639.581559 17.186483 0.000000 0.174892
81.000000 56.193000 2.000000 7.000000 2.000000 61.458388 24.659893 480.872450 1585.137695 17.804715 0.000000 0.114803
82.000000 52.644000 3.000000 7.000000 2.000000 60.306563 16.591404 654.318562 1581.407109 19.006003 0.000000 0.076247
83.000000 48.248000 4.000000 7.000000 2.000000 58.442070 9.454503 795.768586 1611.154913 20.738453 0.000000 0.046648
85.000000 48.672000 1.000000 8.000000 2.000000 57.778463 34.782809 227.434811 1766.918622 20.555953 0.000000 0.213062
86.000000 177.105000 2.000000 1.000000 3.000000 115.042162 -42.200739 1950.949336 262.204661 5.643572 0.000000 0.125237
87.000000 132.179000 3.000000 1.000000 3.000000 95.792950 -44.195934 2021.501870 788.701172 7.564148 0.000000 0.128917
88.000000 99.562000 4.000000 1.000000 3.000000 81.860828 -45.222269 2059.677433 1159.539588 10.044503 0.000000 0.186234
89.000000 76.766000 5.000000 1.000000 3.000000 71.600536 -45.847203 2083.603577 1454.978628 13.029421 0.000000 0.245755
90.000000 60.734000 6.000000 1.000000 3.000000 63.846877 -46.267609 2100.003638 1705.524757 16.470717 0.000000 0.303551
92.000000 197.619000 1.000000 2.000000 3.000000 130.316151 -0.639351 987.010628 27.657479 5.056730 0.000000 0.055541
93.000000 160.161000 2.000000 2.000000 3.000000 112.439069 -18.739291 1340.128343 471.644222 6.241134 0.000000 0.106971
94.000000 124.748000 3.000000 2.000000 3.000000 96.471657 -27.394447 1532.765630 803.490769 8.015023 0.000000 0.108867
95.000000 96.887000 4.000000 2.000000 3.000000 83.832473 -32.249035 1654.065780 1078.520099 10.322129 0.000000 0.109718
96.000000 76.277000 5.000000 2.000000 3.000000 74.040542 -35.314368 1737.464119 1318.207305 13.113126 0.000000 0.132495
97.000000 61.204000 6.000000 2.000000 3.000000 66.402527 -37.414630 1798.324673 1532.953724 16.344587 0.000000 0.174465
98.000000 50.076000 7.000000 2.000000 3.000000 60.352224 -38.939826 1844.695925 1728.609673 19.978132 0.000000 0.225154
99.000000 170.675000 0.000000 3.000000 3.000000 118.244799 40.472297 56.657467 180.946422 5.855886 0.000000 0.120542
100.000000 158.466000 1.000000 3.000000 3.000000 114.472341 15.545299 675.600604 432.531435 6.307698 0.000000 0.110139
101.000000 135.531000 2.000000 3.000000 3.000000 104.432624 -2.178841 1015.949003 663.800849 7.376556 0.000000 0.164431
102.000000 89.746000 4.000000 3.000000 3.000000 83.095223 -20.607561 1379.714531 1080.246960 11.144011 0.000000 0.132717
103.000000 72.758000 5.000000 3.000000 3.000000 74.606412 -25.496711 1488.290208 1269.304865 13.747978 0.000000 0.113175
104.000000 49.530000 7.000000 3.000000 3.000000 61.905464 -31.573548 1636.455879 1615.385899 20.198766 0.000000 0.149939
105.000000 131.037000 0.000000 4.000000 3.000000 102.031981 41.364558 27.301558 635.343411 7.629289 0.000000 0.090289
106.000000 124.996000 1.000000 4.000000 3.000000 100.914620 23.413705 508.940183 714.830688 7.998561 0.000000 0.117484
107.000000 111.690000 2.000000 4.000000 3.000000 95.476556 8.456245 814.986942 836.674937 8.952646 0.000000 0.165875
108.000000 95.786000 3.000000 4.000000 3.000000 88.137788 -2.748006 1026.660570 976.034042 10.440631 0.000000 0.164265
109.000000 80.549000 4.000000 4.000000 3.000000 80.629776 -10.875353 1181.781486 1121.852875 12.417347 0.000000 0.140315
110.000000 67.395000 5.000000 4.000000 3.000000 73.752469 -16.819038 1300.342663 1268.677795 14.842580 0.000000 0.111813
111.000000 56.583000 6.000000 4.000000 3.000000 67.743282 -21.266576 1393.906458 1413.657513 17.680410 0.000000 0.096002
112.000000 47.873000 7.000000 4.000000 3.000000 62.589508 -24.681742 1469.624593 1555.266632 20.898654 0.000000 0.106860
114.000000 102.384000 0.000000 5.000000 3.000000 90.267847 41.836050 11.462604 934.246804 9.766337 0.000000 0.122752
115.000000 99.478000 1.000000 5.000000 3.000000 90.302739 27.899731 405.137979 934.565079 10.052172 0.000000 0.112866
116.000000 91.797000 2.000000 5.000000 3.000000 87.394423 15.416267 678.210390 991.807257 10.894300 0.000000 0.148124
117.000000 81.667000 3.000000 5.000000 3.000000 82.710534 5.110805 878.738702 1079.224905 12.246966 0.000000 0.150082
118.000000 71.096000 4.000000 5.000000 3.000000 77.345451 -3.044333 1032.241295 1182.997914 14.069302 0.000000 0.131429
119.000000 61.280000 5.000000 5.000000 3.000000 72.003864 -9.417859 1153.524052 1295.405929 16.324685 0.000000 0.104393
120.000000 52.710000 6.000000 5.000000 3.000000 67.036080 -14.421092 1251.767762 1411.897397 18.980205 0.000000 0.081535
123.000000 80.600000 1.000000 6.000000 3.000000 82.073715 30.765633 334.274524 1115.394563 12.408426 0.000000 0.112399
124.000000 76.102000 2.000000 6.000000 3.000000 80.577347 20.195190 579.103400 1131.316887 13.142561 0.000000 0.127254
125.000000 62.358000 4.000000 6.000000 3.000000 73.845564 3.175910 915.279747 1253.244014 16.041905 0.000000 0.114206
126.000000 55.161000 5.000000 6.000000 3.000000 69.795093 -3.226065 1035.665370 1337.732555 18.136427 0.000000 0.090565
129.000000 67.141000 0.000000 7.000000 3.000000 74.819352 42.325668 -5.234189 1335.996214 14.896880 0.000000 0.190816
130.000000 66.593000 1.000000 7.000000 3.000000 75.618278 32.745701 282.818428 1269.125230 15.019802 0.000000 0.122250
131.000000 63.913000 2.000000 7.000000 3.000000 74.934841 23.635345 503.987701 1257.231341 15.650505 0.000000 0.112791
132.000000 59.717000 3.000000 7.000000 3.000000 73.080767 15.370012 679.145144 1280.541842 16.751382 0.000000 0.108429
133.000000 54.701000 4.000000 7.000000 3.000000 70.454987 8.127357 821.296307 1326.964182 18.288449 0.000000 0.095101
134.000000 49.452000 5.000000 7.000000 3.000000 67.423320 1.917459 938.967314 1388.754894 20.230920 0.000000 0.073941
137.000000 56.186000 0.000000 8.000000 3.000000 69.566546 42.469025 -10.172092 1484.604489 17.803025 0.000000 0.221015
138.000000 56.045000 1.000000 8.000000 3.000000 70.467671 34.192493 243.757298 1402.606034 17.848233 0.000000 0.141153
139.000000 54.425000 2.000000 8.000000 3.000000 70.266599 26.213079 445.092343 1371.333741 18.380318 0.000000 0.110545
140.000000 51.660000 3.000000 8.000000 3.000000 69.135370 18.798079 608.639805 1374.350588 19.364929 0.000000 0.095707
141.000000 48.166000 4.000000 8.000000 3.000000 67.318794 12.106985 744.125258 1401.041276 20.770875 0.000000 0.079909
143.000000 47.949000 1.000000 9.000000 3.000000 66.286168 35.294583 213.093935 1520.238663 20.862866 0.000000 0.165245
144.000000 46.964000 2.000000 9.000000 3.000000 66.378248 28.209122 397.675421 1475.150045 21.301186 0.000000 0.120868
148.000000 124.429000 3.000000 1.000000 4.000000 108.719198 -48.636749 2197.395843 389.107433 8.033415 0.000000 0.226959
149.000000 99.328000 4.000000 1.000000 4.000000 94.791653 -48.583120 2195.091395 804.618165 10.065898 0.000000 0.208137
150.000000 79.851000 5.000000 1.000000 4.000000 83.941096 -48.550342 2193.685355 1113.580880 12.523401 0.000000 0.234157
151.000000 65.057000 6.000000 1.000000 4.000000 75.391522 -48.528235 2192.738050 1364.591338 15.373409 0.000000 0.272353
152.000000 53.816000 7.000000 1.000000 4.000000 68.551871 -48.512317 2192.056467 1579.286121 18.586640 0.000000 0.313009
154.000000 145.047000 2.000000 2.000000 4.000000 125.662665 -24.463561 1464.669140 92.492123 6.889934 0.000000 0.023099
155.000000 119.467000 3.000000 2.000000 4.000000 109.803663 -31.632833 1637.991152 485.802171 8.367284 0.000000 0.039409
156.000000 79.265000 5.000000 2.000000 4.000000 86.255720 -38.008835 1816.160549 1030.395531 12.615965 0.000000 0.107878
157.000000 54.404000 7.000000 2.000000 4.000000 70.937606 -40.894272 1907.127012 1432.996346 18.385668 0.000000 0.185204
159.000000 146.032000 1.000000 3.000000 4.000000 129.586764 11.739146 751.343166 32.018424 6.843109 0.000000 0.045149
160.000000 128.699000 2.000000 3.000000 4.000000 118.723781 -6.211530 1092.142118 347.682100 7.766110 0.000000 0.115597
161.000000 109.282000 3.000000 3.000000 4.000000 106.809865 -16.911858 1302.246536 601.147927 9.147821 0.000000 0.132323
162.000000 91.273000 4.000000 3.000000 4.000000 95.938452 -23.578524 1444.741070 818.847547 10.954878 0.000000 0.126625
163.000000 76.008000 5.000000 3.000000 4.000000 86.627234 -28.019143 1547.737165 1012.851998 13.157073 0.000000 0.116589
164.000000 63.596000 6.000000 3.000000 4.000000 78.819537 -31.154476 1625.658735 1189.582269 15.726995 0.000000 0.115131
165.000000 53.664000 7.000000 3.000000 4.000000 72.297429 -33.473529 1686.668772 1352.852021 18.639709 0.000000 0.128799
166.000000 45.736000 8.000000 3.000000 4.000000 66.828280 -35.252991 1735.733854 1505.125873 21.872485 0.000000 0.155478
167.000000 122.200000 1.000000 4.000000 4.000000 116.244435 21.215088 557.206854 371.783748 8.179336 0.000000 0.077242
168.000000 110.764000 2.000000 4.000000 4.000000 109.856401 5.711555 867.352318 550.373730 9.024980 0.000000 0.149015
169.000000 96.964000 3.000000 4.000000 4.000000 101.603127 -5.486234 1078.374359 718.990322 10.311119 0.000000 0.166375
170.000000 71.002000 5.000000 4.000000 4.000000 85.475118 -19.071086 1347.092147 1031.123020 14.085451 0.000000 0.139429
171.000000 51.858000 7.000000 4.000000 4.000000 72.730243 -26.474553 1511.023823 1314.805252 19.289289 0.000000 0.111776
173.000000 104.873000 0.000000 5.000000 4.000000 105.599614 41.197417 32.861285 541.636448 9.532096 0.000000 0.087573
174.000000 101.542000 1.000000 5.000000 4.000000 104.972226 26.454635 439.443072 619.502037 9.845199 0.000000 0.090899
175.000000 94.205000 2.000000 5.000000 4.000000 101.244704 13.482211 716.958006 720.951143 10.613075 0.000000 0.152484
176.000000 84.704000 3.000000 5.000000 4.000000 95.697583 3.007907 918.444872 833.469255 11.804906 0.000000 0.170927
177.000000 74.671000 4.000000 5.000000 4.000000 89.480823 -5.117212 1071.382607 950.791976 13.392603 0.000000 0.165341
178.000000 65.154000 5.000000 5.000000 4.000000 83.322796 -11.369952 1191.431669 1069.523726 15.350499 0.000000 0.147508
179.000000 56.655000 6.000000 5.000000 4.000000 77.586547 -16.223491 1288.170977 1187.728500 17.655104 0.000000 0.125621
180.000000 49.314000 7.000000 5.000000 4.000000 72.407976 -20.049328 1367.788781 1304.270756 20.284870 0.000000 0.107223
182.000000 84.765000 1.000000 6.000000 4.000000 95.767476 29.728118 360.392350 815.815501 11.795700 0.000000 0.097079
183.000000 73.607000 3.000000 6.000000 4.000000 89.927308 9.313669 798.486386 942.383745 13.586017 0.000000 0.161359
184.000000 59.149000 5.000000 6.000000 4.000000 80.630538 -4.893733 1067.152386 1119.239795 16.910063 0.000000 0.143900
185.000000 46.346000 7.000000 6.000000 4.000000 71.526329 -14.270353 1248.750959 1312.021621 21.584853 0.000000 0.102542
186.000000 71.144000 -1.000000 7.000000 4.000000 85.641341 51.868238 -396.082992 1073.856534 14.055461 0.000000 0.319921
187.000000 72.462000 0.000000 7.000000 4.000000 87.841575 41.921109 8.580388 995.517982 13.799780 0.000000 0.131907
188.000000 71.460000 1.000000 7.000000 4.000000 88.278403 31.953910 303.659951 979.126938 13.993671 0.000000 0.102931
189.000000 68.456000 2.000000 7.000000 4.000000 87.089407 22.537416 528.360641 1000.246935 14.608624 0.000000 0.130718
190.000000 64.034000 3.000000 7.000000 4.000000 84.644214 14.073706 705.178602 1045.024269 15.618487 0.000000 0.145837
191.000000 58.838000 4.000000 7.000000 4.000000 81.391050 6.732500 847.945499 1105.077602 16.999233 0.000000 0.145049
192.000000 53.408000 5.000000 7.000000 4.000000 77.730322 0.498602 965.633582 1175.082364 18.728745 0.000000 0.133208
193.000000 48.124000 6.000000 7.000000 4.000000 73.958664 -4.743882 1064.317431 1251.526691 20.786628 0.000000 0.114972
194.000000 60.349000 -1.000000 8.000000 4.000000 79.597727 50.670033 -338.572314 1252.747575 16.571294 0.000000 0.313343
195.000000 60.951000 1.000000 8.000000 4.000000 82.143542 33.561145 260.963397 1119.225415 16.408148 0.000000 0.112172
196.000000 55.964000 3.000000 8.000000 4.000000 79.947301 17.747458 630.528129 1141.334670 17.872115 0.000000 0.129391
197.000000 48.147000 5.000000 8.000000 4.000000 74.831366 4.983580 881.147247 1233.897329 20.776601 0.000000 0.118983
199.000000 51.883000 -1.000000 9.000000 4.000000 74.640444 49.766516 -297.113550 1398.720704 19.277057 0.000000 0.318429
200.000000 52.816000 0.000000 9.000000 4.000000 76.338212 42.282348 -3.746480 1294.606844 18.936622 0.000000 0.182938
201.000000 52.605000 1.000000 9.000000 4.000000 77.065169 34.774459 227.667301 1241.939797 19.013126 0.000000 0.125627
202.000000 51.340000 2.000000 9.000000 4.000000 76.851882 27.493223 414.878453 1224.422786 19.482203 0.000000 0.114740
203.000000 49.222000 3.000000 9.000000 4.000000 75.822766 20.646626 569.447662 1231.550543 20.321351 0.000000 0.115699
204.000000 46.505000 4.000000 9.000000 4.000000 74.158046 14.371386 699.227471 1256.277885 21.509754 0.000000 0.113034
205.000000 45.911000 1.000000 10.000000 4.000000 72.813259 35.722080 200.974999 1351.041634 21.786601 0.000000 0.142480
208.000000 79.337000 5.000000 1.000000 5.000000 94.020853 -51.207793 2314.012996 820.240650 12.602211 0.000000 0.271150
209.000000 66.467000 6.000000 1.000000 5.000000 85.180569 -50.756880 2292.641278 1084.447321 15.044682 0.000000 0.278227
210.000000 56.159000 7.000000 1.000000 5.000000 77.899547 -50.431261 2277.462515 1303.237260 17.808348 0.000000 0.300321
211.000000 47.917000 8.000000 1.000000 5.000000 71.844981 -50.185098 2266.125533 1492.188912 20.873548 0.000000 0.328083
212.000000 129.162000 2.000000 2.000000 5.000000 134.830516 -30.481090 1608.507402 -300.529102 7.736293 0.000000 0.119097
213.000000 110.885000 3.000000 2.000000 5.000000 119.749129 -35.944708 1755.387769 181.188438 9.013309 0.000000 0.062569
214.000000 93.706000 4.000000 2.000000 5.000000 106.967925 -38.880541 1842.856627 519.142779 10.667809 0.000000 0.054118
215.000000 78.874000 5.000000 2.000000 5.000000 96.340835 -40.704219 1900.897030 783.233695 12.676215 0.000000 0.088694
216.000000 66.590000 6.000000 2.000000 5.000000 87.535369 -41.944747 1942.221951 1003.284235 15.016869 0.000000 0.126874
217.000000 56.599000 7.000000 2.000000 5.000000 80.211412 -42.842502 1973.143481 1194.247465 17.669850 0.000000 0.163663
218.000000 48.514000 8.000000 2.000000 5.000000 74.075480 -43.522002 1997.150929 1364.506146 20.616794 0.000000 0.199452
219.000000 131.295000 1.000000 3.000000 5.000000 140.557879 7.219790 838.654719 -377.796193 7.610137 0.000000 0.023010
220.000000 118.533000 2.000000 3.000000 5.000000 129.398118 -10.632459 1177.054157 41.538232 8.430721 0.000000 0.049906
221.000000 103.685000 3.000000 3.000000 5.000000 117.404944 -20.608888 1379.742981 344.832427 9.639811 0.000000 0.076883
222.000000 89.149000 4.000000 3.000000 5.000000 106.358604 -26.632124 1514.722995 587.577076 11.213643 0.000000 0.087460
223.000000 76.148000 5.000000 3.000000 5.000000 96.720739 -30.582142 1611.065945 793.676964 13.130351 0.000000 0.092735
224.000000 65.062000 6.000000 3.000000 5.000000 88.479133 -33.347983 1683.284178 975.208554 15.369783 0.000000 0.100445
225.000000 55.830000 7.000000 3.000000 5.000000 81.470601 -35.384020 1739.430832 1138.988485 17.913335 0.000000 0.114825
226.000000 48.217000 8.000000 3.000000 5.000000 75.502664 -36.941817 1784.333622 1289.197121 20.743808 0.000000 0.136233
228.000000 114.903000 1.000000 4.000000 5.000000 128.232654 18.688348 610.938432 45.849854 8.697121 0.000000 0.031511
229.000000 105.628000 2.000000 4.000000 5.000000 121.272109 2.688069 924.467862 286.600153 9.461934 0.000000 0.106427
230.000000 94.285000 3.000000 4.000000 5.000000 112.554994 -8.403537 1134.001208 489.121866 10.601840 0.000000 0.137118
231.000000 82.660000 4.000000 4.000000 5.000000 103.719388 -16.014652 1283.920299 667.632793 12.094801 0.000000 0.142457
232.000000 71.829000 5.000000 4.000000 5.000000 95.514336 -21.386286 1396.497964 829.409047 13.920471 0.000000 0.135481
233.000000 62.268000 6.000000 4.000000 5.000000 88.190405 -25.316468 1484.140486 978.617082 16.060037 0.000000 0.124598
234.000000 54.073000 7.000000 4.000000 5.000000 81.766982 -28.290984 1554.306304 1117.854476 18.496081 0.000000 0.116500
235.000000 47.153000 8.000000 4.000000 5.000000 76.170164 -30.609083 1611.748982 1248.853482 21.212447 0.000000 0.116481
236.000000 99.132000 1.000000 5.000000 5.000000 117.076959 24.837202 476.833934 334.698544 10.082462 0.000000 0.051539
237.000000 92.640000 2.000000 5.000000 5.000000 112.768263 11.367462 758.617010 480.230100 10.790064 0.000000 0.129326
238.000000 84.289000 3.000000 5.000000 5.000000 106.657836 0.760535 960.712603 618.931020 11.860440 0.000000 0.160387
239.000000 75.328000 4.000000 5.000000 5.000000 99.899169 -7.292654 1112.736224 751.640891 13.273084 0.000000 0.166182
240.000000 58.653000 6.000000 5.000000 5.000000 86.952592 -18.072869 1326.223176 1001.272923 17.050598 0.000000 0.143484
241.000000 51.604000 7.000000 5.000000 5.000000 81.266398 -21.733776 1404.044640 1118.995104 19.381505 0.000000 0.127599
242.000000 45.494000 8.000000 5.000000 5.000000 76.175652 -24.653116 1468.973435 1232.410359 21.986521 0.000000 0.115523
244.000000 87.274000 0.000000 6.000000 5.000000 107.883896 41.083014 36.650426 480.242803 11.453789 0.000000 0.088556
245.000000 85.211000 1.000000 6.000000 5.000000 107.526179 28.588770 388.458936 553.909678 11.731528 0.000000 0.068470
246.000000 80.745000 2.000000 6.000000 5.000000 104.867655 17.222299 641.372178 641.858185 12.381296 0.000000 0.134626
247.000000 74.711000 3.000000 6.000000 5.000000 100.635579 7.570725 831.951365 737.107832 13.382459 0.000000 0.164542
248.000000 67.948000 4.000000 6.000000 5.000000 95.579729 -0.304119 980.712886 835.851385 14.715881 0.000000 0.171729
249.000000 61.112000 5.000000 6.000000 5.000000 90.270873 -6.627745 1100.059693 935.877413 16.363790 0.000000 0.165285
250.000000 54.622000 6.000000 6.000000 5.000000 85.068139 -11.702109 1197.931146 1035.845232 18.309660 0.000000 0.151177
251.000000 48.700000 7.000000 6.000000 5.000000 80.164812 -15.804172 1279.645221 1134.919617 20.538105 0.000000 0.133844
252.000000 73.881000 -1.000000 7.000000 5.000000 97.382976 51.871975 -396.267135 715.123141 13.532022 0.000000 0.301016
253.000000 74.704000 0.000000 7.000000 5.000000 99.377325 41.480783 23.418603 703.750912 13.383025 0.000000 0.095102
254.000000 73.434000 1.000000 7.000000 5.000000 99.478062 31.096399 325.830029 731.159552 13.614849 0.000000 0.080898
255.000000 70.378000 2.000000 7.000000 5.000000 97.863557 21.358830 554.096786 781.386942 14.206762 0.000000 0.131361
256.000000 66.047000 3.000000 7.000000 5.000000 94.944585 12.696832 732.509133 845.551249 15.139509 0.000000 0.158678
257.000000 60.994000 4.000000 7.000000 5.000000 91.200115 5.266402 875.791723 918.357101 16.395185 0.000000 0.166912
258.000000 55.693000 5.000000 7.000000 5.000000 87.049527 -0.978899 993.390294 996.481421 17.957116 0.000000 0.162519
259.000000 50.489000 6.000000 7.000000 5.000000 82.800375 -6.185256 1091.642754 1077.756537 19.809757 0.000000 0.150274
260.000000 45.593000 7.000000 7.000000 5.000000 78.650616 -10.524746 1174.960205 1160.726346 21.938600 0.000000 0.133827
262.000000 63.668000 -1.000000 8.000000 5.000000 90.578439 50.628021 -336.609396 923.870275 15.704588 0.000000 0.274025
263.000000 64.418000 0.000000 8.000000 5.000000 92.341709 41.760423 14.018788 881.995990 15.521711 0.000000 0.115402
264.000000 63.659000 1.000000 8.000000 5.000000 92.707323 32.884504 279.126856 880.394335 15.707186 0.000000 0.091501
265.000000 61.567000 2.000000 8.000000 5.000000 91.767561 24.407468 486.602106 904.526383 16.241667 0.000000 0.124832
266.000000 58.456000 3.000000 8.000000 5.000000 89.763229 16.636524 653.395533 945.642063 17.107140 0.000000 0.148006
267.000000 54.689000 4.000000 8.000000 5.000000 87.002129 9.732143 790.404153 998.189106 18.286808 0.000000 0.156458
268.000000 50.602000 5.000000 8.000000 5.000000 83.782855 3.723697 904.952159 1058.496911 19.764994 0.000000 0.153811
269.000000 46.463000 6.000000 8.000000 5.000000 80.350354 -1.444700 1002.144274 1124.059155 21.527045 0.000000 0.143622
271.000000 55.354000 -1.000000 9.000000 5.000000 84.886602 49.700104 -294.127323 1089.905560 18.065344 0.000000 0.268018
272.000000 56.029000 0.000000 9.000000 5.000000 86.467753 41.967744 6.996884 1030.354557 17.847683 0.000000 0.137331
273.000000 55.597000 1.000000 9.000000 5.000000 86.986642 34.221519 242.960072 1009.520880 17.986801 0.000000 0.102414
274.000000 54.160000 2.000000 9.000000 5.000000 86.491782 26.735363 432.847790 1014.882413 18.464598 0.000000 0.118539
275.000000 51.915000 3.000000 9.000000 5.000000 85.128997 19.731881 588.955065 1038.443917 19.264180 0.000000 0.135882
276.000000 49.100000 4.000000 9.000000 5.000000 83.099032 13.351166 719.559750 1074.882815 20.369754 0.000000 0.143447
277.000000 45.952000 5.000000 9.000000 5.000000 80.612520 7.649807 830.439303 1120.535578 21.766548 0.000000 0.141883
279.000000 48.559000 -1.000000 10.000000 5.000000 80.081103 48.981708 -262.336902 1227.773198 20.594723 0.000000 0.272183
280.000000 48.941000 1.000000 10.000000 5.000000 82.120020 35.257982 214.125542 1123.429541 20.434870 0.000000 0.114672
281.000000 47.952000 2.000000 10.000000 5.000000 81.923573 28.565505 389.025636 1114.895757 20.856965 0.000000 0.114883
282.000000 46.321000 3.000000 10.000000 5.000000 81.015721 22.214620 535.452036 1124.808940 21.592201 0.000000 0.124738
288.000000 56.854000 7.000000 1.000000 6.000000 85.994938 -52.322786 2368.707257 1064.291646 17.588299 0.000000 0.316233
292.000000 76.543000 5.000000 2.000000 6.000000 104.635284 -43.388638 1992.396683 554.241593 13.060254 0.000000 0.112266
293.000000 57.218000 7.000000 2.000000 6.000000 88.275856 -44.780075 2043.063321 986.642292 17.475966 0.000000 0.156390
295.000000 107.987000 2.000000 3.000000 6.000000 137.409728 -15.440155 1272.272532 -273.699818 9.253037 0.000000 0.040013
296.000000 85.168000 4.000000 3.000000 6.000000 114.783462 -29.753865 1590.249187 368.596550 11.735937 0.000000 0.028787
297.000000 74.384000 5.000000 3.000000 6.000000 105.144595 -33.176227 1678.669600 592.961355 13.439591 0.000000 0.050683
298.000000 56.514000 7.000000 3.000000 6.000000 89.503585 -37.300833 1794.941238 952.723115 17.694070 0.000000 0.096082
299.000000 49.466000 8.000000 3.000000 6.000000 83.234833 -38.632859 1835.205517 1104.444516 20.217047 0.000000 0.119997
301.000000 106.177000 1.000000 4.000000 6.000000 137.622448 15.766512 671.118742 -284.736359 9.410747 0.000000 0.042359
302.000000 89.694000 3.000000 4.000000 6.000000 121.420085 -11.501440 1194.002719 270.036010 11.142851 0.000000 0.092019
303.000000 70.822000 5.000000 4.000000 6.000000 104.044557 -23.759468 1448.793133 646.827918 14.116171 0.000000 0.110401
304.000000 54.913000 7.000000 4.000000 6.000000 89.752523 -30.127787 1599.603532 946.374977 18.210312 0.000000 0.107362
306.000000 94.417000 1.000000 5.000000 6.000000 127.005477 23.017755 517.746523 59.620622 10.584355 0.000000 0.023386
307.000000 88.892000 2.000000 5.000000 6.000000 122.288380 9.052100 803.528341 252.323474 11.243160 0.000000 0.092443
308.000000 81.801000 3.000000 5.000000 6.000000 115.832958 -1.639065 1005.798038 419.721727 12.219111 0.000000 0.131814
309.000000 74.068000 4.000000 5.000000 6.000000 108.765463 -9.571720 1156.495160 570.160611 13.496580 0.000000 0.146725
310.000000 66.383000 5.000000 5.000000 6.000000 101.770372 -15.481749 1273.113640 708.287346 15.060946 0.000000 0.147527
311.000000 59.171000 6.000000 5.000000 6.000000 95.193107 -19.967084 1366.039000 836.923980 16.898520 0.000000 0.140623
312.000000 52.642000 7.000000 5.000000 6.000000 89.174472 -23.448039 1441.825910 957.904456 18.996471 0.000000 0.130578
313.000000 46.859000 8.000000 5.000000 6.000000 83.744946 -26.209126 1504.815388 1072.488013 21.342757 0.000000 0.121181
315.000000 83.279000 1.000000 6.000000 6.000000 117.522582 27.332873 418.700843 309.694636 12.001595 0.000000 0.031381
316.000000 61.535000 5.000000 6.000000 6.000000 98.766134 -8.428771 1134.485605 773.219982 16.248536 0.000000 0.165576
317.000000 49.933000 7.000000 6.000000 6.000000 87.957794 -17.372614 1311.725307 981.213256 20.027777 0.000000 0.146152
319.000000 74.679000 0.000000 7.000000 6.000000 109.470559 40.999789 39.398608 436.816279 13.385238 0.000000 0.090598
320.000000 73.293000 1.000000 7.000000 6.000000 109.271539 30.165070 349.459878 505.745625 13.638669 0.000000 0.050278
321.000000 70.366000 2.000000 7.000000 6.000000 107.309048 20.091475 581.313795 583.851039 14.206855 0.000000 0.116820
322.000000 66.318000 3.000000 7.000000 6.000000 104.022872 11.233387 761.236150 666.942847 15.075020 0.000000 0.153326
323.000000 61.607000 4.000000 7.000000 6.000000 99.909190 3.725535 904.917484 752.580499 16.229297 0.000000 0.169065
324.000000 56.632000 5.000000 7.000000 6.000000 95.394406 -2.516668 1022.305732 839.268138 17.656664 0.000000 0.171316
325.000000 51.694000 6.000000 7.000000 6.000000 90.788406 -7.673466 1120.013171 926.055121 19.344874 0.000000 0.164915
326.000000 46.992000 7.000000 7.000000 6.000000 86.290555 -11.940547 1202.606395 1012.322211 21.282404 0.000000 0.153286
327.000000 65.072000 -1.000000 8.000000 6.000000 100.437635 50.582716 -334.496509 628.749297 15.363332 0.000000 0.267026
328.000000 64.604000 1.000000 8.000000 6.000000 102.152782 32.157725 298.329864 667.224220 15.474785 0.000000 0.066521
329.000000 59.473000 3.000000 8.000000 6.000000 98.580785 15.460840 677.309213 772.497347 16.811658 0.000000 0.150308
330.000000 51.905000 5.000000 8.000000 6.000000 91.911732 2.411990 929.664284 905.043148 19.265698 0.000000 0.169232
332.000000 57.307000 -1.000000 9.000000 6.000000 94.247724 49.629172 -290.946857 817.585558 17.446693 0.000000 0.243593
333.000000 57.161000 1.000000 9.000000 6.000000 96.015882 33.632669 259.026866 804.771354 17.491689 0.000000 0.080278
334.000000 55.647000 2.000000 9.000000 6.000000 95.269307 25.932031 451.635801 830.623232 17.968238 0.000000 0.115401
335.000000 50.598000 4.000000 9.000000 6.000000 91.283123 12.283012 740.664155 916.327888 19.763571 0.000000 0.158155
336.000000 47.490000 5.000000 9.000000 6.000000 88.481499 6.526595 851.865654 969.717657 21.058269 0.000000 0.162296
337.000000 50.768000 -1.000000 10.000000 6.000000 88.939468 48.897437 -258.667871 971.307217 19.695688 0.000000 0.237314
338.000000 50.827000 1.000000 10.000000 6.000000 90.710171 34.767082 227.872682 924.759543 19.673295 0.000000 0.092860
339.000000 48.047000 3.000000 10.000000 6.000000 89.149002 21.409523 552.998500 958.172029 20.813363 0.000000 0.134965
340.000000 45.657000 0.000000 11.000000 6.000000 85.583884 41.997194 5.995702 1052.845237 21.902604 0.000000 0.140911
347.000000 73.233000 5.000000 2.000000 7.000000 111.466545 -46.050496 2091.502860 331.168469 13.649013 0.000000 0.180259
348.000000 64.467000 6.000000 2.000000 7.000000 102.787122 -46.428754 2106.356681 586.598057 15.507073 0.000000 0.164161
349.000000 56.750000 7.000000 2.000000 7.000000 95.264185 -46.702692 2117.243273 796.397266 17.617929 0.000000 0.170383
350.000000 50.071000 8.000000 2.000000 7.000000 88.734780 -46.910228 2125.564771 975.796315 19.970199 0.000000 0.188017
352.000000 89.553000 3.000000 3.000000 7.000000 132.131426 -28.449288 1558.147258 -166.297611 11.158422 0.000000 0.079991
353.000000 80.427000 4.000000 3.000000 7.000000 121.608151 -32.927000 1672.005680 151.888363 12.426373 0.000000 0.041630
354.000000 71.576000 5.000000 3.000000 7.000000 112.168309 -35.791181 1750.996099 400.371032 13.965040 0.000000 0.026763
355.000000 63.424000 6.000000 3.000000 7.000000 103.828625 -37.771712 1809.008626 605.835311 15.762237 0.000000 0.050343
356.000000 56.149000 7.000000 3.000000 7.000000 96.508303 -39.219696 1853.420470 782.510356 17.806498 0.000000 0.078667
357.000000 49.780000 8.000000 3.000000 7.000000 90.093334 -40.323177 1888.512692 938.700337 20.087025 0.000000 0.105712
359.000000 91.655000 2.000000 4.000000 7.000000 137.505242 -4.292895 1055.792757 -237.090074 10.901910 0.000000 0.013537
360.000000 84.367000 3.000000 4.000000 7.000000 128.602021 -14.777449 1258.916070 52.350308 11.844955 0.000000 0.043731
361.000000 76.503000 4.000000 4.000000 7.000000 119.664763 -21.558692 1400.237697 281.856980 13.064341 0.000000 0.060882
362.000000 68.711000 5.000000 4.000000 7.000000 111.270707 -26.184411 1504.238753 474.089056 14.547815 0.000000 0.071536
363.000000 61.394000 6.000000 4.000000 7.000000 103.627888 -29.501631 1583.978450 641.189474 16.283838 0.000000 0.078960
364.000000 54.751000 7.000000 4.000000 7.000000 96.774203 -31.981475 1647.059535 790.273821 18.261532 0.000000 0.085897
365.000000 48.848000 8.000000 4.000000 7.000000 90.671383 -33.898857 1698.208575 925.804728 20.470637 0.000000 0.094506
367.000000 88.769000 1.000000 5.000000 7.000000 135.158508 20.960383 562.702979 -217.956392 11.256596 0.000000 0.052740
368.000000 84.149000 2.000000 5.000000 7.000000 130.147505 6.514894 852.088336 27.249195 11.875464 0.000000 0.051865
369.000000 78.225000 3.000000 5.000000 7.000000 123.495282 -4.197593 1053.992648 226.828076 12.776108 0.000000 0.093902
370.000000 71.670000 4.000000 5.000000 7.000000 116.283187 -11.954262 1202.875561 397.672134 13.946218 0.000000 0.114975
371.000000 65.021000 5.000000 5.000000 7.000000 109.146629 -17.637622 1317.198660 548.885938 15.374191 0.000000 0.122903
372.000000 58.640000 6.000000 5.000000 7.000000 102.405548 -21.903503 1407.743967 685.832430 17.049081 0.000000 0.123116
373.000000 52.734000 7.000000 5.000000 7.000000 96.195105 -25.189770 1481.230930 811.892310 18.960553 0.000000 0.119454
374.000000 47.395000 8.000000 5.000000 7.000000 90.550322 -27.783316 1542.065131 929.314858 21.098841 0.000000 0.114981
375.000000 81.948000 0.000000 6.000000 7.000000 127.023117 39.788732 78.623968 -115.373000 12.194560 0.000000 0.172456
376.000000 80.010000 1.000000 6.000000 7.000000 125.992127 25.942993 451.381165 71.647525 12.490361 0.000000 0.023292
377.000000 76.448000 2.000000 6.000000 7.000000 122.641066 13.722777 712.174396 231.336233 13.073178 0.000000 0.077957
378.000000 71.749000 3.000000 6.000000 7.000000 117.758840 3.728463 904.862248 373.320615 13.930657 0.000000 0.122269
379.000000 66.414000 4.000000 6.000000 7.000000 112.099103 -4.147245 1053.041839 502.834497 15.051140 0.000000 0.144056
380.000000 60.870000 5.000000 6.000000 7.000000 106.209654 -10.297006 1170.537726 622.989172 16.423621 0.000000 0.151676
381.000000 55.429000 6.000000 6.000000 7.000000 100.430057 -15.128767 1265.986298 735.766289 18.037700 0.000000 0.150431
382.000000 50.288000 7.000000 6.000000 7.000000 94.946339 -18.974439 1345.060825 842.499972 19.883541 0.000000 0.143937
383.000000 45.554000 8.000000 6.000000 7.000000 89.845570 -22.081904 1411.641866 944.130592 21.951835 0.000000 0.134937
385.000000 71.750000 1.000000 7.000000 7.000000 117.783469 29.150523 374.698584 291.691792 13.929973 0.000000 0.015300
386.000000 69.048000 2.000000 7.000000 7.000000 115.539511 18.726323 610.143268 397.976502 14.475883 0.000000 0.092714
387.000000 65.377000 3.000000 7.000000 7.000000 111.974411 9.677042 791.469491 500.439151 15.289764 0.000000 0.135955
388.000000 61.104000 4.000000 7.000000 7.000000 107.592706 2.106434 935.413049 599.499386 16.360558 0.000000 0.157849
389.000000 56.556000 5.000000 7.000000 7.000000 102.819291 -4.116114 1052.454000 695.457477 17.677808 0.000000 0.165919
390.000000 51.991000 6.000000 7.000000 7.000000 97.959736 -9.208723 1149.489807 788.543037 19.231617 0.000000 0.164935
392.000000 65.236000 0.000000 8.000000 7.000000 110.636429 40.936527 41.482986 404.444092 15.322381 0.000000 0.092811
393.000000 64.249000 1.000000 8.000000 7.000000 110.535776 31.375283 318.664296 468.772659 15.558078 0.000000 0.035832
394.000000 62.219000 2.000000 8.000000 7.000000 109.045541 22.351733 532.443873 539.261022 16.066535 0.000000 0.100378
395.000000 59.376000 3.000000 8.000000 7.000000 106.446157 14.215660 702.342655 613.250738 16.836653 0.000000 0.140601
396.000000 55.985000 4.000000 8.000000 7.000000 103.074118 7.117129 840.613682 689.110107 17.857926 0.000000 0.162075
397.000000 52.292000 5.000000 8.000000 7.000000 99.244312 1.046657 955.336491 765.794794 19.120402 0.000000 0.170710
398.000000 48.506000 6.000000 8.000000 7.000000 95.209657 -4.094962 1052.054600 842.615474 20.614650 0.000000 0.170555
400.000000 58.028000 -1.000000 9.000000 7.000000 102.724750 49.553243 -287.552562 566.363709 17.227658 0.000000 0.243337
401.000000 58.274000 0.000000 9.000000 7.000000 104.035176 41.272352 30.372196 583.019006 17.154752 0.000000 0.088167
402.000000 57.589000 1.000000 9.000000 7.000000 104.168237 33.004431 275.927972 617.007250 17.359220 0.000000 0.054468
403.000000 56.071000 2.000000 9.000000 7.000000 103.201195 25.079356 471.299739 662.254051 17.829929 0.000000 0.103759
404.000000 53.879000 3.000000 9.000000 7.000000 101.310214 17.751457 630.445315 714.974109 18.556331 0.000000 0.139746
405.000000 51.200000 4.000000 9.000000 7.000000 98.721895 11.164264 762.585519 772.697958 19.528432 0.000000 0.160283
406.000000 48.220000 5.000000 9.000000 7.000000 95.665600 5.357981 874.056558 833.755565 20.736748 0.000000 0.169321
408.000000 51.951000 -1.000000 10.000000 7.000000 97.074218 48.807943 -254.785014 738.189877 19.244654 0.000000 0.222214
409.000000 52.217000 0.000000 10.000000 7.000000 98.290197 41.526559 21.885487 731.520798 19.146793 0.000000 0.097620
410.000000 51.751000 1.000000 10.000000 7.000000 98.576311 34.247066 242.257960 744.634868 19.319587 0.000000 0.070172
411.000000 50.618000 2.000000 10.000000 7.000000 97.978463 27.197081 421.929182 771.397994 19.752455 0.000000 0.104891
412.000000 48.929000 3.000000 10.000000 7.000000 96.610444 20.563881 571.221750 807.781129 20.435363 0.000000 0.135744
413.000000 46.816000 4.000000 10.000000 7.000000 94.627048 14.470641 697.239688 851.038041 21.358784 0.000000 0.154813
415.000000 46.702000 -1.000000 11.000000 7.000000 92.135141 48.222447 -229.719183 880.771078 21.409358 0.000000 0.215439
416.000000 46.973000 0.000000 11.000000 7.000000 93.269252 41.725670 15.191431 858.625696 21.285931 0.000000 0.112275
417.000000 46.665000 1.000000 11.000000 7.000000 93.655632 35.225302 215.045875 856.822304 21.426800 0.000000 0.083950
418.000000 45.822000 2.000000 11.000000 7.000000 93.321866 28.884631 381.230264 869.653171 21.821899 0.000000 0.105301
423.000000 55.574000 7.000000 2.000000 8.000000 101.315758 -48.606255 2196.084913 615.284772 17.988717 0.000000 0.208570
426.000000 75.531000 4.000000 3.000000 8.000000 127.161502 -36.132977 1760.796566 -69.105766 13.230640 0.000000 0.118725
427.000000 68.279000 5.000000 3.000000 8.000000 118.036733 -38.416276 1828.558267 209.476297 14.637814 0.000000 0.084009
428.000000 61.400000 6.000000 3.000000 8.000000 109.870607 -39.988872 1877.761985 433.294019 16.279963 0.000000 0.070981
429.000000 55.087000 7.000000 3.000000 8.000000 102.607021 -41.136313 1915.113242 621.382618 18.147744 0.000000 0.080721
430.000000 49.417000 8.000000 3.000000 8.000000 96.161399 -42.009835 1944.434304 784.627633 20.232302 0.000000 0.101166
432.000000 78.949000 3.000000 4.000000 8.000000 134.439551 -18.224142 1329.370141 -170.177940 12.656840 0.000000 0.036704
433.000000 66.007000 5.000000 4.000000 8.000000 117.392516 -28.653880 1563.128358 305.445573 15.142242 0.000000 0.024414
434.000000 53.900000 7.000000 4.000000 8.000000 102.933696 -33.848356 1696.832404 643.388697 18.547943 0.000000 0.056334
436.000000 79.111000 2.000000 5.000000 8.000000 136.651466 3.733859 904.760453 -201.624545 12.630673 0.000000 0.016150
437.000000 74.188000 3.000000 5.000000 8.000000 129.899599 -6.920126 1105.629540 34.487217 13.469945 0.000000 0.053497
438.000000 68.675000 4.000000 5.000000 8.000000 122.654442 -14.438691 1252.120265 228.742608 14.552806 0.000000 0.076774
439.000000 62.983000 5.000000 5.000000 8.000000 115.492837 -19.856148 1363.681645 395.359936 15.869822 0.000000 0.089332
440.000000 57.411000 6.000000 5.000000 8.000000 108.702541 -23.878986 1451.475794 542.533555 17.412043 0.000000 0.095347
441.000000 52.149000 7.000000 5.000000 8.000000 102.408409 -26.956341 1522.366675 675.331448 19.170965 0.000000 0.097746
442.000000 47.300000 8.000000 5.000000 8.000000 96.647175 -29.373593 1580.807270 797.066261 21.138512 0.000000 0.098868
443.000000 76.105000 1.000000 6.000000 8.000000 133.173887 24.398413 486.807207 -167.806791 13.130039 0.000000 0.059508
444.000000 68.971000 3.000000 6.000000 8.000000 124.522600 1.613882 944.675399 200.364395 14.490102 0.000000 0.089694
445.000000 59.487000 5.000000 6.000000 8.000000 112.713028 -12.232087 1208.334072 480.023397 16.803581 0.000000 0.128265
446.000000 49.989000 7.000000 6.000000 8.000000 101.190140 -20.608140 1379.726944 713.524195 20.000277 0.000000 0.130976
448.000000 70.705000 0.000000 7.000000 8.000000 125.856260 39.891327 75.355095 -72.806709 14.134012 0.000000 0.164774
449.000000 69.362000 1.000000 7.000000 8.000000 125.166093 28.041814 401.716248 81.851445 14.408006 0.000000 0.028249
450.000000 66.924000 2.000000 7.000000 8.000000 122.693528 17.253344 640.732873 217.654369 14.933689 0.000000 0.064381
451.000000 63.655000 3.000000 7.000000 8.000000 118.918377 8.021187 823.330825 340.528471 15.701562 0.000000 0.111236
452.000000 59.845000 4.000000 7.000000 8.000000 114.348237 0.405778 967.377380 453.931005 16.702602 0.000000 0.137755
453.000000 55.759000 5.000000 7.000000 8.000000 109.400668 -5.778379 1083.915660 560.027045 17.928224 0.000000 0.150670
454.000000 51.612000 6.000000 7.000000 8.000000 104.371978 -10.790987 1180.138649 660.251066 19.370262 0.000000 0.154482
455.000000 47.564000 7.000000 7.000000 8.000000 99.452154 -14.877766 1260.932585 755.598481 21.020943 0.000000 0.152257
457.000000 63.002000 1.000000 8.000000 8.000000 117.946395 30.530858 340.233179 278.109147 15.864173 0.000000 0.002388
458.000000 58.488000 3.000000 8.000000 8.000000 113.433236 12.895918 728.576396 462.433605 17.090139 0.000000 0.122776
459.000000 51.988000 5.000000 8.000000 8.000000 105.829531 -0.374010 982.025839 635.833665 19.229930 0.000000 0.162195
460.000000 57.809000 -1.000000 9.000000 8.000000 110.357044 49.471770 -283.922125 326.444650 17.290677 0.000000 0.263477
461.000000 57.901000 0.000000 9.000000 8.000000 111.529130 40.886813 43.118150 379.368377 17.263136 0.000000 0.094907
462.000000 57.167000 1.000000 9.000000 8.000000 111.491892 32.332884 293.730109 439.449449 17.485324 0.000000 0.024956
463.000000 55.694000 2.000000 9.000000 8.000000 110.333899 24.173060 491.902321 503.806261 17.948163 0.000000 0.085590
464.000000 53.621000 3.000000 9.000000 8.000000 108.242097 16.678563 652.535134 570.676442 18.643012 0.000000 0.127777
465.000000 51.106000 4.000000 9.000000 8.000000 105.450757 9.992156 785.372214 638.931188 19.561635 0.000000 0.153106
466.000000 48.308000 5.000000 9.000000 8.000000 102.193191 4.142187 897.053680 707.821737 20.696185 0.000000 0.166413
467.000000 52.302000 -1.000000 10.000000 8.000000 104.498310 48.712728 -250.669078 519.205372 19.113079 0.000000 0.225979
468.000000 51.905000 1.000000 10.000000 8.000000 105.739514 33.695360 257.326864 576.415751 19.259520 0.000000 0.044829
469.000000 49.131000 3.000000 10.000000 8.000000 103.420005 19.674948 590.161712 668.270861 20.348568 0.000000 0.128572
471.000000 47.429000 -1.000000 11.000000 8.000000 99.314543 48.121088 -225.438148 676.558065 21.078790 0.000000 0.206531
472.000000 47.589000 0.000000 11.000000 8.000000 100.353048 41.438818 24.822236 678.714886 21.007879 0.000000 0.093096
473.000000 47.212000 1.000000 11.000000 8.000000 100.614042 34.760516 228.055436 695.491000 21.175947 0.000000 0.061514
474.000000 46.341000 2.000000 11.000000 8.000000 100.131355 28.262710 396.378505 722.643870 21.574710 0.000000 0.094394
479.000000 53.968000 7.000000 2.000000 9.000000 106.562287 -50.486913 2280.041930 437.921373 18.522412 0.000000 0.266503
480.000000 48.781000 8.000000 2.000000 9.000000 100.127201 -50.238334 2268.567393 640.428101 20.494005 0.000000 0.246554
482.000000 64.830000 5.000000 3.000000 9.000000 122.957958 -41.040534 1911.945964 15.795133 15.415481 0.000000 0.156449
483.000000 53.589000 7.000000 3.000000 9.000000 107.918717 -43.046414 1980.291923 464.780207 18.653490 0.000000 0.112269
484.000000 48.586000 8.000000 3.000000 9.000000 101.525850 -43.689936 2003.167523 637.468303 20.576414 0.000000 0.115614
487.000000 68.487000 4.000000 4.000000 9.000000 130.656982 -27.442290 1533.906218 -100.554519 14.590887 0.000000 0.061248
488.000000 63.039000 5.000000 4.000000 9.000000 122.588448 -31.159715 1625.793115 136.991059 15.853702 0.000000 0.032164
489.000000 57.684000 6.000000 4.000000 9.000000 115.136354 -33.782483 1695.039803 333.404092 17.327548 0.000000 0.013700
490.000000 52.598000 7.000000 4.000000 9.000000 108.334000 -35.724573 1749.096053 501.674543 19.004998 0.000000 0.030778
491.000000 47.882000 8.000000 4.000000 9.000000 102.163845 -37.217370 1792.466232 649.679303 20.878972 0.000000 0.053534
493.000000 74.155000 2.000000 5.000000 9.000000 142.053220 0.687216 962.090117 -439.333813 13.473831 0.000000 0.011135
494.000000 70.062000 3.000000 5.000000 9.000000 135.265033 -9.809452 1161.091169 -161.415370 14.262173 0.000000 0.023537
495.000000 65.432000 4.000000 5.000000 9.000000 128.061341 -17.021753 1304.503061 59.640449 15.272767 0.000000 0.039447
496.000000 60.580000 5.000000 5.000000 9.000000 120.954767 -22.133167 1412.763718 244.098911 16.497794 0.000000 0.051264
497.000000 55.748000 6.000000 5.000000 9.000000 114.197167 -25.889897 1497.385921 403.401991 17.929799 0.000000 0.060560
498.000000 51.102000 7.000000 5.000000 9.000000 107.899880 -28.744863 1565.349730 544.509306 19.561665 0.000000 0.068192
499.000000 46.746000 8.000000 5.000000 9.000000 102.098759 -30.977719 1621.133325 671.905233 21.386600 0.000000 0.075126
501.000000 69.336000 2.000000 6.000000 9.000000 135.503535 9.577496 793.393250 -169.863991 14.411416 0.000000 0.021774
502.000000 61.895000 4.000000 6.000000 9.000000 124.447511 -8.373117 1133.417337 194.780129 16.146713 0.000000 0.082894
503.000000 57.662000 5.000000 6.000000 9.000000 118.390026 -14.233017 1248.004360 340.870281 17.333498 0.000000 0.098799
504.000000 49.222000 7.000000 6.000000 9.000000 106.757280 -22.271946 1415.804951 590.796222 20.309597 0.000000 0.110090
506.000000 66.523000 1.000000 7.000000 9.000000 131.572919 26.826154 430.707825 -128.801597 15.021550 0.000000 0.064590
507.000000 64.352000 2.000000 7.000000 9.000000 128.911533 15.661434 673.248879 38.682493 15.529091 0.000000 0.037965
508.000000 61.472000 3.000000 7.000000 9.000000 124.977945 6.259012 856.955285 183.472431 16.257601 0.000000 0.082798
509.000000 58.110000 4.000000 7.000000 9.000000 120.279864 -1.379524 1000.919205 312.389519 17.199574 0.000000 0.112106
510.000000 54.478000 5.000000 7.000000 9.000000 115.223562 -7.504271 1116.778449 429.613685 18.347839 0.000000 0.128709
511.000000 50.755000 6.000000 7.000000 9.000000 110.092527 -12.419924 1212.031038 537.856860 19.695541 0.000000 0.136531
512.000000 47.077000 7.000000 7.000000 9.000000 105.067572 -16.397795 1291.725626 638.961465 21.236129 0.000000 0.138357
514.000000 62.163000 0.000000 8.000000 9.000000 124.962889 39.967145 72.933091 -40.965326 16.076308 0.000000 0.159017
515.000000 61.186000 1.000000 8.000000 9.000000 124.488336 29.617195 363.152443 90.483113 16.333366 0.000000 0.034530
516.000000 59.438000 2.000000 8.000000 9.000000 122.607774 19.996606 583.333118 208.303129 16.814525 0.000000 0.052132
517.000000 57.073000 3.000000 8.000000 9.000000 119.627884 11.496246 756.098884 316.354943 17.512259 0.000000 0.099988
518.000000 54.266000 4.000000 8.000000 9.000000 115.896921 4.236272 895.276819 417.019485 18.419374 0.000000 0.129687
519.000000 51.186000 5.000000 8.000000 9.000000 111.728204 -1.851590 1009.793998 511.852597 19.528990 0.000000 0.146584
520.000000 47.982000 6.000000 8.000000 9.000000 107.366946 -6.922323 1105.671408 601.919852 20.834528 0.000000 0.154527
522.000000 56.143000 1.000000 9.000000 9.000000 118.053174 31.613593 312.507304 267.496036 17.802276 0.000000 0.008714
523.000000 54.748000 2.000000 9.000000 9.000000 116.730314 23.208422 513.512398 351.241953 18.256492 0.000000 0.063589
524.000000 50.498000 4.000000 9.000000 9.000000 111.519149 8.763830 809.076512 511.607576 19.795179 0.000000 0.139270
525.000000 47.909000 5.000000 9.000000 9.000000 108.105671 2.877460 920.901770 588.650642 20.866146 0.000000 0.156206
527.000000 52.013000 -1.000000 10.000000 9.000000 111.246395 48.611224 -246.298429 308.071696 19.217305 0.000000 0.245482
528.000000 52.043000 0.000000 10.000000 9.000000 112.234521 40.846717 44.435191 359.365754 19.206326 0.000000 0.096803
529.000000 51.476000 1.000000 10.000000 9.000000 112.239376 33.109087 273.129312 415.601478 19.417881 0.000000 0.018246
530.000000 50.371000 2.000000 10.000000 9.000000 111.322450 25.669183 457.727332 474.883515 19.844741 0.000000 0.072413
531.000000 48.810000 3.000000 10.000000 9.000000 109.613108 18.739775 609.861516 536.001362 20.479988 0.000000 0.115463
532.000000 46.896000 4.000000 10.000000 9.000000 107.278620 12.448633 737.403454 598.151715 21.316994 0.000000 0.143366
534.000000 47.573000 -1.000000 11.000000 9.000000 105.912277 48.013799 -220.925005 482.312360 21.012796 0.000000 0.212762
535.000000 47.641000 0.000000 11.000000 9.000000 106.854778 41.135317 34.919743 508.055645 20.982669 0.000000 0.087831
536.000000 47.219000 1.000000 11.000000 9.000000 106.997888 34.269724 241.634899 542.870263 21.170682 0.000000 0.037627
537.000000 46.346000 2.000000 11.000000 9.000000 106.380930 27.608141 412.132204 583.965876 21.569901 0.000000 0.079128
542.000000 56.529000 6.000000 3.000000 10.000000 119.481678 -44.400779 2029.013902 89.334331 17.679926 0.000000 0.191720
543.000000 51.839000 7.000000 3.000000 10.000000 112.552209 -44.945817 2049.260556 309.492770 19.281458 0.000000 0.162882
544.000000 47.446000 8.000000 3.000000 10.000000 106.270414 -45.360651 2064.929860 493.934023 21.068813 0.000000 0.149400
546.000000 60.012000 5.000000 4.000000 10.000000 127.010943 -33.692962 1692.608058 -34.176102 16.652122 0.000000 0.089232
547.000000 51.024000 7.000000 4.000000 10.000000 113.072146 -37.606151 1804.042250 362.299991 19.589790 0.000000 0.049164
549.000000 66.051000 3.000000 5.000000 10.000000 139.772376 -12.865323 1220.818824 -364.141556 15.127511 0.000000 0.040709
550.000000 62.154000 4.000000 5.000000 10.000000 132.660002 -19.698331 1360.333782 -112.431986 16.077288 0.000000 0.033987
551.000000 53.839000 6.000000 5.000000 10.000000 118.994994 -27.932121 1545.641257 265.873128 18.563847 0.000000 0.022446
552.000000 49.758000 7.000000 5.000000 10.000000 112.753076 -30.552204 1610.307390 416.832305 20.088280 0.000000 0.032860
553.000000 45.872000 8.000000 5.000000 10.000000 106.969935 -32.593333 1663.142458 551.168721 21.792345 0.000000 0.046158
555.000000 62.685000 3.000000 6.000000 10.000000 135.287627 -3.037651 1032.115426 -147.684632 15.940601 0.000000 0.024203
556.000000 55.595000 5.000000 6.000000 10.000000 123.347688 -16.298089 1289.691497 203.069785 17.976469 0.000000 0.066378
557.000000 48.138000 7.000000 6.000000 10.000000 111.717319 -23.963817 1453.382896 471.876112 20.765086 0.000000 0.083423
559.000000 63.496000 1.000000 7.000000 10.000000 137.145219 25.488555 461.897839 -344.147010 15.736548 0.000000 0.095893
560.000000 61.576000 2.000000 7.000000 10.000000 134.323646 13.938364 707.879178 -142.069685 16.227876 0.000000 0.025783
561.000000 59.052000 3.000000 7.000000 10.000000 130.269266 4.383609 892.493386 26.553108 16.922393 0.000000 0.053627
562.000000 56.102000 4.000000 7.000000 10.000000 125.488253 -3.252220 1036.158257 172.381762 17.813755 0.000000 0.083552
563.000000 52.893000 5.000000 7.000000 10.000000 120.372823 -9.294201 1151.138096 301.837064 18.895882 0.000000 0.102472
564.000000 49.573000 6.000000 7.000000 10.000000 115.191111 -14.094882 1245.244225 419.023557 20.162939 0.000000 0.113337
565.000000 46.259000 7.000000 7.000000 10.000000 110.112757 -17.950805 1323.687813 526.692603 21.609329 0.000000 0.118555
566.000000 59.040000 1.000000 8.000000 10.000000 130.265803 28.625941 387.553004 -97.613844 16.925537 0.000000 0.068721
567.000000 55.329000 3.000000 8.000000 10.000000 125.117555 10.010987 785.007474 172.372167 18.062385 0.000000 0.074868
568.000000 50.044000 5.000000 8.000000 10.000000 117.005309 -3.387484 1038.707728 391.514960 19.972840 0.000000 0.126082
570.000000 55.457000 0.000000 9.000000 10.000000 124.257023 40.025459 71.066599 -16.241147 18.020578 0.000000 0.154555
571.000000 54.718000 1.000000 9.000000 10.000000 123.925734 30.841534 332.341921 97.823491 18.264102 0.000000 0.040658
572.000000 53.417000 2.000000 9.000000 10.000000 122.459987 22.180225 536.205724 201.671539 18.709589 0.000000 0.041277
573.000000 51.649000 3.000000 9.000000 10.000000 120.064326 14.347388 699.707823 297.932452 19.350928 0.000000 0.089103
574.000000 49.525000 4.000000 9.000000 10.000000 116.983050 7.476357 833.754977 388.302993 20.182251 0.000000 0.120883
575.000000 47.155000 5.000000 9.000000 10.000000 113.451113 1.562096 945.648950 473.931915 21.197923 0.000000 0.140735
577.000000 50.624000 1.000000 10.000000 10.000000 118.125794 32.485030 289.720203 258.974205 19.743122 0.000000 0.017788
578.000000 48.103000 3.000000 10.000000 10.000000 115.233917 17.755198 630.367824 408.386568 20.779143 0.000000 0.098304
580.000000 47.262000 -1.000000 11.000000 10.000000 111.957547 47.900045 -216.160350 293.764193 21.148948 0.000000 0.231459
581.000000 47.257000 0.000000 11.000000 10.000000 112.805917 40.813694 45.518717 343.034877 21.151235 0.000000 0.098489
582.000000 46.808000 1.000000 11.000000 10.000000 112.839308 33.750758 255.822551 395.814013 21.354203 0.000000 0.016748
583.000000 45.953000 2.000000 11.000000 10.000000 112.101933 26.918471 428.528400 450.808457 21.751961 0.000000 0.060694
588.000000 49.967000 7.000000 3.000000 11.000000 116.603521 -46.830482 2122.359601 153.097466 20.002714 0.000000 0.223908
589.000000 46.117000 8.000000 3.000000 11.000000 110.472209 -47.019245 2129.961854 351.614662 21.674747 0.000000 0.196702
592.000000 57.047000 5.000000 4.000000 11.000000 130.787192 -36.244044 1763.999597 -210.401767 17.516920 0.000000 0.149688
593.000000 53.139000 6.000000 4.000000 11.000000 123.748864 -38.113424 1819.329791 27.000619 18.806921 0.000000 0.118427
594.000000 49.301000 7.000000 4.000000 11.000000 117.235766 -39.489045 1861.882967 223.160727 20.272683 0.000000 0.094594
595.000000 45.624000 8.000000 4.000000 11.000000 111.239317 -40.542593 1895.626776 390.527167 21.909029 0.000000 0.082707
598.000000 58.963000 4.000000 5.000000 11.000000 136.580838 -22.461310 1419.964435 -289.754951 16.946559 0.000000 0.070067
599.000000 55.431000 5.000000 5.000000 11.000000 129.729073 -26.841268 1519.648735 -61.486760 18.027966 0.000000 0.050491
600.000000 51.816000 6.000000 5.000000 11.000000 123.190548 -30.001095 1596.426211 128.019882 19.287477 0.000000 0.027294
601.000000 48.238000 7.000000 5.000000 11.000000 117.045631 -32.375014 1657.378922 290.390830 20.719897 0.000000 0.007320
604.000000 59.545000 3.000000 6.000000 11.000000 139.562814 -5.586248 1080.270762 -328.006584 16.780382 0.000000 0.015262
605.000000 56.604000 4.000000 6.000000 11.000000 133.687130 -12.988836 1223.261230 -114.061635 17.653385 0.000000 0.027111
606.000000 53.421000 5.000000 6.000000 11.000000 127.682247 -18.424817 1333.553303 64.761131 18.706786 0.000000 0.036466
607.000000 50.133000 6.000000 6.000000 11.000000 121.788520 -22.518011 1421.212131 218.915474 19.935373 0.000000 0.044976
608.000000 46.850000 7.000000 6.000000 11.000000 116.137064 -25.681448 1492.556305 354.976303 21.334137 0.000000 0.052805
610.000000 58.754000 2.000000 7.000000 11.000000 139.044598 12.070762 744.836914 -327.121148 17.006306 0.000000 0.034371
611.000000 56.546000 3.000000 7.000000 11.000000 134.896408 2.388130 930.113276 -132.341591 17.671208 0.000000 0.026312
612.000000 53.962000 4.000000 7.000000 11.000000 130.065599 -5.214585 1073.226701 32.017953 18.518750 0.000000 0.054546
613.000000 51.136000 5.000000 7.000000 11.000000 124.928193 -11.148112 1187.099255 174.923739 19.543708 0.000000 0.074133
614.000000 48.188000 6.000000 7.000000 11.000000 119.735173 -15.814855 1279.861995 302.029893 20.741056 0.000000 0.086787
616.000000 56.733000 1.000000 8.000000 11.000000 135.376254 27.547451 413.583262 -288.967432 17.612726 0.000000 0.098964
617.000000 55.300000 2.000000 8.000000 11.000000 133.210195 17.281539 640.152050 -117.869052 18.069932 0.000000 0.029039
618.000000 53.405000 3.000000 8.000000 11.000000 129.985250 8.434231 815.409585 28.484979 18.711969 0.000000 0.049793
619.000000 51.162000 4.000000 8.000000 11.000000 126.055778 1.063839 955.013617 157.289337 19.533602 0.000000 0.081150
620.000000 48.682000 5.000000 8.000000 11.000000 121.725008 -4.982875 1068.839411 273.093755 20.529792 0.000000 0.102463
621.000000 46.070000 6.000000 8.000000 11.000000 117.221861 -9.929964 1163.423499 378.920298 21.695686 0.000000 0.115808
624.000000 53.046000 1.000000 9.000000 11.000000 129.183440 30.010992 353.325869 -72.115228 18.838498 0.000000 0.072225
625.000000 51.845000 2.000000 9.000000 11.000000 127.592663 21.082704 560.065843 52.914860 19.275479 0.000000 0.026487
626.000000 50.235000 3.000000 9.000000 11.000000 125.082085 13.080277 724.928998 164.934500 19.894186 0.000000 0.066727
627.000000 48.306000 4.000000 9.000000 11.000000 121.899800 6.126758 859.468921 267.222546 20.689568 0.000000 0.099661
628.000000 46.152000 5.000000 9.000000 11.000000 118.279699 0.194462 971.347043 361.963718 21.656759 0.000000 0.121609
630.000000 50.053000 0.000000 10.000000 11.000000 123.685279 40.071703 69.584163 3.516156 19.966273 0.000000 0.151001
631.000000 49.478000 1.000000 10.000000 11.000000 123.452881 31.819576 307.160054 104.115328 20.198734 0.000000 0.046241
632.000000 48.480000 2.000000 10.000000 11.000000 122.287403 23.954814 496.819631 196.827575 20.615000 0.000000 0.031786
633.000000 47.122000 3.000000 10.000000 11.000000 120.330309 16.717826 651.731198 283.510305 21.210010 0.000000 0.078836
634.000000 45.476000 4.000000 10.000000 11.000000 117.756883 10.236159 780.642786 365.407766 21.978888 0.000000 0.111912
637.000000 46.088000 1.000000 11.000000 11.000000 118.176625 33.201214 270.660188 251.980757 21.685971 0.000000 0.025527
640.000000 47.517000 7.000000 4.000000 12.000000 120.902028 -41.369195 1922.853111 82.599841 21.032553 0.000000 0.147090
643.000000 52.896000 5.000000 5.000000 12.000000 133.249465 -29.259328 1577.983948 -219.520990 18.890803 0.000000 0.095432
644.000000 49.764000 6.000000 5.000000 12.000000 126.866420 -32.091859 1649.945047 -11.692514 20.081576 0.000000 0.071769
645.000000 46.627000 7.000000 5.000000 12.000000 120.847484 -34.209764 1706.717003 163.706721 21.434316 0.000000 0.049830
646.000000 51.230000 5.000000 6.000000 12.000000 131.477945 -20.609892 1379.764501 -75.546614 19.505983 0.000000 0.032030
649.000000 54.050000 3.000000 7.000000 12.000000 138.949856 0.265989 970.003401 -294.961967 18.486288 0.000000 0.003142
650.000000 51.787000 4.000000 7.000000 12.000000 134.093640 -7.268275 1112.270787 -110.216974 19.295535 0.000000 0.028941
651.000000 49.299000 5.000000 7.000000 12.000000 128.961959 -13.065405 1224.776568 47.485917 20.270600 0.000000 0.046560
652.000000 46.685000 6.000000 7.000000 12.000000 123.787347 -17.578460 1315.975373 185.551718 21.407108 0.000000 0.058927
654.000000 51.401000 3.000000 8.000000 12.000000 134.306506 6.759878 847.424025 -116.904581 19.440365 0.000000 0.027295
655.000000 47.192000 5.000000 8.000000 12.000000 125.947733 -6.638668 1100.267662 155.257120 21.176779 0.000000 0.077296
656.000000 51.238000 1.000000 9.000000 12.000000 133.896215 29.115453 375.562029 -244.388704 19.502099 0.000000 0.100947
657.000000 50.137000 2.000000 9.000000 12.000000 132.194457 19.909497 585.185118 -96.759479 19.930957 0.000000 0.032076
658.000000 46.934000 4.000000 9.000000 12.000000 126.324825 4.712034 886.284912 146.981394 21.292819 0.000000 0.077058
660.000000 48.141000 1.000000 10.000000 12.000000 128.274860 31.108666 325.515738 -50.883225 20.758131 0.000000 0.075271
661.000000 45.957000 3.000000 10.000000 12.000000 124.950429 15.624034 674.006516 159.895465 21.746191 0.000000 0.058791
663.000000 45.607000 0.000000 11.000000 12.000000 123.212770 40.109273 68.378303 19.668802 21.913031 0.000000 0.148106
670.000000 47.740000 6.000000 5.000000 13.000000 130.093750 -34.199118 1706.424628 -154.556883 20.932109 0.000000 0.119328
674.000000 49.077000 5.000000 6.000000 13.000000 134.807395 -22.849140 1428.519047 -219.116145 20.360458 0.000000 0.060522
675.000000 46.550000 6.000000 6.000000 13.000000 129.091635 -26.441983 1510.260452 -35.584415 21.467503 0.000000 0.043660
677.000000 51.624000 3.000000 7.000000 13.000000 142.506900 -1.988868 1012.375654 -462.849520 19.354548 0.000000 0.014327
678.000000 49.638000 4.000000 7.000000 13.000000 137.643446 -9.414167 1153.452785 -255.605256 20.130054 0.000000 0.022021
679.000000 47.446000 5.000000 7.000000 13.000000 132.538203 -15.044876 1264.295885 -81.615391 21.061206 0.000000 0.028476
682.000000 49.386000 3.000000 8.000000 13.000000 138.148289 4.981715 881.182549 -265.141605 20.232272 0.000000 0.012215
683.000000 47.611000 4.000000 8.000000 13.000000 134.114572 -2.424165 1020.564837 -103.467372 20.987732 0.000000 0.031401
684.000000 45.638000 5.000000 8.000000 13.000000 129.728739 -8.355435 1133.078006 36.934873 21.896604 0.000000 0.052323
687.000000 48.368000 2.000000 9.000000 13.000000 136.325880 18.653589 611.665922 -248.797056 20.658774 0.000000 0.048212
688.000000 47.049000 3.000000 9.000000 13.000000 133.634728 10.318919 779.037022 -102.056319 21.238808 0.000000 0.027422
689.000000 45.477000 4.000000 9.000000 13.000000 130.309791 3.229211 914.275350 26.467717 21.973833 0.000000 0.054344
691.000000 46.691000 1.000000 10.000000 13.000000 132.643520 30.347719 344.861342 -207.600031 21.401498 0.000000 0.102333
692.000000 45.825000 2.000000 10.000000 13.000000 131.280581 22.021331 539.682699 -78.262462 21.806430 0.000000 0.035081
697.000000 46.999000 5.000000 6.000000 14.000000 137.732666 -25.137522 1480.032854 -367.074226 21.259969 0.000000 0.096231
700.000000 47.553000 4.000000 7.000000 14.000000 140.776112 -11.652183 1196.953234 -405.289124 21.011695 0.000000 0.040213
701.000000 45.619000 5.000000 7.000000 14.000000 135.712967 -17.084647 1305.795674 -213.359005 21.903905 0.000000 0.038365
703.000000 47.407000 3.000000 8.000000 14.000000 141.568993 3.093541 916.831670 -417.416323 21.076108 0.000000 0.013755
705.000000 46.591000 2.000000 9.000000 14.000000 140.041064 17.307261 639.622037 -404.464578 21.445842 0.000000 0.063084
#UB matrix in q= (UB) B0 G* 
#[[-0.120096754 -0.248128468 -0.960186789]
# [-0.74245352   0.665028795 -0.078997641]
# [ 0.659044414  0.70434467  -0.264520559]]
#B0 matrix in q= UB (B0) G*
#[[ 0.19670273 -0.          0.03056101]
# [ 0.          0.19187965 -0.        ]
# [ 0.          0.          0.18806537]]
#UBB0 matrix in q= (UB B0) G* i.e. recip. basis vectors are columns in LT frame: astar = UBB0[:,0], bstar = UBB0[:,1], cstar = UBB0[:,2]. (abcstar as columns on xyzlab1, xlab1 = ui, ui = unit vector along incident beam)
#[[-0.02362336 -0.0476108  -0.18424816]
# [-0.14604264  0.12760549 -0.03754685]
# [ 0.12963584  0.13514941 -0.0296061 ]]
#Euler angles phi theta psi (deg)
#[136.898 105.314  94.695]
#deviatoric strain in direct crystal frame (10-3 unit)
#[[-0.67 -0.17  0.05]
# [-0.17 -0.6   0.52]
# [ 0.05  0.52  1.26]]
#deviatoric strain in sample2 frame (10-3 unit)
#[[ 0.61 -0.15 -1.07]
# [-0.15 -0.51  0.09]
# [-1.07  0.09 -0.11]]
#new lattice parameters
#[ 5.1505     5.211954   5.3223528 89.9656136 99.2180148 90.0191317]
#CCDLabel
#sCMOS
#DetectorParameters
#[79.0, 975.0, 941.0, 0.0, 0.0]
#pixelsize
#0.0734
#Frame dimensions
#[2018, 2016]
#
