#Strain and Orientation Refinement from experimental file: /home/micha/LaueProjects/DepthEffects/testZrO2_46.cor
#File created at Wed Jun 28 14:21:05 2023 with indexingSpotsSet.py
#Number of indexed spots: 545
#Element
#ZrO2
#grainIndex
#G_0
#Mean Deviation(pixel): 0.115
##spot_index intensity h k l 2theta Chi Xexp Yexp Energy GrainIndex PixDev
27.000000 45.894000 8.000000 14.000000 -7.000000 138.410030 -22.624570 1423.559689 -372.789161 21.779122 0.000000 0.086419
48.000000 53.382000 7.000000 12.000000 -6.000000 138.758510 -21.244160 1393.421671 -376.153607 18.724048 0.000000 0.079518
49.000000 52.054000 4.000000 6.000000 -3.000000 140.505052 -11.392087 1191.864317 -391.128946 9.600742 0.000000 0.037629
50.000000 50.442000 3.000000 4.000000 -2.000000 141.096687 -1.620401 1005.447159 -393.241883 6.604927 0.000000 0.003561
51.000000 48.637000 5.000000 6.000000 -3.000000 140.691014 7.540661 832.526041 -385.021427 10.275170 0.000000 0.026680
52.000000 46.714000 11.000000 12.000000 -6.000000 139.505157 15.738513 671.686554 -368.502092 21.396319 0.000000 0.055959
56.000000 50.773000 5.000000 13.000000 -6.000000 127.723166 -38.775751 1839.613093 -126.915347 19.688622 0.000000 0.168884
57.000000 50.524000 6.000000 13.000000 -6.000000 131.713604 -31.388214 1631.668977 -182.871377 19.784832 0.000000 0.109466
58.000000 49.858000 7.000000 13.000000 -6.000000 134.759207 -23.302734 1438.586435 -221.079255 20.048305 0.000000 0.066691
59.000000 48.850000 8.000000 13.000000 -6.000000 136.810259 -14.773027 1258.827220 -244.744840 20.461794 0.000000 0.036541
60.000000 47.574000 9.000000 13.000000 -6.000000 137.885885 -6.154502 1091.058294 -256.470439 21.010344 0.000000 0.016287
61.000000 46.102000 10.000000 13.000000 -6.000000 138.075432 2.175241 934.118714 -258.379573 21.680922 0.000000 0.013079
63.000000 46.867000 2.000000 7.000000 -3.000000 119.642611 -44.408763 2029.307733 83.624728 10.665892 0.000000 0.206573
64.000000 47.184000 5.000000 14.000000 -6.000000 124.201020 -38.516004 1831.614075 6.126738 21.187357 0.000000 0.137530
65.000000 47.095000 3.000000 7.000000 -3.000000 128.056729 -31.977321 1646.951096 -52.342739 10.613275 0.000000 0.086927
66.000000 46.645000 7.000000 14.000000 -6.000000 131.128771 -24.876887 1474.071554 -94.989021 21.430506 0.000000 0.052326
67.000000 45.889000 4.000000 7.000000 -3.000000 133.371829 -17.380234 1311.882461 -124.443438 10.891432 0.000000 0.032353
86.000000 63.772000 6.000000 10.000000 -5.000000 139.204544 -19.295176 1351.811164 -380.318982 15.673288 0.000000 0.070289
87.000000 61.725000 7.000000 10.000000 -5.000000 140.873417 -7.441466 1115.578364 -393.363483 16.192753 0.000000 0.023310
88.000000 59.252000 8.000000 10.000000 -5.000000 140.959761 3.977116 900.170141 -389.409681 16.868532 0.000000 0.014836
89.000000 56.526000 9.000000 10.000000 -5.000000 139.793705 14.185318 702.949125 -372.386017 17.682339 0.000000 0.050080
90.000000 53.685000 4.000000 4.000000 -2.000000 137.763758 22.838999 521.705259 -345.328672 7.447453 0.000000 0.086062
91.000000 50.832000 11.000000 10.000000 -5.000000 135.213373 29.961200 354.572627 -310.599701 19.664122 0.000000 0.124517
95.000000 60.013000 4.000000 11.000000 -5.000000 126.091883 -40.066782 1880.257976 -84.243937 16.657660 0.000000 0.175874
96.000000 59.771000 5.000000 11.000000 -5.000000 130.949747 -31.518123 1635.022351 -154.577498 16.724157 0.000000 0.104761
97.000000 58.830000 6.000000 11.000000 -5.000000 134.501232 -22.015208 1410.183464 -199.906834 16.990888 0.000000 0.057325
98.000000 57.335000 7.000000 11.000000 -5.000000 136.673231 -11.975797 1203.298253 -225.454657 17.433597 0.000000 0.027558
99.000000 55.432000 8.000000 11.000000 -5.000000 137.525117 -1.984784 1012.298845 -235.309026 18.031792 0.000000 0.013796
100.000000 53.258000 9.000000 11.000000 -5.000000 137.240622 7.389037 835.423187 -232.692944 18.768044 0.000000 0.022006
101.000000 50.927000 10.000000 11.000000 -5.000000 136.075761 15.764452 671.160534 -220.163808 19.627436 0.000000 0.040343
102.000000 48.530000 11.000000 11.000000 -5.000000 134.294266 22.996933 518.208182 -199.762554 20.597125 0.000000 0.064060
103.000000 46.137000 12.000000 11.000000 -5.000000 132.123197 29.120538 375.436855 -173.126275 21.665993 0.000000 0.092579
106.000000 54.321000 3.000000 12.000000 -5.000000 116.498178 -46.181652 2096.630069 166.017724 18.405614 0.000000 0.224047
107.000000 54.986000 4.000000 12.000000 -5.000000 122.058791 -39.608144 1865.645770 66.051802 18.181522 0.000000 0.138345
108.000000 54.985000 5.000000 12.000000 -5.000000 126.701410 -32.176290 1652.156817 -6.865477 18.181006 0.000000 0.078646
109.000000 54.396000 6.000000 12.000000 -5.000000 130.294217 -24.002263 1454.248028 -57.957665 18.377111 0.000000 0.042119
110.000000 53.321000 7.000000 12.000000 -5.000000 132.769305 -15.341254 1270.273913 -91.375379 18.747046 0.000000 0.028427
111.000000 51.869000 8.000000 12.000000 -5.000000 134.142492 -6.562244 1098.812819 -110.439348 19.271412 0.000000 0.028703
112.000000 50.146000 9.000000 12.000000 -5.000000 134.514822 1.935389 938.630121 -117.822897 19.933594 0.000000 0.029626
113.000000 48.244000 10.000000 12.000000 -5.000000 134.050467 9.822911 788.648445 -115.690304 20.719275 0.000000 0.029449
114.000000 46.244000 11.000000 12.000000 -5.000000 132.940585 16.903577 647.923404 -105.802677 21.616059 0.000000 0.033503
116.000000 48.615000 2.000000 13.000000 -5.000000 107.531974 -50.375083 2274.864918 407.860174 20.568845 0.000000 0.285475
117.000000 49.896000 3.000000 13.000000 -5.000000 113.343005 -45.153696 2057.084140 282.351898 20.039103 0.000000 0.184982
118.000000 50.604000 4.000000 13.000000 -5.000000 118.530059 -39.252448 1854.446008 185.398980 19.757303 0.000000 0.109689
119.000000 50.764000 5.000000 13.000000 -5.000000 122.961321 -32.679473 1665.424246 111.823828 19.693694 0.000000 0.056469
120.000000 50.430000 6.000000 13.000000 -5.000000 126.532902 -25.514093 1488.691029 57.464296 19.823101 0.000000 0.027902
121.000000 49.675000 7.000000 13.000000 -5.000000 129.184115 -17.921794 1323.085742 18.952464 20.124077 0.000000 0.030316
122.000000 48.577000 8.000000 13.000000 -5.000000 130.909873 -10.145000 1167.589465 -6.453327 20.578242 0.000000 0.040077
123.000000 47.219000 9.000000 13.000000 -5.000000 131.764184 -2.463442 1021.303990 -20.997197 21.169749 0.000000 0.044476
124.000000 45.676000 10.000000 13.000000 -5.000000 131.850982 4.862719 883.434456 -26.525251 21.884863 0.000000 0.042973
125.000000 46.049000 3.000000 14.000000 -5.000000 110.563184 -44.320771 2026.073610 376.642962 21.714089 0.000000 0.156505
126.000000 46.769000 4.000000 14.000000 -5.000000 115.422593 -38.968554 1845.588295 283.008939 21.378068 0.000000 0.088313
127.000000 47.037000 5.000000 14.000000 -5.000000 119.650883 -33.076592 1676.001007 209.821276 21.255047 0.000000 0.038392
128.000000 46.889000 6.000000 14.000000 -5.000000 123.164224 -26.701444 1516.353608 153.693925 21.321463 0.000000 0.016878
129.000000 46.375000 7.000000 14.000000 -5.000000 125.909143 -19.955707 1365.797082 111.845990 21.557105 0.000000 0.033974
130.000000 45.555000 8.000000 14.000000 -5.000000 127.870613 -13.004767 1223.576426 81.981311 21.944538 0.000000 0.048946
139.000000 79.139000 5.000000 8.000000 -4.000000 139.782314 -16.344471 1290.637485 -385.429946 12.629904 0.000000 0.057307
140.000000 71.529000 7.000000 8.000000 -4.000000 140.181203 11.773156 750.676637 -377.688230 13.973471 0.000000 0.041304
148.000000 73.269000 3.000000 9.000000 -4.000000 123.654655 -41.837260 1938.578327 -20.782895 13.644277 0.000000 0.186798
149.000000 73.147000 4.000000 9.000000 -4.000000 129.835135 -31.700956 1639.757711 -114.301889 13.666152 0.000000 0.097881
150.000000 71.719000 5.000000 9.000000 -4.000000 134.093391 -20.183964 1370.657214 -169.987146 13.937455 0.000000 0.045541
151.000000 69.310000 6.000000 9.000000 -4.000000 136.318723 -8.041222 1127.053024 -197.205923 14.421569 0.000000 0.020962
152.000000 66.245000 7.000000 9.000000 -4.000000 136.685112 3.695423 905.485509 -202.919775 15.088709 0.000000 0.019465
153.000000 62.809000 8.000000 9.000000 -4.000000 135.593696 14.178075 703.093875 -192.356657 15.914400 0.000000 0.033941
154.000000 59.223000 9.000000 9.000000 -4.000000 133.517201 23.029233 517.491972 -169.478564 16.878345 0.000000 0.059235
155.000000 55.647000 10.000000 9.000000 -4.000000 130.867258 30.275812 346.673778 -137.311933 17.963570 0.000000 0.093104
156.000000 52.186000 11.000000 9.000000 -4.000000 127.943994 36.142103 188.940598 -98.184350 19.155770 0.000000 0.133563
157.000000 48.902000 12.000000 9.000000 -4.000000 124.943582 40.895141 42.844389 -53.896294 20.442805 0.000000 0.178939
160.000000 64.307000 1.000000 5.000000 -2.000000 111.919919 -48.460844 2189.855414 287.883582 7.774296 0.000000 0.253137
161.000000 65.758000 3.000000 10.000000 -4.000000 118.967641 -41.047063 1912.161588 150.985901 15.203932 0.000000 0.140646
162.000000 66.010000 2.000000 5.000000 -2.000000 124.773096 -32.443625 1659.187199 55.495452 7.572340 0.000000 0.067054
163.000000 65.212000 5.000000 10.000000 -4.000000 129.101157 -22.815370 1427.772224 -7.964484 15.329177 0.000000 0.030975
164.000000 63.575000 3.000000 5.000000 -2.000000 131.843422 -12.584432 1215.273244 -46.510861 7.861748 0.000000 0.031908
165.000000 61.326000 7.000000 10.000000 -4.000000 133.059194 -2.365560 1019.462022 -65.599331 16.299728 0.000000 0.037121
166.000000 58.681000 4.000000 5.000000 -2.000000 132.964468 7.230669 838.447067 -69.449100 8.517350 0.000000 0.035251
167.000000 55.816000 9.000000 10.000000 -4.000000 131.865034 15.791477 670.612341 -61.348833 17.909019 0.000000 0.031786
168.000000 52.873000 5.000000 5.000000 -2.000000 130.074401 23.160899 514.568875 -43.879774 9.453162 0.000000 0.039563
169.000000 49.951000 11.000000 10.000000 -4.000000 127.858703 29.376685 369.116241 -19.080408 20.012721 0.000000 0.062482
170.000000 47.119000 6.000000 5.000000 -2.000000 125.418087 34.574841 233.211612 11.430703 10.608166 0.000000 0.094610
173.000000 58.022000 2.000000 11.000000 -4.000000 108.544283 -47.035836 2130.632573 411.247069 17.233698 0.000000 0.205527
174.000000 59.434000 3.000000 11.000000 -4.000000 114.987300 -40.458431 1892.892517 281.768772 16.822862 0.000000 0.108631
175.000000 59.908000 4.000000 11.000000 -4.000000 120.441974 -32.985375 1673.563140 186.933204 16.688394 0.000000 0.042513
176.000000 59.535000 5.000000 11.000000 -4.000000 124.730806 -24.723965 1470.585568 119.585716 16.792037 0.000000 0.020815
177.000000 58.453000 6.000000 11.000000 -4.000000 127.756580 -15.929854 1282.196885 74.158119 17.102284 0.000000 0.040749
178.000000 56.821000 7.000000 11.000000 -4.000000 129.526927 -6.985655 1106.878805 46.279742 17.592951 0.000000 0.052788
179.000000 54.799000 8.000000 11.000000 -4.000000 130.155684 1.686154 943.316655 32.493459 18.242099 0.000000 0.054314
180.000000 52.527000 9.000000 11.000000 -4.000000 129.834691 9.734097 790.366355 30.045825 19.031208 0.000000 0.047562
181.000000 50.122000 10.000000 11.000000 -4.000000 128.788289 16.947222 647.027615 36.730200 19.944536 0.000000 0.036043
182.000000 47.675000 11.000000 11.000000 -4.000000 127.231723 23.257435 512.422034 50.768299 20.968616 0.000000 0.028493
184.000000 50.647000 1.000000 12.000000 -4.000000 99.078420 -51.118443 2309.745040 667.023210 19.746146 0.000000 0.288090
185.000000 52.732000 1.000000 6.000000 -2.000000 105.640962 -45.910156 2086.043545 507.911966 9.481772 0.000000 0.173436
186.000000 54.074000 3.000000 12.000000 -4.000000 111.573829 -40.003053 1878.215853 385.437593 18.491500 0.000000 0.087447
187.000000 54.674000 2.000000 6.000000 -2.000000 116.705182 -33.397957 1684.630253 292.464038 9.143628 0.000000 0.025013
188.000000 54.586000 5.000000 12.000000 -4.000000 120.896920 -26.168655 1503.871266 223.372793 18.315562 0.000000 0.020289
189.000000 53.902000 3.000000 6.000000 -2.000000 124.064384 -18.479983 1334.704970 173.703235 9.273546 0.000000 0.048377
190.000000 52.735000 7.000000 12.000000 -4.000000 126.191778 -10.580855 1176.050796 139.887302 18.957251 0.000000 0.064193
191.000000 51.200000 4.000000 6.000000 -2.000000 127.336226 -2.763825 1026.958425 119.051423 9.762631 0.000000 0.069736
192.000000 49.408000 9.000000 12.000000 -4.000000 127.616085 4.695969 886.588734 108.867032 20.233449 0.000000 0.066898
193.000000 47.454000 5.000000 6.000000 -2.000000 127.186676 11.593386 754.197995 107.436627 10.533340 0.000000 0.057371
194.000000 46.391000 1.000000 13.000000 -4.000000 97.100501 -49.794037 2248.353457 733.313904 21.558472 0.000000 0.252302
195.000000 48.239000 2.000000 13.000000 -4.000000 103.123353 -44.999109 2051.260800 586.145375 20.730951 0.000000 0.151900
196.000000 49.497000 3.000000 13.000000 -4.000000 108.619674 -39.640322 1866.664639 470.098485 20.202234 0.000000 0.074911
197.000000 50.162000 4.000000 13.000000 -4.000000 113.455269 -33.722616 1693.413002 379.538403 19.933190 0.000000 0.018386
198.000000 50.265000 5.000000 13.000000 -4.000000 117.520224 -27.298923 1530.491281 309.951195 19.891238 0.000000 0.026833
199.000000 49.867000 6.000000 13.000000 -4.000000 120.741559 -20.480961 1377.002360 257.694065 20.049025 0.000000 0.054958
200.000000 49.047000 7.000000 13.000000 -4.000000 123.093362 -13.437303 1232.150079 219.807460 20.383424 0.000000 0.072541
201.000000 47.892000 8.000000 13.000000 -4.000000 124.600870 -6.373695 1095.225426 193.872195 20.874744 0.000000 0.080997
202.000000 46.486000 9.000000 13.000000 -4.000000 125.335878 0.500660 965.594928 177.899743 21.506118 0.000000 0.081788
203.000000 45.560000 3.000000 14.000000 -4.000000 106.041514 -39.344599 1857.336586 540.834780 21.948929 0.000000 0.069077
204.000000 46.251000 2.000000 7.000000 -2.000000 110.607509 -33.984734 1700.552494 452.915106 10.809811 0.000000 0.023694
205.000000 46.480000 5.000000 14.000000 -4.000000 114.532010 -28.206686 1552.265648 383.583979 21.512073 0.000000 0.034882
206.000000 46.287000 3.000000 7.000000 -2.000000 117.752254 -22.089292 1411.803482 329.818759 10.800360 0.000000 0.060589
207.000000 45.729000 7.000000 14.000000 -4.000000 120.238706 -15.750799 1278.562589 289.131294 21.863788 0.000000 0.078739
214.000000 87.385000 5.000000 7.000000 -3.000000 135.422956 -2.173056 1015.840184 -152.089178 11.438750 0.000000 0.024191
215.000000 81.879000 6.000000 7.000000 -3.000000 134.751797 11.686163 752.381224 -148.594900 12.208024 0.000000 0.028779
216.000000 75.944000 7.000000 7.000000 -3.000000 132.291941 23.078140 516.406844 -123.246159 13.162476 0.000000 0.051829
217.000000 70.037000 8.000000 7.000000 -3.000000 128.903457 31.947416 303.829389 -82.609140 14.273030 0.000000 0.093661
218.000000 64.428000 9.000000 7.000000 -3.000000 125.169940 38.745111 111.333499 -31.380926 15.516394 0.000000 0.147074
219.000000 59.249000 10.000000 7.000000 -3.000000 121.424941 43.984370 -63.798049 27.046803 16.873690 0.000000 0.207749
225.000000 81.419000 2.000000 8.000000 -3.000000 114.140737 -43.025996 1979.574024 281.165262 12.280375 0.000000 0.147826
226.000000 82.451000 3.000000 8.000000 -3.000000 121.813567 -32.821852 1669.205446 146.479022 12.125433 0.000000 0.049977
227.000000 81.334000 4.000000 8.000000 -3.000000 127.260051 -21.114507 1390.620525 63.345106 12.291077 0.000000 0.026922
228.000000 78.579000 5.000000 8.000000 -3.000000 130.290947 -8.672879 1139.174808 17.973937 12.721467 0.000000 0.045886
229.000000 74.750000 6.000000 8.000000 -3.000000 131.099619 3.398388 911.086719 0.447283 13.373023 0.000000 0.048162
230.000000 70.342000 7.000000 8.000000 -3.000000 130.181413 14.170459 703.246064 3.533650 14.211232 0.000000 0.037367
231.000000 65.731000 8.000000 8.000000 -3.000000 128.122338 23.228251 513.071368 21.898205 15.208404 0.000000 0.031105
232.000000 61.173000 9.000000 8.000000 -3.000000 125.423569 30.603125 338.402105 51.565365 16.342072 0.000000 0.054774
233.000000 56.823000 10.000000 8.000000 -3.000000 122.439992 36.540153 177.416255 89.546823 17.593810 0.000000 0.096206
234.000000 52.763000 11.000000 8.000000 -3.000000 119.395051 41.326605 28.566507 133.579980 18.948366 0.000000 0.145260
235.000000 49.027000 12.000000 8.000000 -3.000000 116.418096 45.216780 -109.469629 181.941418 20.393007 0.000000 0.198696
236.000000 45.620000 13.000000 8.000000 -3.000000 113.577986 48.413367 -237.829230 233.312152 21.917018 0.000000 0.254873
238.000000 68.563000 1.000000 9.000000 -3.000000 101.324490 -49.457854 2233.303268 609.398647 14.585824 0.000000 0.246302
239.000000 71.613000 2.000000 9.000000 -3.000000 109.677281 -42.050932 1945.833539 422.667413 13.962865 0.000000 0.113279
240.000000 72.559000 4.000000 9.000000 -3.000000 122.068848 -23.645995 1446.250700 204.850730 13.778595 0.000000 0.031099
241.000000 70.894000 5.000000 9.000000 -3.000000 125.596124 -13.219479 1227.828625 149.587623 14.101527 0.000000 0.060165
242.000000 65.027000 7.000000 9.000000 -3.000000 127.543565 7.065100 841.606182 107.500650 15.373487 0.000000 0.064384
243.000000 61.467000 8.000000 9.000000 -3.000000 126.588105 15.819658 670.040544 110.566925 16.263843 0.000000 0.048163
244.000000 57.809000 3.000000 3.000000 -1.000000 124.847600 23.331246 510.778481 124.896813 5.764475 0.000000 0.027084
245.000000 54.203000 10.000000 9.000000 -3.000000 122.637599 29.641736 362.542308 147.895846 18.444336 0.000000 0.027853
246.000000 50.746000 11.000000 9.000000 -3.000000 120.189995 34.897901 224.225333 177.543061 19.701625 0.000000 0.060585
247.000000 47.491000 4.000000 3.000000 -1.000000 117.661208 39.274462 94.864174 212.254966 7.017567 0.000000 0.101979
250.000000 61.020000 1.000000 10.000000 -3.000000 98.496748 -47.904069 2166.328533 701.147583 16.389856 0.000000 0.208001
251.000000 63.696000 2.000000 10.000000 -3.000000 105.997171 -41.326809 1921.440293 530.103448 15.699498 0.000000 0.094783
252.000000 65.062000 3.000000 10.000000 -3.000000 112.464968 -33.815984 1695.951127 405.336488 15.368342 0.000000 0.019224
253.000000 65.186000 4.000000 10.000000 -3.000000 117.649777 -25.468669 1487.643780 316.441555 15.338016 0.000000 0.039651
254.000000 64.244000 5.000000 10.000000 -3.000000 121.404304 -16.539810 1294.626495 255.553918 15.562146 0.000000 0.069882
255.000000 62.471000 6.000000 10.000000 -3.000000 123.717146 -7.425608 1115.275401 216.660833 16.003425 0.000000 0.084009
256.000000 60.111000 7.000000 10.000000 -3.000000 124.713973 1.426985 948.188713 195.118805 16.631496 0.000000 0.084989
257.000000 57.385000 8.000000 10.000000 -3.000000 124.620127 9.641834 792.150023 187.309526 17.421411 0.000000 0.075510
258.000000 54.474000 9.000000 10.000000 -3.000000 123.701502 16.992463 646.098634 190.391014 18.352476 0.000000 0.057821
259.000000 51.514000 10.000000 10.000000 -3.000000 122.211586 23.406297 509.105423 202.115221 19.407379 0.000000 0.034107
260.000000 48.600000 11.000000 10.000000 -3.000000 120.361224 28.920421 380.353044 220.692729 20.571528 0.000000 0.012336
261.000000 45.794000 12.000000 10.000000 -3.000000 118.310267 33.629246 259.119620 244.691274 21.832538 0.000000 0.034394
263.000000 51.578000 0.000000 11.000000 -3.000000 88.715729 -51.870660 2346.202309 980.079056 19.392959 0.000000 0.317200
264.000000 54.859000 1.000000 11.000000 -3.000000 96.114120 -46.678143 2116.263171 772.960878 18.231246 0.000000 0.183995
265.000000 57.211000 2.000000 11.000000 -3.000000 102.918205 -40.767963 1902.982615 615.046487 17.479941 0.000000 0.086874
266.000000 58.571000 3.000000 11.000000 -3.000000 108.898644 -34.133116 1704.613610 495.846740 17.072774 0.000000 0.029596
267.000000 58.966000 4.000000 11.000000 -3.000000 113.865068 -26.841116 1519.645160 407.341584 16.957018 0.000000 0.048295
268.000000 58.504000 5.000000 11.000000 -3.000000 117.693858 -19.055469 1346.763746 343.329461 17.090191 0.000000 0.076721
269.000000 57.336000 6.000000 11.000000 -3.000000 120.348964 -11.031373 1184.822087 298.966788 17.437687 0.000000 0.093260
270.000000 55.633000 7.000000 11.000000 -3.000000 121.887099 -3.074714 1032.813645 270.436691 17.971030 0.000000 0.098718
271.000000 53.559000 8.000000 11.000000 -3.000000 122.442407 4.523390 889.851685 254.707270 18.666576 0.000000 0.094904
272.000000 51.258000 9.000000 11.000000 -3.000000 122.195265 11.544644 755.151969 249.352857 19.504526 0.000000 0.083470
273.000000 48.846000 10.000000 11.000000 -3.000000 121.337585 17.868568 628.018358 252.420293 20.468180 0.000000 0.065815
274.000000 46.408000 11.000000 11.000000 -3.000000 120.046174 23.463419 507.830785 262.327792 21.543350 0.000000 0.043117
275.000000 46.964000 0.000000 4.000000 -1.000000 87.364667 -50.472132 2279.356239 1018.836575 7.099677 0.000000 0.283485
276.000000 49.753000 1.000000 12.000000 -3.000000 94.083829 -45.687052 2077.421200 830.998670 20.102912 0.000000 0.168837
277.000000 51.828000 2.000000 12.000000 -3.000000 100.308468 -40.323683 1888.529055 684.232020 19.296332 0.000000 0.085279
278.000000 53.136000 1.000000 4.000000 -1.000000 105.863181 -34.381933 1711.455685 570.412373 6.273320 0.000000 0.041378
279.000000 53.686000 4.000000 12.000000 -3.000000 110.599734 -27.910685 1545.125508 483.201388 18.625942 0.000000 0.055914
280.000000 53.541000 5.000000 12.000000 -3.000000 114.414837 -21.020363 1388.589610 417.604785 18.675233 0.000000 0.081663
281.000000 52.803000 2.000000 4.000000 -1.000000 117.263904 -13.882529 1241.007637 369.652261 6.311893 0.000000 0.099247
282.000000 51.589000 7.000000 12.000000 -3.000000 119.166473 -6.710353 1101.632696 336.162289 19.380546 0.000000 0.107705
283.000000 50.022000 8.000000 12.000000 -3.000000 120.200295 0.276884 969.798719 314.567037 19.987435 0.000000 0.108085
284.000000 48.212000 3.000000 4.000000 -1.000000 120.485068 6.891829 844.909813 302.780500 6.912477 0.000000 0.101603
285.000000 46.256000 10.000000 12.000000 -3.000000 120.161044 13.004378 726.431259 299.098124 21.614454 0.000000 0.089365
286.000000 45.466000 1.000000 13.000000 -3.000000 92.335805 -44.869672 2046.408999 879.053759 21.999455 0.000000 0.159257
287.000000 47.304000 2.000000 13.000000 -3.000000 98.070863 -39.962055 1876.904160 741.878064 21.142583 0.000000 0.086955
288.000000 48.540000 3.000000 13.000000 -3.000000 103.251852 -34.582356 1716.996625 633.132953 20.603012 0.000000 0.051622
289.000000 49.171000 4.000000 13.000000 -3.000000 107.761079 -28.767121 1565.893739 547.706989 20.337109 0.000000 0.062412
290.000000 49.237000 5.000000 13.000000 -3.000000 111.512088 -22.594089 1422.887799 481.508006 20.308892 0.000000 0.085315
291.000000 48.803000 6.000000 13.000000 -3.000000 114.459085 -16.182943 1287.344966 431.233729 20.488421 0.000000 0.103093
292.000000 47.954000 7.000000 13.000000 -3.000000 116.601603 -9.685596 1158.695878 394.200102 20.850582 0.000000 0.113499
293.000000 46.778000 8.000000 13.000000 -3.000000 117.982660 -3.266515 1036.427649 368.211312 21.374152 0.000000 0.116934
294.000000 45.486000 5.000000 14.000000 -3.000000 108.933873 -23.881076 1451.522743 537.222788 21.984352 0.000000 0.088084
296.000000 83.747000 7.000000 5.000000 -2.000000 120.369596 42.564768 -13.482562 84.680457 11.937860 0.000000 0.173415
301.000000 78.678000 7.000000 6.000000 -2.000000 121.432151 32.390727 292.207205 161.996326 12.707013 0.000000 0.042417
302.000000 64.556000 9.000000 6.000000 -2.000000 113.921062 44.541367 -84.200004 271.164474 15.488153 0.000000 0.170921
303.000000 58.658000 5.000000 3.000000 -1.000000 110.391672 48.637137 -247.412531 335.557006 8.523122 0.000000 0.244446
308.000000 88.776000 1.000000 7.000000 -2.000000 100.923090 -44.247006 2023.369839 651.037233 11.265098 0.000000 0.137722
309.000000 89.736000 4.000000 7.000000 -2.000000 121.998523 -9.338884 1152.000046 259.462043 11.141302 0.000000 0.089134
310.000000 84.994000 5.000000 7.000000 -2.000000 123.536096 3.084741 916.997464 226.605718 11.762622 0.000000 0.090453
311.000000 79.272000 6.000000 7.000000 -2.000000 122.982429 14.162441 703.406280 220.620252 12.611792 0.000000 0.071705
312.000000 73.251000 7.000000 7.000000 -2.000000 121.078187 23.436672 508.427759 233.966423 13.648637 0.000000 0.038638
313.000000 67.364000 8.000000 7.000000 -2.000000 118.444334 30.943901 329.730576 261.220968 14.841900 0.000000 0.009868
314.000000 61.845000 9.000000 7.000000 -2.000000 115.505626 36.952331 165.357146 298.436261 16.166901 0.000000 0.057968
315.000000 56.799000 10.000000 7.000000 -2.000000 112.517926 41.771297 13.651619 342.710392 17.603894 0.000000 0.114254
316.000000 52.251000 11.000000 7.000000 -2.000000 109.621435 45.670808 -126.796101 391.892979 19.136889 0.000000 0.174185
317.000000 48.184000 12.000000 7.000000 -2.000000 106.885400 48.863511 -257.194315 444.380469 20.752803 0.000000 0.236366
320.000000 76.327000 1.000000 8.000000 -2.000000 97.269345 -43.078612 1981.425040 753.037284 13.103296 0.000000 0.123201
321.000000 80.542000 3.000000 8.000000 -2.000000 112.626744 -24.508489 1465.688150 447.970332 12.414884 0.000000 0.069493
322.000000 76.264000 5.000000 8.000000 -2.000000 119.785237 -3.180771 1034.811863 324.018184 13.109996 0.000000 0.108827
323.000000 67.872000 7.000000 8.000000 -2.000000 119.815169 15.849071 669.443583 299.848258 14.730814 0.000000 0.081394
324.000000 63.289000 4.000000 4.000000 -1.000000 118.236883 23.508351 506.827391 310.689160 7.898821 0.000000 0.051326
325.000000 58.810000 9.000000 8.000000 -2.000000 116.128961 29.916153 355.699516 331.894582 17.001448 0.000000 0.014106
326.000000 54.570000 5.000000 4.000000 -1.000000 113.762580 35.231049 214.884073 360.877437 9.161395 0.000000 0.029769
327.000000 50.639000 11.000000 8.000000 -2.000000 111.314927 39.639533 83.360362 395.658800 19.745733 0.000000 0.076876
328.000000 47.040000 6.000000 4.000000 -1.000000 108.894035 43.314475 -39.761919 434.714973 10.628551 0.000000 0.127038
331.000000 62.008000 0.000000 9.000000 -2.000000 85.648099 -48.786292 2203.847691 1065.315233 16.132033 0.000000 0.249724
332.000000 66.758000 1.000000 9.000000 -2.000000 94.365269 -42.213451 1951.384563 830.069841 14.982470 0.000000 0.118655
333.000000 69.753000 2.000000 9.000000 -2.000000 102.079194 -34.668626 1719.389890 660.949976 14.337484 0.000000 0.056125
334.000000 70.932000 3.000000 9.000000 -2.000000 108.421836 -26.237231 1505.471424 541.331598 14.097818 0.000000 0.076059
335.000000 70.473000 4.000000 9.000000 -2.000000 113.156359 -17.172160 1307.595735 459.191668 14.188646 0.000000 0.104449
336.000000 68.708000 5.000000 9.000000 -2.000000 116.227895 -7.883035 1124.023359 405.687895 14.552491 0.000000 0.118620
337.000000 66.021000 6.000000 9.000000 -2.000000 117.766509 1.157288 953.257535 374.222546 15.144476 0.000000 0.119019
338.000000 62.769000 7.000000 9.000000 -2.000000 118.035927 9.545917 794.003298 359.810475 15.929047 0.000000 0.108105
339.000000 59.241000 8.000000 9.000000 -2.000000 117.353621 17.039388 645.134583 358.643500 16.877673 0.000000 0.088218
340.000000 55.649000 9.000000 9.000000 -2.000000 116.021006 23.560250 505.667555 367.784555 17.967195 0.000000 0.061426
341.000000 52.135000 10.000000 9.000000 -2.000000 114.285192 29.148889 374.738842 384.949374 19.178615 0.000000 0.030135
342.000000 48.785000 11.000000 9.000000 -2.000000 112.329801 33.906330 251.587647 408.348376 20.496205 0.000000 0.016141
343.000000 45.645000 12.000000 9.000000 -2.000000 110.282178 37.952560 135.540951 436.570601 21.906831 0.000000 0.051889
345.000000 55.300000 0.000000 5.000000 -1.000000 84.225047 -47.457640 2147.827107 1101.989482 9.044758 0.000000 0.228064
346.000000 59.210000 1.000000 10.000000 -2.000000 92.006012 -41.547313 1928.810355 890.628971 16.893052 0.000000 0.118485
347.000000 61.849000 1.000000 5.000000 -1.000000 98.997230 -34.885287 1725.422484 733.252612 8.085274 0.000000 0.067540
348.000000 63.154000 3.000000 10.000000 -2.000000 104.928640 -27.532027 1536.048228 617.396850 15.835141 0.000000 0.081061
349.000000 63.210000 2.000000 5.000000 -1.000000 109.611631 -19.648946 1359.287494 533.791082 7.909985 0.000000 0.106995
350.000000 62.213000 5.000000 10.000000 -2.000000 112.971081 -11.497247 1193.920688 475.439367 16.072733 0.000000 0.123514
351.000000 60.410000 3.000000 5.000000 -1.000000 115.053979 -3.396651 1038.880536 436.995335 8.275966 0.000000 0.128919
352.000000 58.051000 7.000000 10.000000 -2.000000 116.009243 4.344675 893.229023 414.327783 17.224217 0.000000 0.124564
353.000000 55.357000 4.000000 5.000000 -1.000000 116.046325 11.494226 756.138402 404.213191 9.031240 0.000000 0.112133
354.000000 52.502000 9.000000 10.000000 -2.000000 115.389875 17.923664 626.875452 404.114509 19.044461 0.000000 0.093204
355.000000 49.618000 5.000000 5.000000 -1.000000 114.245763 23.599563 504.788358 412.019660 10.075855 0.000000 0.069273
356.000000 46.793000 11.000000 10.000000 -2.000000 112.783797 28.554413 389.295723 426.322078 21.368805 0.000000 0.042300
358.000000 49.854000 0.000000 11.000000 -2.000000 83.029126 -46.384603 2104.612327 1131.771643 20.066060 0.000000 0.213527
359.000000 53.126000 1.000000 11.000000 -2.000000 90.053726 -41.018741 1911.226583 939.662366 18.828238 0.000000 0.120084
360.000000 55.451000 2.000000 11.000000 -2.000000 96.442063 -35.054780 1730.163955 792.544810 18.037241 0.000000 0.076505
361.000000 56.771000 3.000000 11.000000 -2.000000 101.990264 -28.537105 1560.282915 680.806249 17.616416 0.000000 0.085031
362.000000 57.126000 4.000000 11.000000 -2.000000 106.547327 -21.574392 1400.578703 597.128515 17.505693 0.000000 0.108099
363.000000 56.633000 5.000000 11.000000 -2.000000 110.036045 -14.340955 1250.163439 535.869643 17.657335 0.000000 0.125572
364.000000 55.451000 6.000000 11.000000 -2.000000 112.461628 -7.057539 1108.249610 492.631390 18.032922 0.000000 0.134234
365.000000 53.756000 7.000000 11.000000 -2.000000 113.904480 0.045980 974.136276 463.951197 18.601188 0.000000 0.134549
366.000000 51.711000 8.000000 11.000000 -2.000000 114.499097 6.771770 847.197492 447.079195 19.336427 0.000000 0.127655
367.000000 49.458000 9.000000 11.000000 -2.000000 114.406478 12.982074 726.872540 439.814421 20.217314 0.000000 0.114750
368.000000 47.108000 10.000000 11.000000 -2.000000 113.788835 18.606183 612.657647 440.382919 21.226004 0.000000 0.096965
369.000000 48.131000 1.000000 12.000000 -2.000000 88.412770 -40.589176 1897.143120 980.272811 20.783055 0.000000 0.122298
370.000000 50.184000 1.000000 6.000000 -1.000000 94.291317 -35.190993 1733.988733 842.175438 9.965576 0.000000 0.083708
371.000000 51.464000 3.000000 12.000000 -2.000000 99.489666 -29.339461 1579.963262 734.617373 19.433716 0.000000 0.088309
372.000000 51.989000 2.000000 6.000000 -1.000000 103.885856 -23.110942 1434.321380 651.709480 9.618254 0.000000 0.108436
373.000000 51.826000 5.000000 12.000000 -2.000000 107.407630 -16.626371 1296.396742 588.828464 19.295816 0.000000 0.125981
374.000000 51.082000 3.000000 6.000000 -1.000000 110.039678 -10.041922 1165.591802 542.308837 9.788012 0.000000 0.136705
375.000000 49.879000 7.000000 12.000000 -2.000000 111.821823 -3.528648 1041.369150 509.218815 20.047816 0.000000 0.140353
376.000000 48.337000 4.000000 6.000000 -1.000000 112.838392 2.753067 923.244134 487.194906 10.343423 0.000000 0.137615
377.000000 46.567000 9.000000 12.000000 -2.000000 113.201896 8.675306 810.778543 474.318213 21.472721 0.000000 0.129374
378.000000 45.784000 2.000000 13.000000 -2.000000 92.457261 -35.302851 1737.139227 884.405011 21.847406 0.000000 0.089622
379.000000 46.999000 3.000000 13.000000 -2.000000 97.338990 -29.994571 1596.262821 780.943040 21.280914 0.000000 0.091116
380.000000 47.613000 4.000000 13.000000 -2.000000 101.560638 -24.363936 1462.412110 699.315391 21.005111 0.000000 0.108393
381.000000 47.668000 5.000000 13.000000 -2.000000 105.057217 -18.497668 1335.074309 635.681734 20.979855 0.000000 0.125449
382.000000 47.233000 6.000000 13.000000 -2.000000 107.803991 -12.508963 1213.785350 586.952679 21.172068 0.000000 0.137400
383.000000 46.394000 7.000000 13.000000 -2.000000 109.816845 -6.526064 1098.124233 550.623183 21.554252 0.000000 0.143417
385.000000 81.623000 7.000000 4.000000 -1.000000 104.349193 49.015894 -263.828839 521.195980 12.251447 0.000000 0.232845
390.000000 88.166000 6.000000 5.000000 -1.000000 111.134049 32.856322 279.877302 445.731283 11.341378 0.000000 0.020596
391.000000 78.249000 7.000000 5.000000 -1.000000 107.620064 39.825861 77.442079 495.898479 12.779382 0.000000 0.070862
392.000000 69.665000 8.000000 5.000000 -1.000000 104.155459 45.117719 -105.726069 556.314566 14.354628 0.000000 0.148692
393.000000 62.345000 9.000000 5.000000 -1.000000 100.930644 49.208043 -272.252848 622.839730 16.040866 0.000000 0.231231
399.000000 90.708000 0.000000 6.000000 -1.000000 82.011603 -45.500465 2070.262800 1156.494777 11.028783 0.000000 0.203393
400.000000 89.326000 5.000000 6.000000 -1.000000 113.035671 14.153987 703.575175 469.020832 11.194119 0.000000 0.116511
401.000000 81.455000 6.000000 6.000000 -1.000000 111.580658 23.655173 503.543834 476.234055 12.275922 0.000000 0.080372
402.000000 73.842000 7.000000 6.000000 -1.000000 109.256462 31.298964 320.629478 500.966091 13.541995 0.000000 0.039407
403.000000 66.857000 8.000000 6.000000 -1.000000 106.579056 37.379357 152.725166 537.758816 14.957357 0.000000 0.045030
404.000000 60.625000 9.000000 6.000000 -1.000000 103.844693 42.229780 -1.943881 582.769618 16.495353 0.000000 0.100526
405.000000 55.145000 10.000000 6.000000 -1.000000 101.206727 46.137038 -144.883251 633.261090 18.135318 0.000000 0.164779
406.000000 50.355000 11.000000 6.000000 -1.000000 98.735495 49.324232 -277.378518 687.265309 19.860984 0.000000 0.232063
407.000000 46.175000 12.000000 6.000000 -1.000000 96.456127 51.958398 -400.534010 743.358236 21.659366 0.000000 0.300640
410.000000 76.737000 0.000000 7.000000 -1.000000 80.375850 -44.130275 2019.105050 1195.275237 13.037104 0.000000 0.190676
411.000000 84.120000 1.000000 7.000000 -1.000000 90.875526 -35.396349 1739.779302 920.822577 11.891112 0.000000 0.094575
412.000000 87.711000 2.000000 7.000000 -1.000000 99.516537 -25.404306 1486.161217 741.256122 11.402850 0.000000 0.108194
413.000000 87.672000 3.000000 7.000000 -1.000000 105.752786 -14.575284 1254.857929 627.301622 11.406802 0.000000 0.136992
414.000000 84.827000 4.000000 7.000000 -1.000000 109.477184 -3.617697 1043.048462 559.586426 11.788688 0.000000 0.147430
415.000000 80.209000 5.000000 7.000000 -1.000000 111.003405 6.710311 848.368107 524.925676 12.467066 0.000000 0.139933
416.000000 74.723000 6.000000 7.000000 -1.000000 110.880345 15.879798 668.819762 514.136143 13.382324 0.000000 0.118588
417.000000 69.012000 7.000000 7.000000 -1.000000 109.676771 23.692621 502.705166 520.697633 14.489828 0.000000 0.087698
418.000000 63.469000 8.000000 7.000000 -1.000000 107.852775 30.200427 348.571026 539.905722 15.755495 0.000000 0.053525
419.000000 58.300000 9.000000 7.000000 -1.000000 105.729068 35.574743 205.166376 568.320053 17.152849 0.000000 0.039471
420.000000 53.590000 10.000000 7.000000 -1.000000 103.508462 40.014783 71.408557 603.396207 18.661010 0.000000 0.072425
421.000000 49.354000 11.000000 7.000000 -1.000000 101.310144 43.703200 -53.644168 643.234770 20.263293 0.000000 0.122225
422.000000 45.570000 12.000000 7.000000 -1.000000 99.199235 46.791962 -170.814823 686.407060 21.946200 0.000000 0.176801
425.000000 66.425000 0.000000 8.000000 -1.000000 79.120921 -43.118499 1982.830367 1224.384402 15.061601 0.000000 0.183354
426.000000 72.236000 1.000000 8.000000 -1.000000 88.287607 -35.543795 1743.955182 980.545053 13.848132 0.000000 0.102438
427.000000 75.531000 2.000000 8.000000 -1.000000 96.099848 -27.030524 1524.121762 811.875214 13.242502 0.000000 0.107782
428.000000 76.317000 3.000000 8.000000 -1.000000 102.159254 -17.827998 1321.140527 697.400320 13.104869 0.000000 0.134448
429.000000 74.994000 4.000000 8.000000 -1.000000 106.312796 -8.358937 1133.145206 622.626432 13.335231 0.000000 0.149847
430.000000 72.150000 5.000000 8.000000 -1.000000 108.668954 0.876419 958.535286 577.301822 13.860185 0.000000 0.150986
431.000000 68.378000 6.000000 8.000000 -1.000000 109.527665 9.446124 795.930336 554.032117 14.624633 0.000000 0.140005
432.000000 64.158000 7.000000 8.000000 -1.000000 109.267570 17.088095 644.133435 547.394804 15.586409 0.000000 0.119657
433.000000 59.835000 8.000000 8.000000 -1.000000 108.249449 23.719555 502.101656 553.356833 16.712698 0.000000 0.092829
434.000000 55.626000 9.000000 8.000000 -1.000000 106.765411 29.384533 368.922077 568.882104 17.977578 0.000000 0.063694
435.000000 51.654000 10.000000 8.000000 -1.000000 105.028267 34.191224 243.792129 591.661235 19.360303 0.000000 0.044106
436.000000 47.978000 11.000000 8.000000 -1.000000 103.182179 38.266890 126.003420 619.921997 20.844069 0.000000 0.057504
437.000000 52.392000 -1.000000 9.000000 -1.000000 69.354907 -48.248613 2180.827096 1549.979748 19.098318 0.000000 0.318473
438.000000 58.517000 0.000000 9.000000 -1.000000 78.129051 -42.341219 1955.768741 1247.083868 17.097410 0.000000 0.178762
439.000000 63.203000 1.000000 9.000000 -1.000000 86.261064 -35.654799 1747.109109 1027.561907 15.827949 0.000000 0.108443
440.000000 66.141000 2.000000 9.000000 -1.000000 93.366356 -28.241949 1553.118882 869.135619 15.123171 0.000000 0.107656
441.000000 67.291000 3.000000 9.000000 -1.000000 99.148745 -20.261138 1372.303635 756.233698 14.863424 0.000000 0.131042
442.000000 66.849000 4.000000 9.000000 -1.000000 103.457459 -11.979210 1203.365268 677.716104 14.960633 0.000000 0.148712
443.000000 65.157000 5.000000 9.000000 -1.000000 106.307173 -3.730214 1045.170787 625.454767 15.348523 0.000000 0.155334
444.000000 62.595000 6.000000 9.000000 -1.000000 107.853321 4.159493 896.726870 593.418973 15.976272 0.000000 0.151587
445.000000 59.510000 7.000000 9.000000 -1.000000 108.335870 11.442044 757.158980 577.069232 16.804250 0.000000 0.139248
446.000000 56.177000 8.000000 9.000000 -1.000000 108.017803 17.980577 625.694131 572.945699 17.801106 0.000000 0.120233
447.000000 52.795000 9.000000 9.000000 -1.000000 107.139980 23.739858 501.646560 578.382699 18.941705 0.000000 0.096595
448.000000 49.493000 10.000000 9.000000 -1.000000 105.899037 28.754868 384.405762 591.306986 20.205666 0.000000 0.071269
449.000000 46.349000 11.000000 9.000000 -1.000000 104.443347 33.097988 273.426442 610.092778 21.576289 0.000000 0.051123
450.000000 47.365000 -1.000000 10.000000 -1.000000 69.496946 -47.091753 2132.896322 1532.157159 21.125345 0.000000 0.294590
451.000000 52.269000 0.000000 10.000000 -1.000000 77.326022 -41.725587 1934.805767 1265.301888 19.141440 0.000000 0.175682
452.000000 56.124000 1.000000 10.000000 -1.000000 84.632070 -35.741385 1749.575335 1065.598674 17.824801 0.000000 0.113219
453.000000 58.720000 2.000000 10.000000 -1.000000 91.135238 -29.178559 1575.992070 916.572122 17.035216 0.000000 0.107904
454.000000 60.004000 3.000000 10.000000 -1.000000 96.610787 -22.143544 1412.990910 806.330235 16.669183 0.000000 0.127627
455.000000 60.074000 4.000000 10.000000 -1.000000 100.924524 -14.813116 1259.632806 726.119002 16.648637 0.000000 0.145934
456.000000 59.130000 5.000000 10.000000 -1.000000 104.049747 -7.415726 1115.086628 669.385058 16.913586 0.000000 0.155971
457.000000 57.419000 6.000000 10.000000 -1.000000 106.060247 -0.192393 978.614088 631.150688 17.417169 0.000000 0.157283
458.000000 55.183000 7.000000 10.000000 -1.000000 107.102917 6.647871 849.557134 607.586918 18.122246 0.000000 0.150916
459.000000 52.636000 8.000000 10.000000 -1.000000 107.361208 12.959083 727.327336 595.715676 18.999008 0.000000 0.138208
460.000000 49.944000 9.000000 10.000000 -1.000000 107.021935 18.666444 611.396914 593.198094 20.023245 0.000000 0.120548
461.000000 47.227000 10.000000 10.000000 -1.000000 106.252981 23.755711 501.291125 598.181527 21.175098 0.000000 0.099463
462.000000 47.213000 0.000000 11.000000 -1.000000 76.662927 -41.226035 1918.088621 1280.257210 21.191630 0.000000 0.173506
463.000000 50.438000 1.000000 11.000000 -1.000000 83.294604 -35.810811 1751.556672 1097.036444 19.834717 0.000000 0.117131
464.000000 52.727000 2.000000 11.000000 -1.000000 89.282493 -29.923972 1594.496018 956.552293 18.971799 0.000000 0.108485
465.000000 54.032000 3.000000 11.000000 -1.000000 94.452719 -23.640201 1446.120996 849.509695 18.512485 0.000000 0.124565
466.000000 54.396000 4.000000 11.000000 -1.000000 98.690196 -17.081477 1305.730506 768.900665 18.387169 0.000000 0.142502
467.000000 53.941000 5.000000 11.000000 -1.000000 101.951659 -10.408238 1172.696925 709.364082 18.541380 0.000000 0.154560
468.000000 52.826000 6.000000 11.000000 -1.000000 104.265372 -3.798375 1046.456730 666.746234 18.931883 0.000000 0.159400
469.000000 51.223000 7.000000 11.000000 -1.000000 105.718115 2.579985 926.502518 637.792768 19.523919 0.000000 0.157478
470.000000 49.290000 8.000000 11.000000 -1.000000 106.434152 8.592173 812.376189 619.928692 20.289232 0.000000 0.149708
471.000000 47.162000 9.000000 11.000000 -1.000000 106.552817 14.149587 703.663101 611.098668 21.204608 0.000000 0.137106
472.000000 45.777000 1.000000 12.000000 -1.000000 82.177123 -35.867718 1753.183325 1123.473997 21.854872 0.000000 0.120412
473.000000 47.800000 2.000000 12.000000 -1.000000 87.720967 -30.531122 1609.773498 990.728656 20.927935 0.000000 0.109323
474.000000 49.067000 3.000000 12.000000 -1.000000 92.600908 -24.857120 1473.620466 887.116887 20.386137 0.000000 0.121984
475.000000 49.597000 4.000000 12.000000 -1.000000 96.719571 -18.932829 1344.187011 806.939000 20.167070 0.000000 0.138937
476.000000 49.462000 5.000000 12.000000 -1.000000 100.028868 -12.873865 1220.987663 745.753143 20.221118 0.000000 0.152060
477.000000 48.767000 6.000000 12.000000 -1.000000 102.532032 -6.812717 1103.582620 700.058698 20.508339 0.000000 0.159327
478.000000 47.633000 7.000000 12.000000 -1.000000 104.277717 -0.882156 991.572498 667.069295 20.996219 0.000000 0.160710
479.000000 46.176000 8.000000 12.000000 -1.000000 105.348105 4.801441 884.593792 644.547385 21.658018 0.000000 0.156787
480.000000 45.505000 4.000000 13.000000 -1.000000 94.977113 -20.469490 1376.756822 840.952522 21.981271 0.000000 0.135514
481.000000 45.579000 5.000000 13.000000 -1.000000 98.278445 -14.933367 1262.051038 778.925257 21.944352 0.000000 0.149036
484.000000 167.309000 3.000000 2.000000 0.000000 93.778212 40.400608 58.982071 847.666611 5.978262 0.000000 0.098225
485.000000 128.835000 4.000000 2.000000 0.000000 88.712458 49.795845 -298.434933 978.474682 7.763930 0.000000 0.252762
488.000000 186.310000 1.000000 3.000000 0.000000 89.259985 -15.299571 1269.432128 955.412658 5.369453 0.000000 0.149926
489.000000 174.388000 2.000000 3.000000 0.000000 97.821635 6.519946 851.992187 792.189517 5.735630 0.000000 0.165173
490.000000 148.039000 3.000000 3.000000 0.000000 98.310728 23.884495 498.400441 769.055082 6.756212 0.000000 0.119312
491.000000 122.509000 4.000000 3.000000 0.000000 95.520596 35.929466 195.049018 812.531798 8.164289 0.000000 0.078063
492.000000 101.849000 5.000000 3.000000 0.000000 92.020063 44.101586 -68.059484 888.135497 9.820731 0.000000 0.141694
496.000000 120.217000 0.000000 4.000000 0.000000 69.771098 -36.441971 1769.730219 1434.021744 8.323697 0.000000 0.162015
497.000000 138.025000 1.000000 4.000000 0.000000 85.356828 -20.892797 1385.841791 1034.564819 7.248265 0.000000 0.134827
498.000000 137.769000 2.000000 4.000000 0.000000 94.873442 -4.076020 1051.696966 848.998866 7.260627 0.000000 0.167587
499.000000 126.223000 3.000000 4.000000 0.000000 98.487673 11.388004 758.215508 777.157836 7.924142 0.000000 0.157707
500.000000 96.359000 5.000000 4.000000 0.000000 96.346635 33.345858 266.773006 797.696890 10.379852 0.000000 0.080913
501.000000 73.092000 7.000000 4.000000 0.000000 91.159684 45.714332 -128.471782 909.796367 13.684670 0.000000 0.167627
506.000000 108.799000 1.000000 5.000000 0.000000 82.673113 -24.182224 1458.304513 1092.702142 9.195659 0.000000 0.126042
507.000000 111.777000 2.000000 5.000000 0.000000 91.853093 -10.784939 1180.020913 905.551587 8.949416 0.000000 0.159453
508.000000 107.210000 3.000000 5.000000 0.000000 96.926492 2.401791 929.856202 810.134146 9.329761 0.000000 0.168338
509.000000 98.632000 4.000000 5.000000 0.000000 98.680851 14.145063 703.753475 771.533757 10.140727 0.000000 0.151638
510.000000 79.325000 6.000000 5.000000 0.000000 96.814438 31.669201 311.066081 789.882171 12.608758 0.000000 0.086154
511.000000 70.779000 7.000000 5.000000 0.000000 94.832472 37.821999 139.478500 825.806916 14.131440 0.000000 0.082182
512.000000 63.346000 8.000000 5.000000 0.000000 92.719459 42.702642 -18.267665 871.433715 15.789931 0.000000 0.122585
513.000000 56.974000 9.000000 5.000000 0.000000 90.652889 46.615904 -163.782296 923.144076 17.556313 0.000000 0.183960
514.000000 46.886000 11.000000 5.000000 0.000000 86.927134 52.415877 -423.398015 1035.730922 21.334716 0.000000 0.324383
516.000000 89.477000 1.000000 6.000000 0.000000 80.749747 -26.334951 1507.754929 1136.589607 11.181790 0.000000 0.121726
517.000000 80.856000 5.000000 6.000000 0.000000 98.735458 15.911929 668.167224 769.033056 12.370151 0.000000 0.147031
518.000000 67.376000 7.000000 6.000000 0.000000 97.110686 30.495085 341.138564 785.182846 14.844823 0.000000 0.090702
519.000000 46.672000 11.000000 6.000000 0.000000 90.319494 47.191464 -186.944808 932.168118 21.431591 0.000000 0.195092
521.000000 58.662000 -1.000000 7.000000 0.000000 59.157370 -44.042067 2015.893547 1835.072851 17.059785 0.000000 0.313689
522.000000 75.844000 1.000000 7.000000 0.000000 79.313834 -27.849442 1543.653085 1170.703449 13.191938 0.000000 0.120116
523.000000 79.431000 2.000000 7.000000 0.000000 87.118695 -18.508475 1335.300054 998.125350 12.594720 0.000000 0.141533
524.000000 79.647000 3.000000 7.000000 0.000000 92.820662 -8.854386 1142.665434 887.331772 12.559480 0.000000 0.162555
525.000000 77.278000 4.000000 7.000000 0.000000 96.431601 0.583686 964.035156 819.666827 12.943694 0.000000 0.168832
526.000000 73.280000 5.000000 7.000000 0.000000 98.258705 9.342218 797.935631 782.677870 13.649277 0.000000 0.161343
527.000000 68.476000 6.000000 7.000000 0.000000 98.741681 17.138685 643.093009 767.811883 14.606514 0.000000 0.143499
528.000000 58.541000 8.000000 7.000000 0.000000 97.313173 29.627689 362.891583 782.096319 17.085172 0.000000 0.094333
529.000000 53.949000 9.000000 7.000000 0.000000 95.998563 34.484249 235.718987 803.794745 18.539545 0.000000 0.078675
530.000000 49.749000 10.000000 7.000000 0.000000 94.533029 38.589243 116.136362 831.831098 20.105117 0.000000 0.085669
531.000000 45.957000 11.000000 7.000000 0.000000 93.021268 42.070960 3.483913 864.473492 21.764172 0.000000 0.115004
532.000000 52.528000 -1.000000 8.000000 0.000000 60.516084 -43.149777 1983.933678 1775.108528 19.051932 0.000000 0.288882
533.000000 65.747000 1.000000 8.000000 0.000000 78.204603 -28.971448 1570.898723 1197.908596 15.218001 0.000000 0.120047
534.000000 69.929000 3.000000 8.000000 0.000000 90.936007 -12.478040 1213.175942 922.990250 14.305228 0.000000 0.156240
535.000000 66.430000 5.000000 8.000000 0.000000 97.303338 3.967492 900.351793 802.728420 15.056994 0.000000 0.167470
536.000000 59.369000 7.000000 8.000000 0.000000 98.729723 18.039396 624.472428 767.188456 16.847049 0.000000 0.140732
537.000000 51.747000 9.000000 8.000000 0.000000 97.459435 28.960989 379.357960 779.937366 19.328288 0.000000 0.097219
538.000000 47.505000 -1.000000 9.000000 0.000000 61.568746 -42.444304 1959.318994 1730.649668 21.065984 0.000000 0.270743
539.000000 57.986000 1.000000 9.000000 0.000000 77.323526 -29.835428 1592.283658 1220.078703 17.255153 0.000000 0.120822
540.000000 60.887000 2.000000 9.000000 0.000000 83.896461 -22.728328 1425.849032 1065.779379 16.431546 0.000000 0.129744
541.000000 61.829000 4.000000 9.000000 0.000000 93.321531 -7.785418 1122.154917 877.954321 16.178863 0.000000 0.164010
542.000000 60.385000 5.000000 9.000000 0.000000 96.125864 -0.438592 983.239068 825.482515 16.564665 0.000000 0.168868
543.000000 55.381000 7.000000 9.000000 0.000000 98.612334 12.935373 727.796275 773.744388 18.060464 0.000000 0.154468
544.000000 52.393000 8.000000 9.000000 0.000000 98.711121 18.728485 610.097997 766.869973 19.090290 0.000000 0.138515
545.000000 46.362000 10.000000 9.000000 0.000000 97.569585 28.432686 392.256103 778.354366 21.573294 0.000000 0.099540
546.000000 51.842000 1.000000 10.000000 0.000000 76.607523 -30.520921 1609.515266 1238.477486 19.300342 0.000000 0.122035
547.000000 55.716000 3.000000 10.000000 0.000000 87.786237 -17.548667 1315.359644 984.636773 17.955298 0.000000 0.144151
548.000000 51.609000 7.000000 10.000000 0.000000 98.144027 8.506630 814.019410 785.263449 19.380593 0.000000 0.162620
549.000000 46.879000 9.000000 10.000000 0.000000 98.690640 19.272547 598.665959 766.716795 21.335384 0.000000 0.136705
550.000000 46.862000 1.000000 11.000000 0.000000 76.014562 -31.077911 1623.696420 1253.983502 21.351540 0.000000 0.123452
551.000000 49.116000 2.000000 11.000000 0.000000 81.636871 -25.360889 1485.162037 1116.100460 20.370036 0.000000 0.123450
552.000000 50.434000 3.000000 11.000000 0.000000 86.493298 -19.378249 1353.563843 1010.916184 19.836440 0.000000 0.139107
553.000000 50.862000 4.000000 11.000000 0.000000 90.497238 -13.247981 1228.393635 931.403833 19.668329 0.000000 0.154632
554.000000 50.515000 5.000000 11.000000 0.000000 93.626794 -7.106927 1109.191675 872.251776 19.802335 0.000000 0.164835
555.000000 49.545000 6.000000 11.000000 0.000000 95.919512 -1.093355 995.541043 829.385024 20.188941 0.000000 0.168800
556.000000 48.114000 7.000000 11.000000 0.000000 97.457975 4.670902 887.062769 799.636716 20.788887 0.000000 0.166946
557.000000 46.369000 8.000000 11.000000 0.000000 98.351295 10.093353 783.411610 780.517733 21.570650 0.000000 0.160093
558.000000 46.515000 5.000000 12.000000 0.000000 92.427880 -9.657952 1158.161504 894.709172 21.505338 0.000000 0.161338
565.000000 144.890000 1.000000 2.000000 1.000000 51.533754 6.109976 859.787789 1800.973496 6.909026 0.000000 0.068115
566.000000 137.358000 2.000000 2.000000 1.000000 61.666547 24.293001 489.192764 1577.714419 7.286403 0.000000 0.112066
567.000000 115.533000 3.000000 2.000000 1.000000 65.321312 36.674069 173.512469 1557.616848 8.661809 0.000000 0.176393
568.000000 95.727000 4.000000 2.000000 1.000000 66.364278 44.928651 -98.617032 1606.295968 10.453275 0.000000 0.264169
574.000000 97.426000 0.000000 3.000000 1.000000 42.960000 -22.217679 1414.615007 2189.496950 10.275300 0.000000 0.244581
575.000000 123.454000 1.000000 3.000000 1.000000 59.335255 -4.807047 1065.512267 1581.413982 8.107798 0.000000 0.030015
576.000000 123.484000 2.000000 3.000000 1.000000 68.919754 11.273936 760.444288 1364.044326 8.104469 0.000000 0.097211
577.000000 110.793000 3.000000 3.000000 1.000000 73.100389 24.187617 491.573742 1299.465374 9.031749 0.000000 0.118022
578.000000 95.806000 4.000000 3.000000 1.000000 74.330674 33.861154 252.818996 1304.577291 10.443889 0.000000 0.132504
579.000000 82.414000 5.000000 3.000000 1.000000 74.225533 41.000094 39.388554 1343.860978 12.140621 0.000000 0.175615
580.000000 71.372000 6.000000 3.000000 1.000000 73.586020 46.332155 -152.543822 1400.184314 14.018624 0.000000 0.246019
581.000000 62.458000 7.000000 3.000000 1.000000 72.771237 50.401173 -326.070520 1464.621924 16.019191 0.000000 0.330852
585.000000 85.586000 0.000000 4.000000 1.000000 49.610395 -25.306036 1483.900706 1953.857949 11.695853 0.000000 0.188381
586.000000 102.581000 1.000000 4.000000 1.000000 63.044323 -11.571173 1195.367217 1499.705966 9.756924 0.000000 0.067699
587.000000 105.926000 2.000000 4.000000 1.000000 72.144728 2.029151 936.866695 1287.923491 9.447449 0.000000 0.111431
588.000000 100.048000 3.000000 4.000000 1.000000 77.092485 14.135627 703.941987 1195.354636 10.001428 0.000000 0.130167
589.000000 90.401000 4.000000 4.000000 1.000000 79.147411 24.125455 492.976340 1167.086138 11.067944 0.000000 0.125375
590.000000 80.275000 5.000000 4.000000 1.000000 79.540447 32.055574 301.004243 1175.437355 12.463548 0.000000 0.120326
591.000000 71.042000 6.000000 4.000000 1.000000 79.091355 38.281072 125.571162 1205.248460 14.083007 0.000000 0.137254
592.000000 63.075000 7.000000 4.000000 1.000000 78.262681 43.190504 -35.371969 1247.715847 15.861633 0.000000 0.180639
593.000000 56.341000 8.000000 4.000000 1.000000 77.295327 47.107857 -183.549157 1297.506539 17.757473 0.000000 0.240789
594.000000 50.677000 9.000000 4.000000 1.000000 76.308761 50.278674 -320.421344 1351.290594 19.742126 0.000000 0.309417
597.000000 74.449000 0.000000 5.000000 1.000000 53.665287 -27.301975 1530.563890 1831.861877 13.444662 0.000000 0.169766
598.000000 86.415000 1.000000 5.000000 1.000000 65.046020 -16.057343 1284.788512 1462.165281 11.581663 0.000000 0.086122
599.000000 90.608000 2.000000 5.000000 1.000000 73.523776 -4.557286 1060.789065 1260.336748 11.044380 0.000000 0.117826
600.000000 88.529000 3.000000 5.000000 1.000000 78.909956 6.320076 855.794266 1153.256327 11.302536 0.000000 0.139989
601.000000 82.857000 4.000000 5.000000 1.000000 81.761385 15.945564 667.483940 1103.072937 12.075393 0.000000 0.140344
602.000000 75.792000 5.000000 5.000000 1.000000 82.869002 24.084450 493.900821 1088.490712 13.200416 0.000000 0.128339
603.000000 68.632000 6.000000 5.000000 1.000000 82.913192 30.800690 333.382265 1096.780098 14.576988 0.000000 0.116584
604.000000 61.987000 7.000000 5.000000 1.000000 82.366364 36.295727 184.506826 1119.978153 16.139487 0.000000 0.119529
605.000000 56.068000 8.000000 5.000000 1.000000 81.521826 40.797427 46.052051 1152.927281 17.843293 0.000000 0.144594
606.000000 50.894000 9.000000 5.000000 1.000000 80.550491 44.509957 -83.039170 1192.195924 19.657003 0.000000 0.186981
607.000000 46.407000 10.000000 5.000000 1.000000 79.547778 47.599831 -203.685638 1235.453237 21.557880 0.000000 0.239326
609.000000 65.309000 0.000000 6.000000 1.000000 56.380150 -28.694897 1564.129326 1756.817184 15.325696 0.000000 0.162899
610.000000 74.172000 1.000000 6.000000 1.000000 66.241256 -19.214803 1350.117137 1442.727430 13.492987 0.000000 0.096732
611.000000 78.280000 2.000000 6.000000 1.000000 74.062791 -9.370534 1152.610724 1252.503001 12.783418 0.000000 0.119471
612.000000 78.134000 3.000000 6.000000 1.000000 79.578986 0.278335 969.771467 1138.947374 12.806042 0.000000 0.143169
613.000000 75.044000 4.000000 6.000000 1.000000 82.993338 9.233938 800.024049 1075.016022 13.332491 0.000000 0.150042
614.000000 70.354000 5.000000 6.000000 1.000000 84.764011 17.191271 642.010947 1044.244774 14.220424 0.000000 0.143413
615.000000 65.062000 6.000000 6.000000 1.000000 85.385325 24.055371 494.556056 1036.136458 15.376502 0.000000 0.129352
616.000000 59.773000 7.000000 6.000000 1.000000 85.267912 29.878711 356.635361 1043.751969 16.736975 0.000000 0.115451
617.000000 54.796000 8.000000 6.000000 1.000000 84.708673 34.785742 227.353123 1062.370444 18.256819 0.000000 0.111201
618.000000 50.263000 9.000000 6.000000 1.000000 83.905498 38.919907 105.922399 1088.705061 19.903326 0.000000 0.124021
619.000000 46.203000 10.000000 6.000000 1.000000 82.983730 42.416231 -8.350983 1120.424312 21.652169 0.000000 0.153151
621.000000 57.944000 0.000000 7.000000 1.000000 58.319663 -29.721102 1589.432882 1705.837939 17.273099 0.000000 0.160137
622.000000 64.761000 1.000000 7.000000 1.000000 67.012003 -21.544707 1399.934007 1431.891703 15.453345 0.000000 0.103716
623.000000 68.493000 2.000000 7.000000 1.000000 74.210771 -12.994557 1223.374419 1253.340662 14.609988 0.000000 0.119182
624.000000 69.282000 3.000000 7.000000 1.000000 79.663870 -4.434729 1058.472599 1137.886482 14.442200 0.000000 0.142531
625.000000 67.780000 4.000000 7.000000 1.000000 83.410500 3.768292 904.110846 1065.600999 14.761223 0.000000 0.153969
626.000000 64.786000 5.000000 7.000000 1.000000 85.696242 11.332004 759.309919 1023.608416 15.442628 0.000000 0.153358
627.000000 60.997000 6.000000 7.000000 1.000000 86.851773 18.100220 623.208236 1003.280631 16.401061 0.000000 0.143885
628.000000 56.918000 7.000000 7.000000 1.000000 87.198679 24.033676 495.044717 998.663507 17.576023 0.000000 0.129526
629.000000 52.865000 8.000000 7.000000 1.000000 87.002429 29.173014 374.144549 1005.548266 18.923437 0.000000 0.115216
630.000000 49.013000 9.000000 7.000000 1.000000 86.461735 33.600166 259.907298 1020.900259 20.410426 0.000000 0.107356
631.000000 51.969000 0.000000 8.000000 1.000000 59.772313 -30.508097 1609.190682 1668.884975 19.258524 0.000000 0.158981
632.000000 57.369000 1.000000 8.000000 1.000000 67.539219 -23.329272 1439.177540 1425.569147 17.444158 0.000000 0.108798
633.000000 60.668000 2.000000 8.000000 1.000000 74.173776 -15.800906 1279.578955 1258.073756 16.494289 0.000000 0.118313
634.000000 61.879000 3.000000 8.000000 1.000000 79.460263 -8.167144 1129.466414 1143.303330 16.170008 0.000000 0.140103
635.000000 61.333000 4.000000 8.000000 1.000000 83.366334 -0.693002 988.018593 1066.181581 16.313011 0.000000 0.154244
636.000000 59.501000 5.000000 8.000000 1.000000 86.012060 6.387799 854.506326 1016.502936 16.814253 0.000000 0.158338
637.000000 56.854000 6.000000 8.000000 1.000000 87.606635 12.910909 728.280030 987.152022 17.596166 0.000000 0.153913
638.000000 53.779000 7.000000 8.000000 1.000000 88.385436 18.792386 608.759135 973.045717 18.602071 0.000000 0.143332
639.000000 50.550000 8.000000 8.000000 1.000000 88.566907 24.016869 495.423160 970.478148 19.789587 0.000000 0.129332
640.000000 47.351000 9.000000 8.000000 1.000000 88.332103 28.615640 387.804130 976.700881 21.126390 0.000000 0.115307
641.000000 47.058000 0.000000 9.000000 1.000000 60.899995 -31.130576 1625.045851 1640.841016 21.267753 0.000000 0.158512
642.000000 51.438000 1.000000 9.000000 1.000000 67.916887 -24.737377 1470.890974 1421.787591 19.455181 0.000000 0.112771
643.000000 54.329000 2.000000 9.000000 1.000000 74.050183 -18.028365 1325.298400 1264.484468 18.418670 0.000000 0.117444
644.000000 55.700000 3.000000 9.000000 1.000000 79.121539 -11.172439 1187.574035 1151.837722 17.963783 0.000000 0.137012
645.000000 55.721000 4.000000 9.000000 1.000000 83.070847 -4.361921 1057.096832 1072.181576 17.956031 0.000000 0.152473
646.000000 54.672000 5.000000 9.000000 1.000000 85.947120 2.218260 933.309428 1017.317275 18.299421 0.000000 0.159903
647.000000 52.866000 6.000000 9.000000 1.000000 87.876616 8.418572 815.710186 981.340450 18.923601 0.000000 0.159692
648.000000 50.587000 7.000000 9.000000 1.000000 89.023884 14.140411 703.846400 959.911007 19.775839 0.000000 0.153274
649.000000 48.058000 8.000000 9.000000 1.000000 89.558842 19.336914 597.308472 949.782716 20.815827 0.000000 0.142379
650.000000 46.588000 1.000000 10.000000 1.000000 68.197586 -25.875505 1497.051905 1419.513200 21.480300 0.000000 0.116034
651.000000 49.119000 2.000000 10.000000 1.000000 73.888617 -19.834238 1363.216458 1271.493508 20.372009 0.000000 0.116800
652.000000 50.518000 3.000000 10.000000 1.000000 78.727395 -13.631631 1236.012029 1161.747954 19.806620 0.000000 0.133844
653.000000 50.869000 4.000000 10.000000 1.000000 82.646220 -7.408978 1114.957722 1081.072895 19.668561 0.000000 0.149661
654.000000 50.344000 5.000000 10.000000 1.000000 85.655071 -1.310296 999.618042 1022.797175 19.872889 0.000000 0.159320
655.000000 49.147000 6.000000 10.000000 1.000000 87.826064 4.536829 889.597663 981.985151 20.355775 0.000000 0.162357
656.000000 47.483000 7.000000 10.000000 1.000000 89.270314 10.035278 784.536901 954.920784 21.068328 0.000000 0.159573
657.000000 45.528000 8.000000 10.000000 1.000000 90.114916 15.124100 684.107786 938.763854 21.972466 0.000000 0.152120
658.000000 46.138000 3.000000 11.000000 1.000000 78.319212 -15.674144 1277.008663 1172.107503 21.686933 0.000000 0.130890
659.000000 46.677000 4.000000 11.000000 1.000000 82.162817 -9.966369 1164.128392 1091.415470 21.435266 0.000000 0.146407
660.000000 46.499000 5.000000 11.000000 1.000000 85.233774 -4.313683 1056.185460 1030.995014 21.516380 0.000000 0.157450
661.000000 45.740000 6.000000 11.000000 1.000000 87.569775 1.178289 952.862863 986.688542 21.872268 0.000000 0.162899
669.000000 73.867000 2.000000 3.000000 2.000000 44.346625 14.125633 704.141615 2076.458616 13.552710 0.000000 0.177514
670.000000 73.604000 3.000000 3.000000 2.000000 51.200400 24.378953 487.247905 1891.062420 13.599550 0.000000 0.158053
671.000000 68.675000 4.000000 3.000000 2.000000 55.385205 32.459123 290.403952 1821.443642 14.574181 0.000000 0.190746
672.000000 62.451000 5.000000 3.000000 2.000000 57.911566 38.757448 110.952462 1806.417701 16.025566 0.000000 0.236322
673.000000 56.368000 6.000000 3.000000 2.000000 59.448289 43.694017 -53.314145 1819.645067 17.754257 0.000000 0.290618
676.000000 65.319000 1.000000 4.000000 2.000000 42.380413 -5.063191 1070.359787 2125.122624 15.326934 0.000000 0.191923
677.000000 72.509000 3.000000 4.000000 2.000000 57.756747 15.980809 666.767686 1647.205990 13.804412 0.000000 0.075660
678.000000 63.334000 5.000000 4.000000 2.000000 63.995859 31.117845 325.280491 1554.288519 15.801390 0.000000 0.143134
679.000000 52.544000 7.000000 4.000000 2.000000 66.029871 41.205675 32.587259 1577.040530 19.044659 0.000000 0.216589
681.000000 61.828000 1.000000 5.000000 2.000000 48.045543 -9.908615 1163.010194 1923.202775 16.191466 0.000000 0.123876
682.000000 67.478000 2.000000 5.000000 2.000000 56.208867 -0.040448 975.759803 1661.275201 14.834381 0.000000 0.009491
683.000000 68.254000 3.000000 5.000000 2.000000 62.093575 9.121005 802.200866 1518.322829 14.664178 0.000000 0.057305
684.000000 65.842000 4.000000 5.000000 2.000000 66.000147 17.245972 640.884697 1442.752168 15.200206 0.000000 0.092678
685.000000 61.810000 5.000000 5.000000 2.000000 68.416137 24.232506 490.560031 1407.926545 16.190479 0.000000 0.112374
686.000000 57.214000 6.000000 5.000000 2.000000 69.802335 30.137979 350.140496 1398.840863 17.490149 0.000000 0.127863
687.000000 52.638000 7.000000 5.000000 2.000000 70.513126 35.096058 218.678320 1406.489256 19.010035 0.000000 0.147344
688.000000 48.357000 8.000000 5.000000 2.000000 70.794844 39.259186 95.342910 1425.202757 20.692225 0.000000 0.174744
689.000000 57.044000 1.000000 6.000000 2.000000 51.933215 -13.529631 1233.984156 1807.974784 17.548353 0.000000 0.097764
690.000000 62.999000 3.000000 6.000000 2.000000 64.958009 3.561486 908.011614 1444.817934 15.886882 0.000000 0.067803
691.000000 58.946000 5.000000 6.000000 2.000000 71.520371 18.163152 621.899297 1319.560199 16.976832 0.000000 0.111683
692.000000 51.616000 7.000000 6.000000 2.000000 73.959718 29.391195 368.757245 1296.153588 19.385972 0.000000 0.123027
693.000000 45.834000 0.000000 7.000000 2.000000 46.739259 -23.946916 1453.002726 2049.253273 21.840310 0.000000 0.208621
694.000000 52.273000 1.000000 7.000000 2.000000 54.723120 -16.317733 1290.092107 1734.365015 19.148978 0.000000 0.092555
695.000000 56.226000 2.000000 7.000000 2.000000 61.497924 -8.561467 1137.033891 1532.016472 17.801550 0.000000 0.052548
696.000000 57.745000 3.000000 7.000000 2.000000 66.870361 -0.956028 992.960541 1400.800630 17.331656 0.000000 0.079886
697.000000 57.296000 4.000000 7.000000 2.000000 70.862418 6.251217 857.103467 1316.725168 17.466343 0.000000 0.105205
698.000000 55.485000 5.000000 7.000000 2.000000 73.645492 12.885654 728.779312 1265.001582 18.035226 0.000000 0.118563
699.000000 52.870000 6.000000 7.000000 2.000000 75.455989 18.858232 607.378456 1236.069826 18.926445 0.000000 0.122918
700.000000 49.871000 7.000000 7.000000 2.000000 76.530952 24.152985 492.355333 1223.512784 20.063526 0.000000 0.122453
701.000000 46.772000 8.000000 7.000000 2.000000 77.074195 28.803351 383.220228 1222.890434 21.392414 0.000000 0.121596
702.000000 47.920000 1.000000 8.000000 2.000000 56.802863 -18.521011 1335.561954 1683.696764 20.887996 0.000000 0.095269
703.000000 52.890000 3.000000 8.000000 2.000000 68.166664 -4.656439 1062.663735 1373.641534 18.922180 0.000000 0.088789
704.000000 51.880000 5.000000 8.000000 2.000000 75.067949 8.327887 817.450610 1231.083366 19.288064 0.000000 0.124999
705.000000 47.717000 7.000000 8.000000 2.000000 78.396102 19.403027 595.913046 1175.315726 20.969167 0.000000 0.129357
706.000000 46.967000 2.000000 9.000000 2.000000 64.183811 -14.025148 1243.852117 1477.674772 21.309591 0.000000 0.078333
707.000000 48.550000 3.000000 9.000000 2.000000 69.059226 -7.719172 1120.887447 1356.641101 20.613514 0.000000 0.094934
708.000000 48.944000 4.000000 9.000000 2.000000 72.983491 -1.533208 1003.808003 1270.513286 20.446269 0.000000 0.115472
709.000000 48.377000 5.000000 9.000000 2.000000 75.996079 4.399075 892.201150 1210.221670 20.684699 0.000000 0.129425
710.000000 47.107000 6.000000 9.000000 2.000000 78.195543 9.975646 785.691947 1169.389897 21.241134 0.000000 0.136053
711.000000 48.409000 3.000000 4.000000 3.000000 41.158988 17.302920 639.711498 2230.577143 20.680187 0.000000 0.232056
712.000000 48.989000 4.000000 4.000000 3.000000 46.343566 24.416247 486.403214 2068.830389 20.433945 0.000000 0.202886
713.000000 47.537000 5.000000 4.000000 3.000000 50.082897 30.405894 343.393068 1985.067010 21.056432 0.000000 0.211720
714.000000 46.336000 2.000000 5.000000 3.000000 40.817311 3.346636 912.062263 2189.266325 21.606259 0.000000 0.211701
715.000000 49.386000 3.000000 5.000000 3.000000 47.100359 11.213684 761.620843 1960.607397 20.270735 0.000000 0.133294
716.000000 49.721000 4.000000 5.000000 3.000000 51.825005 18.228304 620.543195 1831.907588 20.132584 0.000000 0.116360
717.000000 48.352000 5.000000 5.000000 3.000000 55.266931 24.346547 487.981475 1760.017197 20.700798 0.000000 0.131860
718.000000 46.080000 6.000000 5.000000 3.000000 57.729258 29.615796 363.187198 1722.767033 21.720551 0.000000 0.155744
719.000000 45.771000 2.000000 6.000000 3.000000 45.773739 -1.228105 998.073334 1988.851405 21.872108 0.000000 0.137115
720.000000 48.714000 4.000000 6.000000 3.000000 55.976798 12.859570 729.294882 1686.297165 20.548035 0.000000 0.063972
721.000000 47.682000 5.000000 6.000000 3.000000 59.279168 18.926114 605.953971 1617.139908 20.991384 0.000000 0.088500
722.000000 46.205000 3.000000 7.000000 3.000000 54.860919 1.834212 940.532777 1698.917906 21.664581 0.000000 0.024495
723.000000 46.775000 4.000000 7.000000 3.000000 59.107715 8.234455 819.242903 1591.660147 21.399082 0.000000 0.040727
724.000000 46.121000 5.000000 7.000000 3.000000 62.346446 14.130702 704.040351 1522.551615 21.701204 0.000000 0.072628
#UB matrix in q= (UB) B0 G* 
#[[-0.498579012 -0.571657867  0.650557791]
# [ 0.845388685 -0.487352978  0.219638567]
# [ 0.191668829  0.660144597  0.727062123]]
#B0 matrix in q= UB (B0) G*
#[[ 0.19670273 -0.          0.03056101]
# [ 0.          0.19187965 -0.        ]
# [ 0.          0.          0.18806537]]
#UBB0 matrix in q= (UB B0) G* i.e. recip. basis vectors are columns in LT frame: astar = UBB0[:,0], bstar = UBB0[:,1], cstar = UBB0[:,2]. (abcstar as columns on xyzlab1, xlab1 = ui, ui = unit vector along incident beam)
#[[-0.09807185 -0.10968951  0.10711032]
# [ 0.16629026 -0.09351312  0.06714234]
# [ 0.03770178  0.12666832  0.1425928 ]]
#Euler angles phi theta psi (deg)
#[163.811  43.429  71.375]
#deviatoric strain in direct crystal frame (10-3 unit)
#[[ 3.7   0.31 -0.6 ]
# [ 0.31  3.55 -0.89]
# [-0.6  -0.89 -7.25]]
#deviatoric strain in sample2 frame (10-3 unit)
#[[-6.18 -2.32 -2.52]
# [-2.32  2.85 -0.35]
# [-2.53 -0.35  3.33]]
#new lattice parameters
#[ 5.1505     5.2107939  5.3165066 90.0589208 99.2676319 89.9646734]
#CCDLabel
#sCMOS
#DetectorParameters
#[79.0, 975.0, 941.0, 0.0, 0.0]
#pixelsize
#0.0734
#Frame dimensions
#[2018, 2016]
#
