#Strain and Orientation Refinement from experimental file: /home/micha/LaueProjects/DepthEffects/testZrO2_136.cor
#File created at Wed Jun 28 14:26:33 2023 with indexingSpotsSet.py
#Number of indexed spots: 540
#Element
#ZrO2
#grainIndex
#G_0
#Mean Deviation(pixel): 0.119
##spot_index intensity h k l 2theta Chi Xexp Yexp Energy GrainIndex PixDev
26.000000 48.166000 -1.000000 12.000000 -2.000000 88.985961 -51.666215 2336.173980 971.714798 20.768062 0.000000 0.297595
27.000000 52.402000 0.000000 6.000000 -1.000000 98.595757 -51.560761 2331.036614 679.303397 9.543050 0.000000 0.288470
30.000000 48.537000 0.000000 13.000000 -2.000000 98.788752 -50.478873 2279.668899 679.509484 20.605958 0.000000 0.259366
31.000000 51.567000 1.000000 13.000000 -2.000000 107.713360 -50.249721 2269.090380 403.397731 19.392095 0.000000 0.272628
34.000000 47.820000 1.000000 14.000000 -2.000000 107.235043 -49.244783 2223.871042 429.548510 20.911860 0.000000 0.244755
38.000000 46.440000 2.000000 15.000000 -2.000000 114.503885 -47.962345 2168.767216 208.368751 21.531085 0.000000 0.245888
48.000000 86.844000 -1.000000 6.000000 -1.000000 79.550743 -51.754071 2340.472331 1261.648372 11.520264 0.000000 0.329887
51.000000 77.356000 -1.000000 7.000000 -1.000000 82.508352 -50.012823 2258.260722 1161.251590 12.932828 0.000000 0.275519
52.000000 90.383000 0.000000 7.000000 -1.000000 98.938556 -49.545004 2237.184857 680.099720 11.065678 0.000000 0.236014
54.000000 58.277000 -2.000000 8.000000 -1.000000 70.799211 -49.111724 2218.021944 1513.609033 17.170083 0.000000 0.312387
55.000000 69.539000 -1.000000 8.000000 -1.000000 84.720458 -48.635898 2197.359242 1091.500789 14.386072 0.000000 0.238144
56.000000 79.394000 0.000000 8.000000 -1.000000 99.150541 -48.015794 2171.008756 681.825765 12.597318 0.000000 0.201045
57.000000 86.807000 1.000000 8.000000 -1.000000 113.644095 -47.174308 2136.247165 247.812620 11.518781 0.000000 0.222761
58.000000 54.257000 -2.000000 9.000000 -1.000000 73.937899 -48.074922 2173.493837 1404.790243 18.441405 0.000000 0.273990
59.000000 63.055000 -1.000000 9.000000 -1.000000 86.432994 -47.520978 2150.432832 1040.349139 15.865100 0.000000 0.211054
60.000000 70.757000 0.000000 9.000000 -1.000000 99.287948 -46.817520 2121.839563 683.786383 14.134980 0.000000 0.176303
61.000000 76.722000 1.000000 9.000000 -1.000000 112.183030 -45.894905 2085.451936 310.439011 13.033204 0.000000 0.187581
64.000000 50.579000 -2.000000 10.000000 -1.000000 76.473667 -47.200893 2137.328443 1322.082199 19.781649 0.000000 0.245221
65.000000 57.619000 -1.000000 10.000000 -1.000000 87.795740 -46.600428 2113.166306 1001.294394 17.361498 0.000000 0.190626
66.000000 63.798000 0.000000 10.000000 -1.000000 99.380256 -45.854026 2083.867760 685.721907 15.676866 0.000000 0.158023
67.000000 68.698000 1.000000 10.000000 -1.000000 110.990151 -44.901504 2047.600161 358.018241 14.555789 0.000000 0.162305
68.000000 72.051000 2.000000 10.000000 -1.000000 122.381478 -43.644639 2001.541338 -2.223810 13.876033 0.000000 0.204941
70.000000 47.264000 -2.000000 11.000000 -1.000000 78.561690 -46.454422 2107.372127 1257.095355 21.168688 0.000000 0.222949
71.000000 53.011000 -1.000000 11.000000 -1.000000 88.904671 -45.827867 2082.855259 970.531637 18.870153 0.000000 0.174738
72.000000 58.075000 0.000000 11.000000 -1.000000 99.443988 -45.062883 2053.659356 687.537243 17.221827 0.000000 0.144065
73.000000 62.170000 1.000000 11.000000 -1.000000 109.999123 -44.108287 2018.303628 395.447851 16.084476 0.000000 0.143464
74.000000 65.109000 2.000000 11.000000 -1.000000 120.384744 -42.884410 1974.608750 79.735160 15.355972 0.000000 0.176417
77.000000 49.065000 -1.000000 12.000000 -1.000000 89.823919 -45.170489 2057.718630 945.691743 20.387780 0.000000 0.162073
78.000000 53.287000 0.000000 12.000000 -1.000000 99.488919 -44.401877 2029.054306 689.203552 18.769098 0.000000 0.133131
79.000000 56.760000 1.000000 12.000000 -1.000000 109.163408 -43.460514 1994.956361 425.693132 17.617846 0.000000 0.129029
80.000000 59.347000 2.000000 12.000000 -1.000000 118.703341 -42.281519 1953.718029 144.437225 16.847400 0.000000 0.154475
83.000000 45.651000 -1.000000 13.000000 -1.000000 90.597866 -44.604461 2036.535629 925.225150 21.912172 0.000000 0.151773
84.000000 49.225000 0.000000 13.000000 -1.000000 99.521092 -43.841479 2008.625881 690.719266 20.318147 0.000000 0.124384
85.000000 52.206000 1.000000 13.000000 -1.000000 108.449547 -42.921670 1975.913217 450.659088 19.154887 0.000000 0.117732
86.000000 54.495000 2.000000 13.000000 -1.000000 117.269093 -41.791804 1937.041135 196.897017 18.347979 0.000000 0.137204
87.000000 56.042000 3.000000 13.000000 -1.000000 125.870072 -40.371925 1890.089219 -80.519652 17.839214 0.000000 0.174482
90.000000 45.735000 0.000000 14.000000 -1.000000 99.544383 -43.360431 1991.393828 692.093684 21.868594 0.000000 0.117266
91.000000 48.322000 1.000000 14.000000 -1.000000 107.832940 -42.466486 1960.084434 471.627706 20.694859 0.000000 0.108739
92.000000 50.357000 2.000000 14.000000 -1.000000 116.031871 -41.386185 1923.419927 240.339226 19.855964 0.000000 0.123370
93.000000 51.800000 3.000000 14.000000 -1.000000 124.052149 -40.055554 1879.897928 -9.321456 19.300512 0.000000 0.155299
96.000000 46.790000 2.000000 15.000000 -1.000000 114.954084 -41.044746 1912.085054 276.936656 21.370030 0.000000 0.112136
97.000000 48.129000 3.000000 15.000000 -1.000000 122.465015 -39.794597 1871.562662 49.795488 20.772906 0.000000 0.139456
101.000000 45.766000 4.000000 16.000000 -1.000000 127.947177 -38.146368 1820.329932 -126.215958 21.844115 0.000000 0.157542
106.000000 137.319000 -1.000000 3.000000 0.000000 62.368971 -41.608286 1930.857158 1694.529348 7.288029 0.000000 0.240685
107.000000 118.574000 -1.000000 4.000000 0.000000 71.232510 -40.737141 1901.973661 1423.662785 8.439107 0.000000 0.184116
108.000000 160.402000 0.000000 4.000000 0.000000 99.482633 -37.078534 1788.361282 715.664946 6.235462 0.000000 0.064561
109.000000 182.457000 1.000000 4.000000 0.000000 127.311558 -30.365225 1605.580311 -9.672302 5.479247 0.000000 0.063663
112.000000 72.551000 -2.000000 5.000000 0.000000 55.591898 -42.219979 1951.608158 1936.418835 13.795404 0.000000 0.297448
113.000000 102.238000 -1.000000 5.000000 0.000000 76.727861 -40.146752 1882.825949 1273.122077 9.786648 0.000000 0.156131
114.000000 144.051000 1.000000 5.000000 0.000000 121.976504 -32.114126 1650.527965 147.685957 6.940628 0.000000 0.040792
116.000000 89.202000 -1.000000 6.000000 0.000000 80.451495 -39.720313 1869.201506 1176.378367 11.216236 0.000000 0.139259
117.000000 118.601000 1.000000 6.000000 0.000000 118.335718 -33.141270 1677.732644 247.851660 8.430476 0.000000 0.027114
118.000000 122.847000 2.000000 6.000000 0.000000 135.790452 -26.734507 1517.132047 -297.839940 8.137050 0.000000 0.097624
120.000000 63.943000 -2.000000 7.000000 0.000000 67.384725 -41.126451 1914.786691 1536.219257 15.650232 0.000000 0.206632
121.000000 78.852000 -1.000000 7.000000 0.000000 83.135669 -39.397891 1859.011738 1108.667375 12.687857 0.000000 0.127857
122.000000 100.615000 1.000000 7.000000 0.000000 115.700136 -33.816624 1695.968545 317.535586 9.937912 0.000000 0.020538
123.000000 104.890000 2.000000 7.000000 0.000000 131.014542 -28.933665 1569.971730 -128.594344 9.530739 0.000000 0.079455
125.000000 47.632000 -3.000000 8.000000 0.000000 58.098074 -41.998559 1944.050719 1842.532506 21.012087 0.000000 0.274829
126.000000 70.533000 -1.000000 8.000000 0.000000 85.160105 -39.145579 1851.103226 1058.509327 14.183877 0.000000 0.119578
127.000000 87.278000 1.000000 8.000000 0.000000 113.706704 -34.294371 1709.043242 368.938912 11.456972 0.000000 0.019418
129.000000 54.988000 -2.000000 9.000000 0.000000 74.271022 -40.416068 1891.518797 1339.131632 18.196816 0.000000 0.168118
130.000000 63.739000 -1.000000 9.000000 0.000000 86.740422 -38.942760 1844.787010 1019.810670 15.695317 0.000000 0.113265
131.000000 77.014000 1.000000 9.000000 0.000000 112.147405 -34.650125 1718.876224 408.475632 12.984115 0.000000 0.021264
132.000000 80.557000 2.000000 9.000000 0.000000 124.367757 -31.370203 1631.204795 78.917418 12.410762 0.000000 0.050887
134.000000 58.104000 -1.000000 10.000000 0.000000 88.007830 -38.776175 1839.626185 989.021852 17.217122 0.000000 0.108280
135.000000 68.883000 1.000000 10.000000 0.000000 110.894915 -34.925303 1726.540133 439.856185 14.517107 0.000000 0.024077
136.000000 73.544000 3.000000 10.000000 0.000000 132.467661 -28.311561 1554.804923 -177.974917 13.592681 0.000000 0.085351
137.000000 47.670000 -2.000000 11.000000 0.000000 78.753604 -39.917622 1875.484291 1220.044129 20.988987 0.000000 0.146780
138.000000 53.363000 -1.000000 11.000000 0.000000 89.046631 -38.636912 1835.330292 963.929406 18.746228 0.000000 0.104234
139.000000 62.288000 1.000000 11.000000 0.000000 109.867089 -35.144485 1732.681390 465.382340 16.054465 0.000000 0.026971
140.000000 65.070000 2.000000 11.000000 0.000000 119.998170 -32.686842 1665.619656 202.730922 15.365669 0.000000 0.032971
141.000000 66.623000 3.000000 11.000000 0.000000 129.679274 -29.473815 1583.288833 -84.636418 15.005147 0.000000 0.073855
144.000000 49.325000 -1.000000 12.000000 0.000000 89.913412 -38.518762 1831.698706 943.078899 20.280672 0.000000 0.100884
145.000000 56.835000 1.000000 12.000000 0.000000 109.008620 -35.323181 1737.712768 486.560398 17.595172 0.000000 0.029661
147.000000 45.847000 -1.000000 13.000000 0.000000 90.647548 -38.417261 1828.588395 925.474112 21.819136 0.000000 0.098061
148.000000 52.252000 1.000000 13.000000 0.000000 108.280932 -35.471656 1741.910206 504.418716 19.138501 0.000000 0.032078
149.000000 54.445000 2.000000 13.000000 0.000000 116.919905 -33.510584 1687.669592 285.547757 18.364889 0.000000 0.023025
150.000000 55.894000 3.000000 13.000000 0.000000 125.279108 -31.070269 1623.500736 51.988140 17.886580 0.000000 0.054826
151.000000 56.613000 4.000000 13.000000 0.000000 133.243066 -27.963770 1546.403119 -205.037483 17.657714 0.000000 0.088386
154.000000 48.349000 1.000000 14.000000 0.000000 107.656315 -35.596978 1745.465173 519.683950 20.683922 0.000000 0.034227
155.000000 51.672000 3.000000 14.000000 0.000000 123.517265 -31.641701 1638.220967 103.678057 19.348719 0.000000 0.047246
157.000000 46.742000 2.000000 15.000000 0.000000 114.638643 -34.074356 1703.003672 345.035183 21.392500 0.000000 0.019441
158.000000 48.809000 4.000000 15.000000 0.000000 129.051661 -29.718029 1589.356360 -64.409892 20.482105 0.000000 0.071178
160.000000 46.015000 5.000000 16.000000 0.000000 133.725123 -27.741647 1541.065484 -222.127547 21.724074 0.000000 0.090227
162.000000 124.675000 -1.000000 2.000000 1.000000 41.506996 -16.715061 1298.212164 2210.886719 8.030170 0.000000 0.230177
164.000000 126.377000 -1.000000 3.000000 1.000000 58.932679 -21.241512 1393.364404 1636.689298 7.920332 0.000000 0.096962
165.000000 190.084000 0.000000 3.000000 1.000000 91.194546 -10.426512 1173.051800 918.180554 5.262961 0.000000 0.164121
166.000000 70.631000 -2.000000 4.000000 1.000000 44.753826 -29.352163 1580.277299 2186.472488 14.173248 0.000000 0.258258
167.000000 112.654000 -1.000000 4.000000 1.000000 68.648001 -24.150070 1457.578910 1402.113314 8.883659 0.000000 0.109765
168.000000 149.522000 0.000000 4.000000 1.000000 94.269479 -16.361173 1290.978253 857.258465 6.690200 0.000000 0.152352
169.000000 167.965000 1.000000 4.000000 1.000000 117.767086 -4.080345 1051.778630 372.884301 5.953047 0.000000 0.121081
170.000000 166.145000 2.000000 4.000000 1.000000 134.917289 15.362056 679.305872 -171.956063 6.016623 0.000000 0.031673
171.000000 70.832000 -2.000000 5.000000 1.000000 54.497452 -30.382463 1606.015360 1831.012173 14.131544 0.000000 0.177207
172.000000 98.717000 -1.000000 5.000000 1.000000 74.717976 -26.167072 1503.834354 1268.659017 10.136794 0.000000 0.118821
173.000000 122.427000 0.000000 5.000000 1.000000 95.854086 -20.198746 1370.972446 823.416082 8.170530 0.000000 0.139558
174.000000 136.168000 1.000000 5.000000 1.000000 115.821648 -11.356575 1191.170218 409.796651 7.343391 0.000000 0.116656
175.000000 138.466000 2.000000 5.000000 1.000000 132.316856 2.170158 934.214330 -39.634729 7.219629 0.000000 0.042863
178.000000 67.439000 -2.000000 6.000000 1.000000 61.418757 -31.171176 1626.087166 1626.297708 14.841075 0.000000 0.148188
179.000000 86.935000 -1.000000 6.000000 1.000000 78.834540 -27.644608 1538.740454 1180.814403 11.509592 0.000000 0.120709
180.000000 103.363000 0.000000 6.000000 1.000000 96.779016 -22.861869 1428.800641 802.152131 9.677220 0.000000 0.128340
181.000000 113.849000 1.000000 6.000000 1.000000 114.013064 -16.126697 1286.199737 441.867900 8.783248 0.000000 0.109002
182.000000 117.398000 2.000000 6.000000 1.000000 129.181082 -6.301059 1093.844132 58.455886 8.515597 0.000000 0.057853
183.000000 115.067000 3.000000 6.000000 1.000000 140.961561 8.184996 820.191323 -399.950571 8.686761 0.000000 0.027396
184.000000 48.417000 -3.000000 7.000000 1.000000 52.248680 -34.163028 1705.434013 1948.194005 20.673672 0.000000 0.227641
185.000000 63.047000 -2.000000 7.000000 1.000000 66.551807 -31.794139 1642.178318 1490.245516 15.873475 0.000000 0.136962
186.000000 77.301000 -1.000000 7.000000 1.000000 81.797296 -28.772196 1566.017813 1118.000657 12.943297 0.000000 0.119316
187.000000 89.317000 0.000000 7.000000 1.000000 97.368499 -24.810399 1472.554845 787.662620 11.198906 0.000000 0.118975
188.000000 97.525000 1.000000 7.000000 1.000000 112.473969 -19.452767 1355.137546 468.802337 10.253591 0.000000 0.101259
189.000000 101.269000 2.000000 7.000000 1.000000 126.258312 -11.970952 1203.203155 134.039207 9.872309 0.000000 0.062911
190.000000 100.929000 3.000000 7.000000 1.000000 137.872263 -1.272546 998.908554 -249.293446 9.903965 0.000000 0.011499
192.000000 47.265000 -3.000000 8.000000 1.000000 57.610905 -34.413774 1712.334182 1768.597945 21.176238 0.000000 0.192388
193.000000 58.610000 -2.000000 8.000000 1.000000 70.494510 -32.298523 1655.366156 1392.038526 17.074044 0.000000 0.131400
194.000000 69.419000 -1.000000 8.000000 1.000000 84.026460 -29.660362 1587.920964 1070.601755 14.412210 0.000000 0.116604
195.000000 78.574000 0.000000 8.000000 1.000000 97.769293 -26.294772 1506.815571 777.205277 12.729935 0.000000 0.111245
196.000000 85.150000 1.000000 8.000000 1.000000 111.188689 -21.889219 1407.432291 491.361329 11.744036 0.000000 0.094299
197.000000 88.706000 2.000000 8.000000 1.000000 123.713211 -15.959924 1282.807854 194.050619 11.270891 0.000000 0.063498
198.000000 89.363000 3.000000 8.000000 1.000000 134.773062 -7.773531 1121.927458 -136.705504 11.186219 0.000000 0.026232
202.000000 54.463000 -2.000000 9.000000 1.000000 73.610419 -32.715181 1666.371423 1317.242153 18.373301 0.000000 0.127653
203.000000 62.908000 -1.000000 9.000000 1.000000 85.762036 -30.377723 1605.895724 1033.447173 15.903306 0.000000 0.113459
204.000000 70.107000 0.000000 9.000000 1.000000 98.055571 -27.461739 1534.370171 769.327860 14.267179 0.000000 0.104859
205.000000 75.482000 1.000000 9.000000 1.000000 110.114151 -23.744692 1448.461799 510.378118 13.248434 0.000000 0.088300
206.000000 78.730000 2.000000 9.000000 1.000000 121.538168 -18.892828 1343.347384 242.847014 12.699557 0.000000 0.062180
207.000000 79.868000 3.000000 9.000000 1.000000 131.928727 -12.406959 1211.775686 -48.793586 12.516560 0.000000 0.033264
208.000000 79.179000 4.000000 9.000000 1.000000 140.882718 -3.579054 1042.319674 -385.150420 12.624033 0.000000 0.011985
210.000000 50.701000 -2.000000 10.000000 1.000000 76.131097 -33.065135 1675.694529 1258.088232 19.735408 0.000000 0.124541
211.000000 57.465000 -1.000000 10.000000 1.000000 87.150381 -30.969056 1620.911971 1003.480873 17.409281 0.000000 0.110280
212.000000 63.270000 0.000000 10.000000 1.000000 98.268125 -28.402551 1557.012087 763.194150 15.808765 0.000000 0.099556
213.000000 67.740000 1.000000 10.000000 1.000000 109.208959 -25.202030 1481.512226 526.555851 14.762912 0.000000 0.083219
214.000000 70.659000 2.000000 10.000000 1.000000 119.682910 -21.129231 1390.938387 283.300714 14.150563 0.000000 0.060129
215.000000 72.007000 3.000000 10.000000 1.000000 129.400373 -15.835231 1280.275518 22.035833 13.883451 0.000000 0.036186
216.000000 71.935000 4.000000 10.000000 1.000000 138.071426 -8.820133 1142.006436 -271.687299 13.895748 0.000000 0.022772
219.000000 47.331000 -2.000000 11.000000 1.000000 78.210140 -33.363195 1683.693771 1209.978037 21.140007 0.000000 0.121705
220.000000 52.859000 -1.000000 11.000000 1.000000 88.285546 -31.464792 1633.644587 978.768920 18.925718 0.000000 0.107242
221.000000 57.638000 0.000000 11.000000 1.000000 98.430934 -29.176754 1575.947603 758.290717 17.353504 0.000000 0.095123
222.000000 61.409000 1.000000 11.000000 1.000000 108.439175 -26.375554 1508.704866 540.450358 16.284909 0.000000 0.078945
223.000000 64.019000 2.000000 11.000000 1.000000 118.093384 -22.885962 1429.333771 317.381269 15.618614 0.000000 0.057895
224.000000 65.433000 3.000000 11.000000 1.000000 127.176831 -18.457128 1334.227736 80.468937 15.278773 0.000000 0.037023
225.000000 65.733000 4.000000 11.000000 1.000000 135.474042 -12.732392 1218.192862 -180.838817 15.207475 0.000000 0.027792
228.000000 48.919000 -1.000000 12.000000 1.000000 89.230612 -31.886320 1644.577695 958.022458 20.449794 0.000000 0.104414
229.000000 52.920000 0.000000 12.000000 1.000000 98.558866 -29.824784 1592.017951 754.285872 18.900606 0.000000 0.091393
230.000000 56.143000 1.000000 12.000000 1.000000 107.778211 -27.340062 1531.470275 552.493558 17.812663 0.000000 0.075361
231.000000 58.474000 2.000000 12.000000 1.000000 116.722282 -24.299930 1460.963925 346.483943 17.099966 0.000000 0.055737
232.000000 59.878000 3.000000 12.000000 1.000000 125.224739 -20.519233 1377.821787 129.580904 16.696645 0.000000 0.036809
233.000000 60.397000 4.000000 12.000000 1.000000 133.120901 -15.738478 1278.312742 -106.173816 16.551395 0.000000 0.029551
234.000000 60.129000 5.000000 12.000000 1.000000 140.241875 -9.601800 1157.076325 -371.111638 16.623662 0.000000 0.030943
237.000000 45.513000 -1.000000 13.000000 1.000000 90.029405 -32.249105 1654.067603 940.346876 21.979615 0.000000 0.101819
238.000000 48.911000 0.000000 13.000000 1.000000 98.661557 -30.375028 1605.827695 750.956297 20.449524 0.000000 0.088234
239.000000 51.696000 1.000000 13.000000 1.000000 107.205461 -28.146401 1550.808261 563.020985 19.344924 0.000000 0.072358
240.000000 53.783000 2.000000 13.000000 1.000000 115.530765 -25.461220 1487.472118 371.624647 18.591895 0.000000 0.053772
241.000000 55.138000 3.000000 13.000000 1.000000 123.507051 -22.179544 1413.779366 171.485995 18.132704 0.000000 0.036098
242.000000 55.781000 4.000000 13.000000 1.000000 131.005500 -18.108483 1326.963584 -43.555019 17.921603 0.000000 0.029582
243.000000 55.775000 5.000000 13.000000 1.000000 137.895878 -12.984567 1223.176776 -281.238087 17.921871 0.000000 0.034844
246.000000 45.464000 0.000000 14.000000 1.000000 98.745487 -30.847985 1617.822485 748.146398 21.999867 0.000000 0.085539
247.000000 47.894000 1.000000 14.000000 1.000000 106.704934 -28.830277 1567.438655 572.294951 20.880778 0.000000 0.069841
248.000000 49.767000 2.000000 14.000000 1.000000 114.487633 -26.431262 1510.009284 393.560584 20.092375 0.000000 0.052045
249.000000 51.054000 3.000000 14.000000 1.000000 121.989464 -23.542936 1443.945429 207.692039 19.583645 0.000000 0.035195
250.000000 51.762000 4.000000 14.000000 1.000000 129.107673 -20.018915 1367.141518 9.817656 19.313554 0.000000 0.028711
251.000000 51.932000 5.000000 14.000000 1.000000 135.739420 -15.661220 1276.746796 -206.022446 19.248720 0.000000 0.035761
252.000000 51.625000 6.000000 14.000000 1.000000 141.776694 -10.207619 1168.803670 -447.559929 19.361712 0.000000 0.038648
255.000000 46.294000 2.000000 15.000000 1.000000 113.567965 -27.253264 1529.405556 412.867632 21.599866 0.000000 0.050564
256.000000 47.505000 3.000000 15.000000 1.000000 120.642223 -24.681317 1469.614909 239.306694 21.046916 0.000000 0.034272
257.000000 48.241000 4.000000 15.000000 1.000000 127.403582 -21.588384 1400.882670 55.916641 20.723693 0.000000 0.027408
258.000000 48.527000 5.000000 15.000000 1.000000 133.769206 -17.823193 1321.040934 -141.997094 20.599735 0.000000 0.035027
259.000000 48.406000 6.000000 15.000000 1.000000 139.653690 -13.185710 1227.159364 -360.354288 20.649739 0.000000 0.042803
262.000000 45.499000 5.000000 16.000000 1.000000 131.972973 -19.601196 1358.276464 -86.737734 21.971327 0.000000 0.033389
263.000000 45.512000 6.000000 16.000000 1.000000 137.680516 -15.598105 1275.468384 -286.220971 21.963498 0.000000 0.043938
267.000000 154.825000 0.000000 2.000000 2.000000 62.532095 18.342978 618.153849 1530.468350 6.464737 0.000000 0.088952
268.000000 183.931000 1.000000 2.000000 2.000000 85.611912 37.598732 146.179780 1045.241981 5.439108 0.000000 0.111601
270.000000 99.454000 -1.000000 3.000000 2.000000 51.197185 -4.590038 1061.408246 1809.234478 10.065906 0.000000 0.067373
271.000000 144.587000 0.000000 3.000000 2.000000 76.442958 7.492607 833.444450 1202.763979 6.921028 0.000000 0.135184
272.000000 164.949000 1.000000 3.000000 2.000000 97.332416 23.323717 510.946215 790.179916 6.064024 0.000000 0.127573
273.000000 160.444000 2.000000 3.000000 2.000000 110.128495 41.590878 19.727624 413.559387 6.232545 0.000000 0.099579
274.000000 96.772000 -1.000000 4.000000 2.000000 62.544942 -9.756097 1160.059093 1508.416731 10.343242 0.000000 0.060715
275.000000 126.010000 0.000000 4.000000 2.000000 84.028698 -0.363460 981.827641 1053.580343 7.940265 0.000000 0.160698
276.000000 141.250000 1.000000 4.000000 2.000000 102.828778 12.158200 743.118725 690.279672 7.080872 0.000000 0.155185
277.000000 141.527000 2.000000 4.000000 2.000000 116.268921 27.828042 406.861023 340.321568 7.065072 0.000000 0.034706
279.000000 64.868000 -2.000000 5.000000 2.000000 51.615636 -19.252082 1350.902666 1844.085402 15.432230 0.000000 0.122019
280.000000 88.955000 -1.000000 5.000000 2.000000 69.933876 -13.587502 1235.134495 1345.466449 11.250562 0.000000 0.103906
281.000000 108.995000 0.000000 5.000000 2.000000 88.444312 -6.114523 1090.298622 970.397842 9.178990 0.000000 0.166401
282.000000 120.706000 1.000000 5.000000 2.000000 105.273347 3.780761 903.875604 646.456262 8.285729 0.000000 0.162546
283.000000 123.180000 2.000000 5.000000 2.000000 118.632704 16.560461 654.951321 327.958849 8.117217 0.000000 0.088277
284.000000 118.644000 3.000000 5.000000 2.000000 127.416007 31.873211 305.763821 -28.556734 8.426204 0.000000 0.077637
286.000000 45.580000 -3.000000 6.000000 2.000000 43.851722 -24.964191 1476.065568 2176.779870 21.963575 0.000000 0.237999
287.000000 80.604000 -1.000000 6.000000 2.000000 75.021696 -16.518134 1294.183467 1241.350961 12.414980 0.000000 0.123359
288.000000 104.230000 1.000000 6.000000 2.000000 106.272003 -2.488493 1021.775458 626.543795 9.595232 0.000000 0.160815
289.000000 107.486000 2.000000 6.000000 2.000000 119.068645 7.803311 827.502649 337.121619 9.302455 0.000000 0.110754
290.000000 105.726000 3.000000 6.000000 2.000000 128.645755 20.673745 568.865794 21.165541 9.455679 0.000000 0.028678
292.000000 46.392000 -3.000000 7.000000 2.000000 50.805295 -26.070687 1501.588496 1918.051047 21.577678 0.000000 0.171848
293.000000 59.968000 -2.000000 7.000000 2.000000 64.414722 -22.839797 1428.312399 1500.176765 16.689897 0.000000 0.101747
294.000000 72.988000 -1.000000 7.000000 2.000000 78.695598 -18.821102 1341.842861 1168.304683 13.709397 0.000000 0.131411
295.000000 83.824000 0.000000 7.000000 2.000000 93.010691 -13.744806 1238.264125 882.723590 11.934133 0.000000 0.158750
296.000000 91.176000 1.000000 7.000000 2.000000 106.581525 -7.250985 1111.940723 617.936996 10.968955 0.000000 0.155399
297.000000 94.557000 2.000000 7.000000 2.000000 118.606924 1.093461 954.456974 353.909652 10.574435 0.000000 0.119246
298.000000 94.340000 3.000000 7.000000 2.000000 128.375901 11.671866 752.661277 70.680279 10.597037 0.000000 0.052850
299.000000 91.425000 4.000000 7.000000 2.000000 135.369187 24.487444 484.789266 -257.013461 10.933769 0.000000 0.077354
301.000000 45.673000 -3.000000 8.000000 2.000000 56.305916 -26.993892 1523.254799 1746.380765 21.915948 0.000000 0.141258
302.000000 66.357000 -1.000000 8.000000 2.000000 81.453592 -20.672996 1381.118122 1113.875996 15.078640 0.000000 0.133864
303.000000 80.752000 1.000000 8.000000 2.000000 106.559672 -10.944458 1183.127838 615.038772 12.384920 0.000000 0.148684
304.000000 84.594000 3.000000 8.000000 2.000000 127.368497 4.604852 888.311677 116.386425 11.818199 0.000000 0.070879
306.000000 52.730000 -2.000000 9.000000 2.000000 72.002103 -25.242679 1482.445243 1327.580223 18.978107 0.000000 0.115501
307.000000 60.657000 -1.000000 9.000000 2.000000 83.590537 -22.191566 1414.042760 1071.578176 16.494885 0.000000 0.133471
308.000000 67.352000 0.000000 9.000000 2.000000 95.177374 -18.468874 1334.472982 838.182563 14.851923 0.000000 0.145824
309.000000 72.313000 1.000000 9.000000 2.000000 106.380037 -13.870009 1240.758096 615.135270 13.830149 0.000000 0.141732
310.000000 75.292000 2.000000 9.000000 2.000000 116.799579 -8.130204 1128.758274 391.814849 13.280561 0.000000 0.119657
311.000000 76.328000 3.000000 9.000000 2.000000 126.049973 -0.933838 992.543587 157.487200 13.098281 0.000000 0.080554
312.000000 75.689000 4.000000 9.000000 2.000000 133.777054 8.022318 823.309165 -100.494278 13.207349 0.000000 0.030536
313.000000 73.761000 5.000000 9.000000 2.000000 139.681215 18.857557 607.392615 -399.215458 13.551399 0.000000 0.070371
315.000000 55.760000 -1.000000 10.000000 2.000000 85.289799 -23.457714 1442.041859 1037.669787 17.942585 0.000000 0.131623
316.000000 65.381000 1.000000 10.000000 2.000000 106.129262 -16.233133 1288.367450 616.823870 15.296490 0.000000 0.135017
317.000000 69.319000 3.000000 10.000000 2.000000 124.642398 -5.315556 1075.139549 194.126366 14.423099 0.000000 0.085209
318.000000 68.069000 5.000000 10.000000 2.000000 138.591337 11.326366 759.420074 -303.685180 14.684942 0.000000 0.030883
319.000000 46.269000 -2.000000 11.000000 2.000000 76.957912 -26.958932 1522.427946 1220.710700 21.626205 0.000000 0.120366
320.000000 51.537000 -1.000000 11.000000 2.000000 86.670418 -24.528567 1466.143791 1009.827692 19.412367 0.000000 0.129054
321.000000 56.060000 0.000000 11.000000 2.000000 96.372526 -21.641570 1402.038614 811.681016 17.842970 0.000000 0.133714
322.000000 59.606000 1.000000 11.000000 2.000000 105.851505 -18.175639 1328.360531 619.345116 16.778558 0.000000 0.128738
323.000000 62.042000 2.000000 11.000000 2.000000 114.885775 -13.972026 1242.792218 426.503543 16.117205 0.000000 0.112950
324.000000 63.349000 3.000000 11.000000 2.000000 123.255351 -8.830338 1142.202754 226.740882 15.782686 0.000000 0.086921
325.000000 63.607000 4.000000 11.000000 2.000000 130.747120 -2.514037 1022.256217 12.806394 15.716857 0.000000 0.052081
326.000000 62.969000 5.000000 11.000000 2.000000 137.156253 5.214746 876.770241 -224.336700 15.874593 0.000000 0.016810
329.000000 47.872000 -1.000000 12.000000 2.000000 87.812591 -25.445472 1487.109278 986.526508 20.898246 0.000000 0.126166
330.000000 54.733000 1.000000 12.000000 2.000000 105.569461 -19.797163 1362.429593 622.274041 18.272658 0.000000 0.122962
331.000000 58.232000 3.000000 12.000000 2.000000 121.939250 -11.692259 1197.738187 255.825176 17.169829 0.000000 0.086906
332.000000 58.424000 5.000000 12.000000 2.000000 135.575176 0.261206 970.093251 -157.134771 17.109938 0.000000 0.023800
334.000000 47.921000 0.000000 13.000000 2.000000 97.104086 -23.906545 1452.095069 794.274592 20.873247 0.000000 0.123436
335.000000 50.572000 1.000000 13.000000 2.000000 105.294653 -21.169134 1391.800124 625.367814 19.776167 0.000000 0.117695
336.000000 52.545000 2.000000 13.000000 2.000000 113.209504 -17.927734 1323.208997 455.936328 19.030781 0.000000 0.105062
337.000000 53.816000 3.000000 13.000000 2.000000 120.714117 -14.056752 1244.482938 281.846562 18.579182 0.000000 0.085880
338.000000 54.406000 4.000000 13.000000 2.000000 127.676062 -9.400886 1153.196468 98.548864 18.375512 0.000000 0.061193
339.000000 54.379000 5.000000 13.000000 2.000000 133.964684 -3.778570 1046.083068 -99.345510 18.382987 0.000000 0.032288
340.000000 53.822000 6.000000 13.000000 2.000000 139.449445 2.997758 918.636032 -318.653172 18.571755 0.000000 0.008338
343.000000 46.982000 1.000000 14.000000 2.000000 105.032663 -22.343776 1417.381401 628.486426 21.287174 0.000000 0.112914
344.000000 49.977000 3.000000 14.000000 2.000000 119.584670 -16.036823 1284.371140 305.218764 20.006699 0.000000 0.084281
345.000000 50.777000 5.000000 14.000000 2.000000 132.389513 -7.105181 1109.158373 -49.033260 19.687513 0.000000 0.038388
347.000000 45.468000 2.000000 15.000000 2.000000 111.802182 -20.758984 1382.964420 480.574465 21.993509 0.000000 0.097661
348.000000 46.616000 3.000000 15.000000 2.000000 118.548187 -17.715410 1318.808298 326.297950 21.449258 0.000000 0.082375
349.000000 47.306000 4.000000 15.000000 2.000000 124.937210 -14.128239 1245.910447 165.674916 21.134447 0.000000 0.063557
350.000000 47.562000 5.000000 15.000000 2.000000 130.883348 -9.874691 1162.353559 -4.779513 21.018586 0.000000 0.042442
351.000000 47.428000 6.000000 15.000000 2.000000 136.300108 -4.812499 1065.615406 -189.266551 21.076361 0.000000 0.020060
352.000000 46.957000 7.000000 15.000000 2.000000 141.098585 1.207715 952.309850 -393.095098 21.286575 0.000000 0.004795
356.000000 93.467000 0.000000 2.000000 3.000000 47.015469 27.648959 411.155376 2073.433019 10.710335 0.000000 0.229144
357.000000 117.274000 1.000000 2.000000 3.000000 65.163480 41.582320 20.014961 1606.974035 8.533333 0.000000 0.227804
359.000000 72.457000 -1.000000 3.000000 3.000000 42.823624 7.357965 836.016650 2111.973734 13.817518 0.000000 0.190403
360.000000 120.049000 1.000000 3.000000 3.000000 79.141369 30.965454 329.180063 1181.771043 8.334609 0.000000 0.120478
361.000000 122.069000 2.000000 3.000000 3.000000 90.768099 44.223540 -72.511148 920.864597 8.194550 0.000000 0.145147
363.000000 77.845000 -1.000000 4.000000 3.000000 55.087355 1.494157 946.926076 1692.441972 12.859524 0.000000 0.021736
364.000000 99.964000 0.000000 4.000000 3.000000 72.736227 10.729514 771.057827 1281.433732 10.011156 0.000000 0.118877
365.000000 112.663000 1.000000 4.000000 3.000000 88.062657 21.716644 546.328285 980.187988 8.879925 0.000000 0.139580
366.000000 115.210000 2.000000 4.000000 3.000000 99.532960 33.997823 249.089830 722.985977 8.681352 0.000000 0.068679
367.000000 110.552000 3.000000 4.000000 3.000000 106.791195 46.583685 -162.500275 468.463142 9.045658 0.000000 0.181975
368.000000 56.449000 -2.000000 5.000000 3.000000 47.593500 -9.486544 1154.850060 1937.645443 17.735173 0.000000 0.122892
369.000000 76.107000 -1.000000 5.000000 3.000000 63.658204 -3.174691 1034.697286 1474.734132 13.151513 0.000000 0.060739
370.000000 92.345000 0.000000 5.000000 3.000000 79.471112 4.588469 888.621430 1141.683889 10.835822 0.000000 0.147088
371.000000 102.292000 1.000000 5.000000 3.000000 93.609211 13.971481 707.218650 871.041951 9.779355 0.000000 0.159903
372.000000 105.337000 2.000000 5.000000 3.000000 104.889542 24.877651 475.911015 625.560374 9.494348 0.000000 0.102158
373.000000 102.916000 3.000000 5.000000 3.000000 112.748458 36.766147 170.820394 377.647189 9.716149 0.000000 0.041028
375.000000 56.888000 -2.000000 6.000000 3.000000 55.347766 -12.308715 1209.841599 1702.437816 17.596669 0.000000 0.060448
376.000000 71.756000 -1.000000 6.000000 3.000000 69.801488 -6.933636 1105.887067 1339.884647 13.947527 0.000000 0.102184
377.000000 91.981000 1.000000 6.000000 3.000000 97.053326 7.609686 831.206487 806.647524 10.874915 0.000000 0.169408
378.000000 95.205000 2.000000 6.000000 3.000000 107.992430 17.071703 644.470421 575.336156 10.504322 0.000000 0.128449
379.000000 90.665000 4.000000 6.000000 3.000000 121.732840 39.292125 94.310360 80.989705 11.027371 0.000000 0.126062
381.000000 55.259000 -2.000000 7.000000 3.000000 61.272771 -14.634641 1256.048657 1550.699625 18.113732 0.000000 0.068635
382.000000 66.730000 -1.000000 7.000000 3.000000 74.335970 -10.000461 1164.788646 1247.459967 14.996685 0.000000 0.124044
383.000000 76.223000 0.000000 7.000000 3.000000 87.209896 -4.385144 1057.535626 993.607227 13.125842 0.000000 0.165771
384.000000 82.731000 1.000000 7.000000 3.000000 99.210461 2.411061 929.681761 766.322066 12.090433 0.000000 0.171939
385.000000 85.897000 2.000000 7.000000 3.000000 109.685705 10.544235 774.661038 549.319845 11.642345 0.000000 0.142054
386.000000 86.027000 3.000000 7.000000 3.000000 118.130739 20.022349 582.785410 328.553301 11.622863 0.000000 0.075212
387.000000 83.833000 4.000000 7.000000 3.000000 124.275106 30.574060 339.138870 89.041048 11.925733 0.000000 0.042341
389.000000 52.766000 -2.000000 8.000000 3.000000 65.902641 -16.578641 1295.420432 1443.270033 18.968039 0.000000 0.089395
390.000000 61.804000 -1.000000 8.000000 3.000000 77.778375 -12.536639 1214.330880 1179.822463 16.190913 0.000000 0.135457
391.000000 69.338000 0.000000 8.000000 3.000000 89.499544 -7.685854 1120.250120 950.486468 14.428497 0.000000 0.166198
392.000000 74.729000 1.000000 8.000000 3.000000 100.575082 -1.851076 1009.784349 739.956531 13.384661 0.000000 0.170573
393.000000 77.713000 2.000000 8.000000 3.000000 110.521920 5.136883 878.244885 536.496030 12.868290 0.000000 0.147914
394.000000 78.419000 3.000000 8.000000 3.000000 118.927404 13.381111 718.965478 329.583206 12.750519 0.000000 0.098070
395.000000 77.253000 4.000000 8.000000 3.000000 125.502100 22.819483 522.136821 108.031909 12.941303 0.000000 0.027879
396.000000 74.738000 5.000000 8.000000 3.000000 130.124937 33.124872 272.706618 -142.157973 13.375817 0.000000 0.112126
398.000000 49.993000 -2.000000 9.000000 3.000000 69.596519 -18.224094 1329.369157 1362.486166 20.018648 0.000000 0.104726
399.000000 57.256000 -1.000000 9.000000 3.000000 80.458433 -14.661136 1256.580352 1128.001528 17.475993 0.000000 0.140998
400.000000 67.887000 1.000000 9.000000 3.000000 101.443905 -5.372430 1076.217259 722.161266 14.733316 0.000000 0.167126
401.000000 70.637000 2.000000 9.000000 3.000000 110.844602 0.658898 962.622133 531.168038 14.157209 0.000000 0.149306
402.000000 71.181000 4.000000 9.000000 3.000000 125.852073 16.111932 664.100791 131.466775 14.045426 0.000000 0.052954
403.000000 69.542000 5.000000 9.000000 3.000000 131.024416 25.462484 462.498752 -96.155974 14.375136 0.000000 0.053385
404.000000 47.219000 -2.000000 10.000000 3.000000 72.598974 -19.632683 1358.943090 1299.130946 21.193550 0.000000 0.114725
405.000000 53.160000 -1.000000 10.000000 3.000000 82.591525 -16.462018 1293.036944 1086.930111 18.821732 0.000000 0.143118
406.000000 58.197000 0.000000 10.000000 3.000000 92.481173 -12.728641 1218.118794 893.187282 17.189466 0.000000 0.160722
407.000000 62.042000 1.000000 10.000000 3.000000 101.996648 -8.309913 1132.204536 709.865672 16.121173 0.000000 0.162627
408.000000 64.548000 2.000000 10.000000 3.000000 110.862857 -3.067700 1032.681502 530.213799 15.492778 0.000000 0.148137
409.000000 65.721000 3.000000 10.000000 3.000000 118.821157 3.135659 916.038143 347.896567 15.214115 0.000000 0.117403
410.000000 65.696000 4.000000 10.000000 3.000000 125.646463 10.401131 777.441079 156.232682 15.218083 0.000000 0.071161
411.000000 64.689000 5.000000 10.000000 3.000000 131.164128 18.730847 610.048520 -52.661572 15.453716 0.000000 0.029969
412.000000 62.942000 6.000000 10.000000 3.000000 135.271790 27.953417 403.846156 -289.067283 15.881606 0.000000 0.103383
414.000000 49.506000 -1.000000 11.000000 3.000000 84.322129 -18.005124 1324.815622 1053.518801 20.209982 0.000000 0.143201
415.000000 53.727000 0.000000 11.000000 3.000000 93.479587 -14.683768 1257.034649 873.346311 18.619156 0.000000 0.156672
416.000000 57.029000 1.000000 11.000000 3.000000 102.344103 -10.785419 1180.030252 701.226275 17.538202 0.000000 0.157666
417.000000 59.300000 2.000000 11.000000 3.000000 110.703299 -6.192601 1091.782346 531.843991 16.863868 0.000000 0.145520
418.000000 60.530000 3.000000 11.000000 3.000000 118.352773 -0.779008 989.634477 360.142182 16.519018 0.000000 0.120379
419.000000 60.796000 4.000000 11.000000 3.000000 125.106053 5.570820 870.021811 180.807422 16.444867 0.000000 0.082772
420.000000 60.237000 5.000000 11.000000 3.000000 130.803808 12.922716 728.046568 -12.301791 16.595828 0.000000 0.037542
421.000000 59.023000 6.000000 11.000000 3.000000 135.326412 21.234336 556.790754 -226.921713 16.936007 0.000000 0.057006
424.000000 46.257000 -1.000000 12.000000 3.000000 85.749745 -19.340276 1352.762471 1025.771076 21.629177 0.000000 0.142062
425.000000 52.703000 1.000000 12.000000 3.000000 102.555982 -12.892590 1221.357797 695.088339 18.977524 0.000000 0.152577
426.000000 54.759000 2.000000 12.000000 3.000000 110.442753 -8.835877 1142.309325 534.997030 18.262625 0.000000 0.142115
427.000000 56.437000 4.000000 12.000000 3.000000 124.376105 1.486607 947.068000 204.457140 17.715143 0.000000 0.089914
428.000000 56.196000 5.000000 12.000000 3.000000 130.131748 7.956869 824.562824 24.835997 17.789649 0.000000 0.050348
431.000000 46.443000 0.000000 13.000000 3.000000 94.905109 -17.813755 1320.845336 843.980867 21.538731 0.000000 0.147983
432.000000 48.946000 1.000000 13.000000 3.000000 102.677068 -14.703326 1257.427301 690.702736 20.434266 0.000000 0.147551
433.000000 50.806000 2.000000 13.000000 3.000000 110.128026 -11.091873 1186.001996 539.026264 19.683356 0.000000 0.138318
434.000000 52.004000 3.000000 13.000000 3.000000 117.127239 -6.884511 1104.950716 385.581873 19.227629 0.000000 0.120367
435.000000 52.564000 4.000000 13.000000 3.000000 123.549498 -1.978833 1012.186922 226.852551 19.020894 0.000000 0.094077
436.000000 52.544000 5.000000 13.000000 3.000000 129.277890 3.722535 904.974069 58.895605 19.026117 0.000000 0.060343
437.000000 52.029000 6.000000 13.000000 3.000000 134.206950 10.287274 779.651116 -123.008718 19.213265 0.000000 0.027395
438.000000 51.110000 7.000000 13.000000 3.000000 138.248679 17.714714 631.206096 -324.852357 19.557720 0.000000 0.055966
441.000000 45.660000 1.000000 14.000000 3.000000 102.736695 -16.273109 1289.182205 687.568965 21.904880 0.000000 0.142694
442.000000 47.346000 2.000000 14.000000 3.000000 109.787723 -13.034213 1224.159142 543.530133 21.121827 0.000000 0.134371
443.000000 48.495000 3.000000 14.000000 3.000000 116.471258 -9.285119 1150.962932 397.938042 20.619305 0.000000 0.118776
444.000000 49.117000 4.000000 14.000000 3.000000 122.684355 -4.935841 1067.949231 247.875956 20.355956 0.000000 0.096242
445.000000 49.252000 5.000000 14.000000 3.000000 128.328872 0.106421 973.000889 90.111561 20.298172 0.000000 0.067369
446.000000 48.959000 6.000000 14.000000 3.000000 133.312893 5.922698 863.344859 -79.151345 20.418359 0.000000 0.034692
447.000000 48.305000 7.000000 14.000000 3.000000 137.553550 12.556535 735.276864 -264.611123 20.693651 0.000000 0.031536
450.000000 46.042000 4.000000 15.000000 3.000000 121.816301 -7.475904 1116.236367 267.520469 21.715517 0.000000 0.097057
451.000000 46.284000 5.000000 15.000000 3.000000 127.340971 -2.994350 1031.299772 118.743896 21.600228 0.000000 0.072101
452.000000 45.707000 7.000000 15.000000 3.000000 136.669752 8.081629 822.172717 -211.372836 21.870216 0.000000 0.020734
456.000000 73.388000 0.000000 3.000000 4.000000 51.502986 25.158782 469.479750 1886.752107 13.640208 0.000000 0.166845
457.000000 87.085000 1.000000 3.000000 4.000000 65.303313 35.360812 211.224852 1547.928516 11.491924 0.000000 0.166388
458.000000 92.033000 2.000000 3.000000 4.000000 75.942397 45.684788 -127.334042 1326.768515 10.871576 0.000000 0.224772
460.000000 60.761000 -1.000000 4.000000 4.000000 47.874044 9.921696 786.736577 1929.171464 16.476486 0.000000 0.124962
461.000000 88.023000 1.000000 4.000000 4.000000 75.418228 27.700556 409.919537 1257.231635 11.368018 0.000000 0.121851
462.000000 90.665000 3.000000 4.000000 4.000000 92.875554 47.478162 -198.670705 861.010889 11.032426 0.000000 0.194562
463.000000 47.494000 -2.000000 5.000000 4.000000 43.145646 -1.302744 999.476112 2089.614983 21.080075 0.000000 0.177351
464.000000 63.099000 -1.000000 5.000000 4.000000 57.074017 5.073681 879.441603 1640.720199 15.864190 0.000000 0.026990
465.000000 76.061000 0.000000 5.000000 4.000000 70.574060 12.484112 736.704404 1329.762764 13.157692 0.000000 0.109255
466.000000 84.531000 1.000000 5.000000 4.000000 82.646493 20.893132 564.151010 1089.673932 11.836322 0.000000 0.137479
467.000000 88.055000 2.000000 5.000000 4.000000 92.526290 30.089821 351.349459 886.117198 11.360145 0.000000 0.105693
468.000000 87.445000 3.000000 5.000000 4.000000 99.881723 39.671137 82.358781 697.418762 11.437587 0.000000 0.073473
469.000000 84.056000 4.000000 5.000000 4.000000 104.819124 49.121730 -268.460699 505.899095 11.897355 0.000000 0.235551
470.000000 62.081000 -1.000000 6.000000 4.000000 64.008691 0.987941 956.439806 1465.819734 16.122865 0.000000 0.063489
471.000000 79.207000 1.000000 6.000000 4.000000 87.757357 14.963521 687.342145 984.628743 12.630993 0.000000 0.155259
472.000000 82.529000 3.000000 6.000000 4.000000 104.807556 32.332316 293.745029 604.272867 12.118080 0.000000 0.056214
474.000000 49.654000 -2.000000 7.000000 4.000000 57.516389 -7.375808 1114.324133 1631.959722 20.159673 0.000000 0.031151
475.000000 59.516000 -1.000000 7.000000 4.000000 69.304570 -2.469138 1021.411199 1347.977468 16.815979 0.000000 0.099266
476.000000 67.690000 0.000000 7.000000 4.000000 80.776382 3.249878 913.885887 1116.058489 14.782334 0.000000 0.151598
477.000000 73.426000 1.000000 7.000000 4.000000 91.377270 9.856067 788.006874 914.735521 13.624595 0.000000 0.166334
478.000000 76.460000 2.000000 7.000000 4.000000 100.614719 17.355072 638.636434 729.669908 13.081366 0.000000 0.144803
479.000000 77.011000 3.000000 7.000000 4.000000 108.145170 25.634812 458.521902 549.763976 12.985851 0.000000 0.086551
480.000000 75.600000 4.000000 7.000000 4.000000 113.823930 34.434900 237.082561 364.791050 13.226610 0.000000 0.018761
481.000000 72.842000 5.000000 7.000000 4.000000 117.708718 43.370358 -41.746658 163.379022 13.726356 0.000000 0.167680
483.000000 56.358000 -1.000000 8.000000 4.000000 73.416944 -5.412120 1076.969469 1262.945941 17.756960 0.000000 0.121249
484.000000 67.828000 1.000000 8.000000 4.000000 93.962032 5.476705 871.806289 866.112993 14.748397 0.000000 0.171889
485.000000 71.498000 3.000000 8.000000 4.000000 110.324780 19.655473 590.574260 517.670943 13.986775 0.000000 0.110235
486.000000 68.835000 5.000000 8.000000 4.000000 120.621988 36.405114 181.339139 149.444358 14.524744 0.000000 0.078240
487.000000 46.546000 -2.000000 9.000000 4.000000 66.606157 -11.806752 1199.981973 1416.680646 21.502511 0.000000 0.086382
488.000000 53.079000 -1.000000 9.000000 4.000000 76.666142 -7.935196 1125.022109 1198.563045 18.852690 0.000000 0.134508
489.000000 58.567000 0.000000 9.000000 4.000000 86.513130 -3.454607 1039.973135 1006.700804 17.083017 0.000000 0.165053
490.000000 62.669000 1.000000 9.000000 4.000000 95.827863 1.721548 942.651192 831.095570 15.962060 0.000000 0.173740
491.000000 65.229000 2.000000 9.000000 4.000000 104.304766 7.662679 830.193127 664.087924 15.332988 0.000000 0.160540
492.000000 66.288000 3.000000 9.000000 4.000000 111.685281 14.394232 698.770097 499.139956 15.085752 0.000000 0.125316
493.000000 66.039000 4.000000 9.000000 4.000000 117.784952 21.862848 543.142950 329.947423 15.140854 0.000000 0.067134
494.000000 64.756000 5.000000 9.000000 4.000000 122.512565 29.906253 355.947023 149.613926 15.439432 0.000000 0.025043
495.000000 62.731000 6.000000 9.000000 4.000000 125.879308 38.250835 126.492581 -50.349865 15.936972 0.000000 0.142221
497.000000 49.903000 -1.000000 10.000000 4.000000 79.276438 -10.114273 1166.993840 1148.043944 20.051504 0.000000 0.142286
498.000000 58.020000 1.000000 10.000000 4.000000 97.190450 -1.507780 1003.330001 805.167647 17.240349 0.000000 0.173224
499.000000 61.504000 3.000000 10.000000 4.000000 112.477790 9.802740 789.038686 489.074806 16.259022 0.000000 0.134343
500.000000 60.794000 5.000000 10.000000 4.000000 123.625942 23.976571 496.330166 157.611935 16.445637 0.000000 0.028109
502.000000 46.927000 -1.000000 11.000000 4.000000 81.406034 -12.010025 1203.970253 1107.298346 21.322432 0.000000 0.146547
503.000000 50.821000 0.000000 11.000000 4.000000 89.970306 -8.418180 1134.282274 941.563880 19.685351 0.000000 0.165855
504.000000 53.875000 1.000000 11.000000 4.000000 98.196694 -4.297749 1055.884443 785.529854 18.566670 0.000000 0.171227
505.000000 55.995000 2.000000 11.000000 4.000000 105.892990 0.424002 967.035033 634.543486 17.861063 0.000000 0.162377
506.000000 57.175000 3.000000 11.000000 4.000000 112.881713 5.809445 865.494756 484.415252 17.489927 0.000000 0.139323
507.000000 57.486000 4.000000 11.000000 4.000000 119.011660 11.892548 748.335424 331.021268 17.393414 0.000000 0.101992
508.000000 57.049000 5.000000 11.000000 4.000000 124.168150 18.654209 611.652959 169.917593 17.525149 0.000000 0.051392
509.000000 56.011000 6.000000 11.000000 4.000000 128.282811 25.997089 450.123887 -4.111726 17.848643 0.000000 0.038638
510.000000 54.523000 7.000000 11.000000 4.000000 131.342344 33.733338 256.295793 -197.675359 18.334792 0.000000 0.128945
512.000000 50.189000 1.000000 12.000000 4.000000 98.947319 -6.721438 1101.843812 770.373283 19.929661 0.000000 0.168327
513.000000 53.286000 3.000000 12.000000 4.000000 113.022547 2.336579 931.083291 483.259672 18.766444 0.000000 0.141608
514.000000 53.567000 5.000000 12.000000 4.000000 124.302491 13.928495 708.075962 184.489489 18.664290 0.000000 0.068731
515.000000 51.744000 7.000000 12.000000 4.000000 132.057298 27.925735 404.512402 -158.026131 19.319227 0.000000 0.078473
517.000000 46.913000 1.000000 13.000000 4.000000 99.512133 -8.839355 1142.376241 758.488113 21.321282 0.000000 0.164900
518.000000 48.664000 2.000000 13.000000 4.000000 106.484516 -5.027021 1069.675048 621.273646 20.551446 0.000000 0.158374
519.000000 49.801000 3.000000 13.000000 4.000000 112.987098 -0.690289 987.967625 484.393058 20.079677 0.000000 0.142094
520.000000 50.349000 4.000000 13.000000 4.000000 118.908971 4.226048 895.469931 345.013304 19.859213 0.000000 0.116156
521.000000 50.361000 5.000000 13.000000 4.000000 124.153137 9.758553 789.893409 200.117337 19.852586 0.000000 0.080878
522.000000 49.913000 6.000000 13.000000 4.000000 128.641100 15.907702 668.253081 46.276879 20.029426 0.000000 0.039961
523.000000 49.088000 7.000000 13.000000 4.000000 132.318506 22.618197 526.580827 -120.640892 20.364852 0.000000 0.045846
524.000000 47.970000 8.000000 13.000000 4.000000 135.161812 29.764557 359.484300 -305.889510 20.838289 0.000000 0.118870
526.000000 46.679000 3.000000 14.000000 4.000000 112.835100 -3.337876 1037.772632 487.021325 21.422901 0.000000 0.141378
527.000000 47.425000 5.000000 14.000000 4.000000 123.811745 6.088796 860.190198 216.074714 21.081879 0.000000 0.089251
528.000000 46.578000 7.000000 14.000000 4.000000 132.241043 17.827986 628.859718 -85.628588 21.462384 0.000000 0.030556
534.000000 64.300000 1.000000 3.000000 5.000000 54.901491 38.185009 128.495811 1903.305961 15.566228 0.000000 0.257819
535.000000 70.062000 2.000000 3.000000 5.000000 64.600439 46.613042 -163.668361 1684.973710 14.283412 0.000000 0.309080
537.000000 47.134000 -1.000000 4.000000 5.000000 41.569766 16.217905 661.942849 2204.841352 21.240582 0.000000 0.235188
538.000000 59.858000 0.000000 4.000000 5.000000 53.989643 23.716866 502.161910 1795.432637 16.722981 0.000000 0.138667
539.000000 68.719000 1.000000 4.000000 5.000000 65.100124 31.718061 309.798323 1528.314449 14.563596 0.000000 0.143354
540.000000 73.203000 2.000000 4.000000 5.000000 74.309641 39.941462 73.754119 1335.335421 13.668809 0.000000 0.164895
541.000000 73.939000 3.000000 4.000000 5.000000 81.422190 48.057340 -222.754301 1183.895161 13.530684 0.000000 0.240728
543.000000 51.565000 -1.000000 5.000000 5.000000 50.885122 11.519806 755.637978 1834.136381 19.414168 0.000000 0.096598
544.000000 69.161000 1.000000 5.000000 5.000000 73.036329 25.769978 455.394587 1305.567560 14.469038 0.000000 0.119772
545.000000 72.902000 2.000000 5.000000 5.000000 81.888182 33.608383 259.684783 1125.196029 13.723964 0.000000 0.116436
546.000000 73.567000 3.000000 5.000000 5.000000 88.860222 41.586005 19.891247 969.629092 13.597824 0.000000 0.122050
547.000000 71.968000 4.000000 5.000000 5.000000 93.999004 49.400839 -280.771288 825.377252 13.898150 0.000000 0.234723
548.000000 52.803000 -1.000000 6.000000 5.000000 58.253332 7.414175 834.943008 1612.559277 18.957150 0.000000 0.038806
549.000000 61.277000 0.000000 6.000000 5.000000 69.163417 13.582969 714.955639 1362.419126 16.332635 0.000000 0.103313
550.000000 67.280000 1.000000 6.000000 5.000000 79.111323 20.392638 574.887163 1161.884587 14.872380 0.000000 0.132707
551.000000 70.548000 2.000000 6.000000 5.000000 87.663773 27.729072 409.236047 990.607062 14.180627 0.000000 0.120896
552.000000 71.332000 3.000000 6.000000 5.000000 94.578673 35.393927 210.289145 835.265799 14.022735 0.000000 0.081971
553.000000 70.182000 4.000000 6.000000 5.000000 99.822391 43.126537 -33.113800 685.683721 14.250757 0.000000 0.112129
554.000000 67.724000 5.000000 6.000000 5.000000 103.531195 50.652401 -337.748071 532.473761 14.766792 0.000000 0.272788
556.000000 52.190000 -1.000000 7.000000 5.000000 64.091489 3.830525 902.936658 1464.988600 19.178402 0.000000 0.065832
557.000000 59.172000 0.000000 7.000000 5.000000 74.310913 9.392480 796.965766 1247.419474 16.912111 0.000000 0.125936
558.000000 64.227000 1.000000 7.000000 5.000000 83.735868 15.588868 674.718637 1063.653899 15.578151 0.000000 0.148688
559.000000 67.152000 2.000000 7.000000 5.000000 92.003427 22.365864 532.133503 900.287874 14.896929 0.000000 0.136950
560.000000 68.085000 3.000000 7.000000 5.000000 98.875300 29.596187 363.674481 747.713644 14.690488 0.000000 0.093216
561.000000 67.391000 4.000000 7.000000 5.000000 104.263168 37.079979 161.596093 598.045518 14.840170 0.000000 0.047164
562.000000 65.514000 5.000000 7.000000 5.000000 108.219303 44.570595 -85.281353 443.700438 15.263818 0.000000 0.145538
564.000000 50.586000 -1.000000 8.000000 5.000000 68.751615 0.698513 961.877865 1359.544140 19.784901 0.000000 0.096194
565.000000 56.398000 0.000000 8.000000 5.000000 78.331429 5.712525 867.333918 1164.383547 17.742942 0.000000 0.142821
566.000000 60.704000 1.000000 8.000000 5.000000 87.261024 11.328793 759.372648 993.513735 16.481361 0.000000 0.160418
567.000000 63.348000 2.000000 8.000000 5.000000 95.239843 17.535147 634.919699 837.484739 15.790793 0.000000 0.150472
568.000000 64.399000 3.000000 8.000000 5.000000 102.046520 24.262433 489.883798 689.059948 15.530619 0.000000 0.113449
569.000000 64.094000 4.000000 8.000000 5.000000 107.563027 31.373961 318.698382 542.005648 15.602890 0.000000 0.050294
570.000000 62.743000 5.000000 8.000000 5.000000 111.779443 38.671941 113.590742 390.187883 15.937281 0.000000 0.062103
571.000000 60.666000 6.000000 8.000000 5.000000 114.780470 45.925294 -136.631105 226.687579 16.481998 0.000000 0.201750
573.000000 48.508000 -1.000000 9.000000 5.000000 72.509314 -2.046607 1013.461615 1280.378419 20.631165 0.000000 0.117286
574.000000 53.396000 0.000000 9.000000 5.000000 81.501574 2.480509 928.374803 1101.973856 18.739369 0.000000 0.153910
575.000000 57.100000 1.000000 9.000000 5.000000 89.962737 7.564736 832.065845 941.706122 17.520577 0.000000 0.167814
576.000000 59.499000 2.000000 9.000000 5.000000 97.645553 13.220162 722.157854 792.587496 16.811441 0.000000 0.159656
577.000000 60.623000 3.000000 9.000000 5.000000 104.352304 19.420137 595.551711 648.996107 16.497523 0.000000 0.129553
578.000000 60.621000 4.000000 9.000000 5.000000 109.954389 26.082812 448.129188 505.922419 16.496256 0.000000 0.076603
579.000000 59.709000 5.000000 9.000000 5.000000 114.401880 33.065469 274.296537 358.370482 16.746579 0.000000 0.008848
580.000000 58.123000 6.000000 9.000000 5.000000 117.722273 40.175214 66.258627 200.757454 17.202357 0.000000 0.112924
582.000000 46.251000 -1.000000 10.000000 5.000000 75.573448 -4.461820 1058.984590 1218.718781 21.636772 0.000000 0.131362
583.000000 53.619000 1.000000 10.000000 5.000000 92.049173 4.242145 895.165890 902.384323 18.657456 0.000000 0.171896
584.000000 55.799000 2.000000 10.000000 5.000000 99.431959 9.384087 797.127742 759.778584 17.925772 0.000000 0.165202
585.000000 56.953000 3.000000 10.000000 5.000000 106.004871 15.064158 685.315704 621.291909 17.560376 0.000000 0.140670
586.000000 57.173000 4.000000 10.000000 5.000000 111.641100 21.242802 556.607710 482.841283 17.490550 0.000000 0.097695
587.000000 55.437000 6.000000 10.000000 5.000000 119.875768 34.674102 230.458018 189.188053 18.035380 0.000000 0.052282
588.000000 53.821000 7.000000 10.000000 5.000000 122.505805 41.595104 19.585683 23.939129 18.576191 0.000000 0.168890
590.000000 47.542000 0.000000 11.000000 5.000000 86.066243 -2.873548 1029.024550 1015.104648 21.044895 0.000000 0.164467
591.000000 50.353000 1.000000 11.000000 5.000000 93.674399 1.306451 950.454215 871.864111 19.866832 0.000000 0.173612
592.000000 52.337000 2.000000 11.000000 5.000000 100.758238 5.980499 862.247269 735.379712 19.111283 0.000000 0.168053
593.000000 53.488000 3.000000 11.000000 5.000000 107.170076 11.167878 762.514999 602.028353 18.697599 0.000000 0.147829
594.000000 53.865000 4.000000 11.000000 5.000000 112.791731 16.858866 648.840627 468.440688 18.564430 0.000000 0.112620
595.000000 53.572000 5.000000 11.000000 5.000000 117.542634 23.002675 518.080883 331.212056 18.664276 0.000000 0.061703
596.000000 52.733000 6.000000 11.000000 5.000000 121.385292 29.499643 366.070852 186.605729 18.959789 0.000000 0.015780
597.000000 51.478000 7.000000 11.000000 5.000000 124.327425 36.203449 187.172171 30.192253 19.421197 0.000000 0.102426
600.000000 47.339000 1.000000 12.000000 5.000000 94.951682 -1.293208 999.296887 847.727223 21.131499 0.000000 0.173679
601.000000 49.145000 2.000000 12.000000 5.000000 101.742415 2.960484 919.338131 716.980140 20.352145 0.000000 0.168982
602.000000 50.271000 3.000000 12.000000 5.000000 107.974123 7.692898 829.615151 588.656963 19.893633 0.000000 0.152079
603.000000 50.754000 4.000000 12.000000 5.000000 113.540296 12.913788 728.223094 459.946511 19.702175 0.000000 0.122825
604.000000 50.664000 5.000000 12.000000 5.000000 118.359735 18.602859 612.727164 327.999212 19.735373 0.000000 0.080892
605.000000 50.092000 6.000000 12.000000 5.000000 122.381607 24.699797 479.964564 189.711847 19.959348 0.000000 0.028602
606.000000 49.136000 7.000000 12.000000 5.000000 125.589111 31.099507 325.750416 41.470317 20.346712 0.000000 0.056493
607.000000 47.890000 8.000000 12.000000 5.000000 128.000893 37.657205 144.428612 -121.197100 20.875076 0.000000 0.151017
609.000000 46.226000 2.000000 13.000000 5.000000 102.471432 0.276874 969.798906 702.951483 21.636899 0.000000 0.168566
610.000000 47.314000 3.000000 13.000000 5.000000 108.511533 4.596149 888.476235 579.473484 21.136975 0.000000 0.154243
611.000000 47.864000 4.000000 13.000000 5.000000 113.990532 9.376932 797.265812 455.529066 20.891950 0.000000 0.129595
612.000000 47.924000 5.000000 13.000000 5.000000 118.831258 14.619877 694.247585 328.712498 20.863731 0.000000 0.094491
613.000000 47.561000 6.000000 13.000000 5.000000 122.977513 20.295162 576.969966 196.422000 21.021451 0.000000 0.049690
614.000000 46.849000 7.000000 13.000000 5.000000 126.397731 26.334645 442.252226 55.672476 21.339842 0.000000 0.029373
615.000000 45.862000 8.000000 13.000000 5.000000 129.087816 32.629817 285.891648 -97.149866 21.798011 0.000000 0.098463
620.000000 54.144000 1.000000 4.000000 6.000000 56.776522 34.575814 233.184665 1797.154773 18.485770 0.000000 0.205025
621.000000 60.457000 3.000000 4.000000 6.000000 72.009683 48.462875 -239.942186 1468.077931 16.550523 0.000000 0.296599
622.000000 50.387000 0.000000 5.000000 6.000000 55.565250 22.777501 523.064784 1741.326541 19.866114 0.000000 0.123528
623.000000 56.574000 1.000000 5.000000 6.000000 64.854099 29.343862 369.927949 1520.589512 17.690280 0.000000 0.131536
624.000000 60.297000 2.000000 5.000000 6.000000 72.892591 36.125978 189.404986 1351.120598 16.595401 0.000000 0.144495
625.000000 61.743000 3.000000 5.000000 6.000000 79.509152 42.940467 -26.571875 1213.246810 16.204333 0.000000 0.171473
626.000000 61.384000 4.000000 5.000000 6.000000 84.708526 49.598724 -289.584416 1094.799701 16.297102 0.000000 0.260602
628.000000 56.833000 1.000000 6.000000 6.000000 71.389833 24.497213 484.567675 1339.278097 17.608211 0.000000 0.117025
629.000000 59.619000 5.000000 6.000000 6.000000 94.691936 50.667675 -338.462054 801.630193 16.776615 0.000000 0.265747
630.000000 51.262000 0.000000 7.000000 6.000000 68.172065 14.335300 699.949726 1385.950068 19.523884 0.000000 0.099458
631.000000 55.722000 1.000000 7.000000 6.000000 76.627129 20.056319 582.062403 1213.389798 17.957957 0.000000 0.127859
632.000000 58.527000 2.000000 7.000000 6.000000 84.123054 26.153490 446.482351 1064.423006 17.094572 0.000000 0.126560
633.000000 59.753000 3.000000 7.000000 6.000000 90.487647 32.515959 288.903399 930.136443 16.741339 0.000000 0.100979
634.000000 59.643000 4.000000 7.000000 6.000000 95.657517 38.997926 103.498578 803.806480 16.770241 0.000000 0.082081
635.000000 58.513000 5.000000 7.000000 6.000000 99.667947 45.436410 -117.816267 679.699461 17.092786 0.000000 0.149607
638.000000 53.827000 1.000000 8.000000 6.000000 80.809741 16.019028 665.990726 1122.168620 18.588888 0.000000 0.142239
639.000000 57.535000 3.000000 8.000000 6.000000 94.331352 27.747163 408.802241 848.888950 17.385764 0.000000 0.112727
640.000000 56.771000 5.000000 8.000000 6.000000 103.664743 40.327389 61.351177 597.761849 17.616159 0.000000 0.073484
642.000000 51.539000 1.000000 9.000000 6.000000 84.152899 12.367561 739.000100 1053.838538 19.413135 0.000000 0.154002
643.000000 53.795000 2.000000 9.000000 6.000000 91.166320 17.659699 632.344658 918.004117 18.596169 0.000000 0.151232
644.000000 55.213000 4.000000 9.000000 6.000000 102.558674 29.279385 371.520912 666.117097 18.114293 0.000000 0.083761
645.000000 54.651000 5.000000 9.000000 6.000000 106.814863 35.413653 209.731416 541.906537 18.298900 0.000000 0.035485
646.000000 51.881000 7.000000 9.000000 6.000000 112.573515 47.669695 -206.575855 276.562750 19.273389 0.000000 0.229579
648.000000 49.101000 1.000000 10.000000 6.000000 86.834641 9.074794 803.091189 1001.275900 20.375986 0.000000 0.162411
649.000000 52.311000 3.000000 10.000000 6.000000 99.659034 19.256358 599.007216 746.961601 19.120769 0.000000 0.139884
650.000000 52.338000 5.000000 10.000000 6.000000 109.252957 30.751578 334.632067 503.573360 19.106846 0.000000 0.046864
651.000000 50.166000 7.000000 10.000000 6.000000 115.417266 42.792042 -21.381787 244.021619 19.931415 0.000000 0.143475
653.000000 46.659000 1.000000 11.000000 6.000000 88.997083 6.109121 859.804023 959.949219 21.441597 0.000000 0.167955
654.000000 48.519000 2.000000 11.000000 6.000000 95.533861 10.630517 772.983604 834.901706 20.617053 0.000000 0.165779
655.000000 49.652000 3.000000 11.000000 6.000000 101.452762 15.539897 675.709922 714.675927 20.144246 0.000000 0.148945
656.000000 50.105000 4.000000 11.000000 6.000000 106.662277 20.808373 565.974172 596.390948 19.959870 0.000000 0.117212
657.000000 49.962000 5.000000 11.000000 6.000000 111.105175 26.378866 441.217611 477.298309 20.014948 0.000000 0.069790
658.000000 49.328000 6.000000 11.000000 6.000000 114.760841 32.165367 298.129541 354.565797 20.271002 0.000000 0.007624
659.000000 48.309000 7.000000 11.000000 6.000000 117.644292 38.058053 132.349180 225.045567 20.697374 0.000000 0.081222
660.000000 47.007000 8.000000 11.000000 6.000000 119.801862 43.934402 -61.986525 84.985107 21.269344 0.000000 0.192386
662.000000 47.608000 5.000000 12.000000 6.000000 112.483508 22.315408 533.241377 459.485465 21.004421 0.000000 0.088646
663.000000 46.390000 7.000000 12.000000 6.000000 119.344307 33.522540 262.007296 215.192359 21.552966 0.000000 0.036043
666.000000 47.465000 2.000000 4.000000 7.000000 57.716640 42.793805 -21.443285 1867.634643 21.085746 0.000000 0.297374
670.000000 46.525000 1.000000 5.000000 7.000000 57.955324 32.055984 300.993521 1735.910942 21.513202 0.000000 0.175566
671.000000 50.077000 2.000000 5.000000 7.000000 65.318837 38.009863 133.808341 1568.755325 19.984299 0.000000 0.188415
672.000000 51.941000 3.000000 5.000000 7.000000 71.588075 43.948097 -62.482738 1438.638611 19.264755 0.000000 0.222065
673.000000 52.382000 4.000000 5.000000 7.000000 76.743966 49.746333 -296.205149 1333.392399 19.100313 0.000000 0.298154
676.000000 48.006000 1.000000 6.000000 7.000000 64.627940 27.679100 410.433599 1517.377959 20.847856 0.000000 0.124261
677.000000 51.052000 2.000000 6.000000 7.000000 71.726254 33.429168 264.528284 1366.853211 19.601132 0.000000 0.135373
678.000000 52.639000 3.000000 6.000000 7.000000 77.813406 39.257734 95.388405 1241.190234 19.007722 0.000000 0.145948
679.000000 52.975000 4.000000 6.000000 7.000000 82.853294 45.045794 -103.016116 1132.001699 18.884931 0.000000 0.184066
680.000000 52.340000 5.000000 6.000000 7.000000 86.890732 50.679168 -338.999621 1033.264665 19.112376 0.000000 0.279630
682.000000 48.180000 1.000000 7.000000 7.000000 70.186281 23.595809 504.872335 1364.160532 20.771022 0.000000 0.114390
683.000000 50.844000 2.000000 7.000000 7.000000 77.052458 29.093376 376.105267 1224.172731 19.679942 0.000000 0.121931
684.000000 52.263000 3.000000 7.000000 7.000000 83.000872 34.746539 228.444384 1101.811360 19.143053 0.000000 0.114504
685.000000 52.593000 4.000000 7.000000 7.000000 87.980073 40.449351 57.402058 990.882822 19.020715 0.000000 0.116472
686.000000 52.053000 5.000000 7.000000 7.000000 92.009147 46.090208 -143.052723 886.557759 19.216568 0.000000 0.170640
687.000000 50.870000 6.000000 7.000000 7.000000 95.160365 51.564539 -381.220274 784.637896 19.661969 0.000000 0.289991
688.000000 47.479000 1.000000 8.000000 7.000000 74.787659 19.814791 587.196322 1252.090267 21.076416 0.000000 0.123544
689.000000 49.844000 2.000000 8.000000 7.000000 81.440695 25.028779 472.457416 1119.780690 20.073408 0.000000 0.128044
690.000000 51.157000 3.000000 8.000000 7.000000 87.272759 30.456683 342.109767 1000.476643 19.555980 0.000000 0.112847
691.000000 51.528000 4.000000 8.000000 7.000000 92.221025 36.010123 192.735871 889.396699 19.412798 0.000000 0.088969
692.000000 51.125000 5.000000 8.000000 7.000000 96.281945 41.587472 19.842002 782.591313 19.564148 0.000000 0.099295
693.000000 50.129000 6.000000 8.000000 7.000000 99.501164 47.084481 -182.601636 676.457069 19.951453 0.000000 0.181431
696.000000 46.231000 1.000000 9.000000 7.000000 78.588109 16.333015 659.596199 1167.387689 21.644077 0.000000 0.136462
697.000000 48.354000 2.000000 9.000000 7.000000 85.037871 21.247696 556.501881 1041.262322 20.690829 0.000000 0.139204
698.000000 49.591000 3.000000 9.000000 7.000000 90.761365 26.416545 440.335433 925.029417 20.172518 0.000000 0.123014
699.000000 50.019000 4.000000 9.000000 7.000000 95.689005 31.770267 308.442283 814.883619 19.997660 0.000000 0.090970
700.000000 49.763000 5.000000 9.000000 7.000000 99.799386 37.221990 157.396917 707.549114 20.098747 0.000000 0.062453
701.000000 48.964000 6.000000 9.000000 7.000000 103.114475 42.674778 -17.298901 599.944891 20.424875 0.000000 0.104515
702.000000 47.764000 7.000000 9.000000 7.000000 105.690470 48.031581 -221.671712 488.883836 20.936936 0.000000 0.211388
704.000000 46.590000 2.000000 10.000000 7.000000 87.980042 17.750975 630.455298 980.858014 21.473307 0.000000 0.149704
705.000000 47.765000 3.000000 10.000000 7.000000 93.594080 22.641492 526.067185 867.751838 20.942827 0.000000 0.134863
706.000000 48.247000 4.000000 10.000000 7.000000 98.498592 27.759662 408.502432 759.256802 20.731169 0.000000 0.104055
707.000000 48.129000 5.000000 10.000000 7.000000 102.659492 33.035491 275.098089 652.625419 20.780156 0.000000 0.061105
708.000000 47.520000 6.000000 10.000000 7.000000 106.079379 38.384233 122.421815 545.221334 21.044956 0.000000 0.051915
709.000000 46.532000 7.000000 10.000000 7.000000 108.792541 43.713867 -54.027626 434.298076 21.490460 0.000000 0.131423
710.000000 45.817000 3.000000 11.000000 7.000000 95.885580 19.135806 601.546252 823.560351 21.832109 0.000000 0.145075
711.000000 46.344000 4.000000 11.000000 7.000000 100.757271 23.996177 495.888954 717.172823 21.581709 0.000000 0.117873
712.000000 46.346000 5.000000 11.000000 7.000000 104.959082 29.058843 376.954531 612.019926 21.578923 0.000000 0.076682
713.000000 45.907000 6.000000 11.000000 7.000000 108.478954 34.253810 242.072551 505.838839 21.783854 0.000000 0.030103
714.000000 45.939000 5.000000 6.000000 8.000000 80.015538 50.688130 -339.418969 1240.078884 21.778160 0.000000 0.304878
715.000000 45.688000 3.000000 7.000000 8.000000 76.362389 36.501273 178.547116 1265.852951 21.900361 0.000000 0.135844
716.000000 46.328000 4.000000 7.000000 8.000000 81.159987 41.584668 19.936135 1164.789217 21.595550 0.000000 0.150952
717.000000 46.232000 5.000000 7.000000 8.000000 85.171162 46.601247 -163.198903 1073.336277 21.638521 0.000000 0.199526
718.000000 45.564000 6.000000 7.000000 8.000000 88.442507 51.478018 -377.022332 987.987517 21.953983 0.000000 0.296549
719.000000 45.920000 5.000000 8.000000 8.000000 89.599385 42.577830 -13.935007 951.220048 21.784054 0.000000 0.129002
#UB matrix in q= (UB) B0 G* 
#[[-0.631471404 -0.762742829  0.134849517]
# [ 0.616831428 -0.389707236  0.684241594]
# [-0.46985408   0.515727233  0.717283459]]
#B0 matrix in q= UB (B0) G*
#[[ 0.19670273 -0.          0.03056101]
# [ 0.          0.19187965 -0.        ]
# [ 0.          0.          0.18806537]]
#UBB0 matrix in q= (UB B0) G* i.e. recip. basis vectors are columns in LT frame: astar = UBB0[:,0], bstar = UBB0[:,1], cstar = UBB0[:,2]. (abcstar as columns on xyzlab1, xlab1 = ui, ui = unit vector along incident beam)
#[[-0.12421215 -0.14635483  0.00606212]
# [ 0.12133243 -0.07477689  0.14753314]
# [-0.09242158  0.09895756  0.12053697]]
#Euler angles phi theta psi (deg)
#[222.357  44.217  11.165]
#deviatoric strain in direct crystal frame (10-3 unit)
#[[-1.28  0.55  0.23]
# [ 0.55 -1.06 -0.23]
# [ 0.23 -0.23  2.34]]
#deviatoric strain in sample2 frame (10-3 unit)
#[[-0.03  1.55  0.34]
# [ 1.55  0.5   1.34]
# [ 0.34  1.34 -0.47]]
#new lattice parameters
#[ 5.1505     5.2127321  5.315147  90.0236628 99.2199291 89.936818 ]
#CCDLabel
#sCMOS
#DetectorParameters
#[79.0, 975.0, 941.0, 0.0, 0.0]
#pixelsize
#0.0734
#Frame dimensions
#[2018, 2016]
#
