# Spots Summary of: /home/micha/lauetoolsgithub/LaueTools/Examples/CuSi/corfiles/SiCustrain3.cor
# File created at Thu May  4 14:35:03 2023 with indexingSpotsSet.py
# Number of spots: 210
#spot_index grain_index 2theta Chi Xexp Yexp intensity h k l Energy
0.0000000 0.0000000 59.0153008 22.2572002 582.6561890 1719.1097412 165.5752564 -1.0000000 1.0000000 1.0000000 6.0467145
1.0000000 -1.0000000 70.5674972 -30.7912998 1635.1607666 1474.0775146 152.5781097 10000.0000000 10000.0000000 10000.0000000 10000.0000000
2.0000000 -1.0000000 69.7790985 32.0158997 356.5217896 1495.0085449 151.0936890 10000.0000000 10000.0000000 10000.0000000 10000.0000000
3.0000000 0.0000000 115.0766983 8.7096996 852.5103760 542.7299194 148.1391449 -3.0000000 1.0000000 1.0000000 6.7584176
4.0000000 -1.0000000 78.9102020 0.6965000 999.1063843 1247.7122803 139.1809845 10000.0000000 10000.0000000 10000.0000000 10000.0000000
5.0000000 -1.0000000 110.4943008 0.9307000 996.5463257 648.4052124 138.5248718 10000.0000000 10000.0000000 10000.0000000 10000.0000000
6.0000000 0.0000000 64.5436020 -19.0769997 1372.7603760 1570.3332520 109.9291229 -2.0000000 0.0000000 2.0000000 9.1075662
7.0000000 -1.0000000 101.9702988 -19.9211998 1394.4516602 806.0637207 107.6268692 10000.0000000 10000.0000000 10000.0000000 10000.0000000
8.0000000 -1.0000000 92.9044037 -43.0054016 1992.7725830 972.2047730 107.3310318 10000.0000000 10000.0000000 10000.0000000 10000.0000000
9.0000000 -1.0000000 101.4347000 21.5613003 597.4821777 812.1279297 107.2188263 10000.0000000 10000.0000000 10000.0000000 10000.0000000
10.0000000 -1.0000000 91.8594971 44.3474998 -14.3448000 991.3842163 106.3976974 10000.0000000 10000.0000000 10000.0000000 10000.0000000
11.0000000 -1.0000000 75.6544037 -19.4575005 1381.9224854 1327.5859375 103.3998871 10000.0000000 10000.0000000 10000.0000000 10000.0000000
12.0000000 -1.0000000 75.1342010 20.7772007 613.9324951 1338.5323486 102.7953110 10000.0000000 10000.0000000 10000.0000000 10000.0000000
13.0000000 0.0000000 131.7525940 -0.8594000 1031.1657715 98.3761978 102.2502212 -5.0000000 1.0000000 1.0000000 9.7915410
14.0000000 0.0000000 101.1819000 -22.4241009 1447.2395020 818.5117188 100.6014938 -4.0000000 0.0000000 2.0000000 9.9520108
15.0000000 -1.0000000 119.6836014 -20.4143009 1407.0524902 401.6626892 98.6162186 10000.0000000 10000.0000000 10000.0000000 10000.0000000
16.0000000 -1.0000000 119.1315994 22.3913002 579.7445068 404.9533997 98.3395386 10000.0000000 10000.0000000 10000.0000000 10000.0000000
17.0000000 -1.0000000 101.7521973 0.8504000 997.5161133 823.2540894 95.1690292 10000.0000000 10000.0000000 10000.0000000 10000.0000000
18.0000000 0.0000000 86.7269974 43.7634010 6.9264002 1122.2668457 91.6747436 -3.0000000 3.0000000 1.0000000 10.9210718
19.0000000 0.0000000 96.4002991 14.9190998 732.7689819 919.2957764 88.6218414 -4.0000000 2.0000000 2.0000000 11.2972965
20.0000000 -1.0000000 117.8497009 1.0132999 995.4976196 484.9266968 88.4291382 10000.0000000 10000.0000000 10000.0000000 10000.0000000
21.0000000 -1.0000000 92.7229004 -31.3938999 1653.8457031 985.5493774 82.5424423 10000.0000000 10000.0000000 10000.0000000 10000.0000000
22.0000000 0.0000000 113.1634979 35.4771004 262.7062988 485.9512940 82.1241913 -5.0000000 3.0000000 1.0000000 12.1911294
23.0000000 -1.0000000 91.9187012 32.8324013 334.7062073 998.2438965 81.9890594 10000.0000000 10000.0000000 10000.0000000 10000.0000000
24.0000000 -1.0000000 109.1015015 -32.0228004 1672.6147461 613.8380127 79.7910767 10000.0000000 10000.0000000 10000.0000000 10000.0000000
25.0000000 -1.0000000 129.3845062 1.1857001 993.2069092 174.4066925 79.5978088 10000.0000000 10000.0000000 10000.0000000 10000.0000000
26.0000000 -1.0000000 108.2808990 33.6803017 311.7500916 621.8817749 79.3829117 10000.0000000 10000.0000000 10000.0000000 10000.0000000
27.0000000 0.0000000 117.2391968 -24.8533993 1502.7958984 445.2507935 78.5869446 -6.0000000 0.0000000 2.0000000 12.7398583
28.0000000 -1.0000000 77.2463989 -13.9854002 1272.8659668 1287.5185547 76.5733185 10000.0000000 10000.0000000 10000.0000000 10000.0000000
29.0000000 -1.0000000 76.8636017 15.3386002 724.1428223 1295.0194092 76.2532806 10000.0000000 10000.0000000 10000.0000000 10000.0000000
30.0000000 -1.0000000 112.0830994 -14.4230003 1284.7484131 601.6276856 76.1735916 10000.0000000 10000.0000000 10000.0000000 10000.0000000
31.0000000 -1.0000000 111.6827011 16.2733002 706.2531128 604.8823242 75.9941940 10000.0000000 10000.0000000 10000.0000000 10000.0000000
32.0000000 -1.0000000 121.2390976 -32.6797981 1692.0982666 283.2768860 73.7997055 10000.0000000 10000.0000000 10000.0000000 10000.0000000
33.0000000 -1.0000000 120.4012985 34.5610008 287.4271851 287.7290039 73.4944458 10000.0000000 10000.0000000 10000.0000000 10000.0000000
34.0000000 0.0000000 65.6828003 -3.2976000 1071.3642578 1516.1575928 72.4659729 -3.0000000 1.0000000 3.0000000 13.8159521
35.0000000 -1.0000000 96.7694016 0.8112000 997.9649048 917.3284302 71.8923798 10000.0000000 10000.0000000 10000.0000000 10000.0000000
36.0000000 0.0000000 93.5126038 -7.2593999 1146.5153809 977.5462036 71.7161026 -5.0000000 1.0000000 3.0000000 13.9604206
37.0000000 -1.0000000 123.2809982 -14.6576004 1290.7082520 326.7990112 70.3756485 10000.0000000 10000.0000000 10000.0000000 10000.0000000
38.0000000 -1.0000000 122.8712006 16.7724991 696.4826050 328.7846069 70.2396164 10000.0000000 10000.0000000 10000.0000000 10000.0000000
39.0000000 0.0000000 88.0414963 -34.9154015 1745.2147217 1088.1533203 68.3803711 -5.0000000 -1.0000000 3.0000000 14.6414394
40.0000000 0.0000000 127.2764969 27.7803993 458.3818054 131.1416931 67.8997269 -7.0000000 3.0000000 1.0000000 14.7450825
41.0000000 -1.0000000 47.3249016 0.5508000 999.5578003 2003.9757080 67.6683426 10000.0000000 10000.0000000 10000.0000000 10000.0000000
42.0000000 0.0000000 59.5970993 -34.3311996 1723.7854004 1786.7015381 66.3590698 -3.0000000 -1.0000000 3.0000000 15.0874189
43.0000000 -1.0000000 91.4441986 -24.3180008 1487.2685547 1014.5286865 65.7520599 10000.0000000 10000.0000000 10000.0000000 10000.0000000
44.0000000 -1.0000000 90.8037033 25.7879009 505.0180054 1024.2781982 65.3933258 10000.0000000 10000.0000000 10000.0000000 10000.0000000
45.0000000 -1.0000000 100.1221008 -38.7379990 1857.1907959 803.9071045 64.9366684 10000.0000000 10000.0000000 10000.0000000 10000.0000000
46.0000000 -1.0000000 121.0895996 1.0554000 994.9478149 405.8485107 64.7023010 10000.0000000 10000.0000000 10000.0000000 10000.0000000
47.0000000 -1.0000000 99.1604004 40.2011986 124.1697998 817.4044190 64.4788590 10000.0000000 10000.0000000 10000.0000000 10000.0000000
48.0000000 -1.0000000 131.8545990 -14.9038000 1296.8712158 62.6702995 64.2475281 10000.0000000 10000.0000000 10000.0000000 10000.0000000
49.0000000 -1.0000000 131.4351044 17.2945995 686.1464233 63.4995995 64.1421585 10000.0000000 10000.0000000 10000.0000000 10000.0000000
50.0000000 0.0000000 125.8712006 -26.6907997 1546.2332764 188.5881042 62.8600693 -8.0000000 0.0000000 2.0000000 15.9272273
51.0000000 -1.0000000 93.9601974 -10.9284000 1215.5915527 968.6823120 62.8073235 10000.0000000 10000.0000000 10000.0000000 10000.0000000
52.0000000 -1.0000000 93.6532974 12.4907999 779.9042969 972.7484131 62.6504364 10000.0000000 10000.0000000 10000.0000000 10000.0000000
53.0000000 -1.0000000 111.8300018 -39.3604012 1878.9074707 498.5144958 62.2169495 10000.0000000 10000.0000000 10000.0000000 10000.0000000
54.0000000 0.0000000 79.7425995 36.8730011 225.2850037 1276.9991455 62.1935768 -4.0000000 4.0000000 2.0000000 16.0979113
55.0000000 -1.0000000 73.9308014 -23.9587002 1477.1002197 1373.8625488 62.0855064 10000.0000000 10000.0000000 10000.0000000 10000.0000000
56.0000000 -1.0000000 110.8541031 40.9788017 98.3556976 507.4613037 61.8567314 10000.0000000 10000.0000000 10000.0000000 10000.0000000
57.0000000 0.0000000 109.0221024 -10.5115995 1208.9630127 673.5172119 61.7307167 -7.0000000 1.0000000 3.0000000 16.2186150
58.0000000 -1.0000000 73.3010025 25.2441006 517.4318848 1388.1840820 61.6319923 10000.0000000 10000.0000000 10000.0000000 10000.0000000
59.0000000 -1.0000000 106.7102966 -11.0426998 1218.8685303 720.7969971 61.4140053 10000.0000000 10000.0000000 10000.0000000 10000.0000000
60.0000000 -1.0000000 116.0451965 -25.0767994 1507.6094971 474.6729126 61.2924995 10000.0000000 10000.0000000 10000.0000000 10000.0000000
61.0000000 -1.0000000 106.3977966 12.8058996 774.1641846 723.7802124 61.2894592 10000.0000000 10000.0000000 10000.0000000 10000.0000000
62.0000000 -1.0000000 115.3820038 26.9304008 478.5213013 479.4292908 61.0703812 10000.0000000 10000.0000000 10000.0000000 10000.0000000
63.0000000 0.0000000 86.7965012 17.2355003 686.6036987 1102.7100830 61.0207062 -5.0000000 3.0000000 3.0000000 16.4073269
64.0000000 0.0000000 125.4216003 3.5025001 950.1090088 289.6123962 60.9786186 -8.0000000 2.0000000 2.0000000 16.4186558
65.0000000 -1.0000000 77.9225998 -10.8182001 1212.1599121 1271.1983643 60.4660721 10000.0000000 10000.0000000 10000.0000000 10000.0000000
66.0000000 -1.0000000 77.6210022 12.1864996 785.3242798 1276.9305420 60.2694664 10000.0000000 10000.0000000 10000.0000000 10000.0000000
67.0000000 0.0000000 101.4227982 31.3057995 373.3846130 791.4373169 60.2131424 -6.0000000 4.0000000 2.0000000 16.6273788
68.0000000 -1.0000000 51.1503982 -13.7810001 1265.9082031 1908.6689453 59.7986679 10000.0000000 10000.0000000 10000.0000000 10000.0000000
69.0000000 0.0000000 104.0682983 -35.3830986 1761.0633545 720.8521118 59.7478676 -7.0000000 -1.0000000 3.0000000 16.7568650
70.0000000 -1.0000000 50.7756004 14.9005003 732.0927734 1923.0145264 59.3902855 10000.0000000 10000.0000000 10000.0000000 10000.0000000
71.0000000 -1.0000000 66.3058014 -37.5507011 1814.8271484 1623.5869141 58.5321464 10000.0000000 10000.0000000 10000.0000000 10000.0000000
72.0000000 -1.0000000 65.3715973 38.7071991 172.6228943 1654.0078125 57.8006935 10000.0000000 10000.0000000 10000.0000000 10000.0000000
73.0000000 -1.0000000 56.0675011 0.5865000 999.6646118 1745.3133545 57.6568260 10000.0000000 10000.0000000 10000.0000000 10000.0000000
74.0000000 -1.0000000 93.5614014 0.7878000 998.2203980 976.7178955 57.5651550 10000.0000000 10000.0000000 10000.0000000 10000.0000000
75.0000000 -1.0000000 124.6341019 -25.4776993 1518.1933594 235.4866943 57.1917458 10000.0000000 10000.0000000 10000.0000000 10000.0000000
76.0000000 -1.0000000 123.9589004 27.5307007 464.3427124 238.3506928 57.0142632 10000.0000000 10000.0000000 10000.0000000 10000.0000000
77.0000000 -1.0000000 105.4337997 0.8823000 997.1387940 751.5244141 56.5380974 10000.0000000 10000.0000000 10000.0000000 10000.0000000
78.0000000 0.0000000 104.0112991 12.7289000 775.5864868 772.2526856 56.0692100 -7.0000000 3.0000000 3.0000000 17.8562641
79.0000000 0.0000000 87.0456009 -20.8938007 1413.0644531 1101.3663330 55.6130524 -6.0000000 0.0000000 4.0000000 18.0027335
80.0000000 -1.0000000 135.9906006 1.3220000 991.3391724 -53.8338013 54.8867340 10000.0000000 10000.0000000 10000.0000000 10000.0000000
81.0000000 -1.0000000 98.7472000 -31.6005001 1660.0494385 854.1179810 54.8411293 10000.0000000 10000.0000000 10000.0000000 10000.0000000
82.0000000 -1.0000000 86.0537033 -31.1902008 1647.6601562 1128.7208252 54.5697212 10000.0000000 10000.0000000 10000.0000000 10000.0000000
83.0000000 -1.0000000 125.0017014 -11.2846003 1225.4173584 288.8532104 54.5408859 10000.0000000 10000.0000000 10000.0000000 10000.0000000
84.0000000 -1.0000000 97.9375992 33.1114998 327.1940918 865.0568848 54.5079727 10000.0000000 10000.0000000 10000.0000000 10000.0000000
85.0000000 -1.0000000 124.6773987 13.4707003 761.8203125 290.2576904 54.4604759 10000.0000000 10000.0000000 10000.0000000 10000.0000000
86.0000000 -1.0000000 90.1072998 -19.6858006 1388.2430420 1041.2054443 54.1746140 10000.0000000 10000.0000000 10000.0000000 10000.0000000
87.0000000 -1.0000000 85.2548981 32.5568008 342.0899963 1143.5156250 54.1615601 10000.0000000 10000.0000000 10000.0000000 10000.0000000
88.0000000 -1.0000000 115.0563965 0.9799000 995.9257202 549.3173828 54.0485039 10000.0000000 10000.0000000 10000.0000000 10000.0000000
89.0000000 -1.0000000 89.5794983 21.1637001 605.8645020 1049.2115478 53.9254456 10000.0000000 10000.0000000 10000.0000000 10000.0000000
90.0000000 0.0000000 87.2542038 0.6238000 1000.8914185 1092.4902344 53.7041054 -6.0000000 2.0000000 4.0000000 18.6426491
91.0000000 0.0000000 115.1591034 26.0886002 497.8728027 489.2056885 53.6210594 -8.0000000 4.0000000 2.0000000 18.6715234
92.0000000 -1.0000000 103.9820023 -43.5649986 2015.0360107 683.3369751 52.7862701 10000.0000000 10000.0000000 10000.0000000 10000.0000000
93.0000000 0.0000000 118.5021973 -13.2129002 1261.8475342 454.6606140 52.4564018 -9.0000000 1.0000000 3.0000000 19.0860796
94.0000000 -1.0000000 102.9253998 45.0232010 -40.1460991 697.1638794 52.4042015 10000.0000000 10000.0000000 10000.0000000 10000.0000000
95.0000000 -1.0000000 79.3798981 -42.4594002 1970.8999023 1311.4885254 52.1728973 10000.0000000 10000.0000000 10000.0000000 10000.0000000
96.0000000 0.0000000 64.8518982 4.0815000 936.3107910 1534.5543213 52.0521050 -4.0000000 2.0000000 4.0000000 19.2343220
97.0000000 -1.0000000 111.6869965 -20.1639004 1400.6955566 596.9714966 51.9150124 10000.0000000 10000.0000000 10000.0000000 10000.0000000
98.0000000 -1.0000000 111.1433029 21.9703007 588.7797241 601.5407715 51.7476196 10000.0000000 10000.0000000 10000.0000000 10000.0000000
99.0000000 -1.0000000 78.3466034 43.6853981 10.5372000 1338.0783691 51.6047249 10000.0000000 10000.0000000 10000.0000000 10000.0000000
100.0000000 0.0000000 113.9841003 -35.7659988 1773.8140869 466.2278137 51.1699791 -9.0000000 -1.0000000 3.0000000 19.5659038
101.0000000 -1.0000000 102.7758026 -8.8860998 1177.6840820 801.2025757 51.1658134 10000.0000000 10000.0000000 10000.0000000 10000.0000000
102.0000000 -1.0000000 102.5199966 10.5885000 816.5249023 803.9091797 51.0746612 10000.0000000 10000.0000000 10000.0000000 10000.0000000
103.0000000 -1.0000000 131.6237946 -11.4125996 1228.7902832 84.2869034 50.7463264 10000.0000000 10000.0000000 10000.0000000 10000.0000000
104.0000000 -1.0000000 131.2933960 13.8216000 755.2155762 84.9973984 50.6804848 10000.0000000 10000.0000000 10000.0000000 10000.0000000
105.0000000 -1.0000000 117.5781021 -32.4575996 1685.5029297 391.0672913 50.6310921 10000.0000000 10000.0000000 10000.0000000 10000.0000000
106.0000000 -1.0000000 116.7461014 34.2636986 295.6979065 396.6599121 50.4074173 10000.0000000 10000.0000000 10000.0000000 10000.0000000
107.0000000 -1.0000000 52.1313019 -23.6117992 1466.0654297 1929.3217773 50.1162949 10000.0000000 10000.0000000 10000.0000000 10000.0000000
108.0000000 -1.0000000 78.2667007 -8.7645998 1173.4875488 1263.0301514 49.8546982 10000.0000000 10000.0000000 10000.0000000 10000.0000000
109.0000000 -1.0000000 78.0183029 10.1408997 824.2374268 1267.6778564 49.7220268 10000.0000000 10000.0000000 10000.0000000 10000.0000000
110.0000000 -1.0000000 51.5119019 24.7176990 529.3726196 1954.1398926 49.5624886 10000.0000000 10000.0000000 10000.0000000 10000.0000000
111.0000000 0.0000000 79.1373978 -41.0233002 1923.6962891 1311.5478516 49.5427170 -6.0000000 -2.0000000 4.0000000 20.2085544
112.0000000 -1.0000000 111.9626007 -8.9497004 1179.6651611 612.5974121 49.4072113 10000.0000000 10000.0000000 10000.0000000 10000.0000000
113.0000000 -1.0000000 111.7029038 10.8221998 812.3806763 614.6887817 49.3316765 10000.0000000 10000.0000000 10000.0000000 10000.0000000
114.0000000 0.0000000 101.7151032 -2.4024999 1057.2606201 823.9766846 49.2857246 -8.0000000 2.0000000 4.0000000 20.3139287
115.0000000 -1.0000000 61.0505981 0.6081000 999.6337280 1620.7799072 48.8427467 10000.0000000 10000.0000000 10000.0000000 10000.0000000
116.0000000 -1.0000000 91.3265991 0.7724000 998.3842163 1017.7955933 47.9179192 10000.0000000 10000.0000000 10000.0000000 10000.0000000
117.0000000 -1.0000000 124.5726013 -32.9053001 1698.8071289 176.8401032 47.7329483 10000.0000000 10000.0000000 10000.0000000 10000.0000000
118.0000000 -1.0000000 97.1781998 -26.4755993 1536.5468750 895.8092041 47.0516739 10000.0000000 10000.0000000 10000.0000000 10000.0000000
119.0000000 -1.0000000 119.5972977 -9.0151997 1181.6372070 436.0437927 47.0472641 10000.0000000 10000.0000000 10000.0000000 10000.0000000
120.0000000 -1.0000000 119.3336029 11.0629997 808.0642700 437.6079102 46.9842453 10000.0000000 10000.0000000 10000.0000000 10000.0000000
121.0000000 0.0000000 124.1957016 21.2672005 603.7822876 270.9667969 46.9654236 -10.0000000 4.0000000 2.0000000 21.3175346
122.0000000 -1.0000000 93.0911026 -36.4387016 1788.4899902 973.9589233 46.8835983 10000.0000000 10000.0000000 10000.0000000 10000.0000000
123.0000000 -1.0000000 96.4859009 28.0046997 453.7987976 905.1203003 46.8005524 10000.0000000 10000.0000000 10000.0000000 10000.0000000
124.0000000 0.0000000 93.6763000 29.1257992 427.1955872 963.1152954 46.6164856 -7.0000000 5.0000000 3.0000000 21.4771010
125.0000000 -1.0000000 92.1776962 37.8415985 196.4407959 989.1243896 46.5286598 10000.0000000 10000.0000000 10000.0000000 10000.0000000
126.0000000 0.0000000 94.1561966 -40.9151993 1923.6820068 943.8317871 46.5043831 -8.0000000 -2.0000000 4.0000000 21.5288714
127.0000000 -1.0000000 126.3189011 -20.6728001 1413.5701904 213.3627930 46.4664154 10000.0000000 10000.0000000 10000.0000000 10000.0000000
128.0000000 0.0000000 75.4465027 33.2841988 323.5892944 1365.5334473 46.3716507 -5.0000000 5.0000000 3.0000000 21.5904971
129.0000000 -1.0000000 125.7583008 22.8246994 570.3609009 215.4779968 46.3510399 10000.0000000 10000.0000000 10000.0000000 10000.0000000
130.0000000 -1.0000000 102.9092026 -36.8531990 1802.2701416 743.0529175 46.3007546 10000.0000000 10000.0000000 10000.0000000 10000.0000000
131.0000000 -1.0000000 106.4497986 -26.7707996 1544.6737060 695.5701294 46.0704880 10000.0000000 10000.0000000 10000.0000000 10000.0000000
132.0000000 -1.0000000 101.9859009 38.3708000 180.1011047 754.6889038 46.0025177 10000.0000000 10000.0000000 10000.0000000 10000.0000000
133.0000000 0.0000000 81.0567017 18.4419994 662.1461792 1215.1365967 45.8930092 -6.0000000 4.0000000 4.0000000 21.8156651
134.0000000 -1.0000000 81.4114990 -36.0336990 1774.8424072 1240.3439941 45.8922768 10000.0000000 10000.0000000 10000.0000000 10000.0000000
135.0000000 -1.0000000 88.9302978 -16.4568005 1322.6103516 1063.5428467 45.8676682 10000.0000000 10000.0000000 10000.0000000 10000.0000000
136.0000000 -1.0000000 105.7489014 28.4335003 443.4659119 702.8317261 45.8594208 10000.0000000 10000.0000000 10000.0000000 10000.0000000
137.0000000 -1.0000000 88.4832001 17.9340992 672.5363770 1070.3713379 45.6853371 10000.0000000 10000.0000000 10000.0000000 10000.0000000
138.0000000 -1.0000000 80.5077972 37.3227997 212.3007965 1260.2550049 45.4708557 10000.0000000 10000.0000000 10000.0000000 10000.0000000
139.0000000 -1.0000000 84.4487000 -11.6401997 1228.3592529 1146.9638672 45.1971664 10000.0000000 10000.0000000 10000.0000000 10000.0000000
140.0000000 -1.0000000 87.1326981 -45.9272995 2096.4960938 1121.0100098 45.1291237 10000.0000000 10000.0000000 10000.0000000 10000.0000000
141.0000000 -1.0000000 124.7800980 -15.4829998 1307.2438965 282.0918884 45.0734901 10000.0000000 10000.0000000 10000.0000000 10000.0000000
142.0000000 -1.0000000 108.1134033 -16.7740002 1330.9282227 683.3811035 44.7683868 10000.0000000 10000.0000000 10000.0000000 10000.0000000
143.0000000 -1.0000000 58.2920990 -19.2360001 1375.1403809 1727.2021484 44.7286186 10000.0000000 10000.0000000 10000.0000000 10000.0000000
144.0000000 -1.0000000 134.7814941 1.2941999 991.7224731 -8.1866999 44.6552582 10000.0000000 10000.0000000 10000.0000000 10000.0000000
145.0000000 -1.0000000 107.6547012 18.5352001 660.5266724 687.6641235 44.6383553 10000.0000000 10000.0000000 10000.0000000 10000.0000000
146.0000000 -1.0000000 110.6029968 -23.7287998 1476.8415527 610.9382935 44.4454918 10000.0000000 10000.0000000 10000.0000000 10000.0000000
147.0000000 -1.0000000 62.2596016 -8.7066002 1171.0096436 1599.2626953 44.4119530 10000.0000000 10000.0000000 10000.0000000 10000.0000000
148.0000000 -1.0000000 102.1026001 39.5629997 143.8513031 746.8204956 44.3883781 10000.0000000 10000.0000000 10000.0000000 10000.0000000
149.0000000 -1.0000000 57.7792015 20.4011993 621.6759033 1743.7504883 44.3696861 10000.0000000 10000.0000000 10000.0000000 10000.0000000
150.0000000 -1.0000000 114.2531967 -27.0737991 1552.9326172 510.3612976 44.3695869 10000.0000000 10000.0000000 10000.0000000 10000.0000000
151.0000000 -1.0000000 62.0148010 9.9266005 827.7045288 1605.9576416 44.2549553 10000.0000000 10000.0000000 10000.0000000 10000.0000000
152.0000000 -1.0000000 65.7081986 -9.5219002 1186.6096191 1521.7443848 44.2440491 10000.0000000 10000.0000000 10000.0000000 10000.0000000
153.0000000 -1.0000000 73.0651016 -25.9071007 1520.2808838 1398.3405762 44.2339096 10000.0000000 10000.0000000 10000.0000000 10000.0000000
154.0000000 -1.0000000 113.5437012 28.8722000 432.7973938 515.9005127 44.1914940 10000.0000000 10000.0000000 10000.0000000 10000.0000000
155.0000000 -1.0000000 120.6315994 -36.0850983 1784.4102783 270.7163086 44.1797409 10000.0000000 10000.0000000 10000.0000000 10000.0000000
156.0000000 -1.0000000 76.6380005 -16.3043995 1318.3409424 1302.5461426 44.0594444 10000.0000000 10000.0000000 10000.0000000 10000.0000000
157.0000000 -1.0000000 111.4621964 -5.0591998 1106.9725342 626.6958008 43.9323311 10000.0000000 10000.0000000 10000.0000000 10000.0000000
158.0000000 -1.0000000 72.3891983 27.1762009 473.5538025 1414.3316650 43.8815498 10000.0000000 10000.0000000 10000.0000000 10000.0000000
159.0000000 -1.0000000 76.1964035 17.6445007 678.2335815 1311.4367676 43.8446884 10000.0000000 10000.0000000 10000.0000000 10000.0000000
160.0000000 -1.0000000 89.9754028 -7.3611002 1148.1529541 1043.0288086 43.7942658 10000.0000000 10000.0000000 10000.0000000 10000.0000000
161.0000000 -1.0000000 135.9317017 -4.5264001 1099.5517578 -54.3939018 43.7656898 10000.0000000 10000.0000000 10000.0000000 10000.0000000
162.0000000 -1.0000000 89.7618027 8.8789997 848.3925781 1046.0937500 43.7126961 10000.0000000 10000.0000000 10000.0000000 10000.0000000
163.0000000 -1.0000000 99.7906036 -7.3944001 1149.5006104 859.5805054 43.7111855 10000.0000000 10000.0000000 10000.0000000 10000.0000000
164.0000000 -1.0000000 80.9542999 -29.2301006 1598.8081055 1235.2791748 43.6422424 10000.0000000 10000.0000000 10000.0000000 10000.0000000
165.0000000 -1.0000000 99.5743027 9.0524998 845.4675903 862.0426025 43.6417465 10000.0000000 10000.0000000 10000.0000000 10000.0000000
166.0000000 -1.0000000 131.8780060 -20.9396992 1420.2829590 27.9482994 43.6407394 10000.0000000 10000.0000000 10000.0000000 10000.0000000
167.0000000 -1.0000000 131.3085938 23.2709999 560.6104736 28.9284000 43.5435371 10000.0000000 10000.0000000 10000.0000000 10000.0000000
168.0000000 -1.0000000 106.4646988 25.1895008 518.3272095 696.8225098 43.4937859 10000.0000000 10000.0000000 10000.0000000 10000.0000000
169.0000000 -1.0000000 122.5589981 5.1364999 919.6475220 365.3416138 43.3098450 10000.0000000 10000.0000000 10000.0000000 10000.0000000
170.0000000 -1.0000000 115.5419998 -16.9389992 1335.1154785 516.5133057 43.0748177 10000.0000000 10000.0000000 10000.0000000 10000.0000000
171.0000000 -1.0000000 115.0773010 18.8470993 654.2194214 519.8513794 42.9645386 10000.0000000 10000.0000000 10000.0000000 10000.0000000
172.0000000 -1.0000000 118.1295013 -37.7118988 1830.7746582 331.2800903 42.8874016 10000.0000000 10000.0000000 10000.0000000 10000.0000000
173.0000000 -1.0000000 117.1857986 39.4613991 145.7277985 337.3859863 42.6746063 10000.0000000 10000.0000000 10000.0000000 10000.0000000
174.0000000 -1.0000000 78.4636993 -7.3285999 1146.6966553 1258.3876953 42.3717842 10000.0000000 10000.0000000 10000.0000000 10000.0000000
175.0000000 -1.0000000 78.2527008 8.7096004 851.1668701 1262.2998047 42.2763634 10000.0000000 10000.0000000 10000.0000000 10000.0000000
176.0000000 -1.0000000 97.2983017 -13.4995003 1265.2719727 904.4531250 42.2647820 10000.0000000 10000.0000000 10000.0000000 10000.0000000
177.0000000 -1.0000000 82.6619034 5.2849002 915.0064087 1177.5793457 42.2228470 10000.0000000 10000.0000000 10000.0000000 10000.0000000
178.0000000 -1.0000000 124.0756988 1.0982000 994.3822022 327.9515991 42.0267677 10000.0000000 10000.0000000 10000.0000000 10000.0000000
179.0000000 -1.0000000 64.2586975 0.6227000 999.5845947 1546.7723389 42.0113716 10000.0000000 10000.0000000 10000.0000000 10000.0000000
180.0000000 -1.0000000 104.4005966 -40.8222008 1923.1041260 687.6292725 41.9830780 10000.0000000 10000.0000000 10000.0000000 10000.0000000
181.0000000 -1.0000000 61.9686012 -28.4339008 1576.7249756 1676.9395752 41.9672928 10000.0000000 10000.0000000 10000.0000000 10000.0000000
182.0000000 -1.0000000 131.3878937 -9.1527004 1185.6447754 98.9552994 41.9058266 10000.0000000 10000.0000000 10000.0000000 10000.0000000
183.0000000 -1.0000000 131.1157990 11.5669002 798.9196777 99.5737991 41.8608475 10000.0000000 10000.0000000 10000.0000000 10000.0000000
184.0000000 -1.0000000 130.3954926 16.8584995 694.9271851 101.1692963 41.2633018 10000.0000000 10000.0000000 10000.0000000 10000.0000000
185.0000000 -1.0000000 94.0233002 -29.9211998 1617.5412598 958.6975708 41.1724968 10000.0000000 10000.0000000 10000.0000000 10000.0000000
186.0000000 -1.0000000 115.2656021 -7.4636998 1152.0589600 540.8798828 41.1723900 10000.0000000 10000.0000000 10000.0000000 10000.0000000
187.0000000 -1.0000000 115.0436020 9.4130001 839.2445068 542.4622803 41.1218681 10000.0000000 10000.0000000 10000.0000000 10000.0000000
188.0000000 -1.0000000 121.8582993 -17.1086006 1339.3691406 356.9342041 41.1049843 10000.0000000 10000.0000000 10000.0000000 10000.0000000
189.0000000 -1.0000000 121.3873978 19.1669998 647.7055054 359.4202881 41.0109024 10000.0000000 10000.0000000 10000.0000000 10000.0000000
190.0000000 -1.0000000 89.6815033 0.7614000 998.4978027 1047.9626465 41.0018234 10000.0000000 10000.0000000 10000.0000000 10000.0000000
191.0000000 -1.0000000 95.6792984 -22.6732006 1451.9217529 930.1961060 40.9900742 10000.0000000 10000.0000000 10000.0000000 10000.0000000
192.0000000 -1.0000000 98.9589004 0.8279000 997.7758179 876.3314209 40.9874535 10000.0000000 10000.0000000 10000.0000000 10000.0000000
193.0000000 -1.0000000 101.5363007 -31.7049999 1663.1671143 791.6873169 40.9210510 10000.0000000 10000.0000000 10000.0000000 10000.0000000
194.0000000 -1.0000000 107.2266998 11.6799002 795.8488159 708.1898193 40.8049202 10000.0000000 10000.0000000 10000.0000000 10000.0000000
195.0000000 -1.0000000 95.0775986 24.2066994 540.2838745 938.3541260 40.7950134 10000.0000000 10000.0000000 10000.0000000 10000.0000000
196.0000000 -1.0000000 100.7239990 33.2523003 323.3870850 801.8400269 40.6835823 10000.0000000 10000.0000000 10000.0000000 10000.0000000
197.0000000 -1.0000000 85.9281998 -22.4650993 1446.2691650 1124.3304443 40.6260796 10000.0000000 10000.0000000 10000.0000000 10000.0000000
198.0000000 -1.0000000 97.5335007 -40.3609009 1906.7790527 862.3294067 40.5485230 10000.0000000 10000.0000000 10000.0000000 10000.0000000
199.0000000 -1.0000000 82.4593964 -31.0893993 1644.5622559 1206.2303467 40.5257492 10000.0000000 10000.0000000 10000.0000000 10000.0000000
200.0000000 -1.0000000 88.2713013 -39.9690018 1892.4057617 1086.1573486 40.4913063 10000.0000000 10000.0000000 10000.0000000 10000.0000000
201.0000000 -1.0000000 85.3330002 23.8803005 547.5150757 1134.4781494 40.3993874 10000.0000000 10000.0000000 10000.0000000 10000.0000000
202.0000000 -1.0000000 95.8832016 2.6217000 964.6704102 933.5989990 40.3256378 10000.0000000 10000.0000000 10000.0000000 10000.0000000
203.0000000 -1.0000000 96.5394974 41.7775993 73.5820007 877.7116699 40.2392311 10000.0000000 10000.0000000 10000.0000000 10000.0000000
204.0000000 -1.0000000 81.6632996 32.4202995 345.7372131 1222.2593994 40.2040443 10000.0000000 10000.0000000 10000.0000000 10000.0000000
205.0000000 -1.0000000 64.0018005 8.2221003 859.7152100 1557.3796387 40.1822510 10000.0000000 10000.0000000 10000.0000000 10000.0000000
206.0000000 -1.0000000 126.4738007 -27.7042007 1570.0456543 161.4187012 40.1799736 10000.0000000 10000.0000000 10000.0000000 10000.0000000
207.0000000 -1.0000000 106.9340973 0.8960000 996.9725952 721.5695190 40.1757774 10000.0000000 10000.0000000 10000.0000000 10000.0000000
208.0000000 -1.0000000 87.2861023 41.2928009 90.2528992 1105.6306152 40.1315842 10000.0000000 10000.0000000 10000.0000000 10000.0000000
209.0000000 -1.0000000 125.7462006 29.7810001 410.3681946 163.9449005 40.0507050 10000.0000000 10000.0000000 10000.0000000 10000.0000000
#grainIndex
G_0
#Element
Cu
#MatchingRate
85.4
#Nb indexed Spots
35
#UB matrix in q= (UB) B0 G*
[[ 0.971145612720247 -0.097956653916683  0.217214453072693]
 [ 0.150486301232467  0.960343809354092 -0.239726066385147]
 [-0.181937929267151  0.264754106709074  0.94639592424162 ]]
#B0 matrix (starting unit cell) in q= UB (B0) G*
[[ 2.777777777777777e-01 -4.467007360212879e-17 -4.467007360212879e-17]
 [ 0.000000000000000e+00  2.777777777777777e-01 -1.700898332149101e-17]
 [ 0.000000000000000e+00  0.000000000000000e+00  2.777777777777777e-01]]
#deviatoric strain (10-3 unit)
[[ 0.761248931090234  1.343939919472083  0.610212815482525]
 [ 1.343939919472083  0.034578618893259  0.466435251869708]
 [ 0.610212815482525  0.466435251869708 -0.795827549983493]]
#deviatoric strain sample frame (10-3 unit)
[[-9.945010586485622e-01 -1.757888718331498e-03 -2.441231823803424e-03]
 [-1.757888054145271e-03 -1.006515693928200e+00 -4.308301242068449e-03]
 [-2.426163601999114e-03 -4.282482324124944e-03  2.001016752576762e+00]]
